timestamps,TP9,AF7,AF8,TP10,Right AUX
1532484890.195,20.020,-7.324,21.484,24.902,24.414
1532484890.199,23.926,-13.672,22.461,25.391,-123.535
1532484890.203,22.461,0.000,20.508,15.137,-60.059
1532484890.207,19.531,2.930,17.090,9.277,-124.512
1532484890.211,17.578,8.789,19.531,10.254,-156.250
1532484890.215,22.461,15.137,22.461,12.695,335.449
1532484890.218,26.367,-4.883,22.461,13.672,236.328
1532484890.222,25.879,0.488,23.438,14.160,-176.758
1532484890.226,29.297,11.719,23.438,18.555,-183.594
1532484890.230,30.762,12.695,20.996,24.414,-147.461
1532484890.234,26.855,23.438,16.602,17.090,444.824
1532484890.238,29.785,-13.672,19.043,12.695,338.867
1532484890.242,30.273,-0.488,21.973,16.113,-311.035
1532484890.246,29.785,15.137,20.508,17.090,-214.355
1532484890.250,30.762,3.418,23.438,19.043,-67.383
1532484890.254,27.344,11.719,21.973,17.578,113.770
1532484890.258,21.973,5.371,20.020,9.766,-61.035
1532484890.261,22.461,13.672,22.949,4.883,-31.738
1532484890.265,27.344,9.766,21.973,8.301,185.547
1532484890.269,32.227,-3.418,21.484,12.207,-161.621
1532484890.273,26.367,31.738,20.508,12.207,109.375
1532484890.277,23.438,17.090,20.508,6.348,703.613
1532484890.281,22.949,-10.742,24.414,18.555,-63.965
1532484890.285,20.508,8.789,26.367,20.508,-231.445
1532484890.289,21.973,10.254,22.949,15.137,-90.332
1532484890.293,21.484,18.066,21.484,16.113,-117.188
1532484890.297,21.484,4.883,22.461,19.043,-36.621
1532484890.301,22.461,-9.766,23.438,17.090,-104.004
1532484890.304,20.020,0.977,21.484,5.859,-17.090
1532484890.308,19.043,10.254,20.020,7.324,16.602
1532484890.312,20.508,12.695,21.973,7.812,112.793
1532484890.316,20.020,9.277,23.926,14.648,698.730
1532484890.320,27.832,-17.578,25.879,20.996,127.441
1532484890.324,33.691,-6.348,23.926,11.230,-364.746
1532484890.328,27.832,3.418,24.414,13.184,-209.473
1532484890.332,22.949,-1.465,22.949,22.461,-67.871
1532484890.336,23.438,-13.184,21.973,21.484,95.703
1532484890.340,22.949,-5.371,20.996,9.766,-129.883
1532484890.343,21.484,1.953,18.066,4.395,-185.059
1532484890.347,22.949,-4.883,19.531,16.602,-122.070
1532484890.351,23.926,-3.418,21.973,24.902,9.277
1532484890.355,25.391,2.930,17.578,20.020,281.250
1532484890.359,29.297,-8.789,17.578,11.230,9.277
1532484890.363,26.855,-3.418,20.020,14.648,-193.359
1532484890.367,27.832,-3.906,20.020,21.973,-48.828
1532484890.371,24.902,2.930,20.996,16.602,-43.457
1532484890.375,25.879,27.832,20.508,8.789,565.918
1532484890.379,35.156,-17.090,22.461,14.160,342.285
1532484890.383,32.715,-16.602,24.414,5.859,-247.559
1532484890.386,30.762,-7.324,22.949,7.812,-114.746
1532484890.390,28.320,-0.488,18.555,14.160,-109.863
1532484890.394,29.297,13.672,20.508,14.648,87.891
1532484890.398,37.109,-3.418,24.902,26.855,-15.625
1532484890.402,34.180,2.441,24.902,26.855,137.207
1532484890.406,32.227,-3.418,24.902,16.602,167.480
1532484890.410,33.203,-1.953,24.414,17.578,-299.316
1532484890.414,28.320,25.391,23.926,24.902,245.117
1532484890.418,27.832,-19.531,26.367,23.926,646.484
1532484890.422,26.367,-27.344,27.344,20.996,-149.902
1532484890.426,22.949,3.418,24.902,18.066,-280.762
1532484890.429,23.438,-2.930,26.855,23.926,-144.043
1532484890.433,21.484,-1.953,31.250,24.414,73.730
1532484890.437,24.902,-11.719,27.832,19.043,32.227
1532484890.441,22.949,-11.719,20.996,23.438,-228.027
1532484890.445,23.438,-6.836,28.320,25.391,-123.047
1532484890.449,25.391,-13.672,31.250,19.043,46.875
1532484890.453,23.926,-5.371,26.855,19.043,273.926
1532484890.457,23.438,-0.977,24.414,14.648,700.684
1532484890.461,28.320,-16.602,24.902,13.672,-85.938
1532484890.465,32.715,-3.418,24.414,24.414,-348.633
1532484890.468,34.668,-8.301,24.902,19.531,-46.387
1532484890.472,36.621,-2.930,24.414,17.578,-75.195
1532484890.476,33.691,-2.441,21.973,21.484,-93.262
1532484890.480,31.738,-4.395,21.484,15.137,-178.711
1532484890.484,31.738,-4.883,24.414,20.996,-59.570
1532484890.488,31.250,-9.766,25.391,23.926,-86.426
1532484890.492,29.785,1.953,22.461,16.602,-104.980
1532484890.496,33.203,2.930,22.949,21.973,120.117
1532484890.500,36.133,-10.254,24.414,20.020,3.418
1532484890.504,29.297,-8.301,24.902,11.230,-97.168
1532484890.508,25.391,-4.883,23.438,5.859,-165.039
1532484890.511,28.809,10.742,20.508,13.184,-102.051
1532484890.515,30.273,21.973,20.996,20.996,680.664
1532484890.519,33.691,-24.902,23.926,25.391,262.207
1532484890.523,31.250,-12.695,22.461,18.555,-314.941
1532484890.527,31.738,2.930,22.461,19.531,-204.102
1532484890.531,38.086,-1.465,24.414,21.973,-68.848
1532484890.535,37.109,-12.695,21.973,15.625,187.988
1532484890.539,30.762,-9.277,22.949,18.066,-46.875
1532484890.543,25.879,10.254,24.414,19.531,32.715
1532484890.547,32.227,-12.695,24.902,24.902,20.508
1532484890.551,36.133,-2.930,28.320,24.414,-182.617
1532484890.554,30.273,28.320,27.344,16.113,520.508
1532484890.558,33.691,-19.043,24.414,13.672,421.387
1532484890.562,40.039,-13.672,23.438,18.066,-330.566
1532484890.566,41.504,2.930,25.879,30.273,-173.340
1532484890.570,38.086,-3.418,24.902,27.344,-60.059
1532484890.574,32.715,14.648,23.438,24.902,71.289
1532484890.578,37.109,0.977,23.438,26.367,-105.957
1532484890.582,41.016,-5.371,21.973,29.785,-186.035
1532484890.586,41.992,-6.836,20.996,28.320,42.969
1532484890.590,37.109,-4.883,21.973,9.277,25.391
1532484890.593,35.645,13.184,22.949,16.602,246.094
1532484890.597,40.527,-10.254,22.949,25.879,634.277
1532484890.601,43.457,-24.902,27.344,28.809,-33.203
1532484890.605,38.574,-1.465,30.273,24.414,-237.793
1532484890.609,38.574,0.977,27.832,20.508,-164.551
1532484890.613,41.504,12.207,26.367,26.855,-48.340
1532484890.617,40.039,-4.395,25.391,33.203,25.879
1532484890.621,40.039,-6.348,25.391,33.691,-95.215
1532484890.625,43.945,6.836,27.832,30.273,-103.516
1532484890.629,40.527,1.953,27.344,33.691,-171.387
1532484890.633,33.203,1.465,24.902,28.809,-6.348
1532484890.636,34.668,-1.953,24.414,19.043,250.977
1532484890.640,28.809,-1.953,24.414,21.973,68.848
1532484890.644,26.367,3.418,24.902,23.926,-172.852
1532484890.648,28.809,-0.977,25.391,19.043,-204.102
1532484890.652,26.367,6.836,24.902,19.043,74.219
1532484890.656,21.484,18.555,23.926,14.160,747.070
1532484890.660,22.461,-8.789,21.973,15.625,70.801
1532484890.664,28.809,-1.953,19.531,17.578,-365.234
1532484890.668,30.273,3.418,19.043,16.602,-71.777
1532484890.672,27.832,-2.441,20.020,18.066,-3.418
1532484890.675,28.320,-9.766,21.973,15.625,18.555
1532484890.679,28.809,-1.953,22.461,16.113,-156.738
1532484890.683,26.855,11.719,23.926,18.066,164.062
1532484890.687,26.855,-10.254,25.391,12.695,92.285
1532484890.691,23.926,5.371,20.996,12.695,-197.754
1532484890.695,22.949,29.297,17.578,11.719,541.504
1532484890.699,27.832,-20.020,23.438,8.301,330.078
1532484890.703,26.367,-14.160,25.879,10.254,-238.281
1532484890.707,24.902,0.000,20.996,3.418,-161.133
1532484890.711,31.738,-1.953,21.973,18.066,-155.273
1532484890.715,34.668,-1.953,24.414,37.109,123.047
1532484890.718,31.250,-18.555,23.926,23.926,10.742
1532484890.722,28.320,-13.672,22.949,18.066,-141.113
1532484890.726,27.832,-3.906,23.438,20.508,-100.098
1532484890.730,28.809,-3.418,22.461,18.066,-4.883
1532484890.734,30.273,-0.977,20.020,17.578,470.215
1532484890.738,27.832,-35.156,20.996,9.766,481.445
1532484890.742,23.926,-26.367,20.508,8.789,-293.945
1532484890.746,25.391,-5.859,19.043,12.207,-319.336
1532484890.750,26.367,-10.254,18.555,20.508,-90.332
1532484890.754,24.414,2.930,19.531,16.602,131.348
1532484890.758,27.832,-9.766,20.508,4.883,-40.039
1532484890.761,30.273,-11.230,20.996,8.301,-222.168
1532484890.765,27.344,-14.648,21.484,20.996,-77.637
1532484890.769,26.367,-20.996,23.438,22.461,-67.383
1532484890.773,23.438,-5.371,21.973,15.137,34.668
1532484890.777,23.926,-7.324,20.996,15.137,117.188
1532484890.781,24.414,-13.184,22.949,18.066,29.297
1532484890.785,20.020,-16.113,20.508,16.602,-29.785
1532484890.789,12.207,-17.090,21.973,13.184,-195.801
1532484890.793,9.766,1.953,22.461,10.254,38.574
1532484890.797,13.184,-13.672,20.020,6.836,656.250
1532484890.800,17.578,-39.062,21.484,10.254,56.152
1532484890.804,16.113,-21.484,22.949,13.184,-185.059
1532484890.808,13.672,-21.973,20.020,9.277,-161.133
1532484890.812,14.160,-15.137,18.066,11.230,-47.363
1532484890.816,16.602,-35.645,19.531,1.953,318.848
1532484890.820,16.602,-37.109,20.020,1.465,-58.594
1532484890.824,13.184,-1.953,17.578,9.277,60.059
1532484890.828,15.625,-19.531,15.137,14.160,5.859
1532484890.832,17.578,-20.996,15.625,10.742,-89.844
1532484890.836,12.695,-9.766,18.066,1.953,718.262
1532484890.840,14.160,-41.992,21.973,6.348,169.434
1532484890.843,19.043,-25.391,20.508,6.348,-422.363
1532484890.847,30.273,-13.184,19.531,11.719,-189.453
1532484890.851,34.180,-15.625,21.484,20.996,-28.320
1532484890.855,31.738,-20.020,20.996,13.184,111.328
1532484890.859,34.180,-21.484,19.043,9.766,-164.551
1532484890.863,34.668,-16.602,18.066,15.137,-189.941
1532484890.867,32.227,-22.949,19.043,20.996,-28.809
1532484890.871,30.273,-9.766,19.043,17.578,102.539
1532484890.875,30.273,2.441,17.090,-3.906,573.730
1532484890.879,33.691,-38.574,18.066,4.395,297.363
1532484890.883,33.203,-30.762,22.461,21.484,-262.695
1532484890.886,22.949,-21.484,24.902,14.160,-127.441
1532484890.890,19.043,-20.996,20.020,8.789,-109.863
1532484890.894,24.414,-10.254,17.578,10.742,64.453
1532484890.898,27.832,-26.855,21.973,13.184,-51.270
1532484890.902,25.879,-23.438,21.973,11.719,-98.145
1532484890.906,24.902,-22.949,20.996,10.742,-75.684
1532484890.910,27.832,-16.602,21.973,5.859,-176.270
1532484890.914,30.762,-2.930,20.996,9.766,89.355
1532484890.918,29.785,-19.531,18.555,19.043,232.422
1532484890.922,28.320,-20.508,17.578,14.648,98.145
1532484890.925,25.879,-21.973,17.578,10.742,-124.023
1532484890.929,29.297,-21.484,20.996,18.555,-312.988
1532484890.933,27.832,3.906,20.996,20.020,215.332
1532484890.937,26.855,-18.555,20.996,14.648,728.027
1532484890.941,32.227,-34.180,23.926,9.766,-116.211
1532484890.945,34.180,-14.160,22.461,18.555,-335.938
1532484890.949,34.668,-19.531,19.043,29.785,-71.289
1532484890.953,28.809,-16.113,20.020,22.461,53.711
1532484890.957,23.438,-25.391,21.973,16.113,-8.789
1532484890.961,26.367,-22.949,19.043,11.230,-198.242
1532484890.965,25.391,-18.555,19.043,16.113,107.422
1532484890.968,25.391,-43.457,20.996,20.508,-29.297
1532484890.972,23.926,-20.508,19.043,8.789,-28.320
1532484890.976,24.414,-3.418,20.508,11.230,717.773
1532484890.980,30.762,-38.574,23.926,20.020,88.867
1532484890.984,35.156,-30.273,24.902,21.973,-276.367
1532484890.988,36.621,-21.973,24.414,28.809,-76.660
1532484890.992,35.156,-20.996,20.996,20.996,-127.441
1532484890.996,35.645,-28.809,19.531,15.625,-49.805
1532484891.000,41.504,-28.809,20.996,32.227,-90.820
1532484891.004,39.551,-25.879,21.973,30.762,-45.410
1532484891.007,33.203,-28.320,21.973,8.301,-118.164
1532484891.011,33.691,-12.207,21.484,15.625,62.988
1532484891.015,41.992,-8.789,24.414,28.320,690.918
1532484891.019,43.945,-50.293,24.902,17.578,226.074
1532484891.023,25.391,-34.180,21.484,13.672,-322.266
1532484891.027,23.926,-16.113,23.438,17.090,-225.098
1532484891.031,32.227,-19.531,25.879,30.273,-88.379
1532484891.035,33.691,-25.391,25.879,33.691,230.469
1532484891.039,37.109,-33.203,26.367,23.438,-53.223
1532484891.043,40.527,-20.508,25.391,20.508,-221.680
1532484891.047,43.945,-22.461,21.973,27.344,-118.164
1532484891.050,41.504,-26.855,20.996,21.484,-10.254
1532484891.054,35.645,-27.344,23.926,13.184,234.863
1532484891.058,29.297,-24.902,22.461,28.809,125.000
1532484891.062,33.691,-20.996,20.508,31.738,-14.160
1532484891.066,40.527,-34.180,22.949,32.715,-31.738
1532484891.070,38.086,-25.391,21.973,32.227,-141.113
1532484891.074,31.250,8.301,18.555,19.531,368.652
1532484891.078,28.320,-32.715,20.020,22.461,561.035
1532484891.082,26.855,-43.945,20.996,29.297,-175.781
1532484891.086,23.438,-23.926,22.461,27.832,-162.109
1532484891.090,19.043,-26.367,26.367,22.949,-101.562
1532484891.093,18.066,-9.766,20.020,19.531,-17.090
1532484891.097,21.484,-28.809,16.113,19.043,-48.340
1532484891.101,24.902,-30.273,22.461,22.949,-77.637
1532484891.105,30.762,-17.578,23.438,22.461,223.145
1532484891.109,31.250,-34.180,22.949,19.043,-138.672
1532484891.113,29.785,-6.348,25.391,21.973,-22.461
1532484891.117,33.691,-15.625,25.879,22.949,743.164
1532484891.121,33.203,-45.898,24.902,24.414,30.273
1532484891.125,30.273,-16.113,24.414,22.461,-319.336
1532484891.129,34.180,-17.090,22.949,21.973,-139.648
1532484891.132,32.227,-22.949,25.391,26.367,-25.879
1532484891.136,23.926,-31.738,25.391,22.461,50.781
1532484891.140,20.996,-26.855,23.438,21.973,-149.414
1532484891.144,19.531,-22.461,22.461,12.695,-157.227
1532484891.148,20.020,-28.809,21.973,9.766,-123.535
1532484891.152,29.785,-16.602,22.949,21.973,243.164
1532484891.156,33.203,-11.719,23.926,20.020,798.828
1532484891.160,28.809,-33.691,22.461,20.996,46.875
1532484891.164,24.902,-27.344,21.484,26.855,-359.863
1532484891.168,25.391,-23.438,25.391,27.344,-96.191
1532484891.172,26.855,-18.555,22.949,23.926,-40.527
1532484891.175,27.832,-22.461,20.996,9.766,21.973
1532484891.179,28.809,-26.367,21.484,10.742,-158.691
1532484891.183,31.250,-24.414,19.531,16.113,-63.477
1532484891.187,30.762,-30.762,19.043,20.508,-47.852
1532484891.191,25.391,-20.996,20.020,19.531,-93.750
1532484891.195,25.879,-23.926,20.996,14.648,80.566
1532484891.199,28.320,-23.926,22.949,27.344,133.301
1532484891.203,28.809,-20.508,22.949,26.855,148.438
1532484891.207,31.738,-30.762,23.926,20.020,-121.582
1532484891.211,28.809,-14.160,23.438,18.066,-288.086
1532484891.215,25.391,7.812,17.090,14.160,488.770
1532484891.218,30.762,-47.363,17.578,18.555,458.984
1532484891.222,25.879,-42.480,20.020,20.020,-263.672
1532484891.226,26.367,-15.625,17.090,18.066,-253.418
1532484891.230,32.715,-18.066,16.113,22.461,-149.414
1532484891.234,33.691,-11.719,18.555,24.902,180.176
1532484891.238,33.691,-28.809,18.555,19.531,6.348
1532484891.242,38.086,-19.531,18.066,17.090,-204.102
1532484891.246,41.016,-9.277,20.508,20.508,117.188
1532484891.250,39.062,-26.367,21.973,30.273,21.484
1532484891.254,33.691,-8.301,21.484,23.438,245.117
1532484891.257,33.691,-22.949,22.461,12.207,618.164
1532484891.261,36.621,-36.133,22.949,20.996,-195.312
1532484891.265,35.645,-16.602,23.926,24.414,-264.648
1532484891.269,33.203,-22.461,26.367,20.020,-44.434
1532484891.273,29.297,-8.789,23.438,12.695,-10.254
1532484891.277,25.391,-11.719,24.902,17.578,-106.934
1532484891.281,25.391,-16.113,29.297,24.414,-198.730
1532484891.285,28.320,-15.625,28.809,18.066,-22.949
1532484891.289,25.391,-18.066,26.855,11.719,-111.328
1532484891.293,26.367,-0.488,23.926,20.020,158.691
1532484891.297,34.668,-11.230,25.391,23.926,750.977
1532484891.300,36.133,-39.062,31.250,24.902,81.055
1532484891.304,28.809,-21.484,29.297,25.879,-261.230
1532484891.308,27.832,-9.277,26.855,11.719,-146.973
1532484891.312,35.156,-12.207,27.344,10.742,-141.602
1532484891.316,35.156,-26.855,26.367,26.367,21.973
1532484891.320,28.320,-25.391,26.367,22.461,-62.500
1532484891.324,26.855,-13.672,27.344,23.926,-116.699
1532484891.328,27.832,-13.184,25.879,23.438,-158.691
1532484891.332,28.320,-18.066,26.367,25.879,-18.066
1532484891.336,18.066,-29.297,27.344,29.785,141.113
1532484891.340,15.625,-15.137,25.879,22.949,84.473
1532484891.343,23.438,-10.254,25.879,22.461,65.430
1532484891.347,24.414,-28.320,25.391,20.996,-167.480
1532484891.351,23.926,-13.672,24.902,19.043,-71.777
1532484891.355,21.484,4.395,24.902,10.742,706.055
1532484891.359,25.391,-34.668,24.902,9.277,210.938
1532484891.363,26.367,-25.391,24.414,15.625,-377.441
1532484891.367,24.414,-19.531,20.996,19.531,-114.746
1532484891.371,23.438,-22.461,18.555,16.113,-37.109
1532484891.375,25.391,-14.648,20.020,11.719,114.746
1532484891.379,29.297,-23.926,21.973,14.648,-146.484
1532484891.382,24.414,-20.508,20.996,14.648,-137.207
1532484891.386,25.879,-23.926,20.020,10.742,220.703
1532484891.390,22.461,-20.020,21.484,5.859,27.344
1532484891.394,8.301,5.371,19.531,1.953,312.500
1532484891.398,17.578,-37.598,22.949,9.277,482.422
1532484891.402,28.320,-44.922,27.344,8.301,-172.852
1532484891.406,25.391,-20.996,24.414,2.441,-195.801
1532484891.410,26.855,-18.555,23.438,15.137,-182.129
1532484891.414,28.809,-3.906,25.391,17.090,20.020
1532484891.418,30.273,-30.273,24.414,19.043,6.348
1532484891.422,33.691,-30.762,23.926,21.484,-139.160
1532484891.425,28.320,-22.949,23.438,13.184,-116.699
1532484891.429,21.973,-29.785,21.484,13.184,-222.168
1532484891.433,25.879,-13.184,20.996,25.879,302.734
1532484891.437,30.273,-33.203,21.484,20.020,741.699
1532484891.441,37.598,-40.527,21.484,6.836,-135.742
1532484891.445,36.621,-16.602,20.996,18.555,-347.168
1532484891.449,32.715,-26.367,21.484,26.367,-90.820
1532484891.453,32.227,-19.531,25.391,20.996,23.438
1532484891.457,27.344,-16.602,23.926,22.461,38.574
1532484891.461,25.391,-21.484,20.996,27.832,-211.426
1532484891.464,30.762,-20.020,22.949,30.273,-155.273
1532484891.468,28.809,-25.879,24.902,23.926,-42.969
1532484891.472,26.855,-24.902,25.879,20.508,-28.809
1532484891.476,27.344,-29.297,23.438,20.508,-44.922
1532484891.480,26.855,-25.391,20.020,17.578,41.504
1532484891.484,30.762,-39.062,20.996,19.531,110.840
1532484891.488,29.785,-44.434,20.508,22.461,-170.898
1532484891.492,27.344,-14.648,21.973,11.230,-94.727
1532484891.496,29.785,-4.883,23.438,10.742,682.617
1532484891.500,27.344,-45.410,25.391,28.320,199.707
1532484891.504,23.926,-41.016,24.902,26.367,-273.438
1532484891.507,23.926,-25.879,21.973,18.066,-156.738
1532484891.511,28.809,-23.438,20.996,14.160,-139.160
1532484891.515,28.809,-33.203,20.996,20.020,104.492
1532484891.519,28.809,-38.574,21.973,24.902,-50.781
1532484891.523,27.344,-26.367,22.461,16.602,-127.441
1532484891.527,33.203,-18.555,21.484,18.555,11.230
1532484891.531,41.016,-16.113,22.461,19.043,40.527
1532484891.535,36.133,-9.277,22.949,23.926,556.641
1532484891.539,28.809,-44.434,24.902,25.879,324.219
1532484891.543,24.414,-30.762,26.367,19.531,-361.328
1532484891.547,20.020,-13.672,26.367,23.926,-230.957
1532484891.550,19.043,-25.391,24.902,28.809,-35.156
1532484891.554,20.020,-27.344,25.879,21.973,205.078
1532484891.558,22.461,-33.203,26.367,20.996,-84.473
1532484891.562,30.762,-23.926,25.391,22.949,-237.305
1532484891.566,25.879,-28.320,24.414,20.996,-67.871
1532484891.570,15.137,-27.344,23.438,26.855,-65.430
1532484891.574,20.508,-5.859,24.902,22.461,338.867
1532484891.578,30.273,-32.715,28.320,24.902,240.234
1532484891.582,29.785,-32.715,29.297,37.598,-224.609
1532484891.586,29.785,-22.461,30.273,29.785,-55.176
1532484891.589,30.273,-22.949,29.297,23.438,-118.652
1532484891.593,33.203,-4.395,26.855,23.438,53.711
1532484891.597,35.645,-30.762,26.855,23.438,122.070
1532484891.601,30.762,-35.645,25.391,32.227,-124.023
1532484891.605,26.367,-20.996,23.926,16.602,-83.008
1532484891.609,26.855,-20.508,21.484,16.113,-173.828
1532484891.613,32.715,-15.137,23.438,22.949,-91.309
1532484891.617,39.062,-25.391,24.902,22.949,37.109
1532484891.621,35.156,-26.855,23.438,25.879,115.723
1532484891.625,31.738,-24.414,22.461,17.578,-1.465
1532484891.629,35.156,-24.902,21.973,14.648,-300.781
1532484891.632,34.668,-8.301,22.461,21.973,38.086
1532484891.636,28.809,-14.648,22.461,21.484,765.625
1532484891.640,31.738,-41.016,25.879,19.043,41.992
1532484891.644,38.086,-22.949,24.902,21.973,-403.320
1532484891.648,38.086,-19.531,22.949,18.555,-124.023
1532484891.652,36.621,-25.391,25.391,17.578,7.812
1532484891.656,38.574,-31.250,25.391,20.020,41.992
1532484891.660,39.551,-25.879,23.438,20.508,-221.191
1532484891.664,37.109,-14.648,21.484,28.320,-113.770
1532484891.668,36.133,-20.508,22.949,25.391,149.414
1532484891.672,31.250,-12.207,21.973,19.531,187.988
1532484891.675,30.273,2.441,20.508,13.672,615.723
1532484891.679,35.156,-31.250,20.508,16.602,132.324
1532484891.683,20.508,-25.879,20.996,22.949,-298.340
1532484891.687,12.695,-16.602,22.461,18.066,-107.422
1532484891.691,20.020,-13.672,21.973,16.602,-110.840
1532484891.695,26.855,-13.672,20.996,12.695,45.410
1532484891.699,30.273,-18.555,24.414,17.090,-80.078
1532484891.703,30.273,-15.625,22.461,23.926,-68.848
1532484891.707,29.785,-15.137,19.531,19.531,-102.539
1532484891.711,30.273,-0.977,23.926,17.090,-153.809
1532484891.714,28.320,4.395,25.391,18.066,319.824
1532484891.718,21.484,-18.555,23.926,18.555,277.832
1532484891.722,19.531,-17.090,25.391,2.441,-134.277
1532484891.726,23.438,-10.742,25.879,8.789,-193.359
1532484891.730,26.855,-3.906,25.879,25.391,-196.289
1532484891.734,25.879,9.277,24.414,16.113,400.879
1532484891.738,22.949,-37.109,23.926,9.277,376.465
1532484891.742,23.926,-25.879,21.973,16.113,-307.129
1532484891.746,28.809,-4.883,22.949,11.719,-236.328
1532484891.750,25.879,-12.695,23.438,14.160,-68.359
1532484891.754,20.508,-2.930,20.508,17.578,127.441
1532484891.757,20.508,-12.695,21.973,13.672,-39.062
1532484891.761,20.020,-3.906,23.926,12.695,-33.203
1532484891.765,23.438,-13.672,22.461,12.207,104.004
1532484891.769,25.879,-24.902,21.973,19.531,-184.082
1532484891.773,20.508,13.184,20.508,12.695,138.184
1532484891.777,15.137,0.977,19.043,-0.977,722.656
1532484891.781,19.043,-32.715,20.508,9.766,-39.551
1532484891.785,25.391,-19.531,21.484,8.789,-231.934
1532484891.789,23.438,-19.043,20.020,7.324,-68.848
1532484891.793,24.414,-10.742,18.555,12.207,-127.930
1532484891.797,32.715,-17.578,21.484,15.625,-67.871
1532484891.800,27.832,-23.926,23.926,14.648,-118.652
1532484891.804,18.555,-15.137,24.414,8.789,-17.090
1532484891.808,20.508,-9.277,26.855,3.418,33.691
1532484891.812,23.926,-2.930,24.902,3.906,108.887
1532484891.816,27.344,0.977,20.020,9.277,693.359
1532484891.820,24.902,-26.367,22.949,13.672,158.203
1532484891.824,20.020,-13.184,24.414,12.695,-335.938
1532484891.828,35.645,-1.465,26.367,19.043,-201.172
1532484891.832,42.969,-13.672,25.879,22.461,-90.332
1532484891.836,34.668,-30.273,23.438,16.602,102.051
1532484891.839,32.227,-21.973,23.438,25.879,-114.746
1532484891.843,34.668,-7.812,22.461,23.438,-195.801
1532484891.847,36.621,-11.719,24.902,16.113,-145.996
1532484891.851,35.645,-14.160,22.949,17.090,-7.324
1532484891.855,28.320,-14.648,18.066,13.184,277.832
1532484891.859,30.273,-26.855,18.066,19.531,47.852
1532484891.863,38.086,-26.855,21.973,16.113,-224.121
1532484891.867,30.762,-27.344,24.414,20.996,-99.609
1532484891.871,30.762,-19.531,23.926,28.809,-68.848
1532484891.875,29.785,7.812,22.461,16.602,523.438
1532484891.879,23.438,-30.273,21.484,14.160,454.102
1532484891.882,23.926,-34.668,22.949,22.949,-230.957
1532484891.886,24.902,-21.484,25.391,22.949,-139.648
1532484891.890,25.879,-17.090,25.391,19.531,-70.312
1532484891.894,26.855,-6.836,24.902,16.113,41.504
1532484891.898,27.832,-20.508,22.949,10.254,-50.293
1532484891.902,34.180,-15.137,23.438,20.508,136.230
1532484891.906,35.156,-27.832,24.902,33.691,130.371
1532484891.910,27.344,-24.902,24.902,23.926,-334.473
1532484891.914,23.926,9.277,22.949,20.508,202.637
1532484891.918,25.879,-35.645,23.438,24.414,667.969
1532484891.921,28.320,-48.340,23.438,16.113,-113.770
1532484891.925,27.832,-13.672,20.996,14.648,-279.297
1532484891.929,24.902,-21.484,20.996,22.461,-167.480
1532484891.933,23.926,-16.113,20.996,26.855,39.551
1532484891.937,24.902,-30.273,21.973,14.160,45.898
1532484891.941,21.973,-28.809,22.461,10.254,-226.562
1532484891.945,20.508,-14.160,21.484,22.949,-140.625
1532484891.949,24.902,-20.996,22.461,24.902,35.645
1532484891.953,26.855,-18.066,22.461,21.484,269.043
1532484891.957,23.926,-14.648,21.973,15.625,715.332
1532484891.961,28.320,-33.203,23.926,20.996,-45.898
1532484891.964,33.203,-20.996,22.461,24.902,-347.168
1532484891.968,38.086,-21.484,22.949,24.902,-46.875
1532484891.972,38.086,-26.367,23.926,27.344,-52.246
1532484891.976,36.621,-30.273,24.902,23.926,-91.797
1532484891.980,34.180,-29.785,22.949,21.973,-205.078
1532484891.984,31.250,-27.832,23.438,32.227,-64.941
1532484891.988,27.344,-26.367,25.391,27.832,-61.035
1532484891.992,23.926,-19.043,22.949,14.648,-104.492
1532484891.996,23.438,-17.090,20.996,18.066,106.445
1532484892.000,20.020,-20.508,21.973,24.414,100.586
1532484892.004,19.531,-22.461,23.926,28.809,-58.105
1532484892.007,16.602,-22.461,23.926,20.020,-215.332
1532484892.011,15.625,-7.812,22.461,9.277,-150.391
1532484892.015,17.090,2.930,22.461,16.113,642.578
1532484892.019,15.137,-43.457,22.949,14.648,300.293
1532484892.023,12.207,-29.297,21.973,9.277,-296.387
1532484892.027,16.602,-10.254,21.484,16.113,-200.684
1532484892.031,21.973,-14.648,21.973,20.996,-70.801
1532484892.035,25.391,-23.926,24.414,18.555,210.938
1532484892.039,24.414,-25.879,25.391,19.043,-11.719
1532484892.043,22.461,-4.395,27.344,20.996,30.273
1532484892.046,26.367,-22.461,27.832,25.879,31.250
1532484892.050,30.273,-18.555,26.367,33.691,-182.129
1532484892.054,28.320,13.184,25.879,17.090,484.863
1532484892.058,34.180,-32.227,26.855,16.602,461.426
1532484892.062,37.598,-32.715,27.832,32.227,-323.730
1532484892.066,34.668,-10.742,25.879,33.691,-184.082
1532484892.070,30.762,-16.113,25.879,21.973,-32.715
1532484892.074,26.367,-0.488,24.902,11.719,97.656
1532484892.078,28.809,-9.277,23.438,17.090,-75.684
1532484892.082,30.762,-10.742,23.926,22.461,-195.312
1532484892.086,28.809,-6.836,23.926,25.879,12.207
1532484892.089,27.344,-4.395,22.461,17.578,23.926
1532484892.093,29.297,10.742,15.137,11.719,223.633
1532484892.097,36.621,-14.160,14.648,10.254,639.648
1532484892.101,34.668,-35.156,22.461,11.230,-35.645
1532484892.105,23.438,-12.695,24.414,11.230,-253.906
1532484892.109,20.996,-9.277,21.973,7.324,-160.645
1532484892.113,28.320,-1.953,22.461,13.672,-103.027
1532484892.117,31.250,-14.648,23.438,23.438,8.789
1532484892.121,24.902,-21.973,21.973,14.648,-110.352
1532484892.125,20.996,-11.719,20.020,10.254,-140.137
1532484892.129,25.391,-12.207,20.508,15.625,-189.941
1532484892.132,32.227,-12.695,23.438,19.043,-36.621
1532484892.136,39.062,-18.066,23.438,21.973,246.094
1532484892.140,34.668,-15.625,21.973,27.344,90.820
1532484892.144,31.738,-7.812,22.949,17.090,-183.105
1532484892.148,38.086,-11.230,21.973,10.742,-228.516
1532484892.152,40.039,0.000,19.531,22.461,48.828
1532484892.156,37.598,14.648,20.996,17.090,737.305
1532484892.160,38.086,-14.160,21.973,13.672,76.660
1532484892.164,37.598,-9.277,20.996,19.531,-384.277
1532484892.168,39.551,-3.418,22.461,28.809,-80.566
1532484892.171,37.109,-4.883,21.973,27.832,-15.137
1532484892.175,33.203,-11.719,19.043,17.090,0.000
1532484892.179,33.691,-6.348,18.555,18.066,-176.758
1532484892.183,34.180,2.930,19.531,20.508,130.859
1532484892.187,25.879,-26.855,20.996,22.461,28.320
1532484892.191,25.879,-8.301,20.508,20.508,-238.281
1532484892.195,36.621,20.020,20.508,13.672,549.316
1532484892.199,41.992,-33.203,22.949,19.043,356.445
1532484892.203,34.668,-32.715,21.484,20.020,-271.973
1532484892.207,29.785,-10.742,21.973,13.672,-186.523
1532484892.211,34.668,-2.930,20.996,19.531,-174.316
1532484892.214,31.250,-1.953,20.020,20.508,105.957
1532484892.218,30.762,-19.531,20.996,19.043,8.789
1532484892.222,34.180,-12.207,20.996,17.090,-164.062
1532484892.226,39.551,-4.395,21.484,16.113,-117.188
1532484892.230,37.109,-2.930,21.973,28.320,-33.203
1532484892.234,32.227,-1.465,23.926,17.578,441.406
1532484892.238,37.109,-37.109,28.320,11.719,527.832
1532484892.242,41.504,-24.414,31.738,24.414,-282.715
1532484892.246,45.410,2.930,35.645,32.227,-323.242
1532484892.250,48.828,-6.348,34.668,32.715,-113.281
1532484892.253,40.527,3.906,31.738,21.484,118.652
1532484892.257,37.109,-8.301,29.785,28.809,-2.930
1532484892.261,39.062,-11.230,25.879,34.668,-268.555
1532484892.265,38.086,-14.160,25.879,31.250,-112.793
1532484892.269,36.621,-21.973,28.320,27.832,-62.988
1532484892.273,31.738,-3.418,24.902,20.020,35.156
1532484892.277,32.227,-5.371,20.996,20.996,126.465
1532484892.281,35.645,-17.578,19.531,26.855,31.738
1532484892.285,35.645,-25.391,20.996,26.367,-36.621
1532484892.289,31.738,-27.832,23.926,26.367,-215.820
1532484892.293,30.273,-2.441,22.949,17.090,-4.883
1532484892.296,30.273,-0.488,20.996,14.160,716.309
1532484892.300,30.762,-28.809,22.949,16.602,205.566
1532484892.304,33.203,-23.438,21.973,16.113,-234.375
1532484892.308,35.645,-13.184,19.043,11.719,-195.801
1532484892.312,34.180,-10.742,20.996,4.883,-143.555
1532484892.316,30.762,-25.879,23.926,11.230,-2.441
1532484892.320,31.250,-24.902,23.926,17.090,-66.406
1532484892.324,31.738,-5.859,22.461,14.648,129.395
1532484892.328,32.715,-17.578,24.414,14.160,1.953
1532484892.332,24.902,-17.578,25.391,15.625,-102.539
1532484892.336,20.996,-1.465,23.438,13.672,678.711
1532484892.339,22.949,-34.180,25.391,11.230,180.176
1532484892.343,22.461,-25.391,23.438,5.371,-427.246
1532484892.347,27.344,-14.160,24.414,9.766,-208.984
1532484892.351,24.902,-20.508,26.367,10.742,-19.043
1532484892.355,17.090,-25.391,24.414,3.906,162.598
1532484892.359,20.020,-23.438,25.391,3.418,-166.992
1532484892.363,23.438,-16.602,24.902,13.672,-235.352
1532484892.367,20.020,-25.879,21.484,18.555,-46.387
1532484892.371,19.531,-16.113,21.484,14.648,87.891
1532484892.375,18.555,0.000,20.508,9.277,551.270
1532484892.378,20.508,-42.480,19.531,6.836,330.566
1532484892.382,24.414,-37.109,21.973,16.602,-268.555
1532484892.386,28.320,-21.973,21.973,17.578,-142.578
1532484892.390,24.414,-19.043,19.531,12.695,-115.723
1532484892.394,20.508,-6.348,20.020,12.207,59.082
1532484892.398,26.855,-24.414,24.414,16.602,-50.781
1532484892.402,24.414,-25.879,25.391,13.184,-100.586
1532484892.406,20.996,-23.438,23.926,11.230,-57.617
1532484892.410,24.902,-16.113,21.973,19.043,-181.152
1532484892.414,26.367,0.000,20.996,22.461,58.105
1532484892.418,28.320,-12.207,21.484,25.391,223.633
1532484892.421,29.297,-17.578,21.484,17.090,83.008
1532484892.425,32.227,-11.230,20.996,7.324,-111.328
1532484892.429,34.668,-18.555,20.996,10.254,-285.645
1532484892.433,31.250,-3.906,19.531,20.020,180.664
1532484892.437,32.227,-22.461,19.043,20.996,740.234
1532484892.441,38.574,-37.598,20.996,16.602,-82.031
1532484892.445,42.969,-7.812,21.973,26.367,-348.145
1532484892.449,41.016,-11.230,19.531,33.203,-90.820
1532484892.453,33.203,-14.648,19.531,18.555,39.551
1532484892.457,32.227,-20.996,20.508,12.695,0.488
1532484892.461,41.504,-16.113,20.996,18.066,-212.402
1532484892.464,42.480,-8.789,18.066,17.090,111.328
1532484892.468,38.574,-33.203,16.113,15.625,14.648
1532484892.472,31.738,-12.207,15.625,10.254,-31.738
1532484892.476,26.367,5.859,16.602,2.441,716.797
1532484892.480,30.762,-28.809,20.996,14.160,110.840
1532484892.484,29.785,-22.461,21.973,27.344,-275.879
1532484892.488,28.320,-15.137,20.508,14.160,-72.266
1532484892.492,27.832,-19.043,18.066,9.277,-118.652
1532484892.496,30.273,-31.250,16.113,17.578,-23.926
1532484892.500,31.738,-32.227,18.555,12.695,-86.914
1532484892.503,26.367,-27.832,19.531,1.465,-48.828
1532484892.507,24.414,-22.461,16.602,-0.488,-126.953
1532484892.511,25.879,-4.395,15.625,4.395,24.902
1532484892.515,33.203,-4.883,17.090,16.602,710.449
1532484892.519,40.527,-50.781,20.508,11.230,255.859
1532484892.523,30.762,-34.668,18.555,-3.906,-328.613
1532484892.527,26.855,-23.926,17.578,-2.441,-225.586
1532484892.531,24.902,-28.320,19.531,9.766,-116.699
1532484892.535,20.508,-30.273,19.043,13.184,181.641
1532484892.539,21.484,-38.086,17.578,8.301,-43.945
1532484892.543,20.508,-25.391,14.648,4.883,-219.238
1532484892.546,19.531,-28.320,14.160,8.301,-168.945
1532484892.550,21.484,-26.855,17.090,19.531,-44.922
1532484892.554,20.996,-21.484,17.090,24.414,230.957
1532484892.558,22.461,-26.367,17.090,19.531,111.816
1532484892.562,22.949,-24.902,19.531,20.996,-41.992
1532484892.566,20.508,-37.109,19.043,18.066,-40.527
1532484892.570,20.996,-39.551,16.113,13.672,-166.992
1532484892.574,21.484,-1.953,15.625,11.230,318.848
1532484892.578,24.902,-32.227,18.066,5.371,593.262
1532484892.582,26.855,-49.316,20.996,20.020,-175.293
1532484892.586,22.949,-28.320,22.461,27.344,-183.105
1532484892.589,22.461,-29.785,22.949,17.090,-109.375
1532484892.593,26.855,-11.719,21.973,13.184,-53.711
1532484892.597,27.344,-27.344,20.020,17.090,-60.547
1532484892.601,22.461,-36.621,19.043,18.066,-99.609
1532484892.605,20.996,-20.996,17.578,12.695,200.195
1532484892.609,22.461,-31.738,17.578,8.301,-132.812
1532484892.613,24.414,-13.184,17.578,9.766,-41.016
1532484892.617,22.461,-20.996,19.531,16.113,745.117
1532484892.621,22.461,-51.270,20.508,20.508,53.223
1532484892.625,21.973,-24.902,17.090,18.555,-335.938
1532484892.628,21.484,-24.414,19.531,20.996,-176.270
1532484892.632,22.949,-27.344,21.973,31.250,-76.172
1532484892.636,28.320,-32.227,23.438,31.738,42.480
1532484892.640,27.344,-23.438,20.508,19.531,-126.953
1532484892.644,25.879,-12.695,17.578,12.207,-160.645
1532484892.648,32.227,-21.484,18.555,20.508,-123.535
1532484892.652,34.668,-13.672,17.578,24.414,250.488
1532484892.656,35.156,-6.836,16.602,16.602,801.758
1532484892.660,36.621,-35.156,18.555,10.254,55.664
1532484892.664,33.691,-29.785,19.531,11.230,-364.258
1532484892.668,28.809,-28.320,18.066,16.602,-87.891
1532484892.671,25.879,-31.250,15.137,7.324,-31.738
1532484892.675,30.273,-33.203,14.648,1.465,41.992
1532484892.679,34.180,-33.691,17.578,13.672,-179.199
1532484892.683,34.668,-29.297,18.555,23.438,-116.699
1532484892.687,34.180,-34.668,20.020,28.809,-55.664
1532484892.691,30.762,-29.297,18.066,23.438,-93.750
1532484892.695,30.762,-29.785,15.625,17.578,69.824
1532484892.699,33.691,-28.809,19.043,22.949,133.789
1532484892.703,27.832,-35.645,18.555,23.438,56.641
1532484892.707,20.020,-35.645,15.625,15.625,-164.551
1532484892.710,23.926,-9.766,16.602,11.719,-252.930
1532484892.714,29.785,7.812,17.578,16.602,449.219
1532484892.718,31.738,-44.434,19.531,18.555,489.258
1532484892.722,27.832,-35.156,19.531,18.066,-168.457
1532484892.726,30.273,-13.672,22.461,20.508,-236.816
1532484892.730,31.250,-19.043,24.902,19.531,-190.430
1532484892.734,25.391,-6.836,22.949,30.762,135.742
1532484892.738,24.414,-24.902,23.926,21.484,-6.836
1532484892.742,21.973,-20.996,21.484,5.859,-206.055
1532484892.746,19.043,-11.719,18.555,19.043,123.047
1532484892.750,24.414,-29.297,20.020,29.785,-6.348
1532484892.753,20.508,-1.465,21.973,26.855,223.633
1532484892.757,15.625,-11.719,24.414,19.043,668.945
1532484892.761,21.973,-31.738,22.949,22.949,-185.547
1532484892.765,22.949,-13.184,20.508,23.438,-299.805
1532484892.769,22.949,-17.090,24.414,25.391,-63.477
1532484892.773,22.461,-0.977,22.949,17.578,-23.438
1532484892.777,25.879,-2.930,20.996,11.230,-97.168
1532484892.781,26.367,-7.812,22.949,26.855,-193.848
1532484892.785,25.391,-12.207,23.926,33.203,-14.648
1532484892.789,26.367,-13.672,21.484,21.973,-108.887
1532484892.793,20.508,10.254,21.484,21.484,132.324
1532484892.796,24.414,6.348,24.414,28.320,747.070
1532484892.800,30.273,-27.344,23.926,25.879,80.566
1532484892.804,30.273,-15.625,24.414,23.438,-294.922
1532484892.808,29.785,2.441,24.414,14.160,-171.387
1532484892.812,30.762,5.859,21.973,17.578,-159.668
1532484892.816,33.691,-9.277,23.438,26.855,2.441
1532484892.820,27.832,-8.301,22.949,25.879,-72.266
1532484892.824,25.391,2.930,20.020,13.672,-129.883
1532484892.828,28.320,2.441,20.020,7.812,-189.941
1532484892.832,26.855,-1.465,21.484,17.090,-41.504
1532484892.835,24.902,-13.184,21.484,28.320,154.297
1532484892.839,25.391,-0.977,21.973,23.438,106.445
1532484892.843,28.320,3.418,21.973,18.555,35.645
1532484892.847,31.738,-10.254,21.973,27.344,-182.617
1532484892.851,26.367,3.906,22.949,30.762,-57.617
1532484892.855,22.949,20.996,21.973,22.461,693.359
1532484892.859,29.785,-14.648,24.414,15.137,267.578
1532484892.863,32.715,-9.766,23.926,14.648,-342.773
1532484892.867,29.785,-5.371,20.996,26.855,-101.074
1532484892.871,27.344,-11.230,22.949,23.926,11.719
1532484892.875,33.691,-1.953,23.926,21.973,176.758
1532484892.878,38.574,-8.789,22.949,25.879,-99.121
1532484892.882,32.227,-2.441,24.414,21.484,-103.516
1532484892.886,25.879,-3.418,22.461,12.695,251.465
1532484892.890,28.809,-0.488,22.949,15.625,52.734
1532484892.894,34.668,20.020,22.461,17.090,309.570
1532484892.898,34.668,-22.461,21.973,20.996,526.367
1532484892.902,35.156,-27.832,23.438,25.391,-118.652
1532484892.906,35.645,0.488,24.414,14.160,-178.223
1532484892.910,32.227,2.441,25.391,10.742,-162.598
1532484892.914,34.180,11.230,22.949,20.020,11.719
1532484892.918,36.133,-8.789,24.902,30.762,24.902
1532484892.921,24.902,-8.789,26.855,20.996,-101.562
1532484892.925,16.113,-3.906,25.391,16.113,-87.891
1532484892.929,17.090,-10.742,24.902,19.531,-200.684
1532484892.933,14.160,6.836,23.926,14.160,296.387
1532484892.937,13.672,-11.230,24.414,13.672,763.672
1532484892.941,16.602,-26.855,27.344,13.672,-103.516
1532484892.945,20.996,-2.441,27.832,14.160,-362.305
1532484892.949,26.855,-3.906,27.344,14.648,-92.285
1532484892.953,28.320,-2.441,28.320,21.973,27.832
1532484892.957,32.227,-3.906,27.832,28.809,5.859
1532484892.960,32.227,-1.465,26.367,25.391,-214.844
1532484892.964,27.832,0.488,25.391,24.414,-148.438
1532484892.968,21.973,-4.395,27.344,35.645,-48.828
1532484892.972,22.461,-1.953,27.832,23.926,-8.301
1532484892.976,26.367,-3.906,25.879,10.742,-33.691
1532484892.980,26.855,1.465,23.926,22.949,41.504
1532484892.984,27.344,-11.719,25.879,19.043,121.094
1532484892.988,26.367,-14.648,25.391,8.301,-160.645
1532484892.992,20.996,13.184,22.949,15.137,-50.293
1532484892.996,19.043,4.395,25.391,22.461,471.191
1532484893.000,25.391,-17.090,25.879,24.414,26.855
1532484893.003,25.879,-4.883,23.926,13.184,-125.000
1532484893.007,26.367,-4.395,24.414,12.695,-96.191
1532484893.011,32.715,6.836,23.926,20.508,-136.719
1532484893.015,36.621,21.973,22.461,17.578,617.188
1532484893.019,36.133,-12.695,21.973,15.137,241.211
1532484893.023,33.203,2.441,20.508,12.695,-241.699
1532484893.027,32.715,22.461,20.508,9.277,85.938
1532484893.031,34.180,10.742,23.438,14.648,-53.711
1532484893.035,29.785,31.738,21.973,16.602,531.738
1532484893.039,30.762,-8.301,19.043,18.555,604.980
1532484893.043,33.203,-6.348,19.043,18.066,-310.059
1532484893.046,35.156,18.555,19.531,22.949,-291.016
1532484893.050,31.250,13.184,20.508,29.297,-37.598
1532484893.054,24.902,24.414,19.531,21.484,200.195
1532484893.058,28.320,16.602,18.066,12.695,-74.707
1532484893.062,30.762,24.414,20.020,23.926,-234.863
1532484893.066,31.250,17.090,21.484,26.855,-61.035
1532484893.070,32.227,12.207,19.531,20.508,-78.125
1532484893.074,30.762,36.621,20.996,9.277,320.801
1532484893.078,36.133,7.812,24.902,29.785,249.023
1532484893.082,41.504,10.254,24.902,34.668,-255.859
1532484893.085,36.621,23.926,22.949,21.973,-95.215
1532484893.089,37.598,22.949,22.949,24.414,-121.094
1532484893.093,41.504,41.016,23.438,12.695,52.734
1532484893.097,41.016,14.160,25.391,19.043,134.766
1532484893.101,37.109,6.348,23.926,29.297,-128.418
1532484893.105,37.109,16.113,23.438,24.902,-98.145
1532484893.109,35.645,17.578,24.414,20.020,-158.203
1532484893.113,33.691,25.391,23.926,30.762,-83.984
1532484893.117,36.133,17.578,26.855,31.738,46.387
1532484893.121,35.645,15.137,24.414,20.996,138.672
1532484893.125,37.598,13.184,22.949,17.578,8.301
1532484893.128,43.945,9.766,24.902,19.043,-313.477
1532484893.132,41.992,28.320,22.461,25.879,-10.254
1532484893.136,37.598,27.344,20.996,27.832,753.418
1532484893.140,39.062,2.441,22.461,19.531,58.594
1532484893.144,37.598,28.809,20.996,22.461,-317.383
1532484893.148,40.039,20.996,21.484,27.832,-103.027
1532484893.152,38.574,6.348,24.902,26.855,-66.895
1532484893.156,33.203,7.324,22.461,20.996,46.875
1532484893.160,32.715,14.648,20.020,12.695,-215.820
1532484893.164,33.691,22.949,21.484,18.066,-144.043
1532484893.167,31.738,12.207,21.484,22.949,124.512
1532484893.171,29.785,11.719,20.508,18.066,52.734
1532484893.175,30.273,34.668,19.531,6.836,576.172
1532484893.179,37.598,0.488,19.531,6.348,208.008
1532484893.183,33.691,3.418,19.043,8.789,-298.340
1532484893.187,27.832,13.672,18.555,9.277,-89.844
1532484893.191,30.762,18.066,18.066,6.836,-93.262
1532484893.195,34.668,16.113,20.508,15.137,42.969
1532484893.199,39.062,9.766,20.996,19.043,-104.980
1532484893.203,37.109,18.066,18.066,15.625,-93.750
1532484893.207,35.156,19.043,16.602,17.578,-110.840
1532484893.210,36.133,31.738,18.555,13.184,-183.594
1532484893.214,40.039,38.574,20.020,14.648,288.574
1532484893.218,41.992,11.230,19.531,19.531,270.996
1532484893.222,35.645,9.766,16.602,12.207,-151.855
1532484893.226,30.273,20.508,16.602,4.395,-196.777
1532484893.230,30.762,28.320,16.113,9.766,-217.773
1532484893.234,31.738,48.340,14.160,5.371,349.121
1532484893.238,33.691,6.836,18.555,9.277,413.574
1532484893.242,34.180,13.184,18.066,19.043,-275.391
1532484893.246,34.180,36.133,15.625,14.648,-252.441
1532484893.250,36.621,31.738,18.555,15.625,-75.684
1532484893.253,37.598,44.922,20.020,20.508,116.211
1532484893.257,39.062,35.645,18.066,16.113,-25.391
1532484893.261,39.551,43.945,18.066,12.695,-50.293
1532484893.265,36.621,39.551,19.531,23.438,145.508
1532484893.269,36.621,20.020,19.531,18.555,-168.457
1532484893.273,34.668,55.664,18.555,20.020,60.059
1532484893.277,27.344,51.758,18.066,19.531,722.656
1532484893.281,28.809,19.043,19.531,17.090,-48.340
1532484893.285,37.109,32.227,20.020,24.902,-290.039
1532484893.289,33.691,34.180,19.043,22.949,-95.215
1532484893.292,28.809,42.480,18.555,20.508,-152.344
1532484893.296,31.738,35.156,20.020,19.043,-68.359
1532484893.300,33.691,26.855,20.020,20.508,-126.465
1532484893.304,26.855,33.691,20.508,20.996,-39.062
1532484893.308,21.484,37.598,21.973,9.277,26.855
1532484893.312,22.461,39.551,20.996,14.648,70.801
1532484893.316,23.926,48.828,20.996,20.996,644.043
1532484893.320,21.973,19.043,23.926,20.020,152.344
1532484893.324,20.020,24.414,23.926,21.484,-362.305
1532484893.328,24.414,40.527,23.926,24.414,-242.676
1532484893.332,26.855,39.551,26.367,29.785,-116.211
1532484893.335,21.973,28.809,27.832,29.785,92.285
1532484893.339,14.160,30.273,24.414,23.438,-138.184
1532484893.343,15.625,43.457,20.508,21.973,-213.379
1532484893.347,18.066,38.086,22.461,21.484,-160.156
1532484893.351,18.066,39.062,23.438,19.531,-39.062
1532484893.355,10.742,43.457,21.484,21.484,252.441
1532484893.359,14.160,39.551,22.949,16.602,61.523
1532484893.363,19.531,40.039,22.461,16.113,-208.496
1532484893.367,16.602,30.273,20.508,27.832,-123.047
1532484893.371,20.996,39.062,22.949,27.344,-104.492
1532484893.375,20.020,70.801,22.461,9.766,511.230
1532484893.378,23.438,25.879,23.438,14.160,411.133
1532484893.382,27.344,24.414,25.879,24.414,-274.902
1532484893.386,24.902,42.969,24.414,18.066,-146.484
1532484893.390,19.043,46.875,22.461,14.648,-106.934
1532484893.394,20.996,58.105,20.996,20.996,37.598
1532484893.398,27.832,37.109,20.996,17.578,-57.617
1532484893.402,25.391,37.598,20.020,23.438,86.914
1532484893.406,23.438,29.785,18.066,29.297,109.375
1532484893.410,28.320,33.203,16.113,13.184,-341.797
1532484893.414,30.762,66.406,16.602,15.625,158.691
1532484893.417,31.738,27.832,19.531,15.137,690.430
1532484893.421,37.598,10.254,20.020,7.324,-117.188
1532484893.425,35.156,43.945,19.531,16.113,-330.566
1532484893.429,37.109,44.922,20.508,19.531,-198.242
1532484893.433,40.039,52.246,20.508,23.438,-2.930
1532484893.437,32.715,37.598,22.461,19.043,30.273
1532484893.441,25.391,37.109,21.484,17.578,-223.145
1532484893.445,27.344,45.410,19.043,21.973,-147.949
1532484893.449,28.809,37.109,20.020,16.113,21.484
1532484893.453,25.391,40.527,20.508,19.043,241.211
1532484893.457,27.832,46.387,22.949,18.555,705.566
1532484893.460,37.109,31.738,20.996,21.973,-32.227
1532484893.464,37.109,41.992,20.508,29.785,-374.023
1532484893.468,34.180,40.039,23.926,22.461,-102.539
1532484893.472,32.715,40.039,21.973,15.625,-93.262
1532484893.476,32.715,36.621,21.484,15.137,-98.633
1532484893.480,34.180,41.016,23.438,19.531,-232.910
1532484893.484,35.156,42.969,20.996,22.461,-105.957
1532484893.488,36.133,41.504,21.484,5.371,-87.402
1532484893.492,33.691,52.734,19.531,5.371,-101.074
1532484893.496,36.133,55.176,18.555,20.996,118.652
1532484893.499,35.645,47.852,23.438,22.949,80.078
1532484893.503,32.227,43.457,23.926,22.461,-56.641
1532484893.507,32.715,44.434,21.484,23.926,-173.340
1532484893.511,30.273,62.500,20.996,13.184,-157.715
1532484893.515,32.227,79.102,23.438,19.043,618.164
1532484893.519,39.062,31.250,26.855,27.832,315.430
1532484893.523,29.785,43.457,24.902,13.672,-319.336
1532484893.527,25.879,62.500,25.391,14.648,-238.281
1532484893.531,31.250,61.035,27.344,27.344,-120.117
1532484893.535,25.879,54.199,29.785,31.250,176.270
1532484893.539,21.973,49.316,30.273,30.762,-39.062
1532484893.542,25.879,67.383,28.809,25.879,-0.977
1532484893.546,28.809,45.410,28.320,24.902,-5.371
1532484893.550,27.344,49.316,25.391,30.762,-237.793
1532484893.554,20.996,86.914,23.926,21.973,458.984
1532484893.558,22.461,44.922,24.414,18.066,500.000
1532484893.562,27.832,40.527,25.391,19.043,-364.746
1532484893.566,29.297,61.035,25.391,28.320,-179.199
1532484893.570,22.461,42.969,24.414,32.715,-53.223
1532484893.574,15.625,62.500,21.484,24.902,-7.324
1532484893.578,22.461,58.105,20.020,20.020,-108.887
1532484893.582,22.949,48.828,21.973,23.926,-225.586
1532484893.585,26.367,55.176,23.926,28.809,9.277
1532484893.589,26.855,59.570,24.414,25.879,31.250
1532484893.593,26.855,71.777,22.461,15.625,180.664
1532484893.597,25.391,57.617,21.973,13.672,646.484
1532484893.601,19.531,35.645,23.926,22.461,-18.066
1532484893.605,19.531,53.223,23.438,22.461,-290.039
1532484893.609,17.578,57.617,21.973,12.695,-206.055
1532484893.613,20.020,66.406,21.484,11.719,-148.926
1532484893.617,27.344,54.199,20.020,18.555,-4.883
1532484893.621,31.738,48.828,19.531,5.859,-128.906
1532484893.624,28.809,58.105,20.508,5.371,-153.320
1532484893.628,26.855,56.641,21.484,13.184,-217.773
1532484893.632,22.461,60.059,20.508,13.184,-95.215
1532484893.636,17.090,55.664,20.020,16.113,208.496
1532484893.640,20.020,51.758,21.973,7.812,68.848
1532484893.644,20.020,54.688,22.461,2.441,-210.938
1532484893.648,23.438,53.223,21.973,14.160,-277.344
1532484893.652,26.855,64.941,21.484,17.090,-6.348
1532484893.656,24.414,76.660,20.020,9.766,730.469
1532484893.660,32.715,43.945,21.484,6.836,74.707
1532484893.664,34.668,45.898,20.996,13.184,-429.688
1532484893.667,27.344,53.711,20.508,27.344,-145.508
1532484893.671,25.391,55.176,25.391,18.066,-65.430
1532484893.675,22.949,49.316,25.391,7.812,5.859
1532484893.679,24.902,51.758,22.949,10.254,-197.754
1532484893.683,29.297,64.453,21.484,19.043,85.449
1532484893.687,30.273,40.527,22.461,21.484,9.277
1532484893.691,27.832,52.734,23.926,13.184,-274.902
1532484893.695,22.949,81.055,23.438,15.137,517.578
1532484893.699,20.020,36.133,23.438,25.391,356.445
1532484893.703,21.484,40.039,23.438,35.645,-325.195
1532484893.707,25.391,60.059,24.414,28.809,-245.605
1532484893.710,27.344,62.012,23.926,23.926,-235.840
1532484893.714,28.320,62.988,20.020,36.133,62.500
1532484893.718,33.691,41.504,20.508,34.180,-35.645
1532484893.722,29.785,49.805,21.484,23.438,-213.379
1532484893.726,24.414,61.035,21.484,24.414,-139.160
1532484893.730,29.785,59.570,21.973,21.484,-69.336
1532484893.734,30.762,67.383,21.484,17.090,387.207
1532484893.738,27.832,39.551,20.508,18.555,560.059
1532484893.742,22.461,41.016,20.996,14.648,-273.926
1532484893.746,23.438,62.988,21.973,10.742,-374.512
1532484893.749,26.367,51.758,20.996,17.090,-142.090
1532484893.753,21.484,60.059,21.973,18.066,46.875
1532484893.757,20.020,53.223,22.461,3.906,-62.012
1532484893.761,23.438,52.246,21.973,11.230,-274.414
1532484893.765,26.855,51.758,23.926,21.484,-120.605
1532484893.769,17.090,40.527,24.414,15.137,-84.961
1532484893.773,12.207,58.105,22.461,10.742,9.766
1532484893.777,16.113,62.012,23.926,13.184,123.047
1532484893.781,20.508,50.781,24.902,26.367,32.227
1532484893.785,20.996,38.086,21.484,26.367,25.391
1532484893.789,17.090,36.621,20.020,13.672,-233.398
1532484893.792,17.090,65.918,19.043,10.742,-63.477
1532484893.796,18.066,63.477,19.043,6.836,729.004
1532484893.800,18.555,28.320,22.949,19.531,120.117
1532484893.804,14.648,40.527,23.438,24.414,-291.016
1532484893.808,13.672,52.734,21.973,17.578,-157.227
1532484893.812,20.020,53.223,21.484,24.414,-155.762
1532484893.816,28.809,39.062,22.461,34.668,13.184
1532484893.820,26.367,38.086,24.414,40.039,-77.148
1532484893.824,25.879,59.570,24.414,29.297,86.426
1532484893.828,32.227,51.758,21.484,26.367,-54.688
1532484893.832,30.273,56.152,19.043,35.645,-130.859
1532484893.835,23.438,67.871,18.066,33.691,699.219
1532484893.839,23.926,29.297,20.508,26.855,197.266
1532484893.843,30.273,46.387,20.508,20.020,-430.176
1532484893.847,35.645,54.688,19.043,19.531,-218.262
1532484893.851,35.645,47.363,19.531,24.902,-60.059
1532484893.855,32.715,44.434,18.555,21.973,153.809
1532484893.859,28.809,41.992,17.578,20.020,-147.949
1532484893.863,33.691,55.176,19.531,19.531,-242.188
1532484893.867,34.668,52.246,20.508,28.809,-38.574
1532484893.871,29.297,55.664,19.531,30.273,84.961
1532484893.874,25.879,75.684,22.461,20.508,543.945
1532484893.878,23.438,36.621,25.391,15.137,373.535
1532484893.882,27.832,35.645,24.902,20.020,-281.250
1532484893.886,28.320,52.246,23.926,25.391,-163.574
1532484893.890,27.832,56.641,23.926,33.691,-119.141
1532484893.894,34.668,78.125,23.438,24.902,39.551
1532484893.898,41.504,54.688,21.484,19.043,-48.828
1532484893.902,43.945,43.945,20.996,36.133,-120.605
1532484893.906,44.434,55.664,23.926,28.809,-66.895
1532484893.910,40.527,62.500,22.461,23.926,-181.152
1532484893.914,35.645,69.824,20.508,27.832,33.691
1532484893.917,33.203,56.152,21.484,28.809,238.281
1532484893.921,35.156,45.410,20.508,16.602,70.801
1532484893.925,35.645,52.734,18.066,5.859,-145.508
1532484893.929,38.574,55.176,18.555,17.578,-296.387
1532484893.933,39.551,78.613,20.020,24.414,165.527
1532484893.937,36.621,60.547,21.484,17.578,761.230
1532484893.941,41.992,32.227,23.926,21.484,-83.984
1532484893.945,44.434,57.129,23.438,22.461,-386.719
1532484893.949,41.504,54.199,21.973,29.785,-130.859
1532484893.953,40.527,55.176,21.484,29.297,-2.930
1532484893.956,36.621,49.805,20.508,22.949,-7.324
1532484893.960,40.039,57.617,18.555,25.391,-204.590
1532484893.964,44.434,65.918,19.043,26.855,85.449
1532484893.968,39.551,44.434,18.555,19.043,22.949
1532484893.972,36.621,54.199,19.531,16.602,-29.785
1532484893.976,33.203,51.758,20.508,17.090,158.203
1532484893.980,31.738,46.387,17.578,25.879,-162.598
1532484893.984,26.855,52.246,17.090,26.855,-84.961
1532484893.988,25.879,46.875,22.461,15.625,8.789
1532484893.992,29.785,57.129,23.926,15.625,-38.574
1532484893.996,27.832,72.754,20.508,15.625,655.762
1532484893.999,29.297,33.691,24.414,23.926,239.746
1532484894.003,28.809,37.598,27.344,18.555,-272.949
1532484894.007,28.809,52.734,25.879,12.695,-138.672
1532484894.011,31.250,65.430,25.879,17.090,-16.602
1532484894.015,30.762,72.266,23.926,16.113,663.574
1532484894.019,32.227,24.902,23.926,19.043,276.367
1532484894.023,31.250,38.086,24.414,17.090,-355.957
1532484894.027,28.809,57.617,24.414,23.438,-295.410
1532484894.031,34.180,60.547,23.438,29.785,-169.434
1532484894.035,39.551,49.316,22.949,23.438,171.387
1532484894.039,38.574,37.598,22.949,22.949,-51.270
1532484894.042,35.156,57.617,21.973,17.578,-228.516
1532484894.046,35.645,49.316,21.484,13.184,-166.504
1532484894.050,29.785,44.434,25.391,20.996,-73.730
1532484894.054,27.344,55.176,27.344,24.902,218.262
1532484894.058,26.855,55.176,27.344,26.855,130.371
1532484894.062,28.320,53.711,27.832,24.902,-59.082
1532484894.066,32.715,40.527,29.785,24.414,-68.359
1532484894.070,35.156,44.922,32.715,23.926,-198.242
1532484894.074,34.668,79.102,30.273,18.555,274.902
1532484894.078,36.133,48.340,30.273,14.648,625.977
1532484894.081,37.598,33.203,31.250,23.438,-171.875
1532484894.085,34.668,53.711,30.273,25.879,-220.215
1532484894.089,30.762,55.176,28.320,21.973,-104.004
1532484894.093,29.785,73.730,24.902,13.672,-46.387
1532484894.097,36.133,58.105,25.879,21.484,-54.688
1532484894.101,37.109,50.293,27.832,29.785,-122.559
1532484894.105,30.762,59.082,23.926,18.066,189.453
1532484894.109,33.691,49.316,19.531,12.695,-29.297
1532484894.113,38.086,63.965,20.996,23.438,-42.969
1532484894.117,34.668,61.523,24.414,34.180,710.449
1532484894.121,34.180,29.297,26.367,20.996,76.172
1532484894.124,33.203,51.270,25.879,18.066,-372.070
1532484894.128,30.762,59.570,24.902,31.738,-209.473
1532484894.132,31.738,53.711,24.414,26.367,-100.098
1532484894.136,32.227,36.133,23.438,20.996,31.250
1532484894.140,23.926,42.480,23.926,22.461,-171.875
1532484894.144,22.949,56.641,24.414,26.367,-202.148
1532484894.148,26.855,46.387,23.926,34.668,-164.551
1532484894.152,24.414,55.176,22.949,27.344,191.895
1532484894.156,20.996,64.941,21.973,25.879,798.828
1532484894.160,21.484,33.691,22.949,23.438,60.547
1532484894.164,23.926,40.527,23.926,14.648,-402.344
1532484894.167,26.367,48.340,25.391,23.438,-126.953
1532484894.171,30.273,45.898,24.902,22.461,-51.758
1532484894.175,27.344,41.992,23.438,18.555,49.805
1532484894.179,29.785,46.875,22.461,21.973,-195.312
1532484894.183,30.762,55.664,22.949,21.973,-136.230
1532484894.187,31.250,43.945,23.926,20.508,-67.871
1532484894.191,31.738,51.270,23.926,11.230,-108.887
1532484894.195,27.832,55.664,23.926,12.207,98.633
1532484894.199,24.414,51.270,23.438,25.879,108.398
1532484894.203,18.555,53.711,21.973,22.949,155.273
1532484894.206,19.531,40.039,22.461,12.695,16.113
1532484894.210,21.484,50.781,22.461,20.508,-313.477
1532484894.214,19.043,74.707,22.461,22.461,413.086
1532484894.218,22.461,22.461,25.879,20.996,546.387
1532484894.222,23.438,23.438,24.902,16.113,-252.930
1532484894.226,22.461,51.270,22.461,8.301,-281.738
1532484894.230,24.902,46.387,23.926,18.066,-184.570
1532484894.234,25.391,58.105,24.414,29.785,125.977
1532484894.238,25.391,39.551,25.391,25.391,0.488
1532484894.242,23.926,45.410,23.926,16.602,-223.633
1532484894.246,22.949,55.664,22.949,13.672,92.285
1532484894.249,22.949,33.203,22.949,17.090,-69.336
1532484894.253,22.461,59.570,21.484,12.695,163.086
1532484894.257,26.367,48.828,22.949,4.395,696.289
1532484894.261,32.227,28.809,22.949,13.672,-178.223
1532484894.265,34.668,43.945,24.414,21.973,-339.844
1532484894.269,39.551,33.203,25.391,24.414,-89.355
1532484894.273,39.551,47.852,21.484,21.484,-46.875
1532484894.277,36.133,45.898,19.043,14.648,-90.332
1532484894.281,32.715,36.133,20.020,22.461,-223.145
1532484894.285,31.250,31.250,21.484,30.762,-49.805
1532484894.289,33.203,32.227,24.414,29.785,-123.047
1532484894.292,28.320,57.129,23.438,23.926,121.094
1532484894.296,28.320,51.270,23.926,17.578,762.207
1532484894.300,32.715,13.184,27.344,22.461,97.656
1532484894.304,30.762,21.973,24.902,31.250,-289.062
1532484894.308,31.250,33.203,23.926,20.508,-179.688
1532484894.312,36.133,28.809,26.367,15.625,-166.016
1532484894.316,35.645,16.602,26.367,22.461,31.738
1532484894.320,34.180,20.508,27.344,18.066,-78.125
1532484894.324,27.344,25.391,25.879,8.301,-122.070
1532484894.328,25.879,25.391,22.949,8.789,-192.383
1532484894.331,23.926,24.902,23.926,15.137,-108.398
1532484894.335,20.508,12.695,24.414,8.301,151.855
1532484894.339,25.391,22.949,23.926,9.766,142.578
1532484894.343,24.414,23.926,21.973,12.695,-35.645
1532484894.347,19.043,9.277,21.484,13.672,-230.469
1532484894.351,13.184,19.043,20.020,17.090,-103.516
1532484894.355,9.277,37.109,19.043,3.418,661.133
1532484894.359,7.812,-3.418,20.508,0.977,304.199
1532484894.363,10.742,2.930,19.531,3.418,-371.582
1532484894.367,11.230,11.719,19.043,12.695,-163.574
1532484894.371,6.836,9.766,17.578,14.648,-59.570
1532484894.374,5.371,24.902,16.602,7.324,131.836
1532484894.378,11.719,8.789,16.602,12.695,-147.949
1532484894.382,15.137,9.277,15.137,20.020,-187.012
1532484894.386,14.160,12.207,18.066,11.719,217.285
1532484894.390,13.672,0.977,18.066,13.184,-63.477
1532484894.394,15.625,36.133,14.648,18.066,225.586
1532484894.398,24.902,4.395,18.555,18.066,582.520
1532484894.402,26.367,-15.625,21.484,17.578,-154.785
1532484894.406,20.020,14.648,20.996,16.113,-226.074
1532484894.410,24.414,24.414,20.508,14.648,-94.238
1532484894.413,32.715,24.902,19.531,20.020,-3.906
1532484894.417,33.203,3.906,18.555,22.949,-33.203
1532484894.421,25.879,1.953,17.578,22.461,-127.930
1532484894.425,18.066,8.789,17.090,17.090,-144.043
1532484894.429,32.227,7.812,20.020,21.973,-260.742
1532484894.433,39.062,19.531,20.508,28.809,245.117
1532484894.437,36.133,1.953,20.996,18.066,779.297
1532484894.441,41.016,-18.066,22.949,23.438,-91.797
1532484894.445,37.598,-1.465,21.484,21.484,-394.043
1532484894.449,36.621,-4.395,22.461,26.367,-133.301
1532484894.453,38.086,-7.812,23.438,36.621,-4.883
1532484894.456,39.062,-14.160,21.973,29.297,11.719
1532484894.460,41.504,-8.301,21.973,15.137,-213.867
1532484894.464,40.039,-6.836,22.461,17.090,-169.922
1532484894.468,30.273,-12.695,24.902,33.691,-81.055
1532484894.472,25.879,-10.742,22.461,23.926,-22.461
1532484894.476,26.855,-14.648,20.996,10.254,-6.348
1532484894.480,28.809,-9.277,21.484,14.160,34.668
1532484894.484,30.273,-22.949,23.926,19.531,100.098
1532484894.488,30.762,-31.738,24.414,17.578,-162.109
1532484894.492,27.832,-3.906,21.973,11.230,-72.754
1532484894.496,25.879,2.441,22.949,12.207,631.836
1532484894.499,26.367,-33.203,22.461,23.438,121.094
1532484894.503,15.625,-31.738,22.461,21.973,-204.102
1532484894.507,17.090,-26.855,20.508,13.184,-134.766
1532484894.511,22.949,-13.184,21.484,12.695,-166.504
1532484894.515,21.484,-7.324,21.484,18.066,576.172
1532484894.519,20.020,-44.922,20.996,27.344,185.547
1532484894.523,18.555,-31.250,22.461,18.555,-228.027
1532484894.527,20.996,-17.578,21.973,14.648,87.402
1532484894.531,24.414,-26.855,22.949,27.344,-51.270
1532484894.535,21.973,-7.324,21.973,21.484,516.113
1532484894.538,22.949,-50.293,20.508,12.695,435.059
1532484894.542,21.973,-42.480,19.043,14.648,-369.141
1532484894.546,26.367,-20.996,18.066,19.531,-283.691
1532484894.550,28.809,-31.250,17.578,25.391,-101.562
1532484894.554,21.973,-23.926,17.578,21.973,167.969
1532484894.558,23.926,-33.691,18.066,4.395,-79.102
1532484894.562,25.879,-26.367,16.602,10.742,-271.973
1532484894.566,25.391,-31.250,18.066,19.531,-103.516
1532484894.570,26.367,-37.109,20.996,12.207,-104.492
1532484894.574,26.367,-19.531,20.020,20.508,298.828
1532484894.578,31.738,-48.828,18.555,21.973,254.395
1532484894.581,36.133,-52.734,19.043,26.855,-285.156
1532484894.585,32.715,-38.086,19.043,25.879,-122.559
1532484894.589,27.344,-33.203,19.043,19.043,-143.066
1532484894.593,22.949,-21.484,16.602,17.578,26.855
1532484894.597,24.902,-47.363,14.160,23.438,144.531
1532484894.601,22.461,-48.340,18.555,31.250,-147.949
1532484894.605,19.531,-42.480,18.066,23.926,-109.863
1532484894.609,21.484,-40.039,15.625,8.301,-179.199
1532484894.613,24.902,-30.762,15.625,7.324,-123.535
1532484894.617,27.344,-41.992,17.090,17.578,42.969
1532484894.621,25.391,-40.039,19.531,17.090,105.957
1532484894.624,24.414,-31.250,19.531,15.137,130.371
1532484894.628,28.320,-46.875,17.578,20.996,-219.238
1532484894.632,27.344,-37.109,16.602,19.531,-115.723
1532484894.636,26.367,-25.879,19.531,19.531,745.117
1532484894.640,30.273,-51.270,20.508,4.883,95.215
1532484894.644,33.203,-36.621,20.508,4.395,-442.871
1532484894.648,38.086,-31.250,23.438,27.832,-202.637
1532484894.652,40.039,-42.480,22.949,28.320,-46.387
1532484894.656,33.203,-50.293,23.438,21.973,73.730
1532484894.660,29.297,-43.457,23.926,26.367,-226.562
1532484894.663,26.855,-33.203,21.484,23.926,-177.246
1532484894.667,21.484,-47.363,23.438,22.461,98.633
1532484894.671,23.926,-48.828,27.344,25.879,28.320
1532484894.675,26.855,-18.066,25.879,13.184,593.750
1532484894.679,34.180,-57.129,25.879,18.555,234.375
1532484894.683,37.109,-55.664,25.879,27.832,-331.543
1532484894.687,32.715,-41.992,24.902,22.949,-115.723
1532484894.691,31.738,-39.062,24.902,22.461,-99.609
1532484894.695,35.645,-36.621,24.414,17.090,81.055
1532484894.699,35.645,-46.387,22.949,22.949,-89.355
1532484894.703,28.320,-42.480,22.949,25.391,-98.145
1532484894.706,23.438,-43.457,22.461,10.254,-75.684
1532484894.710,28.320,-31.738,20.996,11.230,-182.617
1532484894.714,33.691,-11.719,19.531,20.996,279.785
1532484894.718,31.250,-35.156,20.020,21.973,290.527
1532484894.722,32.715,-45.898,18.555,14.648,-146.484
1532484894.726,38.086,-30.762,16.602,3.906,-183.594
1532484894.730,27.832,-25.879,16.113,3.906,-231.934
1532484894.734,20.996,-9.766,16.113,15.137,323.242
1532484894.738,25.391,-51.270,16.113,12.207,440.918
1532484894.742,21.484,-47.852,13.672,-2.441,-277.832
1532484894.746,24.414,-22.949,13.672,1.953,-268.555
1532484894.749,29.297,-32.715,14.160,18.555,-131.348
1532484894.753,27.344,-21.973,13.184,12.207,77.637
1532484894.757,23.926,-28.809,11.230,0.488,-11.719
1532484894.761,22.461,-27.344,12.207,9.766,-97.168
1532484894.765,31.250,-33.203,16.602,18.066,114.258
1532484894.769,38.086,-54.199,18.555,17.090,-187.500
1532484894.773,32.227,-15.625,20.508,15.625,24.902
1532484894.777,27.344,-10.742,19.043,12.695,736.816
1532484894.781,28.320,-52.734,20.996,15.137,-38.574
1532484894.785,27.344,-41.504,26.855,15.137,-306.641
1532484894.788,27.832,-35.645,23.926,14.648,-83.008
1532484894.792,32.227,-30.762,21.973,16.602,-116.211
1532484894.796,40.039,-40.039,23.926,12.207,-49.805
1532484894.800,38.574,-43.945,24.902,19.043,-143.555
1532484894.804,33.203,-36.133,26.367,23.438,-30.762
1532484894.808,32.715,-33.691,24.902,21.973,33.203
1532484894.812,34.668,-23.438,23.438,22.949,65.918
1532484894.816,34.180,-16.602,21.484,21.973,683.105
1532484894.820,37.109,-50.781,21.484,14.160,173.828
1532484894.824,33.203,-41.016,21.484,17.578,-367.676
1532484894.828,32.227,-22.949,22.461,35.645,-239.746
1532484894.831,34.668,-16.602,20.996,30.273,-41.992
1532484894.835,33.691,-37.598,19.531,19.531,130.859
1532484894.839,32.227,-37.109,17.578,22.949,-133.789
1532484894.843,28.809,-15.137,17.090,20.508,-180.176
1532484894.847,32.227,-22.949,19.043,20.996,-173.828
1532484894.851,35.156,-23.926,20.020,20.508,-44.922
1532484894.855,31.738,-21.484,20.508,17.578,301.758
1532484894.859,30.273,-22.461,20.996,17.578,84.473
1532484894.863,35.645,-18.066,23.438,20.996,-219.727
1532484894.867,39.551,-21.973,25.391,29.785,-100.098
1532484894.870,41.016,-16.113,26.367,31.738,-75.684
1532484894.874,36.133,12.695,24.902,18.066,534.180
1532484894.878,30.273,-30.762,20.020,16.602,452.148
1532484894.882,27.832,-36.621,19.043,28.809,-283.691
1532484894.886,25.879,-17.578,22.949,22.461,-144.531
1532484894.890,23.438,-13.184,21.484,12.695,-73.242
1532484894.894,24.902,2.441,20.996,18.066,52.246
1532484894.898,31.250,-13.672,22.461,16.113,-42.480
1532484894.902,27.832,-15.137,20.996,22.461,89.355
1532484894.906,25.879,-21.973,19.531,22.949,157.715
1532484894.910,30.762,-17.090,20.508,16.602,-307.129
1532484894.913,30.273,22.461,19.043,30.762,117.676
1532484894.917,29.785,-9.766,19.531,24.414,717.773
1532484894.921,31.738,-33.691,20.996,18.555,-79.590
1532484894.925,32.227,-1.465,18.066,19.043,-320.312
1532484894.929,35.156,0.977,18.555,18.066,-212.891
1532484894.933,35.156,6.836,21.973,22.461,-52.734
1532484894.937,30.762,-6.836,20.508,22.461,39.062
1532484894.941,24.414,-3.906,18.555,18.555,-199.707
1532484894.945,26.855,12.207,20.996,15.137,-162.109
1532484894.949,27.832,7.812,20.020,21.484,8.789
1532484894.953,26.367,5.371,20.020,16.602,269.043
1532484894.956,26.855,6.348,23.438,11.230,750.000
1532484894.960,27.344,-10.254,25.879,16.113,-11.719
1532484894.964,27.344,-0.977,23.438,14.160,-387.695
1532484894.968,21.484,0.977,21.484,14.648,-85.449
1532484894.972,17.090,1.953,23.926,21.484,-44.922
1532484894.976,21.973,-0.977,25.879,19.531,-33.691
1532484894.980,22.949,4.395,24.902,17.578,-196.289
1532484894.984,23.926,3.418,24.414,22.949,-104.004
1532484894.988,25.391,-4.883,26.367,15.137,-69.824
1532484894.992,15.625,5.859,28.320,19.043,-71.777
1532484894.995,16.602,6.836,27.832,24.902,171.875
1532484894.999,25.391,0.000,27.344,28.320,107.422
1532484895.003,23.438,1.465,27.832,26.855,-58.594
1532484895.007,15.137,3.906,26.855,12.695,-165.039
1532484895.011,14.160,19.043,25.391,17.578,-167.969
1532484895.015,19.531,35.156,24.414,23.438,622.559
1532484895.019,24.414,-8.301,26.367,20.996,370.117
1532484895.023,21.484,2.930,27.832,15.137,-292.480
1532484895.027,19.531,23.438,26.367,18.555,-236.816
1532484895.031,24.902,27.832,25.879,32.227,-125.977
1532484895.035,30.762,27.832,30.273,43.945,209.473
1532484895.038,27.832,12.207,29.297,27.832,0.488
1532484895.042,24.902,32.715,24.902,18.555,17.578
1532484895.046,30.273,25.879,25.391,21.484,65.430
1532484895.050,34.668,24.902,25.391,28.320,-223.633
1532484895.054,31.250,57.617,22.461,31.738,426.270
1532484895.058,28.320,19.043,24.414,16.113,560.059
1532484895.062,28.809,15.137,26.855,19.531,-311.523
1532484895.066,29.297,35.156,24.902,27.832,-239.746
1532484895.070,26.855,28.809,25.391,28.320,-60.059
1532484895.074,23.926,46.875,23.438,15.137,71.777
1532484895.078,29.297,36.621,23.438,12.695,-72.266
1532484895.081,28.809,27.344,24.414,29.297,-233.398
1532484895.085,21.973,27.832,25.391,27.344,5.859
1532484895.089,19.531,24.414,28.320,20.996,38.086
1532484895.093,20.020,38.574,26.855,23.438,175.293
1532484895.097,24.414,28.809,24.902,21.484,671.875
1532484895.101,22.461,2.930,22.461,19.531,4.395
1532484895.105,16.602,19.043,18.066,14.160,-279.785
1532484895.109,20.020,27.344,19.043,13.184,-169.922
1532484895.113,20.020,30.762,19.043,19.043,-139.160
1532484895.117,19.531,16.602,20.020,22.461,0.488
1532484895.120,20.996,7.812,22.461,20.508,-100.098
1532484895.124,21.973,11.230,21.484,9.277,-147.949
1532484895.128,23.926,15.137,20.020,-2.930,-225.098
1532484895.132,22.461,15.137,17.090,6.836,-89.355
1532484895.136,20.020,4.883,19.043,15.625,223.145
1532484895.140,20.020,0.000,21.484,12.695,-8.789
1532484895.144,20.020,13.184,17.578,13.672,-223.145
1532484895.148,24.414,5.371,14.648,11.230,-202.637
1532484895.152,23.926,6.348,15.625,12.695,29.785
1532484895.156,15.625,19.043,17.578,10.742,751.953
1532484895.160,19.531,-14.648,16.602,9.277,112.793
1532484895.163,27.832,-3.418,15.625,9.277,-393.066
1532484895.167,26.367,1.465,18.066,7.324,-103.516
1532484895.171,24.414,-2.930,17.090,18.066,1.465
1532484895.175,28.809,-4.395,17.578,22.461,99.121
1532484895.179,33.203,-1.953,20.508,13.672,-151.367
1532484895.183,35.645,8.301,20.996,23.438,97.168
1532484895.187,32.227,-17.578,18.555,21.973,60.059
1532484895.191,26.367,-2.441,17.090,10.742,-222.168
1532484895.195,23.438,33.691,18.066,13.672,551.758
1532484895.199,26.367,-22.461,21.484,23.438,426.758
1532484895.202,28.809,-25.391,21.973,19.043,-250.977
1532484895.206,25.879,-5.371,20.020,13.184,-166.992
1532484895.210,21.973,-1.953,21.973,23.438,-182.129
1532484895.214,24.414,10.254,21.973,22.949,229.004
1532484895.218,29.297,-20.508,23.926,15.137,110.840
1532484895.222,31.738,-15.625,22.949,15.625,-171.875
1532484895.226,30.762,-3.418,20.020,17.090,-93.750
1532484895.230,29.785,-0.977,20.508,22.461,-21.484
1532484895.234,31.738,1.465,20.508,25.879,318.359
1532484895.238,34.668,-37.109,23.438,22.949,257.812
1532484895.242,28.320,-25.879,23.926,13.672,-257.324
1532484895.245,29.785,-6.348,19.531,8.789,-244.629
1532484895.249,33.691,-12.207,19.043,19.043,-155.762
1532484895.253,30.273,4.883,20.508,17.090,428.223
1532484895.257,28.809,-30.762,20.996,11.719,504.395
1532484895.261,30.273,-31.738,21.973,9.766,-120.605
1532484895.265,33.203,-8.789,23.926,20.020,-23.438
1532484895.269,33.203,-20.020,24.902,30.762,79.590
1532484895.273,30.273,-8.789,23.926,13.184,174.316
1532484895.277,26.855,-2.441,22.949,10.742,379.883
1532484895.281,35.156,-13.672,22.461,30.762,223.633
1532484895.285,41.504,-16.602,22.461,27.832,72.266
1532484895.288,33.203,-14.160,20.996,12.695,-64.453
1532484895.292,31.250,11.719,19.043,16.602,89.355
1532484895.296,34.180,22.461,19.531,18.066,765.137
1532484895.300,33.203,-21.484,22.949,18.555,174.316
1532484895.304,31.738,-12.207,23.926,22.949,-235.840
1532484895.308,33.203,3.906,21.973,22.461,-117.188
1532484895.312,32.715,0.000,20.996,19.043,-74.219
1532484895.316,32.715,-16.602,21.973,19.531,157.227
1532484895.320,31.738,-9.766,20.508,26.367,0.977
1532484895.324,26.367,10.742,17.578,20.508,184.082
1532484895.327,26.855,-6.836,15.625,17.090,76.172
1532484895.331,32.715,-0.977,16.602,16.602,-104.980
1532484895.335,32.227,19.531,19.531,20.020,714.355
1532484895.339,38.574,-23.438,22.949,26.367,268.555
1532484895.343,41.992,-9.766,20.508,20.508,-426.758
1532484895.347,39.062,5.371,21.484,25.391,-269.043
1532484895.351,33.203,-2.441,25.391,34.668,-79.590
1532484895.355,29.297,-11.230,24.902,34.180,269.043
1532484895.359,28.809,-12.695,24.902,31.738,-75.684
1532484895.363,26.855,-1.953,24.414,27.832,-283.203
1532484895.367,22.461,-7.324,21.973,27.344,-69.336
1532484895.370,14.648,-3.906,20.508,23.438,107.422
1532484895.374,12.207,11.719,20.996,18.066,607.422
1532484895.378,19.043,-22.949,19.043,22.949,432.617
1532484895.382,22.949,-22.949,18.555,20.996,-338.867
1532484895.386,20.996,-4.883,20.508,20.508,-248.047
1532484895.390,21.484,0.000,20.020,18.066,-168.457
1532484895.394,21.484,19.531,18.066,10.254,55.176
1532484895.398,21.973,2.930,16.602,19.043,-57.129
1532484895.402,22.949,-7.812,16.602,25.879,-190.918
1532484895.406,24.902,-5.859,17.578,23.926,-91.309
1532484895.410,24.414,7.324,16.113,17.090,-240.723
1532484895.413,25.879,20.996,17.090,14.648,-1.953
1532484895.417,27.832,3.906,20.020,16.113,291.016
1532484895.421,25.879,-10.742,18.555,12.695,90.820
1532484895.425,27.832,-1.953,17.578,11.719,-166.504
1532484895.429,30.273,2.930,19.531,19.043,-372.559
1532484895.433,25.879,24.902,19.531,19.043,54.199
1532484895.437,20.020,17.578,20.508,25.879,767.090
1532484895.441,24.414,-8.789,21.484,21.973,-57.129
1532484895.445,26.855,15.625,19.531,18.066,-469.238
1532484895.449,23.438,18.555,20.020,22.949,-232.422
1532484895.452,21.484,6.348,20.996,16.113,-38.574
1532484895.456,21.484,-0.488,21.973,11.230,50.293
1532484895.460,20.996,11.230,21.973,15.137,-240.723
1532484895.464,23.438,22.461,20.020,22.461,79.102
1532484895.468,27.832,-3.418,20.508,23.438,84.473
1532484895.472,29.785,7.812,20.508,20.020,-47.852
1532484895.476,23.926,37.598,19.043,10.254,727.539
1532484895.480,27.344,-3.906,20.020,9.766,102.051
1532484895.484,33.203,-4.883,19.043,20.996,-398.438
1532484895.488,27.344,8.789,17.578,22.461,-170.898
1532484895.492,20.020,14.648,17.578,12.207,-146.973
1532484895.495,22.949,9.277,18.555,10.742,44.922
1532484895.499,24.902,4.395,21.484,17.090,-152.344
1532484895.503,20.996,8.789,18.066,18.066,-165.039
1532484895.507,20.020,10.742,12.695,11.230,-155.762
1532484895.511,20.508,33.203,15.625,7.324,2.930
1532484895.515,20.508,35.645,16.113,9.766,710.938
1532484895.519,22.949,-18.066,18.066,19.531,336.426
1532484895.523,23.926,-4.395,21.484,18.555,-366.211
1532484895.527,22.461,19.531,19.043,7.812,-347.656
1532484895.531,23.926,19.531,19.043,8.789,-240.723
1532484895.535,28.809,22.461,19.531,13.672,187.012
1532484895.538,28.320,10.254,18.555,11.230,-32.715
1532484895.542,26.367,22.461,18.555,20.020,-285.645
1532484895.546,29.785,24.414,19.531,24.414,-230.469
1532484895.550,28.809,26.855,19.043,25.391,-158.691
1532484895.554,26.367,37.598,19.043,19.531,232.422
1532484895.558,23.926,31.250,20.020,12.207,224.609
1532484895.562,30.273,31.250,21.484,8.301,3.418
1532484895.566,35.645,11.719,21.484,13.672,-98.633
1532484895.570,27.832,0.000,20.020,21.973,-277.832
1532484895.574,21.973,39.062,20.020,13.184,276.367
1532484895.577,26.367,22.461,19.531,6.348,697.266
1532484895.581,30.273,-0.977,18.555,17.090,-194.824
1532484895.585,32.715,20.508,19.531,26.855,-285.156
1532484895.589,34.668,21.484,21.484,23.926,-143.066
1532484895.593,34.180,38.086,19.531,13.672,-67.383
1532484895.597,32.227,23.438,20.508,20.996,-33.691
1532484895.601,29.297,18.066,24.902,20.020,-156.738
1532484895.605,21.484,36.621,23.926,10.742,216.309
1532484895.609,20.020,13.184,21.484,10.254,-50.293
1532484895.613,26.367,31.738,22.461,8.301,-124.512
1532484895.617,22.949,41.992,22.949,28.320,733.398
1532484895.620,21.973,0.000,23.438,28.320,80.078
1532484895.624,21.973,17.578,21.973,11.230,-425.781
1532484895.628,20.996,31.738,18.555,6.348,-297.852
1532484895.632,21.484,28.320,19.043,12.695,-163.086
1532484895.636,19.531,5.371,18.066,15.137,78.125
1532484895.640,16.113,11.230,14.648,15.137,-139.160
1532484895.644,14.160,30.273,14.160,4.883,-237.793
1532484895.648,14.648,24.902,16.602,9.766,-219.238
1532484895.652,10.742,36.133,15.137,19.043,199.219
1532484895.656,11.719,47.852,14.648,15.625,838.379
1532484895.659,12.695,6.348,16.602,16.113,78.613
1532484895.663,8.301,9.277,12.695,19.531,-464.844
1532484895.667,11.719,20.508,12.207,20.996,-227.051
1532484895.671,15.137,19.531,17.090,20.508,-98.145
1532484895.675,16.113,31.738,16.602,18.555,197.754
1532484895.679,22.949,19.531,18.066,18.066,-161.621
1532484895.683,20.020,18.066,17.090,30.762,-250.488
1532484895.687,16.602,16.113,16.113,27.832,-117.676
1532484895.691,24.414,26.367,18.555,17.578,-140.137
1532484895.695,28.809,34.668,18.555,20.020,139.160
1532484895.699,30.273,27.344,17.090,28.320,130.371
1532484895.702,28.809,19.043,17.090,30.273,-4.883
1532484895.706,26.855,19.531,18.066,19.531,-149.414
1532484895.710,22.461,26.855,16.602,18.555,-306.152
1532484895.714,22.461,56.641,17.090,20.020,424.805
1532484895.718,21.973,7.324,19.531,9.277,601.562
1532484895.722,16.113,-5.859,19.531,15.137,-253.906
1532484895.726,18.066,25.879,17.090,25.879,-322.266
1532484895.730,21.973,21.973,15.625,21.973,-246.094
1532484895.734,14.648,34.180,16.602,18.066,90.332
1532484895.738,10.742,15.137,20.508,17.090,18.066
1532484895.742,10.742,18.066,17.090,18.066,-238.770
1532484895.745,17.090,27.832,16.113,16.602,116.211
1532484895.749,20.996,2.441,19.531,18.555,-85.938
1532484895.753,16.602,29.785,17.578,5.371,127.441
1532484895.757,18.555,23.438,17.578,4.395,744.141
1532484895.761,20.508,-2.930,18.555,3.418,-177.246
1532484895.765,22.949,23.438,14.648,11.230,-413.574
1532484895.769,26.855,19.043,16.113,19.531,-132.324
1532484895.773,22.949,26.367,21.973,4.883,-41.504
1532484895.777,21.973,23.438,20.508,4.395,-37.109
1532484895.781,28.809,21.973,21.973,15.625,-236.328
1532484895.784,29.297,23.438,23.926,19.043,-107.910
1532484895.788,26.367,17.090,19.531,11.230,-134.766
1532484895.792,22.949,32.715,16.113,5.371,157.715
1532484895.796,26.855,32.227,17.090,9.277,792.480
1532484895.800,31.738,0.000,18.555,21.973,73.730
1532484895.804,25.879,8.789,17.578,16.113,-365.234
1532484895.808,25.879,24.414,15.137,8.301,-238.281
1532484895.812,27.832,24.902,16.113,18.066,-200.195
1532484895.816,32.227,12.207,17.090,28.320,50.293
1532484895.820,36.621,10.742,17.090,22.461,-122.070
1532484895.824,29.785,20.508,13.672,15.137,-190.430
1532484895.827,36.133,26.367,14.648,13.184,-243.652
1532484895.831,49.805,31.250,17.090,20.508,-126.465
1532484895.835,40.039,8.789,14.160,20.508,218.262
1532484895.839,27.832,13.672,14.648,14.160,172.852
1532484895.843,26.855,28.320,14.160,15.625,42.969
1532484895.847,29.785,9.277,11.230,17.090,-217.285
1532484895.851,27.344,22.461,13.184,19.043,-187.500
1532484895.855,26.367,46.387,14.648,18.066,700.195
1532484895.859,33.203,-0.488,17.578,24.902,373.047
1532484895.863,35.156,5.859,20.508,18.555,-425.293
1532484895.867,33.203,14.648,20.508,20.020,-254.883
1532484895.870,34.668,4.883,20.996,29.785,-111.328
1532484895.874,32.715,19.531,21.484,16.113,189.453
1532484895.878,28.320,6.836,22.461,8.789,-113.770
1532484895.882,28.809,7.324,23.926,13.184,-231.445
1532484895.886,27.344,4.883,24.902,19.043,202.637
1532484895.890,26.367,4.883,23.926,18.066,18.555
1532484895.894,26.855,35.645,22.949,16.113,292.969
1532484895.898,33.203,0.977,24.902,12.695,612.305
1532484895.902,41.504,-13.184,26.855,22.461,-188.965
1532484895.906,32.227,10.254,25.879,21.973,-314.941
1532484895.909,23.438,3.906,22.949,15.625,-257.812
1532484895.913,22.949,20.996,21.484,18.555,-76.660
1532484895.917,24.414,9.277,25.391,25.879,11.719
1532484895.921,25.879,1.953,29.297,26.367,-161.133
1532484895.925,23.926,7.812,23.926,19.043,-166.504
1532484895.929,20.508,7.324,20.508,19.043,-278.320
1532484895.933,17.090,30.273,23.438,27.344,219.727
1532484895.937,20.996,15.137,21.973,16.602,794.434
1532484895.941,25.391,-12.207,19.531,14.648,-77.637
1532484895.945,25.391,10.742,19.043,27.344,-455.078
1532484895.949,25.879,10.254,19.531,33.203,-234.375
1532484895.952,23.438,2.930,20.020,22.461,-78.125
1532484895.956,25.879,-3.418,20.508,19.043,15.137
1532484895.960,27.832,4.395,19.043,19.043,-261.719
1532484895.964,27.832,12.207,20.508,7.812,-251.953
1532484895.968,32.227,3.906,26.367,11.230,-138.184
1532484895.972,36.133,8.789,28.809,18.066,-40.527
1532484895.976,33.691,13.672,27.344,19.043,44.434
1532484895.980,31.250,21.484,23.926,22.949,46.387
1532484895.984,29.785,14.648,22.461,29.785,127.930
1532484895.988,29.785,-3.906,24.414,26.855,-144.531
1532484895.992,25.879,18.555,24.902,17.090,-145.020
1532484895.995,15.625,37.109,21.973,11.230,703.613
1532484895.999,18.555,-14.648,19.531,15.625,260.254
1532484896.003,17.090,-11.230,19.043,15.625,-324.219
1532484896.007,14.648,6.348,21.484,19.043,-219.238
1532484896.011,20.508,8.301,20.020,21.973,-197.266
1532484896.015,19.043,3.418,17.090,12.207,156.738
1532484896.019,18.066,-12.207,16.602,17.090,-34.180
1532484896.023,18.066,5.859,14.648,21.484,-158.203
1532484896.027,17.578,18.066,13.672,12.207,70.801
1532484896.031,18.555,8.789,14.160,18.066,-59.570
1532484896.034,16.113,32.227,14.160,26.367,501.953
1532484896.038,15.137,-12.695,17.578,26.367,501.465
1532484896.042,16.602,-13.184,17.578,18.555,-366.699
1532484896.046,18.066,10.742,16.113,19.531,-370.605
1532484896.050,19.531,0.000,18.555,27.832,-184.082
1532484896.054,14.648,6.836,17.090,19.531,162.109
1532484896.058,11.719,-10.254,16.113,18.555,-68.359
1532484896.062,19.043,-4.395,16.602,16.602,-327.637
1532484896.066,24.414,-2.441,13.672,12.695,-136.230
1532484896.070,25.391,-6.348,14.160,20.996,-167.969
1532484896.074,22.461,24.902,17.090,18.066,360.840
1532484896.077,26.855,-1.953,18.555,18.555,701.172
1532484896.081,33.691,-25.879,20.996,19.043,-218.750
1532484896.085,28.809,-5.859,18.555,22.461,-303.711
1532484896.089,23.926,-6.836,15.625,27.832,-167.480
1532484896.093,24.414,13.672,15.625,16.602,-116.211
1532484896.097,32.227,5.371,16.113,15.137,14.648
1532484896.101,36.621,-14.160,19.531,21.973,-167.480
1532484896.105,33.691,-7.324,21.484,28.320,-154.297
1532484896.109,27.832,6.836,21.484,25.879,-201.660
1532484896.113,28.809,7.324,18.066,19.043,-143.555
1532484896.116,31.250,-0.977,18.555,20.508,53.711
1532484896.120,28.809,3.418,21.973,24.414,163.574
1532484896.124,32.227,-3.418,20.020,23.438,65.430
1532484896.128,35.156,-4.883,16.113,21.973,-350.098
1532484896.132,31.738,18.555,18.555,22.461,-99.609
1532484896.136,33.691,25.879,21.973,27.344,771.484
1532484896.140,35.156,-12.207,22.949,26.367,121.582
1532484896.144,37.109,0.488,23.438,17.090,-442.871
1532484896.148,36.621,9.766,20.996,19.531,-249.023
1532484896.152,33.691,-3.906,19.043,22.949,-69.336
1532484896.156,39.062,-8.301,20.508,24.414,148.926
1532484896.159,38.574,-4.395,20.020,19.531,-203.125
1532484896.163,30.273,9.277,21.484,21.484,-226.074
1532484896.167,30.273,6.836,23.926,29.297,103.516
1532484896.171,29.785,8.301,24.414,23.926,160.645
1532484896.175,31.250,30.273,20.508,18.555,680.664
1532484896.179,36.133,-14.160,17.090,14.160,247.070
1532484896.183,32.715,-14.160,15.625,11.719,-390.137
1532484896.187,32.227,1.465,15.137,17.578,-198.730
1532484896.191,31.738,8.789,16.113,21.484,-143.555
1532484896.195,31.250,17.578,17.090,26.367,106.445
1532484896.199,30.273,3.418,20.996,26.855,-110.352
1532484896.202,28.320,4.395,23.438,26.367,-170.410
1532484896.206,27.344,2.930,21.484,24.414,-125.000
1532484896.210,29.785,17.578,21.484,10.742,-232.422
1532484896.214,33.203,31.250,22.949,13.672,303.223
1532484896.218,34.668,-3.906,25.391,18.555,236.328
1532484896.222,35.156,-3.906,25.879,27.344,-208.984
1532484896.226,36.621,12.695,26.855,23.438,-170.898
1532484896.230,38.574,13.672,25.391,11.230,-274.902
1532484896.234,33.203,33.691,24.414,19.531,284.668
1532484896.238,29.785,-8.301,25.391,22.461,501.953
1532484896.241,29.785,-9.277,25.391,18.066,-278.809
1532484896.245,30.762,20.508,22.949,17.578,-344.238
1532484896.249,32.227,13.672,22.461,21.484,-183.594
1532484896.253,33.203,20.996,22.949,18.555,47.852
1532484896.257,28.809,16.113,25.879,16.602,25.391
1532484896.261,24.414,23.438,25.391,16.602,-25.879
1532484896.265,28.809,20.508,22.461,15.137,139.160
1532484896.269,32.227,-1.465,23.926,21.484,-187.012
1532484896.273,30.273,28.320,24.414,12.207,-6.836
1532484896.277,27.344,33.203,23.926,-0.977,748.535
1532484896.281,32.715,-7.324,23.438,15.137,-14.160
1532484896.284,29.297,7.324,22.461,28.320,-366.211
1532484896.288,27.832,17.090,24.414,19.531,-134.766
1532484896.292,30.762,21.484,26.367,17.578,-146.973
1532484896.296,24.902,13.184,24.414,18.555,-37.598
1532484896.300,21.973,4.395,24.414,23.926,-174.316
1532484896.304,27.832,10.254,26.855,18.555,-81.543
1532484896.308,27.344,18.066,25.879,12.207,56.641
1532484896.312,25.391,29.297,22.461,15.137,121.582
1532484896.316,30.273,33.691,21.484,10.742,726.074
1532484896.320,32.715,-10.742,22.949,9.766,200.684
1532484896.324,26.367,-1.465,20.508,11.230,-380.371
1532484896.327,25.879,14.648,18.066,17.090,-292.480
1532484896.331,32.227,12.207,18.555,15.625,-175.781
1532484896.335,36.133,1.465,20.996,23.926,176.758
1532484896.339,38.086,-4.883,21.484,34.180,-95.703
1532484896.343,36.133,16.113,19.531,19.043,-199.707
1532484896.347,31.738,9.277,18.555,30.273,-87.402
1532484896.351,28.320,9.277,20.508,32.227,-89.844
1532484896.355,27.832,21.973,22.461,22.461,456.543
1532484896.359,26.855,2.441,21.484,19.531,144.531
1532484896.363,23.926,7.812,25.391,23.926,-316.895
1532484896.366,31.738,7.812,29.297,42.480,-147.461
1532484896.370,20.996,15.137,23.926,27.344,-120.117
1532484896.374,1.465,48.340,15.625,-5.371,499.512
1532484896.378,15.625,3.906,15.625,-2.441,315.430
1532484896.382,27.832,-4.395,18.066,16.113,-352.539
1532484896.386,22.461,5.859,20.996,26.367,-176.758
1532484896.390,16.602,5.859,21.973,20.508,-132.812
1532484896.394,20.020,27.832,18.066,15.625,39.062
1532484896.398,26.367,10.742,18.066,19.043,-43.945
1532484896.402,22.461,12.695,21.484,16.113,75.195
1532484896.406,17.578,11.230,24.902,16.602,213.867
1532484896.409,18.066,5.371,22.949,20.508,-309.082
1532484896.413,16.113,41.016,22.461,16.602,39.062
1532484896.417,18.555,12.695,25.391,10.742,748.047
1532484896.421,29.785,-20.508,22.461,30.273,-68.848
1532484896.425,45.410,10.742,21.484,40.039,-382.324
1532484896.429,36.621,5.859,31.250,36.621,-281.738
1532484896.433,15.137,6.348,35.156,23.926,-99.121
1532484896.437,20.996,-4.395,34.668,32.227,69.336
1532484896.441,29.785,-4.395,35.156,41.992,-181.641
1532484896.445,32.227,14.648,30.273,24.414,-166.016
1532484896.448,41.016,11.719,27.344,32.715,10.742
1532484896.452,38.086,11.230,27.832,36.133,249.512
1532484896.456,33.203,16.113,25.879,20.020,764.160
1532484896.460,41.504,-11.719,26.855,28.809,0.488
1532484896.464,41.016,0.000,26.367,40.527,-457.520
1532484896.468,36.621,6.348,25.391,41.992,-185.547
1532484896.472,34.668,2.930,24.414,31.738,-94.238
1532484896.476,35.645,6.348,25.391,26.367,-2.441
1532484896.480,40.039,8.301,23.438,28.320,-235.840
1532484896.484,38.574,5.859,19.531,30.273,-164.551
1532484896.488,37.598,2.930,22.461,33.691,-124.512
1532484896.491,39.551,14.160,22.461,37.109,-121.094
1532484896.495,44.434,22.461,20.996,36.621,226.562
1532484896.499,49.805,12.207,23.438,40.527,176.758
1532484896.503,46.875,-1.465,24.902,47.363,-56.641
1532484896.507,41.992,-1.953,21.973,41.016,-194.336
1532484896.511,42.480,17.578,23.438,29.785,-219.238
1532484896.515,36.621,41.992,24.414,28.809,617.188
1532484896.519,35.156,-14.160,24.902,28.320,515.625
1532484896.523,34.668,-22.949,21.973,19.043,-270.996
1532484896.527,28.809,6.348,20.020,14.160,-320.801
1532484896.531,26.367,5.859,20.020,8.789,-215.332
1532484896.534,22.461,1.953,18.066,17.578,162.109
1532484896.538,20.508,-6.348,19.531,22.461,3.906
1532484896.542,20.996,14.648,23.438,9.766,17.090
1532484896.546,20.996,-2.930,21.484,11.719,33.691
1532484896.550,24.414,-9.766,21.484,22.949,-279.785
1532484896.554,22.461,29.297,21.484,17.090,401.855
1532484896.558,26.855,-12.207,21.484,10.254,623.535
1532484896.562,35.645,-17.090,20.996,9.766,-320.801
1532484896.566,29.297,9.277,16.602,15.625,-333.984
1532484896.570,27.344,-10.742,20.996,26.855,-131.836
1532484896.573,26.855,8.789,25.391,22.461,42.480
1532484896.577,30.273,5.859,22.949,13.672,-66.406
1532484896.581,34.180,-3.906,23.926,21.973,-294.434
1532484896.585,33.691,-0.977,24.902,27.344,-57.129
1532484896.589,31.738,0.000,20.996,19.043,52.734
1532484896.593,30.273,20.020,19.531,18.066,218.262
1532484896.597,29.297,13.672,20.996,22.949,705.566
1532484896.601,26.367,-17.578,20.020,25.879,-1.953
1532484896.605,31.738,-5.371,21.484,25.391,-328.613
1532484896.609,32.227,1.465,23.926,21.973,-222.168
1532484896.613,24.414,7.812,17.090,13.184,-203.125
1532484896.616,27.832,-4.883,12.695,22.461,-11.230
1532484896.620,31.250,-10.254,17.578,28.320,-125.488
1532484896.624,33.691,-2.441,20.508,18.555,-172.363
1532484896.628,38.086,-0.488,19.043,11.230,-254.883
1532484896.632,39.062,0.000,17.578,27.344,-130.859
1532484896.636,33.691,-5.371,18.555,33.203,284.180
1532484896.640,33.203,-3.418,21.484,23.926,163.086
1532484896.644,31.250,-2.441,20.508,16.602,-200.195
1532484896.648,29.785,-3.906,19.531,19.531,-305.664
1532484896.652,31.738,5.859,20.020,23.438,-41.504
1532484896.656,31.250,20.020,18.555,-5.371,750.000
1532484896.659,33.691,-18.066,19.531,-3.418,154.785
1532484896.663,33.203,-15.625,22.461,19.043,-462.891
1532484896.667,30.273,-6.348,24.414,15.625,-223.145
1532484896.671,33.691,-9.277,24.414,12.695,-63.477
1532484896.675,34.180,-9.766,20.996,9.277,129.883
1532484896.679,34.180,-8.301,22.949,9.766,-189.453
1532484896.683,33.691,5.859,23.926,13.672,43.945
1532484896.687,31.250,-19.531,22.461,4.395,114.746
1532484896.691,28.320,-6.348,20.996,5.371,-268.555
1532484896.695,28.320,31.738,22.461,11.719,518.555
1532484896.698,25.879,-30.273,24.902,21.973,479.004
1532484896.702,24.902,-37.598,24.902,27.344,-301.270
1532484896.706,25.879,-13.672,26.367,19.043,-239.258
1532484896.710,22.461,-4.883,25.391,11.230,-245.117
1532484896.714,21.484,12.695,22.461,12.695,59.082
1532484896.718,26.367,-10.742,24.414,20.020,-3.418
1532484896.722,20.996,-13.184,25.879,19.043,-211.426
1532484896.726,7.324,-1.465,23.438,13.672,-125.488
1532484896.730,15.137,0.000,22.949,10.742,-77.637
1532484896.734,18.555,10.742,21.973,8.789,371.582
1532484896.738,16.113,-21.973,21.973,17.090,675.293
1532484896.741,17.578,-28.320,23.438,18.555,-207.031
1532484896.745,23.438,0.977,20.996,18.066,-438.965
1532484896.749,26.855,-3.906,20.508,27.832,-235.352
1532484896.753,20.508,0.488,22.461,25.391,1.953
1532484896.757,20.020,-10.254,22.461,26.367,-15.137
1532484896.761,22.461,-4.395,20.508,19.043,-301.270
1532484896.765,27.344,-0.977,20.508,6.836,-206.543
1532484896.769,27.344,-12.207,21.973,20.508,-138.184
1532484896.773,22.461,-0.977,20.996,26.367,-22.461
1532484896.777,21.973,2.441,19.531,17.090,171.387
1532484896.781,23.926,-14.648,21.973,20.996,-67.383
1532484896.784,27.832,-11.719,23.926,13.672,-139.160
1532484896.788,27.344,-10.254,23.438,22.461,-157.227
1532484896.792,23.926,10.742,23.926,21.973,-25.391
1532484896.796,25.879,25.391,24.414,17.090,735.352
1532484896.800,34.668,-18.555,23.926,25.391,135.254
1532484896.804,27.344,-14.648,22.461,12.207,-333.984
1532484896.808,14.648,-0.977,21.973,8.789,-198.242
1532484896.812,16.113,0.000,22.949,15.137,-172.852
1532484896.816,21.484,-13.672,21.484,22.949,52.734
1532484896.820,21.973,-18.555,22.949,15.625,-91.797
1532484896.823,20.996,8.301,21.973,4.395,104.980
1532484896.827,21.973,0.977,18.555,10.254,39.062
1532484896.831,21.973,-0.488,19.531,11.719,-180.176
1532484896.835,22.461,18.555,20.508,17.090,660.645
1532484896.839,30.273,-28.809,18.066,21.973,299.805
1532484896.843,29.297,-14.648,19.043,13.672,-455.566
1532484896.847,27.832,4.395,20.996,9.766,-329.102
1532484896.851,28.320,0.000,19.043,13.672,-153.320
1532484896.855,27.832,0.488,22.949,19.531,193.848
1532484896.859,22.949,-2.441,23.926,17.578,-96.191
1532484896.863,17.578,1.953,18.066,-3.418,-304.199
1532484896.866,17.578,-1.953,16.602,0.000,-98.145
1532484896.870,11.719,1.465,21.973,5.371,79.590
1532484896.874,0.488,24.414,23.926,-5.371,565.918
1532484896.878,-2.441,-11.719,23.926,-14.648,476.074
1532484896.882,-2.930,-23.926,26.367,-15.625,-305.176
1532484896.886,-10.254,-5.859,27.832,-23.926,-231.934
1532484896.890,-19.043,-0.977,26.855,-28.320,-131.348
1532484896.894,-25.879,24.414,23.438,-34.668,21.484
1532484896.898,-22.461,-2.930,31.250,-33.691,-75.195
1532484896.902,-23.438,-13.672,35.156,-30.273,-187.988
1532484896.905,-31.738,-7.324,32.227,-36.621,-64.941
1532484896.909,-36.621,-3.418,31.250,-49.316,-191.406
1532484896.913,-42.969,16.113,32.227,-48.828,-18.555
1532484896.917,-43.457,5.371,38.086,-43.945,270.996
1532484896.921,-42.969,-18.066,39.062,-57.129,49.805
1532484896.925,-48.828,-7.324,38.086,-62.500,-152.344
1532484896.929,-53.223,-8.301,39.551,-62.012,-296.875
1532484896.933,-58.105,8.789,41.504,-70.312,47.852
1532484896.937,-68.848,4.883,44.922,-78.613,762.207
1532484896.941,-75.195,-26.855,50.293,-68.359,91.309
1532484896.945,-73.242,-15.137,50.781,-69.824,-378.906
1532484896.948,-62.988,-12.695,48.828,-71.289,-250.977
1532484896.952,-67.383,-17.578,47.852,-64.453,-41.016
1532484896.956,-71.777,-28.320,45.898,-67.383,59.570
1532484896.960,-56.152,-17.578,43.945,-72.754,-210.449
1532484896.964,-51.758,-3.906,46.387,-73.242,20.996
1532484896.968,-52.734,-28.320,47.852,-51.758,77.637
1532484896.972,-49.805,-29.297,48.340,-41.992,-4.883
1532484896.976,-52.246,-3.418,44.922,-43.457,714.844
1532484896.980,-44.434,-41.992,42.480,-43.945,104.980
1532484896.984,-37.598,-44.922,41.992,-41.992,-418.945
1532484896.988,-36.621,-35.645,40.039,-41.992,-175.293
1532484896.991,-31.738,-31.250,38.086,-42.480,-128.906
1532484896.995,-24.414,-38.086,34.180,-30.273,59.570
1532484896.999,-16.602,-45.898,32.227,-8.301,-153.320
1532484897.003,-3.906,-44.434,33.203,-4.395,-160.156
1532484897.007,2.441,-43.945,28.320,-3.906,-117.676
1532484897.011,2.441,-24.902,20.996,-2.441,9.277
1532484897.015,8.301,-23.438,19.531,-8.789,682.129
1532484897.019,13.184,-76.660,20.020,5.859,370.605
1532484897.023,17.578,-64.941,16.602,15.137,-368.652
1532484897.027,23.438,-38.574,13.184,11.230,-368.164
1532484897.030,26.855,-41.992,11.719,18.066,-270.020
1532484897.034,31.250,-41.504,7.812,21.484,134.766
1532484897.038,36.621,-58.105,7.812,22.949,-36.133
1532484897.042,36.133,-48.828,7.324,25.879,-273.926
1532484897.046,48.828,-44.434,4.883,33.203,-234.375
1532484897.050,57.129,-46.875,3.906,38.574,-177.734
1532484897.054,50.781,-38.574,3.906,46.875,192.383
1532484897.058,54.688,-41.992,4.883,52.246,217.773
1532484897.062,67.871,-45.898,6.836,59.082,0.000
1532484897.066,72.266,-58.594,6.836,70.312,-91.309
1532484897.070,65.918,-61.523,6.836,75.195,-254.395
1532484897.073,65.430,-23.438,6.348,64.453,230.957
1532484897.077,72.266,-42.480,5.371,52.734,704.590
1532484897.081,76.172,-68.848,4.395,69.824,-163.574
1532484897.085,71.777,-47.852,3.418,79.590,-308.594
1532484897.089,71.777,-51.758,4.395,70.312,-143.555
1532484897.093,73.242,-36.133,3.906,68.359,-83.496
1532484897.097,76.172,-52.734,2.930,67.383,-62.988
1532484897.101,79.102,-61.035,5.371,74.707,-175.293
1532484897.105,71.777,-44.922,5.371,78.613,199.219
1532484897.109,70.312,-62.500,7.812,83.008,-92.773
1532484897.113,74.707,-40.527,10.742,78.613,-177.246
1532484897.116,75.684,-32.715,10.742,78.613,729.004
1532484897.120,76.172,-76.660,13.184,81.055,104.492
1532484897.124,72.754,-58.594,11.719,70.801,-417.969
1532484897.128,74.219,-45.898,9.766,66.406,-278.320
1532484897.132,77.637,-53.223,9.766,79.590,-168.457
1532484897.136,80.566,-64.941,12.695,83.496,65.918
1532484897.140,82.520,-59.570,14.648,66.406,-136.719
1532484897.144,79.102,-46.875,11.719,69.824,-246.582
1532484897.148,76.660,-53.223,10.254,74.219,-231.445
1532484897.152,69.336,-39.551,10.254,65.918,171.875
1532484897.155,66.406,-32.227,11.719,61.035,825.195
1532484897.159,68.359,-68.359,12.207,56.152,112.305
1532484897.163,65.430,-53.223,9.766,56.641,-481.445
1532484897.167,68.848,-43.945,7.812,66.895,-230.469
1532484897.171,69.336,-47.852,10.742,52.246,-67.871
1532484897.175,62.988,-42.480,11.719,45.898,134.766
1532484897.179,62.012,-45.410,8.789,54.688,-196.777
1532484897.183,61.035,-41.016,9.766,62.988,-243.164
1532484897.187,57.129,-52.734,11.230,60.059,-108.887
1532484897.191,50.293,-42.969,10.742,50.781,-111.816
1532484897.195,49.316,-31.738,8.789,43.945,136.719
1532484897.198,54.199,-41.016,12.695,56.641,137.207
1532484897.202,56.152,-41.016,14.648,62.012,134.277
1532484897.206,55.176,-52.246,13.672,52.246,-71.289
1532484897.210,54.688,-38.086,14.160,42.969,-358.398
1532484897.214,53.223,-3.906,11.719,40.527,355.469
1532484897.218,52.246,-58.105,13.672,44.922,629.883
1532484897.222,53.223,-74.707,16.602,39.062,-215.332
1532484897.226,46.875,-41.504,14.648,32.227,-317.383
1532484897.230,40.527,-41.992,17.090,38.574,-243.652
1532484897.234,39.551,-30.273,20.020,46.387,59.570
1532484897.238,42.480,-52.246,17.578,40.527,43.945
1532484897.241,45.898,-42.480,15.137,38.086,-226.074
1532484897.245,48.828,-21.484,14.648,50.293,88.867
1532484897.249,49.805,-50.781,15.137,46.387,-55.176
1532484897.253,48.340,-26.367,16.113,32.715,101.562
1532484897.257,43.945,-24.414,19.043,30.762,749.512
1532484897.261,40.039,-57.617,18.066,28.320,-123.047
1532484897.265,42.480,-41.504,16.602,34.180,-428.223
1532484897.269,42.480,-45.410,17.090,37.598,-142.090
1532484897.273,42.969,-40.527,17.578,34.180,-52.734
1532484897.277,44.434,-43.945,17.090,31.250,-37.109
1532484897.280,41.016,-44.434,17.090,28.809,-233.887
1532484897.284,38.574,-40.527,17.578,32.715,-132.324
1532484897.288,34.180,-47.363,18.066,32.715,-130.859
1532484897.292,26.367,-24.414,18.555,23.438,160.156
1532484897.296,25.391,-18.555,20.996,9.277,795.410
1532484897.300,29.297,-62.500,21.484,15.137,105.957
1532484897.304,30.273,-59.570,18.555,22.461,-350.586
1532484897.308,31.250,-43.457,19.531,24.414,-227.539
1532484897.312,34.180,-41.992,20.996,20.020,-203.613
1532484897.316,38.086,-58.105,18.066,19.043,23.438
1532484897.320,32.715,-62.500,16.602,23.926,-117.676
1532484897.323,31.738,-49.316,18.555,14.648,-173.828
1532484897.327,37.109,-44.434,21.973,8.301,-241.699
1532484897.331,40.527,-44.434,22.461,26.855,-155.762
1532484897.335,34.180,-57.617,20.996,30.273,203.613
1532484897.339,31.738,-51.270,20.996,21.973,191.895
1532484897.343,33.203,-35.645,22.461,22.461,81.543
1532484897.347,35.156,-54.688,23.926,18.555,-185.547
1532484897.351,37.598,-43.945,24.902,26.367,-231.445
1532484897.355,38.086,-15.137,24.902,29.785,634.277
1532484897.359,42.480,-62.988,24.902,11.719,417.969
1532484897.362,47.852,-52.734,22.949,16.602,-328.125
1532484897.366,51.270,-43.457,23.438,24.414,-227.051
1532484897.370,45.898,-49.316,24.414,22.461,-123.047
1532484897.374,41.016,-26.367,23.438,27.832,157.715
1532484897.378,44.922,-41.504,25.879,33.203,-128.418
1532484897.382,42.969,-38.086,25.391,33.691,-268.066
1532484897.386,40.039,-31.250,20.996,30.762,218.750
1532484897.390,36.621,-46.875,20.508,28.809,-9.277
1532484897.394,33.203,-8.301,19.531,25.391,169.434
1532484897.398,37.598,-36.621,19.043,22.949,643.555
1532484897.402,44.434,-67.383,22.949,25.391,-155.762
1532484897.405,40.527,-39.551,22.949,29.297,-296.387
1532484897.409,34.180,-37.109,20.020,26.367,-224.609
1532484897.413,37.598,-23.438,22.461,24.414,-98.145
1532484897.417,41.016,-41.016,26.855,33.203,-1.953
1532484897.421,35.645,-49.805,24.414,36.133,-149.414
1532484897.425,32.715,-43.945,21.484,24.902,-177.246
1532484897.429,35.645,-39.062,24.414,25.879,-264.160
1532484897.433,35.645,-33.203,26.367,28.809,186.523
1532484897.437,35.645,-71.289,27.832,26.855,391.113
1532484897.441,30.273,-64.453,27.344,29.785,-197.266
1532484897.445,25.879,-39.551,23.438,10.254,-259.277
1532484897.448,28.320,-62.988,20.508,16.113,-263.672
1532484897.452,28.809,-51.270,23.926,30.273,13.672
1532484897.456,24.902,-43.457,26.367,15.625,702.637
1532484897.460,26.855,-68.359,23.438,15.625,-36.133
1532484897.464,29.297,-54.199,24.902,9.277,-400.391
1532484897.468,29.297,-52.246,25.879,5.859,-147.461
1532484897.472,25.391,-51.758,25.879,9.766,-22.461
1532484897.476,21.973,-53.711,24.414,8.301,189.453
1532484897.480,26.367,-49.316,19.043,16.602,24.414
1532484897.484,24.902,-57.129,19.043,19.531,19.043
1532484897.487,19.531,-73.730,24.414,21.484,-167.480
1532484897.491,19.043,-45.898,25.391,20.996,-159.180
1532484897.495,23.438,-15.137,24.902,13.184,684.570
1532484897.499,27.344,-64.941,22.949,22.949,276.367
1532484897.503,23.926,-65.430,20.508,23.926,-327.148
1532484897.507,20.020,-48.828,18.555,17.090,-204.102
1532484897.511,21.484,-42.969,19.531,14.160,-197.754
1532484897.515,25.391,-45.410,14.648,17.578,119.629
1532484897.519,28.809,-62.500,20.508,27.832,-65.430
1532484897.523,27.344,-49.316,25.879,24.414,-160.645
1532484897.527,25.879,-45.410,20.020,12.207,56.152
1532484897.530,27.832,-51.270,19.043,10.742,-158.691
1532484897.534,34.180,-21.973,18.066,16.113,435.059
1532484897.538,33.203,-68.359,19.531,15.137,554.688
1532484897.542,24.902,-73.730,20.508,9.766,-342.773
1532484897.546,23.438,-43.457,20.996,6.836,-377.441
1532484897.550,20.020,-46.875,20.020,11.230,-195.312
1532484897.554,16.113,-41.016,19.531,16.602,148.438
1532484897.558,17.090,-57.129,21.484,19.043,-30.273
1532484897.562,18.066,-51.270,23.438,20.508,-300.781
1532484897.566,19.043,-51.270,24.414,17.090,-138.672
1532484897.570,26.367,-62.012,21.973,20.508,-168.457
1532484897.573,32.227,-34.180,19.043,22.949,312.012
1532484897.577,28.809,-50.293,25.391,15.625,712.402
1532484897.581,25.391,-74.219,32.227,24.414,-190.918
1532484897.585,29.785,-52.246,29.785,31.250,-333.984
1532484897.589,28.320,-53.223,24.414,13.672,-136.230
1532484897.593,23.926,-42.480,21.973,11.230,-92.285
1532484897.597,29.785,-48.828,20.996,22.949,-58.594
1532484897.601,32.715,-56.152,21.973,19.043,-185.059
1532484897.605,34.668,-54.688,20.996,13.184,-108.398
1532484897.609,34.180,-47.852,20.508,16.602,-163.086
1532484897.612,34.180,-42.969,20.020,17.090,-155.762
1532484897.616,31.738,-54.688,21.484,18.066,24.902
1532484897.620,24.902,-53.223,20.020,22.949,167.969
1532484897.624,27.832,-53.711,15.625,25.391,36.621
1532484897.628,33.203,-54.688,20.996,15.137,-334.473
1532484897.632,39.062,-36.621,24.902,16.602,-100.586
1532484897.636,33.691,-32.227,22.461,20.020,756.836
1532484897.640,19.531,-75.684,23.926,6.348,155.273
1532484897.644,20.020,-62.988,19.531,8.789,-441.895
1532484897.648,23.926,-48.340,17.578,9.277,-261.719
1532484897.652,21.973,-56.641,17.578,14.160,-61.523
1532484897.655,24.902,-70.312,19.043,20.020,173.340
1532484897.659,28.809,-66.895,22.949,9.277,-176.270
1532484897.663,28.809,-45.410,23.926,19.043,-243.164
1532484897.667,30.762,-50.293,22.949,29.297,98.633
1532484897.671,30.762,-55.176,24.414,23.926,170.410
1532484897.675,29.785,-34.180,24.414,17.090,660.645
1532484897.679,35.156,-79.102,24.902,21.484,288.574
1532484897.683,33.691,-76.172,23.438,20.996,-381.348
1532484897.687,32.227,-59.570,23.926,20.996,-182.129
1532484897.691,31.250,-53.223,23.438,20.508,-113.281
1532484897.694,31.250,-39.062,21.484,20.020,102.539
1532484897.698,33.203,-62.988,24.414,23.438,-104.492
1532484897.702,30.762,-63.965,22.949,19.531,-179.688
1532484897.706,33.691,-62.988,16.602,18.555,-98.145
1532484897.710,34.668,-50.293,21.484,13.672,-261.230
1532484897.714,33.203,-25.879,27.344,27.344,356.445
1532484897.718,38.086,-80.078,26.367,37.109,449.219
1532484897.722,35.156,-87.891,26.367,25.879,-245.605
1532484897.726,33.203,-58.105,27.344,23.438,-255.371
1532484897.730,38.574,-54.199,26.367,22.949,-265.625
1532484897.734,32.227,-41.016,24.414,23.438,76.660
1532484897.737,28.320,-68.848,24.414,28.809,122.070
1532484897.741,31.250,-66.895,20.996,23.438,-213.379
1532484897.745,30.762,-51.270,18.555,26.367,-208.496
1532484897.749,28.809,-56.152,20.996,25.879,-174.805
1532484897.753,29.785,-49.316,21.973,27.344,62.012
1532484897.757,32.227,-58.105,20.508,21.484,59.570
1532484897.761,28.809,-49.805,17.578,4.395,10.742
1532484897.765,28.809,-48.828,20.508,15.625,141.602
1532484897.769,33.691,-70.801,23.438,26.855,-168.945
1532484897.773,30.762,-43.945,21.973,28.320,8.301
1532484897.777,34.180,-32.715,18.066,18.555,752.441
1532484897.780,47.363,-70.312,14.160,22.949,8.789
1532484897.784,37.598,-58.105,18.555,23.438,-251.465
1532484897.788,33.691,-61.523,22.461,20.020,-70.801
1532484897.792,37.109,-61.523,20.996,17.578,-187.500
1532484897.796,34.180,-63.477,20.020,12.695,-50.293
1532484897.800,34.180,-65.430,16.602,20.508,-184.082
1532484897.804,30.273,-57.617,16.113,19.531,-71.289
1532484897.808,28.320,-54.199,20.996,10.742,91.797
1532484897.812,30.762,-51.270,20.020,10.254,54.199
1532484897.816,31.738,-38.574,17.578,14.160,673.828
1532484897.819,32.715,-81.543,18.555,19.043,245.117
1532484897.823,28.809,-75.195,20.020,16.602,-369.629
1532484897.827,28.809,-49.805,19.043,19.531,-288.574
1532484897.831,30.762,-49.805,14.648,19.531,-189.453
1532484897.835,24.414,-64.453,13.672,8.789,147.461
1532484897.839,20.996,-74.219,17.090,3.418,-91.797
1532484897.843,20.996,-56.152,13.672,7.812,-244.629
1532484897.847,27.344,-58.105,15.137,19.531,-246.582
1532484897.851,30.273,-52.734,19.531,20.508,-130.371
1532484897.855,24.414,-42.480,18.555,16.113,464.355
1532484897.859,28.809,-65.430,18.066,20.020,178.223
1532484897.862,32.715,-60.547,17.578,20.020,-322.266
1532484897.866,36.621,-58.105,18.555,25.391,-173.340
1532484897.870,35.645,-59.570,19.531,24.902,-131.348
1532484897.874,26.367,-29.785,16.113,17.578,443.359
1532484897.878,30.273,-72.266,19.043,19.043,326.172
1532484897.882,29.297,-76.660,20.996,18.555,-347.656
1532484897.886,26.367,-62.012,20.996,21.973,-167.969
1532484897.890,27.344,-64.453,22.949,20.020,-108.398
1532484897.894,24.414,-43.945,21.973,6.836,5.859
1532484897.898,26.367,-59.082,23.438,18.066,-57.617
1532484897.902,35.156,-60.547,24.902,31.738,73.242
1532484897.905,37.109,-64.941,23.438,28.320,185.059
1532484897.909,26.855,-69.824,23.438,17.578,-313.965
1532484897.913,23.438,-32.227,23.926,9.277,15.137
1532484897.917,26.855,-53.711,24.414,0.000,756.348
1532484897.921,32.715,-90.332,25.879,10.742,-10.742
1532484897.925,29.297,-61.035,24.414,19.043,-352.051
1532484897.929,27.832,-57.129,22.949,13.672,-243.652
1532484897.933,28.320,-55.176,23.926,20.996,-97.168
1532484897.937,29.297,-66.406,26.855,28.809,87.402
1532484897.941,29.785,-66.406,25.879,18.555,-158.203
1532484897.944,29.785,-47.852,22.949,15.137,-177.246
1532484897.948,30.273,-47.363,22.949,26.367,10.742
1532484897.952,26.855,-47.852,25.391,29.785,262.207
1532484897.956,28.809,-46.875,25.391,14.648,778.320
1532484897.960,38.574,-73.242,22.461,6.836,40.039
1532484897.964,36.133,-61.523,23.926,23.438,-444.336
1532484897.968,29.297,-57.129,27.344,26.367,-169.434
1532484897.972,32.715,-64.453,25.879,16.602,-57.129
1532484897.976,33.203,-69.336,21.973,17.578,39.062
1532484897.980,32.715,-65.430,21.973,19.531,-227.051
1532484897.984,35.645,-62.500,22.949,32.227,-149.414
1532484897.987,37.598,-72.266,25.391,37.109,-88.867
1532484897.991,34.668,-57.129,24.414,22.461,-76.172
1532484897.995,35.156,-47.852,21.484,20.996,376.465
1532484897.999,37.109,-74.707,26.855,25.879,125.488
1532484898.003,35.645,-73.730,31.250,26.855,-153.809
1532484898.007,30.762,-69.336,27.344,23.438,-143.555
1532484898.011,30.273,-53.223,24.902,16.602,-207.031
1532484898.015,34.668,-32.227,24.414,21.973,544.434
1532484898.019,34.668,-85.938,27.832,29.785,295.410
1532484898.023,28.320,-84.473,29.785,17.090,-309.570
1532484898.027,21.484,-65.918,26.855,10.742,-239.746
1532484898.030,20.508,-64.453,25.879,16.113,-203.613
1532484898.034,22.949,-60.059,25.391,7.812,163.086
1532484898.038,19.531,-76.172,21.973,21.973,20.508
1532484898.042,16.602,-56.152,19.043,22.949,38.086
1532484898.046,20.020,-70.312,25.391,10.254,43.945
1532484898.050,26.855,-77.637,28.320,17.578,-294.922
1532484898.054,23.438,-36.133,26.855,12.695,354.004
1532484898.058,20.020,-78.125,25.391,9.766,664.062
1532484898.062,21.973,-94.727,24.414,3.418,-276.367
1532484898.066,21.484,-65.918,23.438,17.578,-330.078
1532484898.069,21.973,-80.078,26.855,35.645,-113.770
1532484898.073,20.020,-63.965,27.832,23.926,39.551
1532484898.077,21.484,-67.383,27.832,15.137,-54.688
1532484898.081,24.902,-75.684,27.344,10.254,-291.016
1532484898.085,23.438,-72.266,27.344,18.066,-55.664
1532484898.089,18.066,-76.172,26.855,21.484,62.500
1532484898.093,17.578,-59.570,25.879,13.184,183.105
1532484898.097,24.902,-61.523,24.414,19.043,702.637
1532484898.101,34.180,-96.191,24.902,23.438,22.949
1532484898.105,31.250,-83.496,25.879,21.484,-337.891
1532484898.109,25.879,-70.312,22.949,14.160,-195.801
1532484898.112,30.762,-66.406,22.461,22.461,-191.406
1532484898.116,38.086,-81.055,23.926,34.668,-13.672
1532484898.120,38.086,-82.520,22.949,39.062,-98.145
1532484898.124,31.250,-70.801,23.438,27.344,-127.441
1532484898.128,30.762,-72.754,23.926,13.672,-222.168
1532484898.132,31.738,-72.754,26.855,29.785,-126.465
1532484898.136,30.762,-76.660,26.855,38.574,251.465
1532484898.140,28.320,-78.125,25.391,25.391,135.254
1532484898.144,22.949,-76.172,26.367,12.207,-172.363
1532484898.148,26.367,-79.102,25.391,11.230,-291.504
1532484898.151,31.738,-67.383,26.367,27.344,-53.711
1532484898.155,28.320,-48.340,24.414,21.973,746.094
1532484898.159,23.438,-89.355,22.949,11.230,188.477
1532484898.163,22.461,-80.566,21.973,10.254,-450.195
1532484898.167,28.320,-68.848,20.020,11.719,-228.027
1532484898.171,28.809,-71.777,24.414,9.277,-46.875
1532484898.175,19.531,-70.801,28.809,2.441,310.059
1532484898.179,26.855,-76.172,28.320,9.277,-85.449
1532484898.183,37.109,-63.477,24.902,10.742,0.977
1532484898.187,27.344,-93.262,24.414,13.672,104.980
1532484898.191,22.949,-80.566,23.926,21.973,-247.559
1532484898.194,23.438,-31.250,22.461,4.395,467.773
1532484898.198,28.320,-87.402,24.414,12.207,506.348
1532484898.202,26.367,-98.145,23.438,21.973,-280.273
1532484898.206,24.902,-64.941,22.461,8.301,-148.438
1532484898.210,32.715,-70.801,22.949,15.625,-183.105
1532484898.214,30.762,-57.129,21.484,19.531,-40.039
1532484898.218,26.367,-75.684,23.438,17.090,-26.367
1532484898.222,34.180,-84.961,25.879,18.555,-202.637
1532484898.226,34.180,-69.824,24.902,22.461,-125.000
1532484898.230,29.297,-64.941,21.484,28.320,-65.430
1532484898.234,27.832,-58.594,20.020,23.438,331.543
1532484898.237,28.320,-84.961,24.414,17.578,688.477
1532484898.241,31.738,-96.191,26.367,18.555,-160.645
1532484898.245,30.762,-70.801,23.438,15.137,-427.734
1532484898.249,28.809,-76.660,24.414,18.066,-209.473
1532484898.253,31.738,-69.824,26.367,14.648,-2.930
1532484898.257,38.086,-77.148,24.902,21.484,17.578
1532484898.261,41.016,-77.637,24.902,17.578,-251.953
1532484898.265,43.945,-69.336,26.855,24.902,-193.359
1532484898.269,45.410,-76.172,27.344,34.668,-126.465
1532484898.273,38.574,-71.289,26.367,22.949,-9.277
1532484898.276,34.180,-62.988,26.855,20.020,203.125
1532484898.280,37.109,-71.777,26.367,23.438,51.758
1532484898.284,40.039,-82.031,24.902,21.973,-96.680
1532484898.288,39.062,-83.008,21.973,17.578,-190.430
1532484898.292,34.668,-60.547,21.973,13.184,-40.527
1532484898.296,29.785,-45.410,21.973,20.020,730.469
1532484898.300,29.785,-92.285,22.949,26.855,161.621
1532484898.304,29.297,-93.750,24.414,30.762,-334.961
1532484898.308,27.832,-76.660,22.949,31.738,-198.242
1532484898.312,31.738,-72.754,21.484,15.137,-171.875
1532484898.316,30.762,-84.473,21.484,24.414,53.711
1532484898.319,26.855,-88.867,22.461,29.785,-67.871
1532484898.323,23.926,-71.289,23.438,14.648,122.559
1532484898.327,31.738,-86.426,25.391,26.367,-82.520
1532484898.331,35.156,-75.195,21.484,19.043,-260.742
1532484898.335,23.926,-57.129,19.043,16.113,676.270
1532484898.339,26.855,-108.887,24.414,23.438,351.562
1532484898.343,28.320,-90.820,25.391,11.719,-416.016
1532484898.347,31.250,-72.754,23.438,10.254,-312.012
1532484898.351,31.738,-81.055,21.973,19.531,-130.371
1532484898.355,24.414,-81.055,23.926,18.066,208.496
1532484898.359,22.949,-85.449,26.855,8.789,-85.938
1532484898.362,22.461,-74.707,27.832,10.254,-310.059
1532484898.366,22.461,-81.055,26.367,16.113,-98.633
1532484898.370,19.531,-79.102,27.344,15.625,68.359
1532484898.374,19.531,-57.129,28.320,21.484,502.930
1532484898.378,24.902,-96.680,28.320,19.043,488.770
1532484898.382,28.320,-106.445,29.785,22.949,-306.641
1532484898.386,25.879,-84.961,28.320,23.926,-278.809
1532484898.390,19.531,-86.426,27.344,14.648,-159.668
1532484898.394,21.484,-70.312,25.391,7.812,-23.926
1532484898.398,29.785,-86.914,22.949,16.602,-91.797
1532484898.401,29.785,-89.844,24.902,29.297,-199.219
1532484898.405,27.832,-86.426,29.297,34.668,-76.172
1532484898.409,22.949,-85.449,28.809,24.414,-201.172
1532484898.413,23.438,-70.801,25.391,16.602,-46.387
1532484898.417,26.367,-81.543,24.902,21.484,246.094
1532484898.421,26.855,-89.844,27.344,21.973,179.688
1532484898.425,29.297,-89.844,31.250,26.367,20.996
1532484898.429,34.668,-95.215,28.320,21.973,-355.469
1532484898.433,38.574,-70.312,24.414,16.113,-55.664
1532484898.437,38.574,-72.754,23.926,20.020,762.207
1532484898.441,36.621,-104.492,23.438,19.043,27.344
1532484898.444,34.180,-83.008,25.391,16.602,-446.777
1532484898.448,30.273,-75.684,26.367,22.949,-225.098
1532484898.452,25.391,-79.102,26.855,18.066,-65.918
1532484898.456,25.391,-91.309,25.391,13.184,29.297
1532484898.460,26.367,-83.008,24.902,16.602,-213.379
1532484898.464,31.250,-63.965,26.367,12.207,66.406
1532484898.468,36.621,-94.727,26.855,20.996,28.809
1532484898.472,41.016,-82.520,25.879,26.367,-82.031
1532484898.476,46.387,-42.969,33.203,25.391,720.215
1532484898.480,44.434,-90.820,31.738,31.738,125.488
1532484898.484,32.227,-96.191,20.996,23.438,-422.852
1532484898.487,28.809,-85.449,25.391,16.113,-182.129
1532484898.491,28.809,-79.590,25.879,10.742,-136.230
1532484898.495,34.180,-77.637,22.949,13.672,36.621
1532484898.499,38.086,-86.914,31.738,23.438,-166.504
1532484898.503,34.668,-83.496,36.133,23.438,-169.434
1532484898.507,30.273,-80.566,30.762,12.695,-105.469
1532484898.511,31.250,-61.035,25.391,17.090,-16.602
1532484898.515,34.180,-51.270,29.297,23.926,613.281
1532484898.519,35.156,-108.887,29.785,28.809,414.062
1532484898.523,28.320,-107.422,25.391,21.484,-312.012
1532484898.526,25.879,-81.055,24.902,10.742,-314.941
1532484898.530,33.203,-77.637,21.973,8.301,-227.539
1532484898.534,33.203,-68.359,20.020,15.625,139.160
1532484898.538,27.344,-91.309,22.949,20.508,-2.441
1532484898.542,21.973,-86.426,20.996,6.836,-248.047
1532484898.546,26.855,-81.055,21.484,6.348,-206.543
1532484898.550,32.715,-81.055,24.414,23.926,-158.203
1532484898.554,28.809,-67.383,24.902,23.438,168.945
1532484898.558,26.367,-77.637,24.414,21.973,220.703
1532484898.562,30.273,-80.078,23.438,15.625,-4.395
1532484898.566,36.133,-85.938,23.926,23.438,-108.398
1532484898.569,29.297,-95.215,23.926,34.668,-244.629
1532484898.573,19.043,-60.547,21.973,25.879,190.430
1532484898.577,24.902,-73.730,21.484,20.020,722.168
1532484898.581,34.180,-109.863,22.949,19.531,-138.672
1532484898.585,36.621,-90.820,22.949,11.719,-323.730
1532484898.589,34.180,-88.867,22.949,23.438,-132.812
1532484898.593,27.832,-70.801,20.508,28.809,-94.727
1532484898.597,30.762,-79.590,20.020,29.297,-65.918
1532484898.601,33.203,-85.449,21.484,32.227,-181.641
1532484898.605,23.438,-70.801,20.508,24.902,205.078
1532484898.608,22.461,-85.938,20.996,21.973,-18.066
1532484898.612,25.879,-64.453,21.484,18.066,-165.527
1532484898.616,25.391,-48.828,18.066,14.160,725.098
1532484898.620,27.832,-98.145,21.973,25.879,146.973
1532484898.624,30.273,-82.031,25.391,15.625,-409.668
1532484898.628,31.738,-60.547,20.508,7.812,-172.363
1532484898.632,31.250,-77.148,20.996,20.996,-128.906
1532484898.636,26.855,-90.820,24.902,25.391,27.832
1532484898.640,20.020,-85.938,23.926,20.020,-120.117
1532484898.644,21.484,-74.219,24.414,9.277,-233.398
1532484898.648,23.926,-78.125,24.902,17.090,-217.773
1532484898.651,19.043,-70.312,21.973,24.902,151.855
1532484898.655,14.648,-62.500,25.879,15.625,813.477
1532484898.659,18.555,-102.539,26.855,11.230,161.133
1532484898.663,20.996,-91.797,22.949,13.184,-467.773
1532484898.667,19.531,-78.125,22.461,23.926,-253.418
1532484898.671,17.578,-79.102,23.926,30.273,-84.473
1532484898.675,15.137,-79.102,24.414,12.695,137.695
1532484898.679,18.555,-86.426,23.438,4.395,-182.129
1532484898.683,22.949,-79.590,21.484,14.160,-232.422
1532484898.687,24.902,-86.426,19.531,17.090,-84.961
1532484898.691,23.438,-74.707,19.043,10.742,-105.469
1532484898.694,24.902,-62.988,20.996,8.301,130.859
1532484898.698,30.762,-76.172,21.973,20.020,139.160
1532484898.702,29.297,-83.496,17.090,26.855,81.543
1532484898.706,25.391,-92.773,23.438,13.672,-59.082
1532484898.710,22.461,-82.520,30.273,10.742,-332.520
1532484898.714,23.438,-45.898,27.344,19.531,291.504
1532484898.718,31.738,-93.750,26.367,19.043,650.879
1532484898.722,35.156,-112.305,24.902,16.113,-187.988
1532484898.726,28.809,-75.684,21.484,16.113,-335.449
1532484898.730,32.715,-70.801,19.531,20.508,-242.188
1532484898.733,31.738,-61.523,19.043,12.695,33.203
1532484898.737,29.785,-85.938,20.508,5.371,47.852
1532484898.741,27.344,-81.055,24.902,17.578,-195.801
1532484898.745,27.344,-63.477,23.926,23.926,97.168
1532484898.749,34.668,-87.891,22.461,25.879,-44.922
1532484898.753,30.273,-68.848,20.996,24.902,71.777
1532484898.757,26.855,-66.895,18.555,19.531,749.512
1532484898.761,36.133,-101.562,20.508,23.438,-78.613
1532484898.765,37.598,-83.984,22.461,22.461,-433.594
1532484898.769,35.645,-83.008,21.973,25.879,-136.230
1532484898.773,40.527,-78.613,19.531,21.973,-46.387
1532484898.776,38.574,-82.031,19.043,20.508,-40.527
1532484898.780,36.621,-82.031,19.043,31.250,-248.047
1532484898.784,39.062,-78.613,20.020,28.809,-148.926
1532484898.788,37.598,-89.355,19.043,14.648,-124.023
1532484898.792,28.809,-70.312,17.578,12.695,159.180
1532484898.796,28.809,-61.523,20.996,13.672,789.062
1532484898.800,35.645,-100.586,23.926,16.113,113.281
1532484898.804,33.203,-97.656,25.879,26.367,-333.496
1532484898.808,28.320,-83.984,23.926,16.113,-200.195
1532484898.812,31.250,-79.102,23.438,15.137,-213.867
1532484898.816,33.691,-89.355,25.879,22.949,14.160
1532484898.819,35.645,-93.262,25.391,25.391,-112.305
1532484898.823,36.621,-80.078,26.367,15.137,-162.109
1532484898.827,36.133,-82.031,27.344,9.277,-215.820
1532484898.831,36.133,-83.008,23.926,10.742,-165.039
1532484898.835,36.133,-87.891,23.926,17.090,191.406
1532484898.839,33.203,-86.914,25.391,17.090,189.453
1532484898.843,33.691,-77.637,22.461,10.742,61.035
1532484898.847,36.621,-95.215,23.926,20.996,-100.586
1532484898.851,35.156,-87.402,26.855,23.926,-234.375
1532484898.855,33.203,-59.082,28.320,23.926,581.055
1532484898.858,35.156,-111.816,25.391,32.715,473.633
1532484898.862,36.133,-108.398,20.020,30.762,-393.066
1532484898.866,36.621,-90.820,27.832,25.879,-271.484
1532484898.870,33.691,-102.051,31.738,33.203,-101.074
1532484898.874,28.809,-79.102,28.320,27.344,155.762
1532484898.878,31.738,-93.262,29.785,27.344,-107.910
1532484898.882,33.203,-95.215,28.320,31.250,-266.602
1532484898.886,31.738,-88.379,25.391,32.227,216.309
1532484898.890,31.250,-100.586,25.879,30.762,65.430
1532484898.894,25.879,-69.824,24.902,18.555,186.523
1532484898.898,32.227,-90.820,28.809,27.344,648.926
1532484898.901,40.527,-121.094,32.227,38.574,-118.652
1532484898.905,36.621,-95.703,26.367,21.973,-307.617
1532484898.909,32.227,-88.379,23.926,11.719,-221.680
1532484898.913,31.738,-74.219,26.367,20.508,-102.539
1532484898.917,32.715,-94.238,23.438,24.414,4.883
1532484898.921,31.250,-103.516,22.949,19.043,-140.137
1532484898.925,27.344,-89.355,22.949,15.137,-138.184
1532484898.929,27.344,-89.355,20.508,12.695,-264.648
1532484898.933,29.297,-76.660,20.508,16.113,160.645
1532484898.937,26.855,-88.867,21.973,12.207,804.688
1532484898.940,29.785,-118.164,21.973,16.602,18.555
1532484898.944,32.227,-91.797,20.508,24.902,-448.730
1532484898.948,28.320,-88.379,20.508,16.113,-247.559
1532484898.952,22.461,-104.004,20.508,6.836,-75.195
1532484898.956,22.461,-113.281,20.020,6.348,45.410
1532484898.960,19.043,-102.539,19.043,10.254,-214.844
1532484898.964,17.578,-96.191,16.602,4.883,-244.141
1532484898.968,18.066,-104.492,15.137,7.812,-137.695
1532484898.972,15.137,-107.422,13.184,8.789,-14.648
1532484898.976,11.230,-109.375,12.207,-0.977,68.848
1532484898.980,12.207,-94.727,15.625,5.859,6.348
1532484898.983,18.066,-95.703,15.625,10.254,119.141
1532484898.987,17.578,-123.535,15.137,4.395,-98.633
1532484898.991,18.555,-99.121,19.043,10.254,-176.270
1532484898.995,35.645,-57.129,26.367,27.832,660.156
1532484898.999,41.016,-117.676,22.461,26.367,301.270
1532484899.003,33.203,-125.488,17.578,17.578,-325.195
1532484899.007,32.715,-104.004,19.043,12.695,-198.730
1532484899.011,36.621,-97.656,18.555,13.184,-196.289
1532484899.015,35.645,-95.703,20.020,16.602,128.418
1532484899.019,35.645,-114.258,23.438,20.508,-31.250
1532484899.023,36.621,-107.422,22.461,19.043,-145.020
1532484899.026,35.156,-100.586,20.020,18.066,108.887
1532484899.030,37.598,-97.168,21.484,22.461,-51.270
1532484899.034,35.156,-69.824,20.996,21.484,402.832
1532484899.038,32.227,-120.605,22.949,15.137,563.477
1532484899.042,31.250,-133.301,26.855,13.184,-295.410
1532484899.046,27.832,-102.051,23.926,13.672,-368.164
1532484899.050,34.180,-97.656,21.973,18.555,-77.148
1532484899.054,37.109,-97.656,23.926,10.742,141.113
1532484899.058,25.879,-113.770,26.855,15.625,-83.984
1532484899.062,22.949,-102.051,26.855,17.578,-291.016
1532484899.065,28.320,-98.145,27.832,15.137,-180.664
1532484899.069,30.762,-102.051,29.785,21.484,-142.578
1532484899.073,28.809,-84.473,28.809,15.625,310.547
1532484899.077,25.879,-112.305,30.273,9.277,366.699
1532484899.081,30.273,-118.652,29.785,12.207,-288.086
1532484899.085,29.785,-107.422,26.855,16.113,-188.477
1532484899.089,19.043,-111.328,25.391,13.184,-161.133
1532484899.093,18.555,-93.262,23.438,0.488,-26.367
1532484899.097,31.250,-110.840,23.438,4.883,217.285
