timestamps,TP9,AF7,AF8,TP10,Right AUX
1532486113.256,22.949,41.992,27.344,24.414,-796.387
1532486113.260,28.320,43.945,29.297,39.551,-779.785
1532486113.264,33.203,52.246,30.273,38.086,-67.871
1532486113.268,28.809,43.945,32.227,29.297,-39.551
1532486113.272,27.832,38.574,31.738,10.254,-717.285
1532486113.275,34.668,50.781,28.809,28.809,-33.691
1532486113.279,34.668,50.293,27.832,48.340,336.914
1532486113.283,27.344,55.176,28.320,40.039,266.602
1532486113.287,21.973,47.363,30.762,20.996,755.371
1532486113.291,28.809,28.320,35.645,7.324,-252.441
1532486113.295,40.039,41.504,42.969,52.246,-783.691
1532486113.299,43.457,45.898,45.410,62.988,-652.832
1532486113.303,42.480,56.641,43.457,39.551,-488.281
1532486113.307,45.410,55.176,44.434,52.246,-221.680
1532486113.311,51.758,53.223,49.805,36.133,-574.707
1532486113.315,50.293,57.617,53.711,60.059,-563.965
1532486113.318,45.898,54.199,50.781,65.918,-592.285
1532486113.322,45.898,75.195,51.758,40.039,23.926
1532486113.326,47.852,84.473,54.688,49.316,884.766
1532486113.330,50.293,54.688,54.688,68.359,92.773
1532486113.334,52.246,55.176,60.059,62.988,-630.859
1532486113.338,56.152,70.801,62.988,27.344,-838.379
1532486113.342,56.641,79.102,59.570,27.344,-692.871
1532486113.346,54.199,69.336,58.594,62.012,21.973
1532486113.350,53.711,58.594,60.547,52.734,-343.750
1532486113.354,47.852,69.824,57.617,42.969,-687.012
1532486113.358,43.945,77.637,53.711,41.016,-760.742
1532486113.361,43.457,68.359,54.199,50.781,-505.859
1532486113.365,44.434,62.988,56.641,53.711,278.320
1532486113.369,39.551,71.777,61.035,42.480,393.066
1532486113.373,32.715,75.195,59.570,39.062,432.617
1532486113.377,35.645,58.594,55.176,26.367,-64.453
1532486113.381,37.598,58.594,51.758,51.758,-458.008
1532486113.385,27.832,73.242,46.875,47.363,665.039
1532486113.389,28.320,34.180,41.992,22.949,471.680
1532486113.393,32.715,27.344,38.086,20.508,-631.348
1532486113.397,37.109,44.434,36.133,31.250,-673.828
1532486113.400,41.504,41.992,36.133,27.832,-571.289
1532486113.404,38.086,53.711,31.738,24.902,114.258
1532486113.408,42.969,48.340,29.297,27.832,-232.422
1532486113.412,45.410,37.598,33.691,39.551,-671.387
1532486113.416,36.621,39.551,34.668,51.270,121.094
1532486113.420,36.133,45.410,32.715,41.504,309.570
1532486113.424,35.645,62.012,31.738,28.809,458.984
1532486113.428,32.227,40.039,31.250,7.812,737.305
1532486113.432,34.180,21.484,34.180,28.320,-242.676
1532486113.436,32.715,36.621,34.668,36.133,-731.934
1532486113.440,29.785,41.992,34.180,12.695,-868.652
1532486113.443,29.785,51.758,34.668,42.480,-382.324
1532486113.447,28.809,38.086,36.621,57.617,-47.852
1532486113.451,23.926,35.156,36.133,40.527,-535.645
1532486113.455,22.461,43.945,36.133,13.184,-688.965
1532486113.459,27.344,47.363,36.133,19.043,-743.652
1532486113.463,22.949,59.570,34.668,39.551,103.516
1532486113.467,24.414,48.340,34.180,25.879,897.461
1532486113.471,33.691,29.297,33.691,28.809,-165.527
1532486113.475,30.762,44.922,34.668,33.691,-826.172
1532486113.479,29.785,48.828,34.668,40.527,-720.215
1532486113.482,30.273,39.551,34.668,43.945,-422.852
1532486113.486,19.043,34.180,34.180,20.996,-82.520
1532486113.490,19.043,42.969,32.715,11.719,-601.074
1532486113.494,27.344,51.270,35.645,29.297,-650.391
1532486113.498,23.926,45.410,36.621,35.156,-513.672
1532486113.502,19.043,42.480,34.180,2.930,-367.188
1532486113.506,22.461,47.852,35.156,-3.906,43.945
1532486113.510,28.320,51.270,36.133,18.555,165.039
1532486113.514,24.902,42.969,32.227,50.293,502.930
1532486113.518,19.043,32.227,32.715,28.320,-121.094
1532486113.522,17.090,49.805,36.133,-5.859,-528.809
1532486113.525,21.484,70.801,35.156,23.438,674.805
1532486113.529,30.762,35.645,36.621,59.570,362.793
1532486113.533,31.250,39.551,37.109,40.039,-322.754
1532486113.537,31.738,49.805,35.645,16.113,-545.410
1532486113.541,37.109,50.293,36.621,29.785,-704.590
1532486113.545,37.109,52.246,37.598,44.922,179.199
1532486113.549,37.598,34.668,41.992,59.082,-144.531
1532486113.553,40.527,40.039,38.086,46.875,-638.184
1532486113.557,41.992,50.293,34.668,28.320,-12.695
1532486113.561,45.410,48.828,37.598,34.668,385.254
1532486113.565,38.086,57.617,36.621,25.879,827.148
1532486113.568,35.156,31.250,33.203,34.180,549.805
1532486113.572,38.086,27.344,31.738,45.898,-599.121
1532486113.576,36.133,45.410,31.738,30.762,-842.773
1532486113.580,35.156,42.480,35.156,35.156,-655.762
1532486113.584,26.367,48.340,35.156,33.203,29.297
1532486113.588,22.461,41.016,33.691,32.227,-217.285
1532486113.592,24.902,37.598,37.598,31.250,-774.902
1532486113.596,24.902,25.879,38.086,29.785,-563.477
1532486113.600,27.344,27.344,38.574,41.992,-532.715
1532486113.604,25.391,47.852,36.133,35.156,213.867
1532486113.607,29.297,43.457,30.273,18.066,424.316
1532486113.611,36.621,39.062,30.273,7.324,-376.953
1532486113.615,32.227,40.527,35.156,33.203,-376.953
1532486113.619,26.855,35.645,36.133,59.082,-576.660
1532486113.623,21.973,62.500,30.273,42.969,-263.672
1532486113.627,28.809,63.965,30.273,32.227,792.480
1532486113.631,32.715,32.715,35.645,30.762,59.570
1532486113.635,30.762,41.016,38.086,36.621,-590.820
1532486113.639,32.715,47.852,35.645,28.320,-702.637
1532486113.643,40.527,46.875,33.691,32.227,-525.879
1532486113.647,45.898,40.039,36.133,71.777,20.996
1532486113.650,42.969,44.922,38.086,57.129,295.898
1532486113.654,40.039,45.898,36.621,48.828,272.949
1532486113.658,41.992,41.992,34.668,40.039,-538.086
1532486113.662,44.434,53.223,34.180,8.789,-437.988
1532486113.666,42.969,62.988,33.691,33.691,755.859
1532486113.670,48.828,38.574,36.133,50.781,112.305
1532486113.674,42.969,43.945,33.691,31.738,-778.320
1532486113.678,39.551,53.711,33.203,32.227,-744.141
1532486113.682,43.457,47.852,36.133,38.574,-431.152
1532486113.686,43.457,43.457,38.574,17.090,136.719
1532486113.690,44.922,40.527,41.504,14.160,-467.285
1532486113.693,43.457,44.922,39.551,39.551,-694.824
1532486113.697,41.504,46.387,37.598,50.293,15.137
1532486113.701,38.086,56.641,39.062,52.734,437.988
1532486113.705,41.016,66.406,37.598,41.016,858.398
1532486113.709,48.340,35.156,37.598,17.578,312.988
1532486113.713,38.086,31.738,38.086,33.203,-536.621
1532486113.717,34.668,38.574,35.645,36.621,-675.293
1532486113.721,35.645,47.363,37.109,34.668,-702.637
1532486113.725,33.691,62.988,38.574,39.551,20.020
1532486113.729,33.203,52.734,39.062,38.086,-224.609
1532486113.732,31.250,49.805,38.574,41.504,-587.891
1532486113.736,26.855,50.293,36.621,24.414,-574.707
1532486113.740,26.855,51.758,34.668,18.555,-777.344
1532486113.744,33.203,66.895,33.203,20.508,335.938
1532486113.748,34.180,38.086,36.133,43.457,679.688
1532486113.752,26.855,28.809,35.645,55.176,-429.688
1532486113.756,21.973,47.852,32.715,34.180,-746.094
1532486113.760,27.832,46.875,33.203,19.043,-767.578
1532486113.764,34.668,56.641,35.645,29.297,-34.668
1532486113.768,31.250,45.898,40.527,29.785,102.539
1532486113.772,23.926,43.457,35.645,36.133,-636.719
1532486113.775,35.156,53.223,34.180,58.105,-664.062
1532486113.779,36.621,47.852,38.574,44.434,-558.594
1532486113.783,31.738,46.387,39.551,36.621,-105.957
1532486113.787,32.715,46.387,41.992,51.270,5.371
1532486113.791,33.691,55.664,41.504,36.133,78.125
1532486113.795,40.039,53.711,37.109,32.715,535.156
1532486113.799,46.387,36.621,37.598,55.664,-137.207
1532486113.803,40.039,53.711,41.504,59.082,-259.277
1532486113.807,35.645,62.500,40.039,51.270,765.137
1532486113.811,45.898,34.668,40.039,37.598,30.762
1532486113.815,50.293,39.062,41.992,22.461,-589.844
1532486113.818,50.781,49.805,40.039,46.875,-612.793
1532486113.822,51.270,56.641,39.062,57.129,-583.496
1532486113.826,48.340,53.223,40.039,44.922,-62.012
1532486113.830,49.805,47.363,40.527,50.781,-362.305
1532486113.834,48.828,57.617,40.527,33.691,-502.930
1532486113.838,38.574,59.082,41.016,24.902,-18.555
1532486113.842,48.340,51.270,43.457,18.066,190.918
1532486113.846,52.246,65.430,42.480,30.762,740.234
1532486113.850,43.945,41.992,42.969,64.453,249.023
1532486113.854,39.551,37.109,42.969,38.574,-669.922
1532486113.857,40.039,53.711,41.504,9.277,-867.188
1532486113.861,43.457,60.547,40.039,32.227,-612.793
1532486113.865,45.898,55.176,39.551,62.988,160.645
1532486113.869,45.898,46.875,37.109,64.941,-319.824
1532486113.873,40.527,52.734,36.133,42.969,-751.465
1532486113.877,39.062,48.340,39.062,21.484,-647.949
1532486113.881,41.504,49.316,42.969,33.691,-512.207
1532486113.885,36.133,65.430,41.504,44.434,583.984
1532486113.889,39.551,44.434,41.992,44.434,464.355
1532486113.893,48.340,38.574,40.039,31.738,-518.555
1532486113.897,41.992,44.922,39.551,43.457,-511.719
1532486113.900,33.691,43.945,41.992,63.965,-482.910
1532486113.904,28.320,56.641,39.062,41.992,362.305
1532486113.908,30.273,38.086,38.086,43.457,227.051
1532486113.912,39.062,35.156,38.574,47.852,-540.527
1532486113.916,42.969,41.504,40.039,35.156,-452.637
1532486113.920,35.156,41.992,40.527,16.602,-584.961
1532486113.924,29.785,54.199,39.551,13.184,-73.242
1532486113.928,38.086,44.922,41.504,46.387,-23.926
1532486113.932,34.668,47.852,39.062,52.246,81.055
1532486113.936,23.926,48.340,35.156,34.180,557.129
1532486113.939,21.973,33.203,35.156,23.926,-335.449
1532486113.943,26.367,54.199,34.180,28.809,-145.996
1532486113.947,31.250,44.922,36.133,33.691,863.281
1532486113.951,28.809,20.508,39.062,34.180,-115.723
1532486113.955,20.996,41.504,36.621,23.438,-544.922
1532486113.959,20.020,42.969,38.574,21.973,-579.102
1532486113.963,20.020,43.945,39.062,33.691,-381.348
1532486113.967,24.414,35.645,40.527,41.504,45.410
1532486113.971,24.902,35.156,40.039,16.113,-549.805
1532486113.975,24.902,41.016,37.109,31.738,-706.055
1532486113.979,22.949,45.410,37.598,48.828,-38.086
1532486113.982,20.508,52.734,35.645,32.227,512.695
1532486113.986,20.508,57.129,33.203,21.973,840.332
1532486113.990,24.414,35.645,38.086,18.066,-42.480
1532486113.994,30.762,39.551,38.086,31.738,-716.309
1532486113.998,30.273,47.363,37.598,30.273,-630.371
1532486114.002,25.879,43.457,40.039,26.855,-477.539
1532486114.006,31.250,44.434,39.551,24.902,-63.477
1532486114.010,37.598,41.016,41.016,27.344,-497.559
1532486114.014,37.598,35.156,40.527,28.320,-546.875
1532486114.018,28.809,34.668,41.992,49.805,-518.555
1532486114.022,27.832,47.363,42.969,44.922,-526.855
1532486114.025,26.855,55.664,39.551,31.250,400.391
1532486114.029,25.879,48.828,42.480,31.250,644.531
1532486114.033,28.320,40.527,45.898,21.973,245.605
1532486114.037,28.320,39.062,44.434,39.062,-422.852
1532486114.041,24.902,51.758,40.527,37.109,-646.973
1532486114.045,25.879,70.801,40.039,21.973,605.957
1532486114.049,30.273,39.551,43.457,35.645,564.941
1532486114.053,25.391,26.855,41.992,42.480,-517.578
1532486114.057,23.926,41.016,40.527,38.086,-793.945
1532486114.061,32.227,51.758,39.551,44.434,-645.996
1532486114.064,27.832,54.199,35.156,50.293,208.008
1532486114.068,26.367,39.551,35.156,46.387,-99.609
1532486114.072,29.785,53.711,37.109,48.340,-80.566
1532486114.076,34.668,47.852,38.086,43.457,400.391
1532486114.080,36.133,29.785,36.133,40.039,-261.230
1532486114.084,27.832,57.129,37.109,46.387,298.340
1532486114.088,31.738,43.945,36.621,33.691,750.977
1532486114.092,33.691,31.250,33.691,21.484,-485.840
1532486114.096,21.973,46.387,35.645,25.879,-728.027
1532486114.100,26.367,37.598,35.156,15.625,-625.488
1532486114.104,24.902,48.828,34.668,16.113,-263.672
1532486114.107,28.809,48.340,36.621,26.367,-206.543
1532486114.111,31.738,40.527,36.621,30.273,-649.414
1532486114.115,25.879,42.480,37.598,31.738,-476.562
1532486114.119,22.949,44.922,37.109,36.621,-37.109
1532486114.123,23.926,53.711,36.621,37.598,461.426
1532486114.127,33.691,54.688,37.598,8.301,820.801
1532486114.131,40.527,33.691,40.039,27.832,-38.574
1532486114.135,37.109,32.227,34.180,48.828,-673.828
1532486114.139,38.574,41.504,29.785,20.996,-852.051
1532486114.143,40.527,46.387,33.691,26.367,-664.551
1532486114.147,40.527,40.039,34.180,53.711,-75.684
1532486114.150,42.480,34.180,35.156,49.316,-412.598
1532486114.154,40.039,39.551,36.133,32.715,-667.480
1532486114.158,41.992,44.434,36.133,23.926,-760.254
1532486114.162,44.922,45.410,37.109,29.785,-473.633
1532486114.166,41.016,42.480,37.109,58.594,480.957
1532486114.170,31.738,38.086,36.133,48.828,610.840
1532486114.174,30.762,35.645,39.551,30.762,111.328
1532486114.178,36.621,33.203,39.551,50.293,-500.000
1532486114.182,34.668,47.363,34.180,56.641,-392.090
1532486114.186,28.320,55.176,33.203,24.902,731.445
1532486114.189,24.414,21.484,36.621,23.438,181.152
1532486114.193,35.156,25.391,40.039,39.551,-722.656
1532486114.197,40.039,37.598,40.527,46.875,-666.504
1532486114.201,30.273,40.527,39.062,45.410,-477.539
1532486114.205,24.414,40.527,36.621,24.414,96.191
1532486114.209,28.320,31.738,36.133,-5.371,-390.625
1532486114.213,28.809,49.805,37.109,22.949,-125.488
1532486114.217,25.391,48.340,35.156,50.781,442.383
1532486114.221,24.414,47.852,37.598,48.340,-215.820
1532486114.225,30.273,77.148,41.504,35.156,473.145
1532486114.229,45.410,44.922,47.363,38.086,644.043
1532486114.232,42.969,35.645,51.270,53.223,-447.266
1532486114.236,34.668,54.199,49.805,38.574,-737.793
1532486114.240,36.621,57.617,48.828,36.621,-840.820
1532486114.244,39.062,68.359,51.270,42.969,-81.055
1532486114.248,37.109,53.223,55.664,49.805,-51.270
1532486114.252,36.133,50.781,59.082,58.594,-632.324
1532486114.256,37.109,62.500,60.547,45.410,-649.414
1532486114.260,40.039,67.383,57.617,46.875,-210.449
1532486114.264,48.828,74.219,61.523,57.617,618.164
1532486114.268,49.805,55.664,64.941,53.223,787.109
1532486114.272,48.828,41.992,61.523,49.316,-378.418
1532486114.275,50.293,58.594,62.500,62.500,-864.746
1532486114.279,48.340,57.617,62.988,74.707,-734.863
1532486114.283,49.316,70.801,62.012,53.711,-285.645
1532486114.287,56.641,64.941,64.453,44.922,-128.906
1532486114.291,61.035,60.059,65.918,60.547,-713.867
1532486114.295,64.453,62.012,64.941,48.828,-624.512
1532486114.299,63.477,54.688,65.918,62.012,-541.504
1532486114.303,58.594,68.848,66.406,66.406,-356.445
1532486114.307,56.152,78.613,59.570,55.176,437.012
1532486114.311,55.176,68.359,55.176,64.453,485.352
1532486114.314,53.223,50.293,49.805,52.246,-49.316
1532486114.318,51.270,42.480,47.363,21.484,-562.012
1532486114.322,51.270,62.012,45.898,35.156,-471.191
1532486114.326,52.246,78.613,44.434,59.570,676.758
1532486114.330,55.664,45.410,47.363,60.059,224.609
1532486114.334,49.805,40.527,46.387,48.340,-566.406
1532486114.338,41.016,50.293,45.410,33.203,-743.652
1532486114.342,42.480,53.223,41.992,23.926,-627.441
1532486114.346,47.363,55.664,41.992,32.715,71.289
1532486114.350,41.504,47.363,43.945,44.922,-279.297
1532486114.354,30.273,53.711,40.039,19.043,20.020
1532486114.357,29.297,49.316,35.645,21.484,337.402
1532486114.361,37.598,45.898,36.133,51.270,-195.801
1532486114.365,38.574,66.406,38.086,22.461,645.020
1532486114.369,30.273,33.691,39.062,16.602,390.137
1532486114.373,33.203,27.832,36.133,28.809,-759.766
1532486114.377,42.969,47.363,31.738,13.184,-693.848
1532486114.381,40.039,45.898,34.668,28.320,-372.070
1532486114.385,32.227,45.410,36.133,46.387,196.289
1532486114.389,26.855,40.039,34.668,18.066,-312.988
1532486114.393,24.414,43.457,33.691,1.953,-800.293
1532486114.396,26.855,41.504,33.691,27.344,-524.414
1532486114.400,28.320,44.434,35.156,38.574,-47.852
1532486114.404,23.926,60.059,35.645,30.273,796.387
1532486114.408,26.367,34.668,36.621,19.531,602.539
1532486114.412,31.738,21.973,38.086,26.855,-446.777
1532486114.416,24.414,29.297,38.086,35.645,-636.230
1532486114.420,21.973,27.344,37.109,25.879,-716.309
1532486114.424,30.762,45.410,32.715,19.043,-255.371
1532486114.428,35.156,39.551,32.227,34.668,-173.340
1532486114.432,35.645,39.551,34.668,67.871,-562.988
1532486114.436,36.621,42.969,36.133,44.922,-514.160
1532486114.439,31.250,40.039,33.203,26.855,-760.254
1532486114.443,29.785,51.270,32.715,34.668,-301.270
1532486114.447,32.227,47.363,32.715,18.066,595.703
1532486114.451,31.738,37.598,34.180,21.973,524.902
1532486114.455,33.203,36.133,36.621,41.016,-114.258
1532486114.459,39.062,33.203,34.668,49.805,-717.773
1532486114.463,38.086,51.758,31.250,42.969,-273.926
1532486114.467,34.668,57.617,34.180,29.785,835.449
1532486114.471,32.227,14.648,34.668,40.039,64.453
1532486114.475,29.297,19.531,33.691,41.992,-816.406
1532486114.479,28.809,30.762,37.598,50.781,-759.766
1532486114.482,28.809,33.203,38.086,45.410,-417.969
1532486114.486,30.762,35.645,37.109,26.367,-71.777
1532486114.490,29.785,36.621,38.574,34.668,-616.699
1532486114.494,30.273,47.363,39.551,36.133,-122.070
1532486114.498,34.180,36.621,39.551,33.203,354.004
1532486114.502,39.062,33.691,41.504,52.246,-83.008
1532486114.506,35.156,54.688,38.574,35.156,654.785
1532486114.510,39.062,29.297,39.551,28.320,152.832
1532486114.514,43.945,22.949,42.480,35.645,-654.785
1532486114.518,37.598,36.621,43.945,37.598,-674.316
1532486114.521,36.133,38.574,44.434,37.598,-635.742
1532486114.525,40.039,33.691,43.945,40.039,-31.250
1532486114.529,48.828,33.691,44.922,37.109,-328.613
1532486114.533,49.805,38.574,44.922,37.598,-571.777
1532486114.537,41.504,36.621,46.387,47.852,-588.867
1532486114.541,41.016,44.922,46.387,47.852,-97.168
1532486114.545,42.969,52.734,43.457,41.992,885.254
1532486114.549,46.387,20.996,43.945,39.551,473.633
1532486114.553,44.434,20.996,43.457,46.875,-528.809
1532486114.557,40.527,38.086,42.969,45.898,-855.957
1532486114.561,42.969,38.086,42.480,45.410,-751.465
1532486114.564,39.062,46.875,41.504,49.316,111.328
1532486114.568,39.551,40.527,42.480,59.082,-144.043
1532486114.572,37.598,42.480,41.016,41.504,-753.906
1532486114.576,43.457,43.457,42.480,30.273,-669.434
1532486114.580,54.688,44.434,45.410,52.734,-561.523
1532486114.584,42.480,54.199,42.969,62.012,119.629
1532486114.588,37.598,42.969,40.527,47.363,451.660
1532486114.592,42.969,41.016,41.992,53.711,332.520
1532486114.596,50.781,41.992,41.504,73.242,23.926
1532486114.600,45.410,37.109,39.062,51.758,-534.180
1532486114.604,35.156,60.547,38.574,29.297,17.090
1532486114.607,40.039,56.152,39.062,42.480,792.969
1532486114.611,48.828,33.691,39.062,47.852,-195.801
1532486114.615,46.875,41.504,37.598,54.688,-594.238
1532486114.619,39.062,43.457,41.016,52.734,-625.488
1532486114.623,39.062,54.688,40.039,17.090,-453.613
1532486114.627,39.551,47.852,36.133,58.105,-105.957
1532486114.631,34.180,41.016,35.645,73.730,-446.289
1532486114.635,31.250,56.152,36.621,46.875,83.984
1532486114.639,23.926,47.852,35.645,32.715,273.438
1532486114.643,25.391,49.316,35.645,11.719,-122.559
1532486114.646,29.297,64.453,35.645,32.715,690.918
1532486114.650,24.902,35.645,36.621,31.250,145.508
1532486114.654,21.484,39.062,32.715,-6.836,-752.441
1532486114.658,24.902,49.316,32.715,20.508,-842.773
1532486114.662,24.902,41.504,35.645,44.434,-573.730
1532486114.666,23.926,38.574,38.574,41.016,34.668
1532486114.670,20.508,43.457,38.574,36.133,-411.621
1532486114.674,20.996,49.316,40.527,32.227,-748.047
1532486114.678,28.320,45.410,43.945,40.527,-649.902
1532486114.682,32.715,56.641,42.969,36.133,8.301
1532486114.686,31.250,65.918,43.945,43.945,900.879
1532486114.689,34.180,35.645,45.898,34.180,146.484
1532486114.693,37.109,38.086,42.480,32.715,-690.918
1532486114.697,35.645,45.410,38.574,53.711,-664.551
1532486114.701,34.668,46.875,35.156,45.898,-483.398
1532486114.705,39.062,49.805,33.691,35.156,83.008
1532486114.709,44.434,41.504,36.621,37.598,-397.949
1532486114.713,43.945,53.711,37.109,27.344,-619.141
1532486114.717,37.598,52.246,35.645,21.484,-453.613
1532486114.721,34.180,46.387,37.598,25.391,-536.133
1532486114.725,31.250,59.082,37.598,44.434,176.758
1532486114.729,35.645,54.688,35.645,51.270,440.918
1532486114.732,36.133,49.805,36.621,40.527,465.332
1532486114.736,28.809,34.668,37.109,42.480,203.125
1532486114.740,26.367,37.598,35.645,45.898,-553.223
1532486114.744,31.250,62.500,35.645,29.297,143.555
1532486114.748,40.039,44.434,40.039,38.086,252.930
1532486114.752,35.645,36.621,37.598,42.969,-482.910
1532486114.756,29.785,46.387,34.180,16.602,-556.152
1532486114.760,35.156,45.410,33.203,26.855,-737.305
1532486114.764,37.109,63.965,31.738,33.691,87.402
1532486114.768,35.156,49.805,33.691,29.297,838.379
1532486114.771,36.133,28.809,34.668,37.598,-256.836
1532486114.775,31.738,42.969,31.738,33.203,-79.590
1532486114.779,32.227,37.598,30.273,27.344,298.828
1532486114.783,28.809,46.387,31.738,35.156,171.875
1532486114.787,25.391,50.781,30.762,44.434,761.719
1532486114.791,27.832,25.879,27.832,24.902,-229.492
1532486114.795,31.250,31.738,29.785,17.090,-854.004
1532486114.799,34.668,39.062,30.762,39.062,-511.719
1532486114.803,35.156,40.039,26.367,35.645,-316.895
1532486114.807,34.668,38.086,29.297,29.785,-238.281
1532486114.811,34.668,36.133,32.715,33.691,-616.211
1532486114.814,36.621,36.133,34.180,38.086,-594.727
1532486114.818,35.645,35.156,34.180,42.969,-575.195
1532486114.822,34.668,46.387,32.715,31.738,-9.766
1532486114.826,34.668,51.270,35.156,12.695,862.793
1532486114.830,45.898,23.926,36.621,45.410,100.098
1532486114.834,40.039,20.508,33.203,45.410,-604.980
1532486114.838,26.367,35.156,33.691,29.785,-802.734
1532486114.842,31.250,43.457,33.203,29.785,-711.426
1532486114.846,35.156,42.480,30.762,36.621,1.465
1532486114.850,30.762,36.133,34.180,34.180,-319.824
1532486114.853,22.461,40.039,33.203,34.180,-642.090
1532486114.857,23.926,45.898,28.320,39.062,-738.770
1532486114.861,25.879,47.852,28.809,26.855,-545.410
1532486114.865,21.484,42.480,30.273,21.484,249.023
1532486114.869,22.949,42.480,29.785,32.227,432.129
1532486114.873,28.809,42.969,30.273,37.109,171.875
1532486114.877,36.133,38.574,34.668,45.410,-426.758
1532486114.881,43.457,39.062,38.086,59.082,-508.301
1532486114.885,36.133,59.570,37.598,50.293,649.902
1532486114.889,36.133,34.668,37.598,41.992,525.879
1532486114.893,45.410,25.879,37.598,41.992,-599.121
1532486114.896,43.457,42.969,39.062,40.527,-649.902
1532486114.900,41.016,45.898,39.551,38.574,-518.066
1532486114.904,36.621,55.664,38.086,31.738,106.445
1532486114.908,35.645,45.410,37.598,60.059,-213.379
1532486114.912,48.340,48.828,41.016,66.406,-659.180
1532486114.916,45.410,51.758,41.992,39.062,154.297
1532486114.920,36.133,38.086,40.039,37.598,290.039
1532486114.924,32.715,57.617,35.645,41.992,358.887
1532486114.928,36.621,45.410,31.738,35.156,749.023
1532486114.932,41.016,23.438,34.668,20.996,-186.523
1532486114.936,37.109,38.574,34.668,23.438,-674.805
1532486114.939,40.527,44.434,31.738,46.387,-817.383
1532486114.943,35.156,57.617,34.668,52.246,-445.801
1532486114.947,30.762,42.480,37.598,34.180,-62.988
1532486114.951,30.762,32.227,36.133,18.555,-474.121
1532486114.955,24.414,42.969,35.645,25.879,-643.066
1532486114.959,26.855,42.480,38.574,37.598,-737.793
1532486114.963,33.691,54.688,36.621,31.738,43.457
1532486114.967,32.227,43.457,36.621,22.949,891.113
1532486114.971,25.391,12.695,41.016,22.461,-94.238
1532486114.975,27.344,28.809,36.621,42.480,-816.406
1532486114.978,34.668,42.480,35.156,37.109,-738.770
1532486114.982,34.180,46.387,39.062,22.461,-415.527
1532486114.986,31.250,36.133,39.062,38.574,-26.855
1532486114.990,33.203,31.250,39.062,51.758,-555.664
1532486114.994,38.086,41.992,38.086,37.598,-661.621
1532486114.998,33.691,42.969,36.621,24.414,-502.930
1532486115.002,25.391,38.574,36.133,30.762,-337.402
1532486115.006,26.367,39.551,38.574,20.508,93.262
1532486115.010,29.785,50.293,39.551,55.176,286.621
1532486115.014,32.715,38.574,39.062,62.012,427.734
1532486115.018,30.273,20.508,43.457,39.551,-226.562
1532486115.021,25.391,35.645,41.016,38.574,-521.973
1532486115.025,28.320,63.965,35.645,24.902,656.738
1532486115.029,40.039,37.598,37.109,30.273,407.227
1532486115.033,40.039,30.762,37.109,42.969,-486.328
1532486115.037,33.691,39.551,34.668,37.598,-689.453
1532486115.041,36.621,49.805,36.133,16.602,-704.590
1532486115.045,40.527,51.758,34.180,3.906,134.277
1532486115.049,34.668,32.227,36.133,40.039,-115.723
1532486115.053,25.879,40.527,38.574,34.668,-585.449
1532486115.057,22.461,50.293,37.109,24.414,-4.395
1532486115.061,29.785,48.828,38.086,43.457,279.297
1532486115.064,34.180,57.129,37.109,46.875,723.145
1532486115.068,34.180,31.738,38.086,49.316,621.094
1532486115.072,41.016,25.879,39.062,29.297,-531.738
1532486115.076,38.574,40.039,38.086,17.578,-835.938
1532486115.080,34.180,36.621,35.645,36.621,-672.363
1532486115.084,25.879,46.875,34.668,25.391,-9.766
1532486115.088,29.297,41.504,38.086,21.973,-171.387
1532486115.092,33.691,39.551,37.109,44.922,-749.023
1532486115.096,25.879,42.480,33.691,46.875,-545.898
1532486115.100,23.926,40.039,34.668,24.902,-531.250
1532486115.103,21.973,62.500,34.668,20.996,220.703
1532486115.107,25.879,49.316,36.133,44.922,840.820
1532486115.111,33.691,19.043,38.574,40.039,-217.285
1532486115.115,31.738,29.785,37.598,33.203,-591.309
1532486115.119,25.879,35.645,34.668,24.902,-624.023
1532486115.123,20.996,39.062,33.203,23.926,-495.117
1532486115.127,25.391,29.785,32.227,36.621,-144.531
1532486115.131,28.320,34.668,31.738,39.062,-436.523
1532486115.135,18.555,41.992,31.738,33.203,-488.281
1532486115.139,16.602,46.875,32.715,11.230,-651.367
1532486115.143,23.438,47.363,31.738,7.324,-507.812
1532486115.146,29.297,32.227,33.203,50.293,63.477
1532486115.150,28.809,37.109,35.645,46.875,343.262
1532486115.154,23.926,43.457,34.180,31.250,270.996
1532486115.158,26.855,33.203,31.250,13.184,-492.188
1532486115.162,27.344,41.504,31.250,31.250,-417.969
1532486115.166,22.949,62.988,32.227,52.734,749.512
1532486115.170,23.926,36.621,30.762,51.758,183.105
1532486115.174,23.438,27.344,30.762,32.227,-705.566
1532486115.178,30.762,31.738,33.691,20.020,-706.055
1532486115.182,38.574,37.598,37.598,38.086,-394.043
1532486115.186,29.785,43.945,41.992,28.320,205.078
1532486115.189,39.551,44.434,48.340,48.828,-382.324
1532486115.193,48.828,51.758,52.246,74.707,-656.738
1532486115.197,41.992,54.199,51.270,63.477,52.734
1532486115.201,38.574,56.641,52.246,52.246,447.754
1532486115.205,35.156,70.312,52.734,25.879,859.863
1532486115.209,45.898,44.922,56.641,24.902,375.000
1532486115.213,52.734,38.086,59.082,63.965,-493.164
1532486115.217,49.805,46.875,57.129,69.336,-616.699
1532486115.221,46.387,55.664,53.711,65.918,-447.266
1532486115.225,48.340,59.082,53.711,54.688,171.875
1532486115.228,47.852,50.293,57.617,31.738,-206.543
1532486115.232,48.340,61.523,59.082,53.223,-519.043
1532486115.236,50.293,53.223,61.523,72.754,-489.258
1532486115.240,45.410,52.246,62.500,73.730,-716.309
1532486115.244,47.363,81.543,60.059,71.289,273.926
1532486115.248,53.711,52.734,59.570,67.871,617.188
1532486115.252,49.805,41.016,61.035,65.430,-389.160
1532486115.256,44.434,62.988,62.500,49.316,-682.129
1532486115.260,53.223,65.430,64.453,41.992,-756.348
1532486115.264,58.105,76.660,64.941,62.012,-109.863
1532486115.268,52.734,61.035,63.477,78.613,133.301
1532486115.271,42.969,55.664,57.617,50.293,-553.711
1532486115.275,40.527,67.383,55.176,46.875,-642.578
1532486115.279,44.434,62.988,51.270,62.012,-550.781
1532486115.283,38.574,61.523,47.852,41.016,-125.977
1532486115.287,35.645,52.246,47.852,25.879,38.574
1532486115.291,44.922,57.617,47.852,43.457,88.867
1532486115.295,51.758,62.012,45.410,55.176,493.164
1532486115.299,48.828,39.062,42.480,63.965,-98.633
1532486115.303,41.992,53.223,39.551,51.270,-224.609
1532486115.307,41.992,72.266,40.527,41.504,762.207
1532486115.310,45.410,32.715,41.992,40.039,69.336
1532486115.314,43.945,30.762,44.434,18.555,-549.805
1532486115.318,39.551,44.434,44.434,17.578,-537.109
1532486115.322,37.598,46.875,39.062,35.156,-518.555
1532486115.326,42.480,44.434,36.621,42.480,-42.969
1532486115.330,39.062,36.133,40.527,40.527,-320.312
1532486115.334,43.457,36.133,43.945,58.594,-449.219
1532486115.338,40.527,45.898,41.992,64.453,-23.438
1532486115.342,34.668,54.199,39.551,48.828,375.000
1532486115.346,34.180,57.617,40.527,30.762,869.141
1532486115.350,33.203,28.320,41.992,24.414,263.184
1532486115.353,29.297,29.785,42.480,20.020,-587.891
1532486115.357,32.227,43.457,39.062,20.508,-820.801
1532486115.361,37.109,45.410,38.574,21.973,-615.723
1532486115.365,35.156,42.480,40.039,22.461,156.250
1532486115.369,31.250,24.414,38.086,53.223,-263.672
1532486115.373,27.344,30.762,37.598,52.734,-702.637
1532486115.377,27.344,38.574,38.086,40.527,-628.906
1532486115.381,28.320,47.363,37.109,37.109,-494.141
1532486115.385,21.484,60.059,36.621,17.578,573.242
1532486115.389,19.043,34.668,39.062,31.738,447.266
1532486115.393,24.414,28.809,37.109,41.992,-514.648
1532486115.396,25.879,34.668,36.621,24.414,-488.770
1532486115.400,24.414,31.250,37.109,42.480,-459.473
1532486115.404,20.020,49.805,32.715,39.062,320.312
1532486115.408,24.414,30.273,35.156,17.090,248.047
1532486115.412,29.785,19.043,33.691,26.367,-526.855
1532486115.416,26.367,29.297,31.250,30.762,-444.824
1532486115.420,24.902,30.762,30.273,30.273,-544.922
1532486115.424,27.832,41.016,28.809,27.832,-144.043
1532486115.428,40.039,41.016,34.180,41.504,-41.992
1532486115.432,43.457,38.086,33.691,58.105,149.414
1532486115.435,35.156,30.762,32.227,29.297,445.801
1532486115.439,36.621,21.484,33.691,29.785,-457.520
1532486115.443,38.086,46.387,30.273,40.527,-221.191
1532486115.447,36.133,40.039,26.855,41.504,839.844
1532486115.451,41.992,8.301,29.297,48.340,-26.367
1532486115.455,37.598,22.461,28.320,31.250,-710.938
1532486115.459,32.227,31.250,26.367,16.602,-756.836
1532486115.463,34.668,34.180,26.855,38.086,-420.410
1532486115.467,37.598,29.297,29.785,37.109,40.039
1532486115.471,34.180,26.855,33.203,14.648,-462.402
1532486115.475,28.320,33.203,30.762,23.926,-656.738
1532486115.478,21.973,36.621,25.879,43.457,-87.891
1532486115.482,14.160,40.039,28.809,31.738,497.070
1532486115.486,20.996,26.855,31.250,14.648,589.844
1532486115.490,19.531,16.602,31.250,31.738,-328.613
1532486115.494,18.066,28.809,30.762,44.434,-618.652
1532486115.498,20.508,25.391,25.879,36.133,-520.996
1532486115.502,13.184,37.598,25.391,10.254,-336.426
1532486115.506,11.230,56.641,25.391,-6.348,604.004
1532486115.510,20.020,26.367,24.414,7.812,-51.758
1532486115.514,18.555,27.344,25.879,24.902,-561.523
1532486115.518,15.625,28.809,25.879,24.414,-494.141
1532486115.521,12.695,29.297,24.902,14.648,-521.973
1532486115.525,7.324,37.109,27.344,11.230,481.445
1532486115.529,10.742,22.949,29.785,34.180,144.043
1532486115.533,19.043,24.414,29.297,38.574,-432.129
1532486115.537,14.160,24.902,28.809,2.441,-487.305
1532486115.541,10.742,33.691,27.344,20.508,-598.633
1532486115.545,16.602,52.734,27.832,38.086,526.855
1532486115.549,18.555,21.484,28.809,32.715,442.383
1532486115.553,23.438,16.113,24.414,33.203,-477.539
1532486115.557,18.555,28.809,23.926,12.207,-674.316
1532486115.560,11.719,37.598,26.855,3.906,-604.980
1532486115.564,15.137,36.133,26.855,32.227,211.426
1532486115.568,23.438,21.484,32.227,59.570,-15.137
1532486115.572,26.367,43.457,31.250,15.137,-43.945
1532486115.576,25.879,45.410,25.391,-5.371,403.320
1532486115.580,24.902,24.902,31.250,35.156,-228.516
1532486115.584,19.531,45.898,34.180,43.457,252.441
1532486115.588,23.926,34.180,33.203,28.320,783.203
1532486115.592,27.344,16.113,35.156,29.297,-407.227
1532486115.596,25.391,36.133,34.180,27.344,-695.312
1532486115.600,31.738,38.086,34.668,37.598,-572.266
1532486115.603,30.762,48.828,37.598,21.973,-250.977
1532486115.607,23.926,46.875,36.133,31.250,-182.617
1532486115.611,23.438,32.715,33.691,47.363,-616.699
1532486115.615,22.949,36.133,31.738,32.227,-446.289
1532486115.619,17.090,41.504,29.785,19.531,-85.449
1532486115.623,22.461,53.711,28.809,12.695,394.531
1532486115.627,22.461,51.758,27.344,16.602,835.449
1532486115.631,19.531,21.973,28.320,-0.977,13.184
1532486115.635,15.137,25.879,31.250,12.207,-610.840
1532486115.639,12.207,38.086,31.250,37.598,-770.996
1532486115.643,16.113,45.898,27.344,9.766,-519.043
1532486115.646,20.020,34.180,25.879,20.020,-36.133
1532486115.650,23.438,27.344,27.832,27.832,-409.668
1532486115.654,25.879,34.180,31.250,12.207,-617.676
1532486115.658,29.297,32.227,30.273,34.180,-731.934
1532486115.662,33.203,39.062,33.203,52.734,-500.488
1532486115.666,32.715,46.387,33.691,56.641,414.062
1532486115.670,29.297,40.039,30.762,47.363,511.719
1532486115.674,28.809,34.180,27.832,28.809,-164.062
1532486115.678,28.320,28.809,28.809,32.227,-602.539
1532486115.682,23.926,38.086,28.320,46.387,-357.910
1532486115.685,14.648,56.641,24.414,14.160,720.215
1532486115.689,23.926,26.367,26.367,-9.277,257.324
1532486115.693,36.621,25.391,31.738,33.203,-652.344
1532486115.697,37.598,38.086,30.762,56.641,-629.395
1532486115.701,38.086,38.574,28.320,46.387,-444.824
1532486115.705,39.062,38.574,27.344,33.203,125.000
1532486115.709,39.062,34.668,28.320,26.855,-373.047
1532486115.713,38.574,47.363,32.227,33.203,-105.469
1532486115.717,35.156,31.738,36.621,36.133,445.312
1532486115.721,29.297,25.391,36.133,40.527,-300.293
1532486115.725,29.297,62.500,35.645,55.176,415.527
1532486115.728,31.738,32.227,37.109,47.363,687.988
1532486115.732,28.320,12.695,35.156,39.551,-412.598
1532486115.736,21.973,32.227,33.203,41.016,-689.453
1532486115.740,16.113,32.715,33.203,17.090,-809.570
1532486115.744,16.602,44.434,30.762,11.230,-155.762
1532486115.748,26.367,35.645,32.227,27.344,-55.176
1532486115.752,31.738,30.273,35.156,31.738,-606.445
1532486115.756,25.879,38.086,34.180,41.504,-622.559
1532486115.760,26.855,40.039,35.645,32.715,-201.660
1532486115.764,28.320,46.875,35.156,41.992,502.930
1532486115.767,21.484,37.109,34.668,41.504,788.574
1532486115.771,21.973,19.531,34.668,11.719,-305.176
1532486115.775,25.879,31.250,31.738,-2.441,-854.980
1532486115.779,29.297,35.156,33.691,24.414,-726.074
1532486115.783,29.297,42.480,34.180,37.109,-318.848
1532486115.787,24.414,36.133,32.715,27.344,-111.328
1532486115.791,24.902,32.715,33.203,40.527,-678.711
1532486115.795,28.809,38.086,34.668,44.922,-637.695
1532486115.799,25.879,35.156,36.133,35.156,-540.039
1532486115.803,28.320,37.109,35.156,31.250,-375.488
1532486115.807,25.391,41.992,32.715,24.414,414.062
1532486115.810,21.973,42.480,33.203,-1.465,456.055
1532486115.814,28.809,30.273,36.133,21.973,-69.336
1532486115.818,27.344,21.484,36.133,63.477,-532.715
1532486115.822,22.461,41.504,35.156,16.602,-458.496
1532486115.826,23.926,62.500,34.668,3.418,672.852
1532486115.830,30.273,32.715,35.156,46.875,229.004
1532486115.834,27.832,27.344,34.668,34.668,-566.406
1532486115.838,22.461,39.551,33.691,28.320,-725.586
1532486115.842,26.367,44.434,32.227,40.039,-644.043
1532486115.846,30.273,42.480,31.738,39.551,114.258
1532486115.850,28.809,36.133,32.715,38.086,-114.258
1532486115.853,26.367,43.945,34.180,30.273,32.227
1532486115.857,27.832,41.504,35.645,19.531,309.082
1532486115.861,30.273,41.016,32.227,26.367,67.383
1532486115.865,27.344,52.246,30.273,26.855,727.051
1532486115.869,25.879,25.391,34.180,14.160,379.395
1532486115.873,25.879,31.250,33.691,4.883,-729.492
1532486115.877,27.832,39.062,32.227,39.062,-871.094
1532486115.881,25.391,36.133,29.297,58.105,-605.957
1532486115.885,18.555,44.434,29.785,27.344,165.527
1532486115.889,19.043,33.203,30.762,8.789,-296.875
1532486115.892,26.367,35.645,28.809,12.695,-829.590
1532486115.896,31.738,35.645,27.344,28.320,-545.898
1532486115.900,28.320,36.133,30.762,19.043,-89.355
1532486115.904,26.367,53.711,32.715,21.973,732.422
1532486115.908,37.109,33.691,33.691,48.828,639.160
1532486115.912,41.992,21.973,33.691,41.016,-436.035
1532486115.916,35.156,32.715,34.180,31.250,-651.367
1532486115.920,31.250,32.715,34.668,35.645,-725.098
1532486115.924,34.668,47.363,34.180,23.926,-312.500
1532486115.928,37.598,41.016,36.621,20.996,-183.105
1532486115.932,37.109,37.109,37.109,39.062,-568.359
1532486115.935,32.227,42.969,32.715,42.480,-524.902
1532486115.939,31.738,43.945,32.227,31.250,-766.113
1532486115.943,36.133,53.711,34.668,31.738,-369.141
1532486115.947,42.969,55.176,37.109,38.574,574.219
1532486115.951,41.504,43.457,40.039,52.246,546.875
1532486115.955,31.250,39.062,41.016,43.945,-105.957
1532486115.959,34.180,38.574,40.039,34.668,-731.445
1532486115.963,40.039,51.270,39.062,41.504,-324.219
1532486115.967,32.715,50.293,37.109,28.320,773.926
1532486115.971,33.203,22.949,38.086,16.113,-19.043
1532486115.975,36.133,34.180,41.016,14.648,-818.848
1532486115.978,33.691,42.480,41.504,43.457,-724.121
1532486115.982,32.715,37.109,38.086,64.941,-397.949
1532486115.986,29.785,37.109,39.062,45.898,-14.648
1532486115.990,33.203,44.434,39.062,44.922,-557.129
1532486115.994,29.785,48.340,35.156,39.551,-101.562
1532486115.998,24.414,38.086,36.621,35.156,352.539
1532486116.002,18.066,42.480,37.598,43.457,-72.266
1532486116.006,14.648,62.012,36.621,33.203,665.039
1532486116.010,20.508,31.250,34.668,29.785,190.918
1532486116.014,20.996,27.832,36.133,24.902,-635.742
1532486116.017,21.973,35.645,36.621,20.508,-668.457
1532486116.021,27.344,39.551,37.109,8.301,-645.996
1532486116.025,24.902,43.457,33.203,3.906,-18.555
1532486116.029,24.414,34.180,34.668,34.180,-319.824
1532486116.033,20.020,36.133,38.086,49.316,-583.008
1532486116.037,13.184,33.203,37.109,34.180,-590.820
1532486116.041,14.648,41.504,35.156,26.367,-194.824
1532486116.045,12.207,56.641,33.203,26.855,833.984
1532486116.049,8.789,24.414,37.109,17.090,520.020
1532486116.053,12.207,22.949,34.668,20.996,-528.809
1532486116.057,16.602,40.039,35.156,30.273,-856.445
1532486116.060,15.137,36.133,37.109,20.020,-782.715
1532486116.064,9.766,42.969,31.738,14.160,75.195
1532486116.068,10.254,32.227,31.738,17.578,-109.863
1532486116.072,11.719,35.645,32.715,36.621,-749.512
1532486116.076,14.160,37.598,33.691,44.434,-681.152
1532486116.080,17.090,32.227,34.180,47.363,-596.191
1532486116.084,12.207,41.504,30.762,41.992,43.945
1532486116.088,13.184,38.574,27.832,23.438,467.285
1532486116.092,16.113,38.574,27.832,31.738,298.340
1532486116.096,18.066,35.156,30.273,35.156,-72.266
1532486116.099,21.973,27.344,31.250,30.273,-555.664
1532486116.103,29.297,52.246,32.227,15.137,-48.828
1532486116.107,32.227,49.805,34.668,-5.859,792.969
1532486116.111,24.414,20.020,35.645,16.602,-149.902
1532486116.115,18.066,21.973,32.715,30.273,-611.816
1532486116.119,18.555,27.832,32.715,26.855,-631.348
1532486116.123,20.996,44.434,32.715,19.043,-484.863
1532486116.127,26.367,38.574,31.738,25.879,-112.793
1532486116.131,33.203,30.273,32.715,53.711,-438.477
1532486116.135,27.832,41.504,35.645,36.621,52.246
1532486116.139,24.902,38.574,37.109,11.230,271.484
1532486116.142,29.785,45.410,37.109,25.879,-133.301
1532486116.146,32.227,56.641,40.039,45.410,676.758
1532486116.150,34.668,27.344,42.969,43.945,177.246
1532486116.154,31.250,34.180,41.504,22.461,-738.770
1532486116.158,38.086,49.805,40.527,30.762,-858.398
1532486116.162,52.734,50.293,47.852,61.523,-581.543
1532486116.166,54.688,46.875,52.734,77.148,71.777
1532486116.170,51.270,49.316,53.711,51.270,-388.184
1532486116.174,50.781,60.059,57.129,26.855,-762.207
1532486116.178,55.664,63.965,57.129,56.641,-662.109
1532486116.182,56.152,72.754,58.594,69.824,28.320
1532486116.185,50.293,81.055,62.012,75.195,921.387
1532486116.189,53.711,60.059,62.500,59.082,181.152
1532486116.193,57.617,61.523,59.570,47.363,-680.176
1532486116.197,60.547,70.801,59.082,46.387,-683.105
1532486116.201,61.523,70.801,58.594,39.551,-505.371
1532486116.205,53.223,71.289,59.082,59.570,117.188
1532486116.209,49.316,62.500,59.082,75.195,-365.723
1532486116.213,41.504,64.941,56.641,65.918,-648.926
1532486116.217,38.086,59.082,56.641,43.457,-477.051
1532486116.221,45.410,60.547,55.176,52.734,-582.520
1532486116.224,49.316,69.824,49.316,50.781,158.691
1532486116.228,46.875,54.199,51.270,53.223,487.793
1532486116.232,40.527,44.922,53.223,53.223,446.289
1532486116.236,35.156,46.875,50.293,35.156,269.531
1532486116.240,36.133,47.852,47.852,37.598,-605.957
1532486116.244,32.715,70.312,42.969,33.691,133.301
1532486116.248,33.691,48.828,41.504,38.574,829.590
1532486116.252,39.062,32.227,41.504,39.551,-299.805
1532486116.256,43.457,50.293,45.410,22.949,-770.020
1532486116.260,49.805,55.176,46.875,28.809,-793.457
1532486116.264,39.062,63.477,41.016,41.016,-200.684
1532486116.267,31.738,45.410,41.016,41.992,-25.879
1532486116.271,27.344,39.551,45.410,33.203,-607.422
1532486116.275,27.832,54.688,44.434,27.344,-50.293
1532486116.279,36.621,49.805,42.480,47.852,330.566
1532486116.283,35.645,53.223,42.969,35.645,457.031
1532486116.287,31.250,57.129,41.504,11.719,824.707
1532486116.291,35.645,39.551,43.457,44.922,-217.285
1532486116.295,35.645,43.457,45.898,37.109,-793.945
1532486116.299,32.715,50.293,43.945,34.180,-655.762
1532486116.303,32.715,53.223,45.410,42.969,-498.535
1532486116.307,40.039,47.363,46.387,31.250,-209.473
1532486116.310,42.480,52.246,41.992,32.715,-573.730
1532486116.314,37.109,57.617,41.504,38.574,-581.543
1532486116.318,29.297,46.875,43.457,27.832,-551.270
1532486116.322,24.902,58.105,42.480,20.508,14.648
1532486116.326,29.297,72.754,43.945,27.832,874.512
1532486116.330,37.598,48.828,45.898,31.250,126.953
1532486116.334,33.691,52.734,46.387,45.410,-583.984
1532486116.338,30.273,58.105,47.852,38.574,-781.250
1532486116.342,29.785,56.152,45.898,18.555,-706.055
1532486116.346,33.203,61.035,44.922,47.852,25.879
1532486116.349,38.574,57.129,47.852,47.363,-284.180
1532486116.353,35.645,61.035,46.387,34.668,-628.418
1532486116.357,39.551,61.035,45.410,37.109,-720.215
1532486116.361,43.457,61.523,46.875,30.273,-547.363
1532486116.365,39.551,58.105,45.898,34.668,270.020
1532486116.369,35.645,52.734,45.898,43.457,479.980
1532486116.373,37.109,53.223,46.387,28.809,192.383
1532486116.377,39.062,47.363,46.875,35.156,-405.762
1532486116.381,35.645,51.270,42.969,57.129,-517.578
1532486116.385,29.785,70.312,41.016,32.715,618.164
1532486116.389,29.785,41.504,41.016,14.160,573.730
1532486116.392,39.551,31.250,39.551,34.180,-569.336
1532486116.396,43.945,42.969,38.086,29.297,-639.648
1532486116.400,37.109,39.062,38.574,32.227,-527.344
1532486116.404,30.273,51.758,39.551,44.922,62.500
1532486116.408,29.785,43.945,37.109,35.156,-189.941
1532486116.412,34.668,40.527,37.109,54.688,-646.973
1532486116.416,37.109,52.246,37.598,46.387,74.219
1532486116.420,23.926,46.387,39.062,30.762,285.156
1532486116.424,22.461,57.129,38.086,33.691,406.250
1532486116.428,35.156,51.270,36.621,16.602,768.066
1532486116.432,26.367,21.484,40.527,40.527,-162.109
1532486116.435,20.020,29.785,41.992,53.223,-673.340
1532486116.439,32.715,45.410,41.992,28.320,-817.383
1532486116.443,37.598,55.176,42.480,32.715,-477.051
1532486116.447,37.598,42.480,39.551,47.852,-50.293
1532486116.451,35.156,35.645,40.039,31.250,-460.938
1532486116.455,33.691,45.898,41.504,29.785,-655.762
1532486116.459,36.133,48.340,38.574,37.598,-741.699
1532486116.463,35.156,62.012,36.621,39.551,30.273
1532486116.467,26.855,58.105,38.574,37.109,891.113
1532486116.471,22.461,30.762,41.504,28.809,-75.684
1532486116.474,24.414,37.109,41.992,22.949,-812.988
1532486116.478,23.926,41.992,43.945,48.828,-750.977
1532486116.482,26.367,41.992,45.410,64.941,-459.961
1532486116.486,26.855,45.898,42.969,40.039,211.914
1532486116.490,31.250,42.480,41.992,28.809,-318.359
1532486116.494,37.109,41.992,41.504,40.039,-692.383
1532486116.498,25.879,36.133,40.527,28.320,-530.762
1532486116.502,18.066,40.039,39.062,17.578,-366.699
1532486116.506,26.367,44.434,35.645,41.504,104.980
1532486116.510,29.297,47.852,35.156,41.016,292.480
1532486116.514,28.809,40.039,37.109,28.320,313.477
1532486116.517,25.879,27.832,38.574,34.180,-308.594
1532486116.521,22.461,47.852,38.086,30.762,-535.645
1532486116.525,26.855,70.801,34.180,24.902,640.625
1532486116.529,27.344,26.855,35.645,35.156,448.730
1532486116.533,23.438,18.555,37.109,24.414,-476.562
1532486116.537,20.020,37.598,34.668,21.973,-686.035
1532486116.541,19.531,41.992,33.691,25.879,-711.914
1532486116.545,21.973,43.457,31.738,12.695,131.348
1532486116.549,22.461,27.832,33.203,41.992,-109.863
1532486116.553,21.484,37.598,36.133,28.320,-600.098
1532486116.556,22.461,55.176,35.645,24.414,31.250
1532486116.560,24.902,49.316,33.203,47.363,298.828
1532486116.564,24.414,58.105,33.203,31.738,670.898
1532486116.568,22.461,36.133,35.156,34.180,652.344
1532486116.572,28.320,23.926,36.621,32.715,-518.555
1532486116.576,29.297,43.457,35.645,23.926,-860.352
1532486116.580,23.438,40.039,34.668,38.086,-697.266
1532486116.584,20.996,48.828,35.156,28.320,-80.078
1532486116.588,22.461,43.945,35.156,33.691,-171.387
1532486116.592,22.461,41.016,33.203,41.992,-750.977
1532486116.596,24.414,44.922,34.180,39.062,-590.820
1532486116.599,22.949,42.480,39.062,45.898,-559.082
1532486116.603,17.090,59.082,40.039,29.297,196.289
1532486116.607,20.996,57.129,39.551,32.715,854.980
1532486116.611,31.250,33.691,42.480,50.293,-212.402
1532486116.615,33.691,38.574,42.969,47.363,-633.789
1532486116.619,30.762,44.922,41.016,25.391,-658.691
1532486116.623,29.785,48.828,41.016,35.156,-543.457
1532486116.627,33.691,45.898,41.016,51.270,-164.062
1532486116.631,29.297,44.434,41.992,45.898,-464.355
1532486116.635,24.902,43.945,41.992,41.016,-526.855
1532486116.639,24.902,46.875,38.086,35.156,-667.969
1532486116.642,21.484,42.480,35.156,26.367,-545.410
1532486116.646,25.391,30.762,35.645,47.852,34.668
1532486116.650,30.273,42.969,37.109,65.430,363.770
1532486116.654,26.367,46.875,37.109,41.016,299.805
1532486116.658,26.367,38.086,35.645,24.902,-519.043
1532486116.662,30.762,47.363,32.715,25.879,-474.609
1532486116.666,27.344,60.059,30.762,29.297,741.211
1532486116.670,24.414,34.668,33.203,36.621,192.871
1532486116.674,28.809,29.785,32.715,14.160,-739.258
1532486116.678,39.062,37.598,35.156,15.137,-767.578
1532486116.681,41.016,40.039,34.180,46.387,-451.660
1532486116.685,34.180,42.480,32.715,40.039,208.496
1532486116.689,32.715,41.504,33.203,45.898,-390.137
1532486116.693,36.133,46.875,30.762,44.922,-707.520
1532486116.697,38.086,47.852,31.738,37.109,18.066
1532486116.701,36.133,46.875,36.621,27.344,438.965
1532486116.705,29.297,57.129,37.598,17.578,876.465
1532486116.709,30.762,33.691,39.551,31.250,400.879
1532486116.713,36.621,32.715,39.551,51.758,-526.367
1532486116.717,39.551,43.945,39.062,31.738,-643.066
1532486116.721,33.203,47.852,38.086,20.020,-661.133
1532486116.724,28.320,57.617,36.621,53.711,6.348
1532486116.728,35.156,44.922,39.551,50.293,-203.125
1532486116.732,36.621,42.969,41.504,34.180,-577.148
1532486116.736,37.109,41.504,41.504,39.551,-519.531
1532486116.740,40.527,45.898,38.086,39.062,-758.789
1532486116.744,37.598,63.477,36.133,36.133,248.535
1532486116.748,34.180,36.133,39.551,44.922,638.184
1532486116.752,33.691,25.879,41.016,49.316,-394.043
1532486116.756,33.203,42.480,36.621,39.062,-703.613
1532486116.760,37.598,39.062,34.668,41.504,-792.480
1532486116.764,32.227,49.805,36.621,37.109,-169.434
1532486116.767,23.926,38.086,39.062,28.320,137.695
1532486116.771,27.344,37.109,39.551,24.902,-540.039
1532486116.775,32.715,43.457,39.551,40.527,-660.645
1532486116.779,39.062,37.598,36.133,47.363,-578.613
1532486116.783,37.109,41.504,33.691,45.898,-166.992
1532486116.787,30.273,41.504,36.133,39.062,49.316
1532486116.791,27.344,51.758,34.668,29.297,135.254
1532486116.795,30.762,55.664,34.668,40.039,485.840
1532486116.799,33.203,40.527,38.574,37.109,-109.375
1532486116.803,30.273,43.457,37.109,22.949,-243.164
1532486116.806,28.320,41.016,35.156,11.230,206.543
1532486116.810,31.250,39.551,36.621,23.926,-387.207
1532486116.814,31.250,44.922,35.645,45.410,-445.801
1532486116.818,32.715,36.621,37.109,35.156,-450.684
1532486116.822,26.367,44.922,39.062,26.855,-431.152
1532486116.826,20.020,63.965,34.180,21.973,699.707
1532486116.830,28.320,34.668,33.691,29.297,268.555
1532486116.834,28.809,35.645,36.133,36.621,-509.766
1532486116.838,22.949,56.641,35.156,34.180,0.488
1532486116.842,26.855,60.059,34.180,35.156,425.293
1532486116.846,32.715,68.848,35.156,28.809,876.465
1532486116.849,37.109,37.109,41.016,45.898,246.582
1532486116.853,35.156,28.809,41.992,47.852,-667.480
1532486116.857,26.855,40.527,37.598,31.250,-931.152
1532486116.861,22.461,44.922,36.133,33.203,-746.094
1532486116.865,18.555,46.387,36.621,38.574,103.027
1532486116.869,15.137,34.668,39.551,41.016,-298.828
1532486116.873,21.484,44.434,39.551,29.297,-794.922
1532486116.877,31.250,47.363,37.109,27.344,-730.469
1532486116.881,35.645,51.270,35.156,42.969,-620.605
1532486116.885,35.156,70.801,33.203,34.668,527.344
1532486116.889,34.180,40.527,35.156,30.273,413.574
1532486116.892,38.086,36.133,34.180,47.852,-687.500
1532486116.896,46.387,51.270,33.203,33.691,-667.480
1532486116.900,39.551,50.293,36.133,29.297,-578.613
1532486116.904,25.879,64.453,37.598,36.621,90.820
1532486116.908,31.250,53.711,40.527,45.898,190.430
1532486116.912,38.086,41.992,41.504,63.477,-381.348
1532486116.916,38.086,43.457,39.062,43.945,-458.984
1532486116.920,35.645,39.551,39.062,33.691,-573.730
1532486116.924,30.273,46.387,37.598,41.992,-162.109
1532486116.928,33.203,40.039,37.598,65.918,-53.223
1532486116.931,35.645,46.875,36.621,51.758,80.078
1532486116.935,28.809,50.781,33.691,19.043,580.566
1532486116.939,29.785,35.156,34.180,34.668,-307.617
1532486116.943,37.598,58.105,30.762,45.898,-287.598
1532486116.947,36.133,53.711,29.785,38.086,830.078
1532486116.951,39.551,21.973,36.133,34.180,-2.441
1532486116.955,36.133,32.715,34.668,26.855,-719.727
1532486116.959,38.574,42.969,31.738,27.832,-791.016
1532486116.963,43.457,45.410,34.668,46.387,-473.145
1532486116.967,37.598,30.273,33.691,51.270,58.594
1532486116.971,35.156,30.762,32.227,42.480,-456.055
1532486116.974,37.598,48.340,32.227,34.668,-684.570
1532486116.978,39.062,49.805,30.762,18.555,-42.969
1532486116.982,39.062,44.922,31.738,20.020,508.789
1532486116.986,35.156,54.199,33.203,10.254,853.516
1532486116.990,38.574,36.133,33.203,20.996,2.930
1532486116.994,41.992,35.645,34.180,50.781,-722.656
1532486116.998,37.109,43.457,33.203,56.152,-651.367
1532486117.002,34.668,41.016,31.250,35.156,-439.453
1532486117.006,29.785,40.039,30.273,36.621,29.297
1532486117.010,31.738,35.156,30.762,31.738,-471.680
1532486117.013,35.645,35.645,33.691,32.227,-566.895
1532486117.017,34.668,37.109,38.574,55.664,-467.773
1532486117.021,38.574,49.316,41.016,50.293,-524.414
1532486117.025,45.898,62.988,43.457,49.805,523.438
1532486117.029,48.340,50.781,45.410,62.500,459.473
1532486117.033,49.805,51.270,47.852,61.523,-292.480
1532486117.037,49.805,50.781,50.781,49.805,-482.910
1532486117.041,50.781,57.129,54.199,56.152,-594.238
1532486117.045,50.781,75.684,54.688,62.988,508.789
1532486117.049,47.363,44.922,56.152,65.430,480.469
1532486117.053,44.434,42.969,57.129,46.387,-454.102
1532486117.056,48.828,60.059,57.129,60.059,-658.691
1532486117.060,51.270,64.941,56.641,79.590,-636.230
1532486117.064,49.805,75.195,57.129,64.941,173.340
1532486117.068,56.641,55.176,59.570,79.102,35.156
1532486117.072,54.199,65.430,58.105,71.777,-0.977
1532486117.076,52.246,74.219,55.664,44.434,450.195
1532486117.080,55.664,59.082,58.594,55.176,-217.773
1532486117.084,52.734,82.031,57.617,53.223,190.430
1532486117.088,51.758,69.336,52.246,51.758,813.477
1532486117.092,46.875,46.875,49.805,48.340,-356.934
1532486117.096,46.387,58.105,47.852,51.270,-705.078
1532486117.099,44.922,57.129,48.340,53.223,-564.453
1532486117.103,38.574,68.359,46.875,42.969,-252.441
1532486117.107,38.086,51.758,44.434,45.410,-131.836
1532486117.111,39.551,43.945,41.992,51.270,-588.867
1532486117.115,43.457,55.176,40.039,37.109,-448.242
1532486117.119,47.363,56.152,40.039,35.645,-1.465
1532486117.123,42.969,59.570,38.574,43.945,464.844
1532486117.127,38.086,61.523,32.715,44.922,841.797
1532486117.131,36.133,43.945,35.645,55.664,32.227
1532486117.135,32.227,54.688,39.062,34.180,-581.055
1532486117.138,29.297,58.594,34.180,28.320,-735.840
1532486117.142,26.367,54.688,32.227,28.320,-643.555
1532486117.146,27.832,49.316,34.668,28.320,-66.406
1532486117.150,26.367,38.574,35.645,37.598,-343.262
1532486117.154,23.926,40.039,33.203,27.832,-600.098
1532486117.158,27.344,46.387,30.273,39.062,-728.516
1532486117.162,35.645,46.875,29.785,41.504,-507.812
1532486117.166,34.668,47.852,33.691,37.109,470.703
1532486117.170,29.297,47.363,35.645,38.574,572.266
1532486117.174,27.832,42.969,30.273,47.363,-145.996
1532486117.178,33.691,35.156,27.344,31.738,-602.051
1532486117.181,33.203,42.969,30.762,35.156,-378.418
1532486117.185,23.926,60.059,33.203,36.621,716.797
1532486117.189,31.738,30.273,36.133,27.832,309.570
1532486117.193,35.645,31.250,37.109,41.016,-650.879
1532486117.197,38.574,42.969,38.086,42.969,-632.812
1532486117.201,44.434,43.945,41.504,43.457,-421.875
1532486117.205,41.504,47.852,43.457,35.645,187.012
1532486117.209,44.434,46.387,43.945,27.832,-312.988
1532486117.213,45.410,58.105,41.016,43.945,-113.770
1532486117.217,39.062,39.551,41.992,28.809,478.516
1532486117.221,34.668,31.738,45.898,31.250,-271.484
1532486117.224,33.203,65.918,43.945,50.293,369.629
1532486117.228,38.086,42.969,46.387,65.430,717.285
1532486117.232,42.480,24.902,46.875,68.848,-369.629
1532486117.236,42.480,36.133,45.410,41.992,-656.738
1532486117.240,43.945,41.016,45.410,30.762,-793.457
1532486117.244,39.551,53.223,42.480,36.133,-197.266
1532486117.248,38.086,41.504,42.969,48.828,-39.062
1532486117.252,29.785,33.691,45.410,20.020,-556.152
1532486117.256,23.926,41.016,39.551,3.418,-589.844
1532486117.260,31.250,51.758,36.621,51.270,-154.297
1532486117.263,25.879,60.059,40.039,29.297,547.852
1532486117.267,26.367,41.992,40.039,31.738,821.289
1532486117.271,34.668,24.902,35.645,62.012,-244.629
1532486117.275,35.645,42.969,34.180,50.293,-835.449
1532486117.279,35.645,44.922,34.668,22.461,-745.605
1532486117.283,36.133,47.363,36.133,22.461,-354.004
1532486117.287,33.691,44.434,36.621,51.758,-88.867
1532486117.291,33.203,41.992,39.551,56.641,-645.996
1532486117.295,42.480,48.340,41.504,46.875,-651.367
1532486117.299,36.621,36.621,38.086,44.922,-532.227
1532486117.303,26.855,36.621,41.504,24.414,-366.211
1532486117.306,22.949,46.875,40.039,23.438,422.852
1532486117.310,29.297,37.109,37.598,44.434,459.473
1532486117.314,35.645,32.227,40.039,51.270,-84.961
1532486117.318,29.297,35.645,41.016,45.898,-498.047
1532486117.322,25.391,47.363,41.504,47.363,-428.711
1532486117.326,24.902,65.430,41.992,39.551,646.973
1532486117.330,36.133,42.969,44.434,40.527,460.938
1532486117.334,36.133,29.297,45.898,40.039,-314.453
1532486117.338,27.344,38.574,45.410,30.273,-690.918
1532486117.342,32.715,49.316,44.922,33.203,-622.559
1532486117.346,34.668,47.852,44.434,65.918,75.195
1532486117.349,33.691,41.992,43.457,62.012,-253.418
1532486117.353,32.227,47.852,40.039,41.016,-18.066
1532486117.357,30.273,41.992,40.527,37.109,326.172
1532486117.361,37.598,48.828,39.062,36.621,-265.625
1532486117.365,33.203,73.730,34.668,24.902,587.402
1532486117.369,22.461,37.109,35.645,21.484,504.883
1532486117.373,22.949,31.738,38.086,33.203,-678.223
1532486117.377,31.250,44.922,39.062,36.133,-857.910
1532486117.381,25.879,44.922,37.109,19.531,-637.695
1532486117.385,13.672,46.875,34.180,6.836,155.762
1532486117.388,19.531,36.621,34.668,11.719,-231.445
1532486117.392,27.344,40.527,34.668,36.621,-812.988
1532486117.396,27.832,39.062,34.180,67.383,-550.781
1532486117.400,30.273,40.527,34.668,32.715,-122.559
1532486117.404,27.344,50.781,33.203,11.230,653.809
1532486117.408,29.785,36.133,33.203,28.320,679.199
1532486117.412,39.062,35.156,33.691,18.555,-416.016
1532486117.416,41.992,53.223,35.156,31.250,-649.902
1532486117.420,40.527,38.574,32.715,28.809,-678.711
1532486117.424,42.480,50.293,31.250,12.695,-348.633
1532486117.428,46.387,46.387,33.691,40.527,-206.543
1532486117.431,45.898,42.480,36.621,42.480,-562.988
1532486117.435,37.109,43.457,32.715,20.508,-489.258
1532486117.439,38.086,40.039,33.203,13.672,-716.309
1532486117.443,36.621,55.664,33.691,27.832,-400.391
1532486117.447,28.809,54.199,31.738,43.945,530.762
1532486117.451,26.367,41.504,32.227,52.734,525.391
1532486117.455,30.762,35.645,32.227,38.086,-104.492
1532486117.459,35.645,39.551,33.203,31.738,-727.539
1532486117.463,37.598,56.152,34.180,45.898,-373.535
1532486117.467,33.203,62.012,36.621,41.992,763.184
1532486117.470,30.762,34.180,38.574,49.316,60.059
1532486117.474,38.086,39.062,39.551,38.086,-773.438
1532486117.478,40.527,46.387,40.039,17.090,-727.051
1532486117.482,34.180,45.410,39.551,40.039,-390.625
1532486117.486,32.715,41.992,41.016,55.176,57.129
1532486117.490,33.691,32.715,39.062,28.809,-490.234
1532486117.494,30.273,49.316,36.133,20.996,-108.398
1532486117.498,28.320,50.781,35.645,37.109,361.816
1532486117.502,25.391,35.645,34.180,31.738,-57.129
1532486117.506,22.461,55.176,32.715,17.090,672.363
1532486117.510,27.344,28.320,37.109,25.391,222.656
1532486117.513,34.668,17.578,37.598,32.227,-629.883
1532486117.517,33.203,32.715,33.203,28.809,-630.859
1532486117.521,19.531,40.527,34.668,37.598,-583.008
1532486117.525,19.043,45.410,37.598,37.109,17.090
1532486117.529,26.855,36.133,36.133,16.113,-310.547
1532486117.533,27.832,38.086,39.062,20.020,-568.359
1532486117.537,25.391,40.527,42.480,37.109,-525.391
1532486117.541,19.043,47.363,38.086,24.414,-137.695
1532486117.545,19.531,57.617,34.180,8.789,837.402
1532486117.549,23.438,31.738,39.551,14.648,570.312
1532486117.553,21.484,24.414,41.016,37.598,-457.520
1532486117.556,20.508,39.062,39.062,27.344,-810.547
1532486117.560,23.438,50.293,38.574,32.227,-797.852
1532486117.564,21.973,64.941,38.086,48.340,4.883
1532486117.568,19.531,39.551,40.039,9.766,-85.449
1532486117.572,20.996,37.109,39.062,-6.836,-692.383
1532486117.576,26.367,45.898,36.621,26.367,-651.855
1532486117.580,21.973,40.527,35.156,39.551,-620.117
1532486117.584,18.555,47.852,36.133,33.691,-6.348
1532486117.588,22.461,46.387,36.133,29.785,494.629
1532486117.592,23.438,42.480,35.645,35.156,344.238
1532486117.595,28.320,36.133,34.668,38.086,-15.137
1532486117.599,31.250,27.344,37.109,26.367,-531.738
1532486117.603,28.809,56.152,35.156,29.785,-78.613
1532486117.607,29.297,60.547,35.156,27.344,791.016
1532486117.611,37.109,31.250,35.156,24.414,-141.602
1532486117.615,38.086,50.293,32.715,41.016,-628.418
1532486117.619,33.691,56.152,34.668,27.832,-602.051
1532486117.623,30.762,56.152,37.109,13.184,-504.395
1532486117.627,23.926,54.688,36.621,17.090,-156.738
1532486117.631,24.902,48.828,33.691,32.715,-455.078
1532486117.635,27.344,55.664,32.227,40.527,38.086
1532486117.638,32.715,49.805,33.691,37.598,248.535
1532486117.642,40.527,50.781,34.668,35.645,-171.387
1532486117.646,38.086,64.941,32.227,32.227,664.062
1532486117.650,41.504,35.156,35.645,35.645,209.961
1532486117.654,41.992,30.273,39.062,37.109,-698.730
1532486117.658,42.969,45.410,38.086,23.926,-854.004
1532486117.662,43.945,50.781,38.086,19.043,-622.070
1532486117.666,36.133,45.898,40.039,43.457,69.336
1532486117.670,34.668,40.527,44.434,28.809,-356.445
1532486117.674,31.250,51.270,42.969,-3.418,-751.465
1532486117.678,35.156,54.688,40.527,17.090,-677.246
1532486117.681,38.086,51.758,39.062,62.500,-30.273
1532486117.685,34.180,52.734,35.645,55.664,904.297
1532486117.689,37.598,30.273,36.621,34.180,243.164
1532486117.693,39.551,33.203,37.109,33.203,-682.617
1532486117.697,39.551,44.434,39.551,20.996,-707.031
1532486117.701,34.668,44.922,39.062,26.367,-508.301
1532486117.705,31.738,48.340,34.180,52.246,120.605
1532486117.709,37.109,42.480,32.715,52.246,-357.910
1532486117.713,38.574,42.480,32.715,48.828,-677.246
1532486117.717,40.527,37.598,32.227,24.414,-456.055
1532486117.720,35.645,39.551,31.738,14.648,-548.828
1532486117.724,26.367,50.293,29.785,23.926,88.379
1532486117.728,31.738,46.387,30.273,27.832,455.078
1532486117.732,36.621,31.250,32.227,62.500,416.504
1532486117.736,30.273,18.066,32.715,61.523,10.254
1532486117.740,28.809,30.762,31.738,28.809,-712.891
1532486117.744,25.391,59.570,32.227,14.160,76.172
1532486117.748,21.484,37.109,30.273,12.695,802.246
1532486117.752,25.879,25.391,32.227,24.414,15.625
1532486117.756,23.926,38.086,35.645,32.227,-478.516
1532486117.760,20.020,35.645,33.203,39.551,-804.199
1532486117.763,21.973,50.781,31.738,39.062,-282.715
1532486117.767,23.438,32.715,36.133,24.414,-18.555
1532486117.771,17.578,29.297,37.598,23.926,-584.473
1532486117.775,13.184,54.199,35.645,19.043,-35.156
1532486117.779,19.531,38.086,34.668,26.855,20.996
1532486117.783,23.438,48.828,36.133,37.109,-104.492
1532486117.787,20.020,64.941,39.062,24.902,771.973
1532486117.791,24.902,29.297,37.598,13.184,-111.816
1532486117.795,26.367,32.227,34.180,36.133,-789.062
1532486117.799,25.879,43.945,33.691,47.363,-619.141
1532486117.803,23.926,46.875,34.668,19.043,-441.895
1532486117.806,22.949,46.387,35.156,29.297,-148.926
1532486117.810,36.133,47.852,34.668,18.555,-546.875
1532486117.814,41.992,51.758,37.109,34.180,-568.359
1532486117.818,37.109,45.898,41.992,48.828,-499.023
1532486117.822,33.203,60.547,41.016,18.555,15.625
1532486117.826,35.156,70.801,37.598,26.855,864.746
1532486117.830,39.062,38.574,41.992,52.246,152.832
1532486117.834,31.738,37.109,44.922,41.016,-545.898
1532486117.838,24.902,47.363,40.039,26.855,-721.191
1532486117.842,31.250,45.898,39.062,42.480,-673.828
1532486117.845,39.551,36.133,41.992,47.852,32.715
1532486117.849,36.621,32.715,41.992,36.621,-256.836
1532486117.853,32.227,48.828,40.039,14.648,-582.520
1532486117.857,36.621,54.199,39.551,20.508,-693.848
1532486117.861,40.039,54.688,38.086,39.551,-566.895
1532486117.865,35.645,48.828,35.156,37.598,241.699
1532486117.869,24.414,42.480,35.156,32.715,366.699
1532486117.873,21.484,45.410,37.109,24.414,331.055
1532486117.877,34.180,38.574,38.574,24.902,-190.918
1532486117.881,37.598,49.805,38.574,42.969,-562.012
1532486117.885,29.785,68.359,39.551,37.598,573.730
1532486117.888,28.809,39.062,40.039,23.438,635.254
1532486117.892,28.320,33.691,41.016,39.062,-546.387
1532486117.896,32.715,41.992,40.527,45.410,-668.457
1532486117.900,34.180,41.504,39.551,36.133,-537.598
1532486117.904,28.320,58.105,37.598,28.320,15.137
1532486117.908,32.227,41.016,37.109,22.949,-188.965
1532486117.912,38.574,37.598,37.109,29.785,-672.363
1532486117.916,34.668,56.152,35.645,42.480,91.797
1532486117.920,33.691,38.574,34.668,36.621,283.691
1532486117.924,30.762,41.504,34.668,37.109,245.605
1532486117.927,31.250,42.969,35.645,37.598,754.883
1532486117.931,34.668,22.461,36.133,43.945,-120.117
1532486117.935,30.273,33.203,38.574,39.062,-653.809
1532486117.939,31.738,42.969,40.527,40.527,-777.344
1532486117.943,34.668,53.223,35.156,24.414,-536.621
1532486117.947,36.621,44.922,33.203,25.391,-85.449
1532486117.951,36.621,39.551,35.156,44.922,-415.527
1532486117.955,36.133,49.316,31.738,38.086,-613.281
1532486117.959,37.109,49.316,32.227,31.738,-719.727
1532486117.963,34.668,63.477,36.133,41.992,3.906
1532486117.967,36.133,58.594,37.109,49.316,885.742
1532486117.970,39.062,25.391,38.574,48.828,5.371
1532486117.974,40.039,39.551,41.504,42.969,-762.207
1532486117.978,43.945,54.199,50.293,36.621,-753.418
1532486117.982,42.480,57.129,59.082,50.293,-426.758
1532486117.986,43.457,57.617,57.129,46.387,44.434
1532486117.990,47.852,50.781,58.594,29.785,-508.789
1532486117.994,51.758,51.270,59.570,58.105,-698.730
1532486117.998,55.664,59.082,57.617,74.219,-528.809
1532486118.002,54.199,64.941,57.129,70.312,-325.684
1532486118.006,49.316,63.477,54.199,51.758,149.902
1532486118.010,48.828,67.871,51.758,38.574,276.855
1532486118.013,52.734,61.523,53.223,76.660,286.133
1532486118.017,46.387,44.434,58.594,64.941,-252.930
1532486118.021,39.062,59.570,58.105,49.316,-484.863
1532486118.025,41.504,83.984,54.199,67.871,635.742
1532486118.029,50.781,56.152,56.641,73.730,489.258
1532486118.033,54.199,47.852,56.641,68.848,-426.758
1532486118.037,44.434,54.688,48.828,45.898,-615.234
1532486118.041,39.551,56.152,42.969,40.039,-675.293
1532486118.045,40.527,62.500,42.969,42.969,120.605
1532486118.049,42.480,46.875,42.969,49.805,-71.289
1532486118.052,44.922,44.922,38.574,44.434,-551.758
1532486118.056,38.086,53.711,37.598,35.156,19.531
1532486118.060,35.156,38.086,37.598,41.504,255.859
1532486118.064,33.203,52.246,35.156,42.480,611.328
1532486118.068,30.273,33.691,35.156,20.020,697.266
1532486118.072,30.273,18.555,34.180,-2.930,-429.199
1532486118.076,32.227,41.016,33.691,21.484,-823.730
1532486118.080,36.133,41.504,33.691,47.363,-704.590
1532486118.084,36.133,45.410,33.203,36.133,-116.211
1532486118.088,41.504,38.086,35.156,26.367,-128.906
1532486118.092,43.945,37.109,35.156,36.621,-709.961
1532486118.095,41.992,35.156,35.645,37.598,-583.496
1532486118.099,36.621,34.668,38.574,49.805,-526.367
1532486118.103,22.949,55.664,37.598,50.781,191.895
1532486118.107,27.344,41.992,33.691,31.250,860.840
1532486118.111,35.645,16.602,33.691,17.578,-177.734
1532486118.115,32.227,31.738,35.645,25.391,-618.652
1532486118.119,29.297,39.062,34.668,41.992,-604.004
1532486118.123,27.344,37.109,32.227,39.551,-529.297
1532486118.127,22.461,30.273,32.227,30.762,-167.480
1532486118.131,27.832,31.738,33.203,16.602,-441.406
1532486118.135,29.785,40.527,31.738,22.461,-485.352
1532486118.138,20.020,47.852,30.762,8.301,-622.070
1532486118.142,20.996,41.992,29.785,19.531,-519.531
1532486118.146,26.367,37.109,30.273,44.922,45.410
1532486118.150,23.926,42.969,31.738,38.574,233.398
1532486118.154,21.973,40.039,32.227,30.273,425.293
1532486118.158,26.367,27.832,31.250,27.344,-272.461
1532486118.162,33.203,44.434,32.715,32.227,-470.703
1532486118.166,30.762,60.059,36.133,22.461,741.211
1532486118.170,29.297,20.508,36.621,21.973,243.652
1532486118.174,25.391,22.949,33.691,33.691,-491.699
1532486118.177,28.809,26.367,35.156,40.527,-560.059
1532486118.181,37.598,19.043,33.203,31.738,-460.938
1532486118.185,31.738,28.320,27.832,25.391,223.145
1532486118.189,24.414,30.762,25.879,16.602,-359.863
1532486118.193,24.902,40.527,25.879,18.066,-734.863
1532486118.197,23.926,40.527,27.344,20.996,-25.879
1532486118.201,20.508,35.645,29.297,20.996,399.414
1532486118.205,17.578,50.293,28.320,19.531,843.262
1532486118.209,24.902,29.297,29.785,20.020,448.242
1532486118.213,27.832,23.438,31.250,29.785,-511.719
1532486118.217,29.785,35.156,33.203,45.898,-623.047
1532486118.220,30.273,37.109,37.109,38.574,-644.043
1532486118.224,23.926,42.480,34.668,26.367,-49.316
1532486118.228,31.738,31.250,31.250,30.273,-206.543
1532486118.232,34.668,28.809,30.762,20.508,-565.430
1532486118.236,22.949,29.297,32.227,22.949,-477.051
1532486118.240,20.996,34.180,33.691,33.691,-726.562
1532486118.244,24.902,62.012,31.250,38.574,187.012
1532486118.248,29.297,36.621,31.250,35.645,843.750
1532486118.252,26.367,15.137,33.691,21.973,-230.469
1532486118.256,16.113,38.086,31.738,25.879,-740.234
1532486118.260,18.555,44.922,31.738,34.180,-804.688
1532486118.263,21.484,54.688,32.715,31.738,-311.035
1532486118.267,22.461,38.086,35.156,15.625,-9.277
1532486118.271,24.414,38.574,37.598,26.367,-556.152
1532486118.275,24.902,52.734,40.039,37.598,-668.945
1532486118.279,26.367,48.828,39.062,36.621,-594.238
1532486118.283,27.344,44.922,37.598,36.621,-216.797
1532486118.287,20.996,39.551,39.551,27.344,78.125
1532486118.291,27.832,52.734,40.039,4.395,155.273
1532486118.295,37.598,54.199,39.062,-7.324,408.691
1532486118.299,46.875,33.691,40.039,26.367,-115.723
1532486118.302,46.875,50.781,41.016,65.430,-265.625
1532486118.306,32.227,63.477,39.062,36.621,737.305
1532486118.310,33.691,33.203,42.480,21.484,95.215
1532486118.314,40.527,36.621,46.875,26.855,-584.961
1532486118.318,42.480,44.922,47.363,45.898,-555.664
1532486118.322,44.434,43.457,45.410,52.734,-516.113
1532486118.326,47.363,36.133,46.875,41.016,-20.020
1532486118.330,47.363,32.715,48.340,49.805,-358.398
1532486118.334,41.016,39.551,45.898,46.387,-482.422
1532486118.338,41.992,44.434,44.922,41.504,-56.641
1532486118.342,42.969,53.711,46.387,49.316,322.754
1532486118.345,41.016,66.406,47.363,48.340,875.000
1532486118.349,41.992,30.762,45.898,46.875,339.844
1532486118.353,40.039,28.320,44.922,36.621,-547.363
1532486118.357,40.527,51.270,43.945,36.621,-832.031
1532486118.361,41.016,52.246,37.598,50.781,-689.941
1532486118.365,37.598,49.316,36.133,58.594,146.484
1532486118.369,36.133,37.598,39.551,37.109,-204.590
1532486118.373,35.645,44.434,36.621,27.344,-712.891
1532486118.377,37.109,47.363,33.203,36.133,-658.691
1532486118.381,39.551,48.340,36.621,43.457,-584.961
1532486118.384,37.109,64.453,37.109,41.016,529.785
1532486118.388,37.109,36.621,36.133,35.156,573.730
1532486118.392,39.062,32.227,38.086,31.250,-568.848
1532486118.396,41.992,47.852,37.109,53.223,-636.719
1532486118.400,38.574,47.363,38.574,53.711,-543.457
1532486118.404,36.133,62.500,39.551,25.879,80.078
1532486118.408,34.668,42.480,36.621,28.320,-36.133
1532486118.412,32.227,40.039,37.109,33.691,-620.605
1532486118.416,36.133,45.410,37.109,27.832,-421.875
1532486118.420,36.621,41.504,37.109,14.160,-512.207
1532486118.424,33.691,51.758,41.504,29.297,-188.477
1532486118.427,35.156,49.316,42.480,50.293,-32.715
1532486118.431,33.691,56.641,39.551,55.664,115.723
1532486118.435,33.203,51.758,41.992,54.688,503.418
1532486118.439,37.109,40.527,43.457,37.598,-280.762
1532486118.443,41.992,56.152,41.016,24.902,-273.438
1532486118.447,43.945,44.434,39.551,31.250,442.871
1532486118.451,42.480,31.250,41.016,44.922,-196.777
1532486118.455,37.598,41.992,42.480,47.852,-527.344
1532486118.459,35.645,42.480,43.457,37.109,-675.781
1532486118.463,36.133,49.805,42.969,30.273,-336.426
1532486118.467,34.180,43.945,44.434,31.738,594.727
1532486118.470,30.273,32.715,45.410,52.246,-139.160
1532486118.474,33.203,48.828,44.434,53.711,-682.617
1532486118.478,35.645,45.898,40.527,31.250,-44.922
1532486118.482,34.180,44.434,38.574,38.574,453.125
1532486118.486,33.203,57.617,41.016,43.457,849.121
1532486118.490,33.691,36.621,38.574,30.273,36.621
1532486118.494,36.621,33.203,38.086,34.668,-729.004
1532486118.498,39.062,39.062,41.992,51.758,-668.945
1532486118.502,34.180,37.109,42.969,46.387,-446.777
1532486118.506,24.902,41.016,40.039,38.574,33.691
1532486118.509,38.086,40.527,38.574,47.363,-474.609
1532486118.513,44.922,42.969,39.062,60.059,-598.145
1532486118.517,40.039,39.062,39.551,48.340,-468.750
1532486118.521,30.762,47.363,41.504,29.297,-526.855
1532486118.525,27.344,59.570,42.480,36.133,495.117
1532486118.529,38.574,39.551,42.480,46.875,433.594
1532486118.533,49.316,33.691,43.945,50.781,-311.035
1532486118.537,42.969,39.062,42.969,43.945,-458.496
1532486118.541,39.062,47.363,40.039,31.250,-610.840
1532486118.545,42.480,65.918,34.180,42.480,448.730
1532486118.549,44.922,34.180,37.598,44.922,512.207
1532486118.552,41.504,25.391,42.480,44.434,-430.664
1532486118.556,42.969,41.504,41.992,58.594,-648.438
1532486118.560,50.293,48.340,40.039,44.922,-663.574
1532486118.564,46.387,59.082,40.039,23.926,93.750
1532486118.568,48.828,45.898,41.504,28.320,36.621
1532486118.572,45.898,51.758,40.527,42.969,-0.488
1532486118.576,39.551,53.223,39.062,57.129,405.762
1532486118.580,40.527,37.109,39.062,67.383,-263.672
1532486118.584,36.133,66.406,39.551,47.363,119.629
1532486118.588,33.691,54.199,38.086,31.250,824.219
1532486118.592,34.668,24.414,36.133,37.109,-360.352
1532486118.595,38.086,48.828,36.621,40.527,-575.195
1532486118.599,41.992,41.016,38.086,20.508,-418.457
1532486118.603,35.645,44.434,36.621,0.977,-300.293
1532486118.607,34.668,51.270,35.645,49.805,-129.883
1532486118.611,38.574,44.434,36.621,66.406,-611.816
1532486118.615,35.645,43.945,36.133,51.758,-493.652
1532486118.619,34.668,46.387,35.645,38.086,1.953
1532486118.623,32.227,54.199,36.621,18.066,402.832
1532486118.627,26.367,58.594,37.109,6.348,810.547
1532486118.631,29.297,33.691,36.133,28.320,49.805
1532486118.634,20.996,34.180,31.250,48.828,-586.914
1532486118.638,18.555,45.898,27.832,33.691,-730.957
1532486118.642,34.180,45.898,31.738,31.250,-671.387
1532486118.646,38.086,39.062,34.668,36.621,-92.773
1532486118.650,35.156,33.691,36.133,36.621,-352.539
1532486118.654,26.855,37.598,37.109,33.691,-587.891
1532486118.658,28.320,38.574,39.062,34.668,-719.727
1532486118.662,36.621,41.016,42.969,44.922,-537.598
1532486118.666,37.109,47.852,44.434,53.711,469.238
1532486118.670,30.762,46.875,43.945,33.203,578.125
1532486118.674,28.320,48.828,47.363,31.250,-152.344
1532486118.677,36.133,45.410,44.434,47.363,-615.723
1532486118.681,37.109,47.363,41.992,39.551,-417.480
1532486118.685,31.250,65.430,39.551,23.926,705.078
1532486118.689,34.180,39.062,36.133,27.344,366.211
1532486118.693,35.156,41.016,39.551,33.203,-652.832
1532486118.697,41.992,49.805,43.945,39.062,-661.133
1532486118.701,42.969,42.969,44.434,47.363,-440.430
1532486118.705,32.715,50.781,44.434,43.945,193.848
1532486118.709,38.086,46.387,45.898,45.898,-290.527
1532486118.713,48.340,56.641,42.969,45.410,-119.629
1532486118.717,42.480,52.246,44.434,47.363,416.016
1532486118.720,35.645,46.875,45.898,44.434,-376.953
1532486118.724,30.762,77.637,39.551,25.879,300.781
1532486118.728,36.133,51.758,41.504,41.504,747.070
1532486118.732,35.645,31.250,42.969,45.410,-336.426
1532486118.736,31.250,43.945,36.133,30.273,-633.301
1532486118.740,32.715,48.340,37.109,23.438,-784.668
1532486118.744,29.297,64.941,39.062,26.367,-273.438
1532486118.748,32.715,47.852,38.574,43.457,-54.199
1532486118.752,34.668,36.621,38.574,29.785,-529.297
1532486118.756,34.180,47.363,37.109,18.066,-600.098
1532486118.759,35.645,50.293,38.086,31.738,-219.238
1532486118.763,26.367,56.641,37.598,29.785,490.234
1532486118.767,24.414,44.922,36.621,38.086,834.961
1532486118.771,29.785,24.902,37.109,42.969,-196.289
1532486118.775,29.785,39.062,35.645,24.414,-838.379
1532486118.779,31.250,43.457,30.273,29.297,-767.090
1532486118.783,33.203,43.457,32.227,35.156,-389.648
1532486118.787,32.227,36.133,36.621,20.020,-76.660
1532486118.791,27.832,32.227,34.668,13.672,-614.258
1532486118.795,36.133,37.109,33.691,34.180,-663.086
1532486118.799,40.039,36.133,34.180,34.180,-526.367
1532486118.802,27.832,38.086,31.738,23.438,-344.727
1532486118.806,31.250,46.875,32.715,25.879,422.852
1532486118.810,33.691,33.203,32.715,33.691,482.910
1532486118.814,29.785,15.625,34.180,44.434,-13.672
1532486118.818,32.715,20.508,35.156,35.156,-462.402
1532486118.822,22.949,40.527,33.203,31.250,-425.293
1532486118.826,17.578,59.082,32.227,28.809,671.875
1532486118.830,28.320,30.762,32.227,38.574,267.090
1532486118.834,33.691,28.320,33.203,47.363,-520.020
1532486118.838,30.273,39.551,31.738,21.484,-674.805
1532486118.841,25.391,38.086,31.250,-2.441,-630.859
1532486118.845,21.973,40.039,33.691,23.438,76.172
1532486118.849,22.949,38.574,33.691,46.875,-235.840
1532486118.853,23.438,52.246,34.180,32.227,-9.766
1532486118.857,29.297,50.293,34.668,41.992,316.895
1532486118.861,36.133,45.898,35.645,42.480,-289.551
1532486118.865,32.715,62.988,33.691,34.668,565.918
1532486118.869,32.227,34.668,36.133,26.367,560.059
1532486118.873,36.133,33.203,37.109,34.180,-632.324
1532486118.877,37.598,46.387,34.668,45.898,-836.914
1532486118.881,38.086,42.480,38.086,41.016,-633.789
1532486118.884,37.598,51.758,42.480,35.645,150.391
1532486118.888,41.016,47.363,43.457,28.320,-187.012
1532486118.892,39.062,49.316,40.527,50.781,-784.668
1532486118.896,29.785,54.199,37.598,57.129,-538.574
1532486118.900,28.809,54.688,46.387,30.762,-77.148
1532486118.904,29.297,68.848,55.664,30.762,656.738
1532486118.908,34.180,64.453,52.734,38.086,878.906
1532486118.912,41.504,40.527,52.246,50.293,-214.355
1532486118.916,42.480,44.922,54.199,35.645,-661.621
1532486118.920,43.457,45.410,54.688,21.484,-682.129
1532486118.924,44.922,59.082,54.199,51.758,-398.438
1532486118.927,52.246,55.176,55.664,61.523,-225.098
1532486118.931,56.641,58.105,57.617,54.688,-579.102
1532486118.935,52.246,67.383,56.641,40.039,-506.348
1532486118.939,48.340,61.523,52.734,36.621,-729.004
1532486118.943,49.316,70.801,52.246,51.270,-464.355
1532486118.947,47.852,69.336,51.270,47.363,485.352
1532486118.951,39.551,49.805,48.340,45.410,501.953
1532486118.955,34.180,43.945,47.852,32.715,-119.141
1532486118.959,32.715,42.480,45.898,19.043,-729.004
1532486118.963,28.809,54.688,43.945,32.715,-435.059
1532486118.966,23.438,60.059,43.457,49.805,736.328
1532486118.970,22.949,26.855,42.969,40.039,89.355
1532486118.974,27.832,35.156,41.504,13.184,-778.320
1532486118.978,25.879,45.898,42.480,36.621,-757.812
1532486118.982,21.973,37.598,41.504,50.293,-415.039
1532486118.986,16.113,29.297,41.504,30.762,73.242
1532486118.990,17.090,31.738,41.504,16.602,-493.652
1532486118.994,24.902,47.363,37.598,20.020,-130.371
1532486118.998,30.762,37.109,36.133,13.672,351.562
1532486119.002,30.762,32.227,37.598,16.602,-80.078
1532486119.006,26.367,58.105,37.109,28.320,667.969
1532486119.009,29.297,29.785,38.574,24.414,252.441
1532486119.013,31.738,26.367,36.133,15.625,-665.039
1532486119.017,27.832,42.480,30.762,30.273,-477.051
1532486119.021,23.438,36.621,32.227,22.949,-437.012
1532486119.025,23.438,38.574,33.203,22.461,3.906
1532486119.029,29.785,38.574,37.109,41.016,-313.965
1532486119.033,32.715,38.574,41.016,33.691,-597.656
1532486119.037,22.949,25.391,38.574,30.273,-531.738
1532486119.041,20.020,32.227,36.621,43.457,-174.316
1532486119.045,23.926,58.105,35.156,35.645,797.363
1532486119.049,26.855,29.785,35.645,27.344,606.445
1532486119.052,26.367,18.066,38.086,24.414,-440.918
1532486119.056,20.020,34.668,37.109,33.203,-807.129
1532486119.060,22.949,36.133,34.180,29.785,-833.984
1532486119.064,28.320,39.551,34.668,10.742,-90.332
1532486119.068,22.461,25.391,36.621,15.137,-92.773
1532486119.072,22.949,32.227,34.668,27.832,-696.777
1532486119.076,22.949,29.297,30.273,29.297,-696.777
1532486119.080,18.066,21.484,25.391,21.973,-666.016
1532486119.084,18.066,37.109,22.461,24.414,-62.012
1532486119.088,13.672,39.551,25.391,19.531,516.602
1532486119.091,8.789,39.551,26.855,12.695,354.492
1532486119.095,19.043,35.645,24.414,23.438,-70.312
1532486119.099,23.438,31.250,20.996,18.555,-560.547
1532486119.103,15.137,50.781,22.949,13.672,-138.672
1532486119.107,20.020,51.270,23.926,19.043,776.855
1532486119.111,31.250,23.438,22.949,29.297,-131.348
1532486119.115,32.227,29.297,21.973,40.039,-652.832
1532486119.119,27.832,31.738,22.949,43.945,-617.188
1532486119.123,25.391,39.551,22.949,34.668,-485.352
1532486119.127,27.344,39.062,20.020,24.902,-21.484
1532486119.131,36.133,35.645,21.973,27.344,-433.105
1532486119.134,36.133,45.898,24.902,26.855,42.969
1532486119.138,30.762,37.109,22.949,42.480,296.875
1532486119.142,32.227,39.062,21.484,35.645,-212.402
1532486119.146,32.715,57.617,21.973,24.902,643.066
1532486119.150,36.133,20.508,22.461,29.297,225.586
1532486119.154,32.715,22.461,22.949,9.766,-705.566
1532486119.158,26.855,40.039,21.973,12.695,-875.977
1532486119.162,30.762,34.668,22.949,28.809,-660.645
1532486119.166,31.250,33.203,23.438,38.574,73.730
1532486119.170,28.320,28.809,20.020,29.785,-342.773
1532486119.174,34.180,36.621,21.484,20.508,-753.418
1532486119.177,42.480,45.898,20.996,23.926,-731.934
1532486119.181,32.227,54.688,18.066,36.621,-9.277
1532486119.185,23.438,45.410,24.414,41.504,740.234
1532486119.189,26.367,30.762,26.367,31.738,-182.129
1532486119.193,24.414,37.109,24.902,33.691,-711.914
1532486119.197,29.297,37.598,27.832,32.227,-542.480
1532486119.201,33.203,40.039,27.832,22.949,-467.285
1532486119.205,27.344,59.570,23.438,20.020,547.363
1532486119.209,23.438,30.762,21.973,37.109,316.406
1532486119.213,22.949,20.508,20.508,50.781,-592.773
1532486119.216,24.414,31.250,22.461,45.410,-505.859
1532486119.220,18.066,34.180,21.484,31.738,-572.266
1532486119.224,15.137,46.387,18.555,26.367,36.621
1532486119.228,24.414,41.992,20.020,26.855,391.113
1532486119.232,27.832,41.992,20.996,22.461,411.133
1532486119.236,30.762,26.367,21.484,23.926,316.895
1532486119.240,26.855,20.508,20.996,30.762,-606.445
1532486119.244,23.438,53.223,18.066,14.160,-57.617
1532486119.248,24.902,41.992,19.531,26.367,837.891
1532486119.252,22.949,16.602,23.926,39.062,-210.938
1532486119.256,21.484,32.715,22.461,24.414,-765.137
1532486119.259,21.973,37.109,21.484,32.715,-844.727
1532486119.263,21.973,41.992,24.902,41.992,-360.352
1532486119.267,23.926,33.203,25.879,37.598,-12.695
1532486119.271,23.438,36.133,27.832,31.250,-562.988
1532486119.275,26.855,54.688,30.762,22.949,-53.223
1532486119.279,32.227,38.086,28.809,35.645,263.672
1532486119.283,36.133,34.180,25.879,43.457,68.359
1532486119.287,28.809,41.504,24.414,28.320,740.723
1532486119.291,26.367,23.926,23.438,38.086,-89.355
1532486119.295,31.250,33.203,23.438,56.641,-832.520
1532486119.298,36.621,39.062,24.902,57.617,-670.898
1532486119.302,34.668,37.598,24.414,41.016,-470.703
1532486119.306,35.156,35.156,23.926,26.367,-144.531
1532486119.310,44.434,33.691,27.344,33.203,-569.824
1532486119.314,42.480,35.156,28.809,43.457,-618.652
1532486119.318,35.156,33.203,33.203,38.086,-522.461
1532486119.322,29.297,49.316,32.227,40.039,33.691
1532486119.326,28.809,56.641,29.297,40.527,887.695
1532486119.330,35.645,20.508,31.250,46.875,158.203
1532486119.334,37.598,14.648,31.250,56.152,-558.105
1532486119.338,30.273,25.879,33.203,43.945,-733.887
1532486119.341,28.320,37.598,33.203,34.180,-705.566
1532486119.345,33.691,39.062,32.715,46.387,12.695
1532486119.349,32.715,20.996,29.785,48.340,-274.902
1532486119.353,26.367,26.367,26.367,27.344,-606.934
1532486119.357,23.438,33.691,26.367,36.621,-696.777
1532486119.361,30.273,39.062,30.273,54.199,-627.930
1532486119.365,31.738,42.480,32.715,42.969,256.348
1532486119.369,24.414,35.156,26.367,22.949,428.711
1532486119.373,22.949,40.039,23.438,18.066,377.441
1532486119.377,20.508,35.156,23.926,30.762,141.113
1532486119.381,20.020,34.180,23.438,47.852,-466.309
1532486119.384,9.766,54.199,25.391,42.480,471.680
1532486119.388,15.137,30.273,27.832,26.367,683.105
1532486119.392,26.855,24.902,28.320,28.320,-561.523
1532486119.396,23.926,38.574,25.879,32.227,-736.328
1532486119.400,15.137,37.598,27.832,20.020,-590.820
1532486119.404,9.766,50.781,28.809,8.301,-32.715
1532486119.408,21.484,39.062,28.809,5.859,-195.312
1532486119.412,22.949,33.691,31.738,16.602,-703.125
1532486119.416,17.090,45.898,28.809,32.715,97.656
1532486119.420,17.090,35.156,24.902,18.555,283.203
1532486119.423,14.160,51.270,25.879,6.348,175.293
1532486119.427,19.531,54.199,26.367,13.672,757.324
1532486119.431,23.926,17.578,28.320,33.203,-101.562
1532486119.435,17.090,29.297,30.273,-0.977,-679.688
1532486119.439,16.602,46.387,32.227,6.348,-562.012
1532486119.443,26.855,51.270,35.156,45.410,-385.254
1532486119.447,33.203,43.945,34.668,28.320,-124.023
1532486119.451,30.762,40.527,36.621,22.461,-414.551
1532486119.455,25.391,46.875,41.016,37.598,-619.141
1532486119.459,29.297,46.387,38.086,26.367,-731.445
1532486119.463,30.762,55.176,32.227,15.137,-33.691
1532486119.466,27.344,50.781,31.738,21.973,879.883
1532486119.470,27.832,22.461,35.156,8.789,34.180
1532486119.474,30.273,31.738,32.227,29.785,-773.926
1532486119.478,37.598,42.480,28.320,50.781,-800.293
1532486119.482,40.039,38.574,30.762,46.387,-468.750
1532486119.486,35.645,32.227,31.738,44.434,54.199
1532486119.490,32.227,32.227,32.715,37.598,-498.047
1532486119.494,34.180,41.992,32.227,45.410,-731.445
1532486119.498,38.574,46.387,31.738,55.664,-565.918
1532486119.502,35.645,41.016,34.180,47.363,-345.215
1532486119.506,34.668,34.180,31.250,41.016,160.645
1532486119.509,39.062,41.992,29.785,33.203,280.273
1532486119.513,37.598,35.156,33.203,22.461,246.094
1532486119.517,38.086,25.879,36.621,35.645,-276.855
1532486119.521,32.227,38.574,36.621,43.945,-519.043
1532486119.525,29.297,56.641,32.227,44.434,609.863
1532486119.529,41.504,23.926,31.738,53.711,528.809
1532486119.533,42.480,18.066,34.180,57.129,-425.293
1532486119.537,32.227,35.645,37.598,42.969,-615.723
1532486119.541,22.949,39.551,35.645,41.504,-700.684
1532486119.545,28.809,50.781,34.180,47.852,74.219
1532486119.548,34.668,40.039,36.621,24.902,-65.918
1532486119.552,28.320,39.551,34.668,14.648,-556.152
1532486119.556,22.949,52.246,30.762,22.461,17.090
1532486119.560,22.949,45.410,29.785,39.551,228.516
1532486119.564,22.949,49.805,30.273,49.316,532.715
1532486119.568,20.508,31.250,31.250,26.855,731.445
1532486119.572,20.508,21.973,33.203,27.832,-385.742
1532486119.576,22.949,41.992,35.156,41.992,-846.191
1532486119.580,28.320,40.527,36.621,38.086,-729.980
1532486119.584,23.926,48.828,35.645,33.691,-176.758
1532486119.588,19.043,38.574,35.156,27.344,-125.488
1532486119.591,22.461,33.203,35.156,20.020,-704.590
1532486119.595,26.367,39.551,32.715,25.391,-619.141
1532486119.599,26.367,36.621,32.227,18.066,-530.762
1532486119.603,21.484,55.664,29.297,1.465,166.016
1532486119.607,17.090,55.176,26.855,9.766,858.398
1532486119.611,23.926,30.762,27.344,23.438,-157.715
1532486119.615,27.832,36.621,26.855,37.598,-637.207
1532486119.619,33.203,34.180,31.738,30.762,-604.004
1532486119.623,31.738,39.551,29.785,31.738,-544.922
1532486119.627,28.809,43.945,27.344,49.805,-178.223
1532486119.631,35.156,42.969,30.762,28.809,-445.801
1532486119.634,30.273,34.180,28.320,29.785,-484.863
1532486119.638,23.926,30.762,27.832,28.809,-598.633
1532486119.642,28.320,33.691,28.320,27.344,-526.367
1532486119.646,26.855,34.668,28.809,41.016,63.477
1532486119.650,24.902,39.551,26.855,35.645,218.750
1532486119.654,24.414,42.969,25.391,34.668,477.539
1532486119.658,25.391,37.109,27.832,16.113,80.078
1532486119.662,28.809,45.410,26.855,17.578,-358.887
1532486119.666,22.949,56.641,26.367,28.320,697.266
1532486119.670,25.391,23.926,26.855,23.926,315.430
1532486119.673,20.996,24.414,26.855,32.227,-684.570
1532486119.677,20.508,36.621,29.297,9.277,-778.320
1532486119.681,29.785,37.109,27.832,19.531,-486.816
1532486119.685,19.043,36.621,29.297,46.875,242.188
1532486119.689,14.160,28.809,30.762,29.297,-311.035
1532486119.693,22.461,39.062,30.273,23.438,-726.074
1532486119.697,24.902,42.969,31.738,20.020,-49.316
1532486119.701,22.949,37.109,30.273,18.555,364.258
1532486119.705,16.602,51.758,32.227,29.785,843.262
1532486119.709,23.926,37.109,32.715,50.293,485.840
1532486119.713,31.250,35.156,35.645,59.082,-515.625
1532486119.716,33.203,47.852,47.852,69.336,-626.465
1532486119.720,31.738,49.316,46.387,41.992,-653.320
1532486119.724,27.832,64.453,43.945,0.977,-93.750
1532486119.728,33.203,50.293,49.316,30.273,-201.660
1532486119.732,36.133,41.504,50.293,68.359,-572.266
1532486119.736,36.133,47.852,52.734,53.711,-476.562
1532486119.740,37.109,52.734,51.270,32.227,-724.609
1532486119.744,38.574,75.195,45.410,28.809,157.227
1532486119.748,47.852,61.523,46.875,43.945,862.305
1532486119.752,46.875,38.574,50.293,56.152,-196.289
1532486119.755,38.574,46.875,50.781,35.156,-723.145
1532486119.759,39.062,49.805,50.781,38.086,-814.941
1532486119.763,38.086,58.594,47.363,62.012,-362.793
1532486119.767,36.133,52.734,44.922,58.105,10.742
1532486119.771,38.574,51.270,43.457,53.223,-525.879
1532486119.775,41.992,51.270,40.039,54.688,-684.570
1532486119.779,41.504,46.875,36.621,62.500,-629.395
1532486119.783,40.527,53.711,37.109,60.059,-273.438
1532486119.787,41.016,40.527,38.574,36.621,64.941
1532486119.791,37.598,46.387,37.598,30.762,142.090
1532486119.795,41.016,54.688,34.668,32.715,353.516
1532486119.798,43.945,39.062,35.156,35.645,-162.109
1532486119.802,33.691,47.363,38.086,37.598,-292.480
1532486119.806,30.273,61.523,36.133,34.668,732.910
1532486119.810,40.039,33.203,36.621,33.691,99.121
1532486119.814,42.480,31.250,37.109,24.902,-607.422
1532486119.818,33.691,35.156,34.668,40.039,-569.824
1532486119.822,31.738,37.598,33.203,62.988,-518.555
1532486119.826,37.109,40.527,32.715,50.781,-0.488
1532486119.830,35.645,30.762,34.668,35.156,-357.422
1532486119.834,31.250,29.785,36.621,38.574,-491.699
1532486119.838,23.438,38.086,34.180,31.738,25.391
1532486119.841,19.531,46.875,33.203,23.926,369.141
1532486119.845,28.809,54.199,32.227,41.504,856.445
1532486119.849,35.156,20.020,34.180,39.551,388.184
1532486119.853,19.531,18.066,34.180,29.297,-518.555
1532486119.857,15.137,33.203,32.715,27.344,-847.656
1532486119.861,21.484,44.434,32.227,29.785,-579.590
1532486119.865,20.508,37.109,26.855,35.645,272.461
1532486119.869,17.578,16.113,29.297,32.227,-194.824
1532486119.873,13.672,28.809,33.203,4.395,-709.473
1532486119.877,20.020,33.691,33.203,15.137,-672.363
1532486119.880,20.996,33.691,32.715,39.062,-615.723
1532486119.884,14.648,46.387,29.297,30.762,444.824
1532486119.888,18.555,16.602,27.344,23.438,458.496
1532486119.892,20.996,8.789,27.832,28.809,-629.883
1532486119.896,26.855,28.809,29.785,14.160,-657.227
1532486119.900,25.391,30.762,29.297,3.906,-570.312
1532486119.904,10.742,36.133,26.855,4.395,18.555
1532486119.908,12.207,28.320,26.855,20.996,-27.344
1532486119.912,18.555,29.785,28.809,32.227,-623.535
1532486119.916,19.531,31.738,29.297,32.227,-443.848
1532486119.920,18.066,29.785,27.832,20.508,-510.254
1532486119.923,14.648,40.039,27.832,15.137,-225.098
1532486119.927,18.066,31.738,26.855,34.668,-37.109
1532486119.931,18.555,33.691,24.414,21.484,88.867
1532486119.935,16.113,33.691,25.391,22.461,528.809
1532486119.939,16.602,20.020,27.832,26.855,-273.926
1532486119.943,23.926,41.504,23.926,35.645,-368.164
1532486119.947,27.832,49.805,25.391,33.203,789.062
1532486119.951,26.855,13.672,31.250,-3.418,112.793
1532486119.955,26.855,22.461,30.273,7.324,-640.137
1532486119.959,28.809,29.297,29.785,42.480,-743.164
1532486119.963,28.320,26.367,28.320,43.945,-506.348
1532486119.966,26.367,23.926,30.273,43.457,75.684
1532486119.970,23.438,23.926,28.809,37.109,-366.699
1532486119.974,21.973,36.621,26.367,41.016,-653.809
1532486119.978,26.855,43.457,28.320,47.852,-95.215
1532486119.982,28.320,45.410,26.855,22.461,500.488
1532486119.986,26.855,49.316,26.367,12.695,893.555
1532486119.990,27.832,25.879,31.738,20.020,62.012
1532486119.994,21.484,26.367,34.668,12.207,-718.750
1532486119.998,19.043,34.180,34.180,54.688,-687.988
1532486120.002,20.020,32.227,33.691,54.688,-443.848
1532486120.005,20.508,32.227,33.203,24.902,71.289
1532486120.009,20.020,26.367,28.809,22.949,-459.473
1532486120.013,14.160,28.320,27.832,25.879,-615.234
1532486120.017,10.254,26.367,32.227,16.602,-463.379
1532486120.021,8.789,36.621,30.762,25.879,-532.227
1532486120.025,8.789,50.293,26.367,34.668,493.164
1532486120.029,16.113,30.762,29.297,38.086,452.637
1532486120.033,16.602,21.484,29.297,23.926,-323.730
1532486120.037,15.625,19.531,25.391,16.602,-453.613
1532486120.041,17.578,28.320,26.855,27.832,-649.902
1532486120.045,16.113,57.129,28.809,5.859,389.648
1532486120.048,22.949,33.691,33.203,28.320,557.129
1532486120.052,23.926,14.648,34.180,58.594,-400.879
1532486120.056,19.531,26.855,29.785,41.992,-640.137
1532486120.060,25.391,36.133,27.832,26.367,-689.453
1532486120.064,28.809,44.434,26.367,26.855,30.762
1532486120.068,28.809,28.809,26.367,31.738,57.129
1532486120.072,26.367,33.691,26.855,20.508,25.879
1532486120.076,20.020,37.598,25.391,8.789,479.004
1532486120.080,23.438,23.926,26.367,35.645,-186.035
1532486120.084,26.367,45.410,27.832,46.387,57.129
1532486120.088,23.926,39.062,30.762,19.531,833.008
1532486120.091,22.949,14.648,34.180,16.602,-292.969
1532486120.095,26.367,26.855,33.203,36.133,-765.137
1532486120.099,27.832,23.438,32.227,38.086,-597.656
1532486120.103,20.020,29.785,34.180,5.859,-325.195
1532486120.107,24.414,34.180,33.691,24.902,-121.582
1532486120.111,32.227,29.297,33.203,44.434,-601.562
1532486120.115,29.297,35.645,32.715,40.527,-515.625
1532486120.119,33.203,37.109,35.645,30.762,23.438
1532486120.123,34.668,41.504,37.109,29.297,419.434
1532486120.127,22.949,46.875,33.691,43.945,811.035
1532486120.130,24.414,17.578,33.691,47.852,67.383
1532486120.134,31.250,22.949,35.156,44.434,-579.102
1532486120.138,28.809,41.504,35.645,15.137,-726.074
1532486120.142,26.367,42.480,34.180,24.414,-661.621
1532486120.146,25.391,35.156,29.785,38.086,-60.059
1532486120.150,24.414,31.738,31.250,35.156,-336.914
1532486120.154,23.926,36.621,33.203,29.785,-579.102
1532486120.158,22.949,41.016,32.715,25.879,-712.402
1532486120.162,27.344,44.434,31.738,20.020,-543.945
1532486120.166,33.691,43.457,31.738,33.691,464.844
1532486120.170,36.133,40.527,32.715,19.531,631.836
1532486120.173,29.297,37.598,33.203,-8.301,118.652
1532486120.177,27.832,35.156,34.668,6.348,-487.793
1532486120.181,30.273,44.434,37.598,29.297,-479.980
1532486120.185,22.949,60.059,38.574,38.086,697.266
1532486120.189,23.438,32.715,37.109,25.391,411.621
1532486120.193,30.273,35.156,36.621,33.203,-664.551
1532486120.197,31.250,46.875,38.574,47.363,-692.383
1532486120.201,26.855,37.109,39.062,45.898,-470.215
1532486120.205,20.508,44.922,36.133,22.949,179.688
1532486120.209,28.809,42.480,36.133,9.277,-281.250
1532486120.212,34.668,51.270,38.086,35.156,-159.180
1532486120.216,23.438,45.898,39.551,50.781,481.934
1532486120.220,27.344,35.156,41.016,37.598,-294.434
1532486120.224,24.902,63.477,36.133,29.785,228.027
1532486120.228,26.367,41.992,34.668,34.668,766.113
1532486120.232,39.062,23.438,41.016,41.504,-334.961
1532486120.236,35.156,37.109,40.527,38.574,-660.645
1532486120.240,36.621,44.922,36.621,30.762,-798.340
1532486120.244,35.156,58.594,34.668,25.879,-351.562
1532486120.248,31.250,44.434,34.180,20.508,-84.961
1532486120.252,36.621,33.203,33.691,43.457,-543.945
1532486120.255,32.227,40.527,32.715,26.855,-589.355
1532486120.259,27.344,45.410,33.691,17.090,-183.105
1532486120.263,28.809,51.270,34.668,47.852,406.250
1532486120.267,29.785,46.387,34.668,38.574,813.965
1532486120.271,32.227,23.438,36.621,29.785,-143.066
1532486120.275,32.715,27.832,36.133,17.090,-844.727
1532486120.279,28.809,35.645,35.645,8.301,-782.715
1532486120.283,36.621,43.945,36.621,29.785,-361.328
1532486120.287,38.086,39.062,38.574,44.434,-62.500
1532486120.291,30.273,36.133,39.551,48.828,-620.605
1532486120.295,34.668,41.504,37.598,40.527,-689.941
1532486120.298,39.062,35.645,34.668,42.969,-561.523
1532486120.302,31.738,30.273,35.645,28.320,-378.418
1532486120.306,22.949,43.457,34.668,0.488,434.570
1532486120.310,29.785,47.363,31.250,28.809,497.559
1532486120.314,38.574,39.551,31.738,52.734,-98.145
1532486120.318,30.762,34.668,34.180,41.016,-493.164
1532486120.322,23.438,42.480,32.227,33.691,-427.246
1532486120.326,22.949,57.129,29.297,26.367,669.434
1532486120.330,34.180,26.367,32.227,26.367,286.621
1532486120.334,36.133,23.438,37.109,29.297,-526.855
1532486120.337,38.086,40.527,37.598,44.922,-676.758
1532486120.341,40.039,46.387,33.691,33.691,-661.621
1532486120.345,37.598,47.363,31.738,24.902,76.172
1532486120.349,43.457,35.156,33.203,32.715,-217.285
1532486120.353,38.574,38.574,31.738,27.344,-16.113
1532486120.357,23.926,37.109,32.715,47.363,364.258
1532486120.361,19.531,34.180,33.203,37.598,-306.152
1532486120.365,21.484,58.594,29.785,24.902,527.344
1532486120.369,26.367,25.391,32.227,36.621,613.770
1532486120.373,27.344,16.113,33.691,33.691,-614.258
1532486120.377,29.297,39.062,32.227,33.203,-862.305
1532486120.380,33.203,40.039,30.762,28.809,-705.566
1532486120.384,29.785,47.363,28.809,26.367,71.777
1532486120.388,28.809,32.715,32.227,29.785,-177.734
1532486120.392,33.691,35.156,34.180,49.316,-807.129
1532486120.396,36.621,46.875,33.691,34.668,-579.102
1532486120.400,38.086,45.410,32.227,12.207,-62.012
1532486120.404,31.738,49.805,31.738,13.184,646.484
1532486120.408,29.297,32.715,31.738,28.809,731.934
1532486120.412,32.227,23.438,29.785,45.410,-365.723
1532486120.416,25.391,35.156,31.250,41.992,-663.574
1532486120.420,14.160,29.785,33.203,29.785,-667.480
1532486120.423,17.090,42.480,32.715,32.715,-427.734
1532486120.427,27.832,37.109,32.227,33.203,-211.914
1532486120.431,28.320,29.297,29.785,19.043,-565.430
1532486120.435,23.438,34.180,31.250,33.203,-494.141
1532486120.439,22.461,36.133,32.227,15.625,-679.199
1532486120.443,21.973,43.945,31.250,10.254,-491.211
1532486120.447,21.484,42.480,29.297,43.457,461.914
1532486120.451,25.391,36.133,29.297,41.992,522.949
1532486120.455,20.508,35.156,32.715,21.973,-154.785
1532486120.459,17.578,35.645,32.227,12.207,-728.516
1532486120.462,21.484,46.875,27.344,15.137,-444.824
1532486120.466,20.020,53.223,25.391,21.484,729.004
1532486120.470,16.602,21.973,27.344,17.090,135.742
1532486120.474,10.742,25.391,29.297,12.695,-753.906
1532486120.478,13.672,36.133,29.297,6.836,-779.785
1532486120.482,14.648,28.320,27.344,4.883,-429.199
1532486120.486,15.137,22.949,31.250,26.367,126.465
1532486120.490,18.555,30.762,36.133,25.879,-446.289
1532486120.494,13.672,37.598,31.250,5.371,-164.062
1532486120.498,16.113,31.738,31.250,31.738,403.320
1532486120.502,22.949,31.250,31.738,46.875,218.262
1532486120.505,13.672,43.457,30.273,15.137,750.000
1532486120.509,20.996,18.066,32.715,7.812,243.652
1532486120.513,27.832,20.508,32.715,30.762,-642.578
1532486120.517,18.066,31.738,30.273,49.316,-666.504
1532486120.521,17.090,35.156,30.762,20.508,-608.887
1532486120.525,20.508,41.016,30.762,4.883,29.785
1532486120.529,20.996,34.180,29.297,19.531,-301.270
1532486120.533,23.438,39.062,32.227,34.668,-618.652
1532486120.537,21.484,38.574,34.180,48.828,-512.695
1532486120.541,19.531,44.434,30.762,37.598,-97.656
1532486120.545,23.438,52.734,29.297,24.902,816.406
1532486120.548,33.203,25.391,30.762,38.574,640.625
1532486120.552,32.715,19.043,31.250,33.691,-398.438
1532486120.556,32.227,37.109,32.715,17.090,-796.875
1532486120.560,34.668,43.457,32.227,26.855,-847.656
1532486120.564,31.738,52.246,28.809,37.598,-126.465
1532486120.568,34.180,36.133,32.227,37.109,-68.359
1532486120.572,36.621,38.574,32.227,46.387,-676.758
1532486120.576,33.691,36.621,30.273,36.621,-689.941
1532486120.580,35.156,32.227,33.691,41.992,-689.453
1532486120.584,34.180,41.016,27.832,43.945,-103.027
1532486120.587,31.250,35.156,28.320,29.785,572.266
1532486120.591,25.391,34.668,33.691,8.301,411.621
1532486120.595,31.250,35.645,34.180,18.555,-65.918
1532486120.599,35.156,29.297,36.621,38.086,-573.730
1532486120.603,26.855,48.340,37.598,32.227,-185.059
1532486120.607,23.926,54.688,36.621,33.203,769.531
1532486120.611,32.227,26.855,39.062,41.992,-118.164
1532486120.615,34.180,32.227,39.062,59.570,-697.266
1532486120.619,28.809,36.133,36.621,45.410,-628.906
1532486120.623,28.809,37.598,36.621,13.672,-549.316
1532486120.627,25.879,31.250,35.156,10.254,-163.086
1532486120.630,26.855,28.809,35.156,45.410,-496.094
1532486120.634,33.203,40.039,36.621,44.434,26.855
1532486120.638,30.273,29.297,38.574,37.109,251.953
1532486120.642,31.250,41.016,41.992,42.969,-328.125
1532486120.646,37.598,66.895,43.457,42.969,624.023
1532486120.650,44.922,37.109,47.852,56.152,247.070
1532486120.654,39.551,39.551,53.223,34.180,-702.148
1532486120.658,39.551,57.617,54.199,28.809,-873.535
1532486120.662,50.293,61.035,54.688,43.945,-681.641
1532486120.666,52.734,57.129,58.105,39.551,85.449
1532486120.669,47.852,50.293,62.012,55.664,-317.871
1532486120.673,39.062,58.105,59.570,51.758,-757.812
1532486120.677,39.062,59.082,57.617,53.223,-699.219
1532486120.681,36.621,64.941,60.547,67.383,-81.055
1532486120.685,32.715,78.613,62.988,54.199,928.223
1532486120.689,43.457,52.734,62.988,33.691,497.559
1532486120.693,52.246,49.316,62.500,28.809,-633.301
1532486120.697,53.223,61.523,63.477,47.363,-812.012
1532486120.701,45.898,58.594,61.523,51.270,-592.773
1532486120.705,37.598,62.012,55.176,45.898,122.559
1532486120.709,37.598,53.711,54.688,46.875,-311.035
1532486120.712,39.062,54.688,54.688,46.387,-763.672
1532486120.716,35.156,42.480,50.293,42.969,-508.301
1532486120.720,26.367,38.574,48.340,20.020,-587.891
1532486120.724,24.902,54.199,45.410,18.555,-19.531
1532486120.728,28.809,50.781,42.480,26.367,418.457
1532486120.732,29.785,41.504,41.016,49.316,405.762
1532486120.736,30.762,30.762,39.062,47.852,-35.645
1532486120.740,32.715,28.320,38.574,29.785,-753.906
1532486120.744,32.227,48.340,37.109,29.785,-80.566
1532486120.748,28.809,40.039,38.574,13.184,827.637
1532486120.752,34.180,20.020,42.969,25.391,-147.461
1532486120.755,31.250,36.133,40.527,29.297,-727.051
1532486120.759,31.250,40.527,38.574,19.531,-826.660
1532486120.763,39.551,45.898,39.062,39.551,-375.977
1532486120.767,32.715,30.273,41.504,47.852,25.879
1532486120.771,26.855,25.879,44.434,23.926,-510.742
1532486120.775,25.879,45.410,42.480,20.996,29.297
1532486120.779,25.391,28.809,40.039,45.410,83.496
1532486120.783,31.738,33.203,40.039,42.480,-180.664
1532486120.787,32.715,50.293,38.574,40.039,750.977
1532486120.791,28.809,24.902,37.109,36.621,-53.711
1532486120.794,29.785,36.133,39.062,35.645,-826.660
1532486120.798,36.133,45.898,42.969,47.852,-668.457
1532486120.802,34.668,34.668,44.434,32.715,-449.219
1532486120.806,29.785,33.691,41.992,30.762,-68.359
1532486120.810,31.250,34.668,38.086,25.391,-525.879
1532486120.814,36.133,36.133,40.039,19.043,-617.188
1532486120.818,37.109,34.180,41.504,36.133,-503.418
1532486120.822,32.227,49.316,39.062,31.250,49.316
1532486120.826,25.879,60.059,36.133,29.297,897.949
1532486120.830,31.738,26.367,39.062,36.621,190.430
1532486120.834,31.250,22.949,38.086,34.668,-542.480
1532486120.837,19.531,33.203,32.227,25.879,-725.586
1532486120.841,17.090,34.180,30.762,18.555,-704.102
1532486120.845,25.879,33.203,29.297,16.602,52.734
1532486120.849,27.832,27.832,34.180,4.883,-236.816
1532486120.853,21.973,33.203,38.574,4.883,-594.238
1532486120.857,20.508,34.668,36.621,29.297,-676.758
1532486120.861,20.020,41.504,38.086,39.551,-627.930
1532486120.865,23.926,45.410,34.668,31.738,264.160
1532486120.869,26.367,36.621,28.320,33.203,613.281
1532486120.873,28.320,34.180,28.809,18.555,393.555
1532486120.877,29.785,24.414,27.832,18.066,-289.062
1532486120.880,28.809,24.414,25.879,29.785,-634.766
1532486120.884,22.949,45.898,24.414,18.555,456.055
1532486120.888,22.461,21.484,23.926,24.414,711.426
1532486120.892,29.785,11.230,24.902,23.926,-498.535
1532486120.896,31.738,28.320,27.832,29.785,-712.402
1532486120.900,30.273,24.902,30.273,36.621,-586.426
1532486120.904,25.391,27.344,32.227,34.668,-63.477
1532486120.908,26.855,15.625,31.738,39.062,-151.367
1532486120.912,31.250,22.461,28.809,40.527,-674.316
1532486120.916,25.391,38.086,29.785,32.227,81.055
1532486120.919,20.020,27.832,30.762,20.508,371.094
1532486120.923,21.973,41.504,28.809,29.785,240.723
1532486120.927,20.020,41.504,29.785,41.504,756.348
1532486120.931,23.438,13.184,34.180,49.316,-83.008
1532486120.935,21.973,25.391,33.203,28.809,-673.828
1532486120.939,15.625,37.109,33.203,2.930,-787.109
1532486120.943,20.996,44.434,34.668,14.648,-629.395
1532486120.947,23.926,45.410,36.621,31.250,-110.840
1532486120.951,24.902,36.621,36.133,25.879,-404.297
1532486120.955,18.555,31.738,32.227,23.926,-628.418
1532486120.959,16.602,33.691,31.250,33.203,-720.215
1532486120.962,20.996,46.875,33.691,33.691,-24.414
1532486120.966,19.043,50.781,37.598,27.344,921.387
1532486120.970,21.973,19.531,41.504,29.297,170.410
1532486120.974,24.902,21.973,38.086,13.672,-755.371
1532486120.978,26.367,35.156,36.133,8.789,-878.906
1532486120.982,24.902,34.180,35.156,26.367,-534.668
1532486120.986,21.973,25.879,34.668,29.297,39.551
1532486120.990,17.578,28.320,36.621,33.203,-520.996
1532486120.994,20.508,38.574,35.156,37.109,-782.227
1532486120.998,26.855,37.109,35.156,37.109,-629.883
1532486121.002,27.832,35.645,36.621,24.902,-405.762
1532486121.005,25.391,41.992,35.156,18.555,186.523
1532486121.009,32.715,45.898,33.691,17.578,349.121
1532486121.013,39.551,31.738,34.668,29.785,261.719
1532486121.017,35.645,23.926,36.621,41.504,-299.316
1532486121.021,30.273,41.504,32.715,31.250,-566.406
1532486121.025,26.367,60.547,29.297,26.367,582.520
1532486121.029,35.156,23.438,30.762,34.668,554.199
1532486121.033,40.527,13.184,28.320,28.809,-460.938
1532486121.037,34.180,27.344,30.273,34.668,-645.020
1532486121.041,32.227,35.156,31.738,41.992,-732.910
1532486121.044,34.180,45.410,29.297,29.297,31.250
1532486121.048,34.668,29.297,30.273,18.555,-77.637
1532486121.052,32.715,29.297,31.738,38.574,-574.707
1532486121.056,28.320,42.969,31.250,46.387,42.969
1532486121.060,34.668,40.039,29.297,25.879,250.977
1532486121.064,40.527,49.316,28.320,23.438,470.703
1532486121.068,41.504,32.715,30.273,31.250,750.488
1532486121.072,40.527,12.207,30.762,28.809,-347.168
1532486121.076,34.180,24.414,31.738,38.574,-871.582
1532486121.080,37.598,29.297,30.762,34.668,-797.852
1532486121.084,37.598,41.016,29.785,26.855,-253.906
1532486121.087,28.809,32.227,30.273,42.480,-107.422
1532486121.091,28.809,32.227,31.738,41.016,-698.242
1532486121.095,35.645,43.457,31.738,36.133,-684.570
1532486121.099,33.691,30.762,29.297,21.973,-581.543
1532486121.103,22.461,39.551,26.855,20.508,164.551
1532486121.107,17.578,44.922,24.902,31.250,874.512
1532486121.111,28.809,17.578,24.414,36.133,-167.480
1532486121.115,32.227,22.461,27.832,31.250,-694.824
1532486121.119,27.832,28.320,26.855,12.695,-633.789
1532486121.123,25.391,34.668,26.855,21.973,-585.449
1532486121.126,28.320,37.598,27.344,34.180,50.293
1532486121.130,32.715,28.320,25.879,29.785,-250.488
1532486121.134,27.832,27.344,28.809,37.109,-540.527
1532486121.138,22.949,30.273,31.738,28.809,-612.793
1532486121.142,21.484,32.227,30.762,1.465,-553.711
1532486121.146,22.949,29.297,26.855,3.418,49.805
1532486121.150,28.320,36.133,29.785,14.160,344.727
1532486121.154,29.785,32.715,33.691,22.949,282.227
1532486121.158,28.320,29.785,34.180,39.062,-499.512
1532486121.162,28.320,41.504,32.715,46.387,-572.754
1532486121.166,26.855,50.781,29.785,24.902,702.148
1532486121.169,24.414,21.973,30.762,13.184,357.910
1532486121.173,20.020,22.461,29.785,-2.930,-654.785
1532486121.177,20.020,35.645,25.391,-2.930,-796.387
1532486121.181,23.438,37.109,28.320,23.438,-546.387
1532486121.185,25.879,38.574,33.691,33.203,257.324
1532486121.189,25.391,32.715,33.691,30.762,-259.277
1532486121.193,25.391,39.062,30.273,28.809,-739.746
1532486121.197,26.855,40.527,27.832,28.320,10.742
1532486121.201,21.973,33.691,27.344,49.805,436.035
1532486121.205,16.602,46.387,27.832,42.969,824.707
1532486121.209,25.879,28.809,30.273,13.184,528.320
1532486121.212,35.645,24.414,31.738,15.625,-533.691
1532486121.216,35.645,34.668,33.203,27.832,-679.688
1532486121.220,31.250,31.250,35.645,28.809,-660.645
1532486121.224,33.203,45.898,32.715,37.109,-122.070
1532486121.228,41.992,35.156,36.133,39.551,-228.027
1532486121.232,45.410,31.738,37.109,20.508,-614.258
1532486121.236,36.133,35.645,36.621,43.945,-482.910
1532486121.240,28.809,27.344,38.574,47.363,-694.336
1532486121.244,33.203,50.293,34.668,26.367,141.113
1532486121.248,37.109,41.504,36.621,29.297,870.605
1532486121.251,41.504,13.672,38.574,40.527,-159.668
1532486121.255,39.062,27.344,37.598,43.457,-703.125
1532486121.259,35.645,32.715,39.551,9.766,-818.848
1532486121.263,37.598,41.016,38.086,33.691,-437.012
1532486121.267,34.180,31.250,38.574,50.781,-5.859
1532486121.271,30.762,24.414,41.016,22.949,-500.977
1532486121.275,26.367,32.715,37.598,35.645,-693.359
1532486121.279,32.227,35.645,34.668,49.316,-677.246
1532486121.283,30.273,38.574,36.621,44.434,-332.520
1532486121.287,23.926,33.203,34.668,38.086,74.219
1532486121.291,22.461,35.645,31.738,30.273,272.461
1532486121.294,22.949,29.785,30.762,18.066,294.434
1532486121.298,31.250,21.484,31.250,20.996,-376.953
1532486121.302,23.926,34.668,29.785,37.598,-322.266
1532486121.306,21.484,53.711,28.320,25.879,741.211
1532486121.310,26.855,30.273,30.762,19.043,92.285
1532486121.314,30.273,27.344,31.738,39.062,-660.645
1532486121.318,29.785,33.203,32.227,39.551,-606.934
1532486121.322,21.484,36.133,31.250,28.320,-505.859
1532486121.326,25.391,38.086,31.250,31.250,48.828
1532486121.330,32.227,30.273,35.156,36.133,-378.418
1532486121.334,30.273,32.715,38.086,33.203,-531.250
1532486121.337,22.949,40.039,32.715,31.250,71.289
1532486121.341,19.531,45.410,34.668,18.555,428.223
1532486121.345,25.391,50.781,41.504,15.137,876.953
1532486121.349,30.762,20.020,40.527,37.598,401.855
1532486121.353,31.738,17.578,36.621,32.715,-519.043
1532486121.357,30.273,30.762,38.086,20.020,-833.496
1532486121.361,29.297,34.180,37.109,20.020,-783.203
1532486121.365,29.785,40.527,34.180,25.879,102.539
1532486121.369,32.715,31.738,36.621,39.551,-150.391
1532486121.373,23.438,39.551,34.180,25.879,-701.172
1532486121.376,28.320,39.062,32.715,21.973,-695.801
1532486121.380,38.086,34.180,35.156,46.387,-679.199
1532486121.384,33.203,50.293,32.715,44.434,431.641
1532486121.388,30.762,26.367,32.227,22.949,514.160
1532486121.392,45.410,23.926,34.668,28.809,-627.441
1532486121.396,45.898,35.156,35.156,30.273,-712.402
1532486121.400,34.180,24.414,35.156,42.480,-612.305
1532486121.404,33.203,39.062,35.645,40.039,-25.879
1532486121.408,33.691,37.598,36.621,39.551,-20.020
1532486121.412,36.133,30.273,37.109,41.992,-652.832
1532486121.416,36.621,27.344,39.062,35.645,-496.582
1532486121.419,32.227,24.902,36.133,37.109,-504.883
1532486121.423,30.273,39.551,30.762,24.414,-250.488
1532486121.427,39.062,36.133,38.086,34.180,-40.039
1532486121.431,40.527,37.598,39.551,43.945,213.867
1532486121.435,40.039,32.227,37.109,49.316,429.688
1532486121.439,38.574,20.020,37.109,43.457,-436.035
1532486121.443,38.574,45.410,34.668,32.227,-401.855
1532486121.447,42.480,54.688,35.645,37.109,765.625
1532486121.451,38.086,24.414,39.062,42.969,149.902
1532486121.455,31.738,30.273,39.551,48.340,-609.375
1532486121.459,29.785,33.691,37.109,36.133,-736.816
1532486121.462,33.691,36.133,39.062,19.531,-542.480
1532486121.466,36.621,33.203,39.062,26.855,88.867
1532486121.470,35.156,24.902,36.621,43.945,-318.848
1532486121.474,32.715,32.715,35.645,34.668,-625.488
1532486121.478,31.250,39.551,32.715,28.320,-125.488
1532486121.482,34.180,45.410,32.715,40.527,465.820
1532486121.486,34.180,48.828,35.156,31.738,909.180
1532486121.490,32.715,23.438,35.645,27.344,104.492
1532486121.494,33.203,27.344,34.180,28.809,-729.980
1532486121.498,33.691,39.062,34.180,31.738,-741.211
1532486121.501,32.715,35.645,34.668,31.738,-471.191
1532486121.505,33.691,32.715,35.156,42.480,118.164
1532486121.509,37.598,37.598,32.227,44.434,-432.617
1532486121.513,28.320,46.387,29.785,30.273,-671.387
1532486121.517,21.484,39.551,29.785,22.461,-475.098
1532486121.521,26.367,46.875,31.250,15.625,-533.691
1532486121.525,31.738,69.824,36.133,7.812,519.531
1532486121.529,38.574,46.387,43.457,23.926,529.297
1532486121.533,41.504,40.039,48.340,35.645,-354.004
1532486121.537,41.504,49.805,51.758,34.668,-467.773
1532486121.541,35.156,53.223,51.270,29.785,-633.301
1532486121.544,33.691,77.637,51.270,27.832,253.418
1532486121.548,46.387,59.082,53.711,49.805,572.754
1532486121.552,47.852,41.992,53.711,48.340,-225.586
1532486121.556,39.551,52.246,53.711,30.762,-590.332
1532486121.560,40.527,55.664,54.199,52.246,-693.359
1532486121.564,44.922,64.941,55.176,66.406,-28.809
1532486121.568,44.434,53.711,56.641,56.152,66.895
1532486121.572,42.969,62.012,58.105,36.621,89.844
1532486121.576,41.992,67.383,55.176,29.297,489.258
1532486121.580,39.551,49.805,51.270,51.758,-282.227
1532486121.583,28.809,67.871,51.270,52.734,-37.109
1532486121.587,27.832,63.477,48.828,27.832,845.703
1532486121.591,29.785,37.109,44.922,29.785,-251.953
1532486121.595,35.156,46.875,41.504,33.203,-787.109
1532486121.599,45.410,45.898,41.992,35.645,-624.023
1532486121.603,39.062,51.270,41.992,40.039,-337.891
1532486121.607,32.715,47.852,43.457,26.367,-92.773
1532486121.611,33.691,43.945,42.480,26.855,-598.145
1532486121.615,34.668,46.875,38.574,35.156,-548.828
1532486121.619,25.391,44.434,40.039,50.293,28.320
1532486121.623,21.484,50.293,40.527,46.387,460.449
1532486121.626,19.531,55.664,39.062,13.672,829.590
1532486121.630,28.320,27.344,39.062,29.785,70.801
1532486121.634,35.156,26.855,40.039,41.504,-575.195
1532486121.638,29.785,41.504,40.039,29.297,-705.566
1532486121.642,29.785,47.852,39.551,35.156,-645.020
1532486121.646,29.785,34.180,39.062,25.879,-33.203
1532486121.650,27.832,25.879,36.621,25.879,-334.961
1532486121.654,30.273,32.715,33.691,29.297,-557.129
1532486121.658,28.809,34.668,34.180,21.973,-691.895
1532486121.662,27.832,47.852,34.668,35.156,-584.473
1532486121.666,31.250,49.316,32.227,31.250,592.285
1532486121.669,34.668,28.320,35.645,23.926,406.738
1532486121.673,35.645,31.738,36.621,41.016,-467.773
1532486121.677,32.715,33.691,32.715,27.832,-640.137
1532486121.681,30.762,37.598,29.785,26.855,-467.285
1532486121.685,28.320,55.664,28.809,40.527,624.023
1532486121.689,31.250,28.809,30.762,24.414,294.434
1532486121.693,35.156,25.879,33.203,19.531,-645.020
1532486121.697,35.645,33.203,34.668,46.387,-629.883
1532486121.701,29.785,34.180,37.109,40.039,-427.246
1532486121.705,29.297,44.922,36.133,6.348,258.301
1532486121.708,34.668,39.062,34.668,23.926,-171.387
1532486121.712,37.598,46.875,36.133,32.227,-59.570
1532486121.716,37.109,32.715,38.574,39.062,320.801
1532486121.720,37.109,23.926,39.551,36.621,-442.383
1532486121.724,32.715,60.059,38.574,29.297,221.680
1532486121.728,31.738,42.969,38.574,39.551,790.527
1532486121.732,35.156,18.555,39.062,42.969,-266.113
1532486121.736,34.180,29.785,41.016,39.062,-578.125
1532486121.740,33.691,33.203,41.504,24.902,-700.195
1532486121.744,36.133,44.922,35.156,13.672,-326.660
1532486121.748,43.945,33.203,34.668,29.785,-30.273
1532486121.751,44.922,27.344,39.551,55.664,-440.430
1532486121.755,36.133,38.574,38.574,34.668,-501.953
1532486121.759,32.227,41.504,33.691,38.574,-111.816
1532486121.763,33.691,45.898,32.227,58.594,513.672
1532486121.767,35.156,42.480,38.086,50.781,861.328
1532486121.771,39.551,21.484,41.016,52.246,-79.102
1532486121.775,34.180,31.250,36.133,48.828,-767.578
1532486121.779,37.598,39.062,36.133,45.898,-778.320
1532486121.783,42.480,38.574,39.062,37.598,-441.406
1532486121.787,40.039,33.691,36.133,18.066,-17.578
1532486121.791,37.598,32.227,36.133,8.789,-544.434
1532486121.794,38.574,36.621,36.621,25.879,-703.125
1532486121.798,41.992,35.156,37.598,58.594,-562.500
1532486121.802,38.086,35.645,42.480,51.270,-349.609
1532486121.806,37.109,41.016,38.574,38.086,387.695
1532486121.810,36.133,40.527,34.180,45.898,480.469
1532486121.814,32.227,30.762,35.156,45.410,-13.672
1532486121.818,29.785,25.391,36.621,28.320,-437.988
1532486121.822,27.344,40.039,37.598,27.344,-389.648
1532486121.826,27.832,58.105,36.621,33.203,676.758
1532486121.830,32.227,27.832,40.039,20.508,314.941
1532486121.833,32.227,25.391,41.992,25.391,-502.930
1532486121.837,27.832,34.668,40.039,37.598,-625.977
1532486121.841,26.367,41.504,42.480,47.363,-602.539
1532486121.845,31.738,47.363,43.945,26.855,106.445
1532486121.849,35.156,37.109,40.527,44.434,-201.172
1532486121.853,28.320,43.945,36.621,53.223,30.762
1532486121.857,26.855,39.551,36.133,29.785,406.738
1532486121.861,30.273,34.668,35.645,38.086,-333.496
1532486121.865,27.832,60.547,34.180,38.086,473.633
1532486121.869,27.344,36.133,38.574,39.062,673.340
1532486121.873,26.855,25.391,40.527,37.109,-539.062
1532486121.876,32.715,43.945,37.109,36.133,-831.055
1532486121.880,38.086,45.410,34.180,41.992,-709.961
1532486121.884,26.367,50.781,29.785,21.484,66.406
1532486121.888,20.020,37.109,28.320,28.809,-112.305
1532486121.892,18.555,35.156,32.227,33.203,-767.090
1532486121.896,23.926,42.969,33.203,19.531,-601.562
1532486121.900,25.879,43.945,34.668,17.090,-94.727
1532486121.904,22.461,51.758,34.180,19.043,638.184
1532486121.908,23.438,39.551,32.715,27.344,771.484
1532486121.912,24.414,23.926,35.156,39.062,-344.238
1532486121.916,26.367,37.109,34.668,33.203,-689.453
1532486121.919,26.367,38.574,34.180,17.090,-657.715
1532486121.923,25.391,47.363,34.668,27.344,-421.387
1532486121.927,31.250,45.898,32.227,38.086,-196.777
1532486121.931,33.203,41.504,32.227,25.879,-576.660
1532486121.935,32.227,41.504,35.645,29.297,-495.605
1532486121.939,32.227,38.574,36.621,37.598,-646.484
1532486121.943,30.273,43.457,32.227,23.438,-505.859
1532486121.947,33.203,41.992,32.227,42.480,440.430
1532486121.951,36.621,32.715,34.668,48.340,501.465
1532486121.955,38.086,33.691,35.156,30.273,-150.391
1532486121.958,41.504,40.527,34.180,25.391,-700.684
1532486121.962,43.945,53.223,33.203,27.832,-472.168
1532486121.966,34.180,63.965,32.227,39.551,685.059
1532486121.970,26.367,34.180,33.203,38.574,413.086
1532486121.974,27.832,25.879,35.645,32.227,-479.492
1532486121.978,31.738,36.621,36.133,12.207,-808.594
1532486121.982,36.133,39.551,33.691,22.461,-473.145
1532486121.986,36.133,33.691,34.180,48.828,139.160
1532486121.990,34.180,34.668,36.133,39.551,-423.340
1532486121.994,32.715,54.199,35.156,22.461,-177.734
1532486121.998,36.621,48.340,36.133,46.875,359.375
1532486122.001,37.109,39.551,37.598,32.227,-19.043
1532486122.005,31.250,60.547,35.645,17.578,665.527
1532486122.009,39.062,36.133,40.039,37.598,323.730
1532486122.013,46.875,17.090,42.969,41.504,-671.387
1532486122.017,42.969,23.926,42.480,46.387,-682.129
1532486122.021,34.180,36.133,41.504,30.762,-603.516
1532486122.025,32.227,41.504,39.062,22.949,46.387
1532486122.029,34.180,32.227,40.527,26.855,-294.922
1532486122.033,26.367,33.691,40.527,38.574,-647.461
1532486122.037,20.020,32.715,38.574,41.992,-477.051
1532486122.040,19.043,43.457,38.086,22.949,-105.469
1532486122.044,20.996,62.012,36.621,28.320,729.492
1532486122.048,24.414,31.250,40.039,38.086,663.086
1532486122.052,25.391,14.648,39.062,34.668,-368.164
1532486122.056,28.809,32.715,33.691,11.719,-762.207
1532486122.060,28.320,38.086,36.621,19.531,-851.562
1532486122.064,21.973,45.898,36.621,19.043,-221.680
1532486122.068,21.973,36.621,37.598,39.551,-68.359
1532486122.072,18.555,34.668,38.574,49.805,-633.789
1532486122.076,13.672,40.039,37.598,28.809,-680.664
1532486122.080,21.973,40.527,39.062,33.691,-709.473
1532486122.083,26.855,45.898,37.598,37.598,-157.715
1532486122.087,17.578,41.992,36.621,35.645,582.520
1532486122.091,17.090,36.621,37.109,29.785,444.824
1532486122.095,34.180,33.203,38.574,39.551,-80.566
1532486122.099,36.133,30.273,39.551,64.453,-572.266
1532486122.103,28.809,38.574,39.062,35.156,-204.102
1532486122.107,32.715,48.828,37.598,5.371,769.043
1532486122.111,38.574,28.809,38.574,53.711,-67.871
1532486122.115,35.645,23.438,34.180,52.246,-693.359
1532486122.119,33.691,28.809,32.715,38.086,-602.051
1532486122.123,33.691,38.086,33.203,39.551,-501.465
1532486122.126,34.668,39.551,31.738,44.922,-130.371
1532486122.130,37.109,41.992,31.738,44.434,-493.164
1532486122.134,33.691,49.316,35.156,31.738,10.254
1532486122.138,30.762,44.434,34.180,41.504,331.543
1532486122.142,28.809,41.016,30.273,32.715,-146.973
1532486122.146,25.879,35.645,30.762,28.809,287.598
1532486122.150,28.809,29.785,33.203,45.410,-154.785
1532486122.154,27.344,37.598,36.133,44.434,-567.871
1532486122.158,26.367,33.691,36.621,38.574,-690.918
1532486122.162,26.855,38.574,35.645,28.809,-606.445
1532486122.165,21.973,56.641,35.645,26.367,622.559
1532486122.169,23.438,26.367,37.109,24.902,267.578
1532486122.173,20.508,27.344,34.668,15.625,-685.059
1532486122.177,26.367,43.457,32.227,13.184,-715.332
