timestamps,TP9,AF7,AF8,TP10,Right AUX
1532485189.094,28.320,27.832,31.250,19.531,-361.328
1532485189.098,23.438,44.434,32.715,10.254,38.574
1532485189.102,20.020,26.855,34.668,23.438,-278.809
1532485189.106,20.996,26.855,35.645,28.809,-445.801
1532485189.110,25.879,25.879,32.715,24.414,-318.848
1532485189.113,33.691,60.059,31.250,29.785,-77.148
1532485189.117,37.598,90.820,29.297,25.391,733.887
1532485189.121,40.527,7.812,29.297,30.273,600.098
1532485189.125,38.086,-11.230,30.762,33.203,-262.695
1532485189.129,33.203,28.809,30.762,26.367,-502.930
1532485189.133,38.086,43.457,31.250,31.250,-582.520
1532485189.137,41.992,67.383,31.738,30.273,-59.570
1532485189.141,41.504,29.785,32.227,19.043,-61.035
1532485189.145,40.039,27.344,32.715,19.043,-439.453
1532485189.149,37.109,41.504,32.227,22.949,-461.914
1532485189.153,36.621,41.504,30.273,28.809,-520.020
1532485189.156,37.109,63.477,28.320,32.227,-31.250
1532485189.160,38.574,45.410,28.320,26.855,372.070
1532485189.164,38.086,21.484,24.902,25.391,-52.246
1532485189.168,41.992,34.180,25.879,23.926,-347.656
1532485189.172,42.480,26.855,30.762,25.879,-442.871
1532485189.176,34.668,69.336,30.273,27.832,18.555
1532485189.180,33.203,80.566,29.785,13.672,798.340
1532485189.184,42.480,13.672,28.809,14.160,-41.016
1532485189.188,41.992,29.297,27.832,25.391,-509.277
1532485189.192,38.574,39.062,31.250,25.391,-388.672
1532485189.196,34.668,57.617,32.715,19.531,-275.879
1532485189.199,31.738,40.527,29.785,17.090,-120.605
1532485189.203,32.715,27.832,27.832,20.020,-381.348
1532485189.207,33.203,64.453,29.297,21.973,116.211
1532485189.211,37.598,27.832,29.785,18.066,40.039
1532485189.215,39.551,42.480,29.785,17.090,-280.762
1532485189.219,35.156,94.238,30.273,20.508,706.055
1532485189.223,35.645,11.230,30.762,24.414,301.758
1532485189.227,38.574,5.859,28.809,23.438,-424.805
1532485189.231,39.551,39.551,28.809,20.020,-531.738
1532485189.235,38.574,42.969,30.273,19.043,-468.750
1532485189.238,37.109,34.668,26.855,20.996,23.926
1532485189.242,37.598,23.438,26.855,23.438,-195.801
1532485189.246,34.668,39.551,27.344,17.090,-452.637
1532485189.250,34.668,41.992,25.391,14.648,-490.234
1532485189.254,33.691,65.430,25.391,15.137,7.812
1532485189.258,32.227,83.496,28.809,18.066,869.629
1532485189.262,33.203,1.953,29.785,21.484,371.582
1532485189.266,30.762,0.000,28.809,16.113,-477.539
1532485189.270,31.738,24.414,28.809,18.555,-568.848
1532485189.274,33.691,26.855,29.297,23.926,-391.602
1532485189.278,30.762,47.852,29.785,22.461,152.832
1532485189.281,27.344,27.344,30.273,14.160,-204.590
1532485189.285,25.391,28.809,32.227,13.672,-543.457
1532485189.289,27.832,25.879,32.715,20.996,-371.582
1532485189.293,25.879,28.809,29.785,17.090,-340.820
1532485189.297,24.902,67.871,31.738,13.672,105.957
1532485189.301,27.832,55.176,33.203,19.043,256.836
1532485189.305,27.344,16.602,30.762,27.832,30.273
1532485189.309,27.832,11.230,32.227,27.832,-153.809
1532485189.313,24.902,25.391,32.715,15.137,-474.609
1532485189.317,18.066,96.191,30.762,10.742,122.070
1532485189.321,16.113,52.734,29.297,12.207,784.668
1532485189.324,14.648,-18.066,31.250,14.648,-60.547
1532485189.328,12.695,21.484,32.715,20.020,-445.801
1532485189.332,15.137,34.668,31.250,20.020,-541.504
1532485189.336,19.531,57.617,30.762,19.531,-248.535
1532485189.340,22.461,26.367,35.156,17.090,-17.578
1532485189.344,18.066,20.020,36.621,14.648,-332.031
1532485189.348,15.625,67.383,32.715,6.836,50.781
1532485189.352,26.855,31.250,34.668,12.207,-79.590
1532485189.356,26.855,54.688,34.180,12.695,-110.352
1532485189.360,17.578,76.660,29.297,-2.930,782.715
1532485189.363,20.508,-1.953,33.203,1.465,79.102
1532485189.367,21.484,14.160,34.668,9.766,-594.727
1532485189.371,19.043,31.250,31.738,14.648,-501.953
1532485189.375,18.066,27.344,31.250,20.996,-302.734
1532485189.379,16.113,22.949,32.227,23.438,-49.316
1532485189.383,18.066,27.832,34.180,23.926,-400.879
1532485189.387,20.996,36.133,34.668,25.391,-469.238
1532485189.391,20.020,27.832,34.668,30.762,-360.840
1532485189.395,20.996,67.383,34.668,28.320,120.117
1532485189.399,19.531,87.402,32.227,17.578,857.422
1532485189.403,23.438,0.977,33.691,25.391,199.219
1532485189.406,25.391,-1.953,37.598,32.715,-419.434
1532485189.410,21.484,22.949,36.621,29.785,-460.449
1532485189.414,27.832,31.738,34.180,32.715,-446.289
1532485189.418,32.227,37.109,34.180,24.414,-26.855
1532485189.422,31.250,19.531,34.668,17.090,-248.535
1532485189.426,35.645,27.832,34.180,25.391,-387.695
1532485189.430,42.969,37.598,36.133,31.250,-433.105
1532485189.434,44.434,47.363,37.109,29.785,-456.055
1532485189.438,42.480,53.223,35.156,22.949,129.883
1532485189.442,41.504,41.992,33.203,30.762,360.840
1532485189.445,38.086,28.320,33.203,33.203,180.664
1532485189.449,35.645,13.184,35.156,33.691,-257.812
1532485189.453,37.598,28.809,36.621,37.109,-485.352
1532485189.457,31.250,91.797,36.621,28.320,506.348
1532485189.461,26.367,22.949,40.039,25.879,692.383
1532485189.465,26.855,-8.301,42.480,32.227,-332.031
1532485189.469,32.227,29.297,39.062,33.691,-539.062
1532485189.473,35.156,31.250,36.621,32.227,-422.852
1532485189.477,28.320,59.570,36.621,29.785,47.852
1532485189.481,32.715,35.645,36.133,27.832,-102.539
1532485189.485,38.086,27.344,35.645,20.508,-512.207
1532485189.488,36.621,49.316,35.645,21.973,-3.906
1532485189.492,38.086,28.320,35.645,32.227,61.035
1532485189.496,35.156,68.359,34.180,20.020,206.543
1532485189.500,31.738,62.012,32.227,13.672,763.672
1532485189.504,37.598,-6.348,33.691,24.902,-61.035
1532485189.508,38.574,17.090,31.738,21.973,-457.520
1532485189.512,32.227,35.156,30.273,14.160,-464.355
1532485189.516,33.691,57.617,31.738,14.648,-369.629
1532485189.520,44.922,39.062,32.715,23.926,-118.652
1532485189.524,44.922,27.832,32.227,28.320,-319.824
1532485189.528,34.668,39.551,31.738,19.043,-362.305
1532485189.531,25.391,41.016,33.691,4.883,-491.699
1532485189.535,18.066,77.148,31.738,16.113,-18.555
1532485189.539,22.949,81.543,30.762,25.879,837.402
1532485189.543,32.715,10.254,36.133,25.879,176.758
1532485189.547,33.691,13.184,34.668,23.438,-507.324
1532485189.551,33.691,39.062,33.203,22.949,-582.031
1532485189.555,41.504,50.781,35.645,25.879,-397.461
1532485189.559,42.480,34.180,38.574,22.949,29.297
1532485189.563,30.273,27.832,36.621,22.461,-292.480
1532485189.567,23.438,43.945,32.227,23.438,-505.371
1532485189.570,30.273,41.504,30.762,28.320,-451.660
1532485189.574,34.668,44.922,31.250,31.738,-242.188
1532485189.578,30.762,39.062,31.250,28.320,154.297
1532485189.582,30.762,53.223,29.785,30.273,160.156
1532485189.586,34.668,44.434,30.762,27.832,27.832
1532485189.590,35.645,15.137,33.203,26.855,-246.582
1532485189.594,37.598,48.828,33.203,32.227,-285.645
1532485189.598,36.133,114.746,30.273,27.832,661.133
1532485189.602,41.504,29.297,32.227,35.156,486.816
1532485189.606,48.828,6.836,33.691,44.434,-339.844
1532485189.610,48.828,38.574,33.203,37.109,-396.973
1532485189.613,45.410,48.340,31.738,36.133,-427.734
1532485189.617,38.574,72.266,31.738,42.969,49.805
1532485189.621,41.016,31.738,33.691,53.223,-126.953
1532485189.625,43.945,35.156,35.645,45.410,-364.258
1532485189.629,41.504,58.594,35.156,34.180,92.773
1532485189.633,39.551,44.922,34.180,41.992,11.719
1532485189.637,36.133,81.543,33.691,36.621,400.879
1532485189.641,34.668,29.785,35.156,29.785,741.211
1532485189.645,34.668,-7.812,38.574,29.785,-178.711
1532485189.649,32.715,36.133,37.109,30.762,-563.965
1532485189.653,36.621,42.480,36.621,35.645,-560.547
1532485189.656,36.621,63.965,35.645,34.180,-117.188
1532485189.660,32.715,29.785,36.133,24.414,-36.133
1532485189.664,32.715,28.320,37.598,21.484,-456.055
1532485189.668,35.156,43.945,37.109,29.297,-457.031
1532485189.672,36.133,33.691,37.598,34.180,-426.758
1532485189.676,37.109,82.520,38.574,33.691,244.141
1532485189.680,35.645,76.660,40.039,22.461,858.398
1532485189.684,39.551,12.207,43.457,22.949,-79.102
1532485189.688,42.480,29.297,40.039,32.715,-517.090
1532485189.692,38.574,31.738,34.180,32.715,-409.668
1532485189.695,34.180,47.363,34.668,24.414,-332.520
1532485189.699,30.762,56.152,34.668,19.043,12.207
1532485189.703,31.738,27.832,35.645,29.297,-246.094
1532485189.707,32.715,22.949,36.133,37.598,-367.188
1532485189.711,26.367,33.203,36.133,32.715,-369.629
1532485189.715,23.926,46.387,36.133,33.203,-356.934
1532485189.719,24.902,37.109,34.180,22.949,-23.926
1532485189.723,24.902,42.480,35.156,19.043,194.824
1532485189.727,24.902,25.879,33.691,22.949,151.855
1532485189.731,29.297,10.742,32.715,20.020,-381.348
1532485189.735,34.668,54.199,32.227,27.832,-341.309
1532485189.738,28.809,84.961,28.320,23.926,678.223
1532485189.742,23.438,12.695,31.250,24.414,255.859
1532485189.746,23.438,27.832,34.180,29.297,-400.879
1532485189.750,23.438,44.434,36.133,30.273,-481.934
1532485189.754,27.832,43.945,33.691,31.250,-369.629
1532485189.758,26.367,89.355,31.250,22.949,642.578
1532485189.762,26.367,22.949,35.156,25.879,226.562
1532485189.766,30.273,25.879,35.156,26.855,-482.910
1532485189.770,29.297,65.430,31.250,27.344,1.953
1532485189.774,24.902,48.828,31.738,29.297,171.875
1532485189.778,18.066,87.891,29.785,20.996,710.449
1532485189.781,23.438,26.367,30.762,26.367,524.414
1532485189.785,27.832,-3.418,30.273,25.879,-423.828
1532485189.789,25.879,27.832,28.320,27.344,-500.000
1532485189.793,26.367,41.016,28.320,28.320,-423.828
1532485189.797,25.391,74.219,25.879,20.020,-25.391
1532485189.801,29.297,37.109,29.297,26.855,-219.727
1532485189.805,33.203,29.297,29.785,27.832,-475.098
1532485189.809,31.250,37.109,28.320,23.438,-316.895
1532485189.813,28.320,49.805,28.809,20.508,-464.355
1532485189.817,26.367,90.332,25.391,21.973,205.078
1532485189.820,30.762,29.785,28.320,35.156,527.832
1532485189.824,34.180,0.977,32.227,39.062,-227.539
1532485189.828,32.227,36.133,33.691,31.738,-392.578
1532485189.832,36.133,43.457,36.621,27.344,-558.105
1532485189.836,36.621,69.824,35.645,24.414,-176.270
1532485189.840,35.156,32.227,37.109,39.062,293.457
1532485189.844,39.062,12.207,35.645,39.062,-249.512
1532485189.848,42.480,47.852,32.227,27.344,-474.121
1532485189.852,41.504,43.945,31.250,28.320,-495.117
1532485189.856,36.133,48.828,29.785,33.691,-231.445
1532485189.860,33.691,41.992,27.832,30.762,67.871
1532485189.863,31.250,58.105,26.855,21.973,105.957
1532485189.867,31.738,48.340,28.320,27.344,26.855
1532485189.871,32.715,17.090,30.762,29.297,-366.211
1532485189.875,27.832,55.176,33.691,18.555,-167.480
1532485189.879,26.855,95.703,34.180,22.461,759.766
1532485189.883,33.203,24.414,33.203,30.273,161.621
1532485189.887,33.691,19.531,32.715,24.414,-502.930
1532485189.891,28.320,28.809,30.762,22.461,-402.344
1532485189.895,24.414,27.832,26.855,22.949,-306.641
1532485189.899,23.926,38.574,26.367,17.090,-10.254
1532485189.902,26.367,27.344,27.344,12.695,-339.844
1532485189.906,25.879,35.645,27.832,15.625,-351.562
1532485189.910,23.926,45.410,25.879,17.090,68.848
1532485189.914,20.020,62.500,26.367,11.719,176.758
1532485189.918,19.531,86.426,29.785,13.184,753.906
1532485189.922,24.902,1.465,27.832,19.531,421.387
1532485189.926,20.996,-9.277,26.855,24.414,-336.426
1532485189.930,10.254,23.926,27.344,20.508,-508.301
1532485189.934,11.230,35.645,24.414,10.742,-518.066
1532485189.938,14.648,44.922,22.949,10.254,41.016
1532485189.942,16.602,14.648,22.461,17.578,-132.324
1532485189.945,12.207,26.367,22.949,14.648,-433.594
1532485189.949,10.254,28.320,27.344,4.395,-481.445
1532485189.953,14.160,35.645,33.203,14.160,-472.168
1532485189.957,13.184,70.312,32.227,18.555,413.086
1532485189.961,10.742,28.809,32.715,13.184,390.137
1532485189.965,8.301,13.184,33.203,12.207,-371.582
1532485189.969,11.230,32.227,30.762,20.020,-387.695
1532485189.973,16.113,29.785,34.180,26.855,-398.926
1532485189.977,12.695,79.590,35.156,19.531,287.109
1532485189.981,11.719,33.691,33.203,12.695,557.129
1532485189.985,17.090,4.395,33.203,17.578,-318.359
1532485189.988,21.484,31.738,36.133,27.344,-421.387
1532485189.992,22.461,29.297,33.203,29.785,-337.891
1532485189.996,15.625,62.500,29.297,23.438,-125.000
1532485190.000,8.301,43.457,29.297,14.648,-83.496
1532485190.004,15.625,44.922,27.344,22.949,31.250
1532485190.008,23.438,29.785,27.344,27.344,191.895
1532485190.012,21.973,8.301,26.855,18.066,-365.723
1532485190.016,21.484,76.172,26.855,11.719,-192.383
1532485190.020,23.438,83.008,28.809,18.555,769.531
1532485190.024,24.414,-8.301,30.273,27.344,159.180
1532485190.027,28.320,12.207,36.621,33.203,-429.688
1532485190.031,35.156,45.898,39.062,26.367,-498.535
1532485190.035,36.133,55.664,34.180,18.555,-418.945
1532485190.039,32.715,38.574,35.645,23.438,-8.789
1532485190.043,31.250,22.461,37.109,25.879,-247.070
1532485190.047,26.367,51.270,36.621,19.043,-403.809
1532485190.051,26.367,58.105,37.598,18.066,-119.141
1532485190.055,32.715,61.035,34.668,26.855,243.164
1532485190.059,33.691,79.102,34.180,20.020,822.266
1532485190.063,32.715,12.207,35.645,11.230,219.238
1532485190.067,36.133,14.160,32.227,11.719,-534.180
1532485190.070,39.551,33.691,28.809,25.391,-543.945
1532485190.074,41.016,27.344,26.855,30.273,-329.590
1532485190.078,34.668,27.344,26.367,23.438,59.082
1532485190.082,28.809,19.043,27.344,17.578,-340.820
1532485190.086,21.973,31.250,28.320,18.066,-492.188
1532485190.090,25.879,26.367,28.320,26.367,-375.977
1532485190.094,29.297,41.992,25.391,27.832,-299.805
1532485190.098,21.973,74.219,23.926,21.973,458.984
1532485190.102,29.785,34.180,25.879,21.484,188.965
1532485190.106,30.762,23.926,26.855,22.949,-324.707
1532485190.110,21.484,25.391,27.832,18.066,-258.301
1532485190.113,19.531,47.363,28.809,11.719,-391.602
1532485190.117,19.531,113.770,27.832,15.137,433.105
1532485190.121,22.461,46.875,28.320,26.855,644.043
1532485190.125,18.555,-0.488,28.320,25.391,-120.605
1532485190.129,10.254,22.949,28.809,19.531,-395.996
1532485190.133,14.648,41.016,29.785,18.066,-489.258
1532485190.137,19.531,59.082,29.785,20.996,-34.668
1532485190.141,17.090,20.020,31.738,26.367,4.883
1532485190.145,14.160,42.480,32.227,18.066,50.293
1532485190.149,12.695,36.621,31.738,14.160,63.965
1532485190.152,17.090,16.113,33.203,21.973,-491.699
1532485190.156,12.695,77.637,29.785,20.508,93.262
1532485190.160,5.371,44.922,28.809,23.438,823.730
1532485190.164,7.324,-13.184,28.320,18.066,-124.023
1532485190.168,8.301,21.484,25.879,12.695,-583.008
1532485190.172,9.766,24.414,25.879,17.578,-470.215
1532485190.176,9.277,44.922,27.832,15.137,-179.199
1532485190.180,7.324,39.062,29.297,15.137,-39.551
1532485190.184,12.695,25.879,25.879,14.648,-464.844
1532485190.188,18.555,42.480,25.879,16.113,-394.043
1532485190.192,17.578,45.410,30.273,27.344,28.320
1532485190.195,17.090,58.594,27.832,24.414,319.824
1532485190.199,21.973,75.684,27.344,16.602,776.855
1532485190.203,32.227,4.883,31.250,20.996,104.980
1532485190.207,33.691,0.488,28.809,25.879,-449.219
1532485190.211,28.320,23.926,26.855,30.762,-446.777
1532485190.215,23.438,31.738,28.809,24.414,-447.754
1532485190.219,21.484,27.832,31.250,17.578,-121.582
1532485190.223,25.391,18.555,31.738,22.461,-294.922
1532485190.227,25.391,25.879,27.832,22.461,-369.141
1532485190.231,24.902,27.832,25.879,12.207,-456.055
1532485190.234,28.809,37.109,28.320,20.020,-421.387
1532485190.238,26.855,56.641,28.809,30.273,274.902
1532485190.242,26.367,37.598,29.297,22.949,290.039
1532485190.246,28.320,26.367,26.855,10.742,-197.754
1532485190.250,30.762,28.809,25.879,5.859,-458.496
1532485190.254,27.832,44.922,26.855,13.672,-356.445
1532485190.258,22.461,91.797,26.367,20.508,681.152
1532485190.262,30.273,11.719,30.273,22.461,494.141
1532485190.266,31.738,0.000,30.273,23.438,-416.504
1532485190.270,28.809,32.227,26.855,23.926,-510.742
1532485190.274,30.762,35.645,30.273,33.691,-321.777
1532485190.277,34.668,43.457,35.645,36.621,168.457
1532485190.281,33.691,29.297,32.227,30.762,-157.227
1532485190.285,31.738,58.594,29.785,27.832,-57.129
1532485190.289,37.598,23.926,29.785,31.738,146.484
1532485190.293,36.621,14.160,30.273,36.133,-345.215
1532485190.297,29.785,97.168,26.855,28.320,367.188
1532485190.301,31.250,37.598,27.344,18.066,707.520
1532485190.305,34.180,-8.301,31.250,17.090,-244.141
1532485190.309,32.227,22.461,29.785,23.926,-425.781
1532485190.313,28.320,30.273,29.785,19.531,-456.543
1532485190.317,25.879,64.941,30.273,9.766,-195.312
1532485190.320,35.156,29.785,30.762,17.578,-105.469
1532485190.324,37.109,8.789,26.855,17.578,-374.512
1532485190.328,28.809,33.203,22.949,8.789,-299.316
1532485190.332,26.855,50.293,24.902,9.766,-102.051
1532485190.336,20.996,73.242,23.926,12.207,313.965
1532485190.340,21.484,55.176,24.902,23.438,801.270
1532485190.344,28.809,-1.953,29.785,27.344,38.086
1532485190.348,26.855,19.531,27.832,15.625,-536.133
1532485190.352,27.832,30.762,25.391,16.602,-570.801
1532485190.356,29.297,41.016,25.391,13.672,-334.473
1532485190.359,29.297,30.762,24.902,9.277,-13.184
1532485190.363,28.809,21.484,23.438,12.207,-349.121
1532485190.367,28.320,38.574,23.438,10.742,-474.121
1532485190.371,27.344,31.738,24.414,14.648,-447.754
1532485190.375,24.902,35.156,24.902,24.414,-230.957
1532485190.379,16.602,41.016,24.414,22.461,323.242
1532485190.383,15.137,23.438,24.902,14.160,11.230
1532485190.387,19.531,29.297,26.367,17.578,-336.914
1532485190.391,19.531,20.020,24.414,24.902,-336.426
1532485190.395,14.160,41.016,22.461,18.555,-191.895
1532485190.399,12.695,95.703,23.926,9.277,727.051
1532485190.402,18.555,14.160,26.367,14.160,291.016
1532485190.406,17.090,-8.301,25.879,21.484,-381.836
1532485190.410,15.137,22.949,25.391,20.508,-384.766
1532485190.414,13.184,43.945,23.926,16.113,-362.305
1532485190.418,12.207,41.504,22.461,18.066,7.324
1532485190.422,12.695,19.043,23.438,20.020,-203.613
1532485190.426,6.836,43.945,21.973,12.207,73.242
1532485190.430,7.324,20.508,24.414,16.602,72.754
1532485190.434,12.207,35.156,25.391,19.531,-413.574
1532485190.438,14.160,103.027,24.414,17.090,568.848
1532485190.442,22.461,10.254,27.344,22.949,640.137
1532485190.445,24.902,-8.301,27.832,21.973,-322.754
1532485190.449,23.438,36.621,27.832,16.602,-552.246
1532485190.453,28.320,44.922,28.809,19.043,-507.324
1532485190.457,31.250,61.523,30.762,20.996,86.914
1532485190.461,32.715,19.531,29.785,22.949,-46.875
1532485190.465,32.715,22.949,23.926,19.531,-505.859
1532485190.469,34.668,46.875,22.949,13.184,-409.668
1532485190.473,32.227,51.758,25.391,19.043,-77.148
1532485190.477,27.344,72.754,22.949,17.090,544.922
1532485190.481,27.344,31.738,24.902,14.648,717.773
1532485190.484,28.809,-9.277,29.297,24.902,-232.910
1532485190.488,29.785,18.066,28.809,27.832,-504.883
1532485190.492,31.250,23.926,29.785,26.855,-408.203
1532485190.496,24.902,53.711,29.297,25.391,-189.941
1532485190.500,23.438,33.691,28.809,24.902,-160.645
1532485190.504,24.902,21.484,29.297,20.020,-455.078
1532485190.508,20.996,29.785,28.809,19.531,-316.406
1532485190.512,20.996,25.391,29.297,13.672,-386.719
1532485190.516,20.996,59.082,27.344,6.836,-271.484
1532485190.520,23.438,62.988,25.391,10.254,293.945
1532485190.524,26.367,24.902,27.832,11.719,155.762
1532485190.527,22.461,28.320,28.809,12.207,-189.941
1532485190.531,20.996,28.809,26.367,11.719,-454.102
1532485190.535,20.508,60.547,26.367,13.672,-289.551
1532485190.539,18.555,90.820,27.344,13.184,713.867
1532485190.543,20.508,21.973,27.832,14.648,400.879
1532485190.547,20.020,8.789,26.855,1.465,-306.152
1532485190.551,20.508,29.785,27.344,-4.883,-508.301
1532485190.555,23.438,36.133,26.855,9.766,-332.031
1532485190.559,23.438,13.672,27.344,12.695,72.754
1532485190.563,29.297,16.113,28.320,16.113,-256.836
1532485190.567,35.156,60.547,26.367,21.973,-122.559
1532485190.570,30.273,27.344,28.809,14.648,-34.668
1532485190.574,17.578,24.414,32.227,4.883,-191.895
1532485190.578,12.695,85.449,27.344,3.418,709.473
1532485190.582,22.949,12.207,25.391,13.184,339.844
1532485190.586,29.297,-0.977,26.855,16.602,-492.188
1532485190.590,27.832,27.344,31.738,27.344,-460.938
1532485190.594,28.320,30.273,31.250,31.738,-340.820
1532485190.598,28.320,37.598,28.320,18.555,51.758
1532485190.602,31.250,18.555,27.344,21.484,-258.789
1532485190.606,34.180,22.949,27.344,28.809,-446.289
1532485190.609,25.879,20.996,27.344,25.879,-290.039
1532485190.613,12.695,53.223,26.367,16.602,-62.012
1532485190.617,17.090,93.750,28.320,15.625,695.312
1532485190.621,29.785,12.695,33.691,26.855,626.953
1532485190.625,27.832,-16.113,35.645,28.809,-230.957
1532485190.629,20.508,20.020,35.156,20.508,-463.379
1532485190.633,21.973,37.598,32.715,13.184,-558.594
1532485190.637,24.902,68.359,29.297,17.578,-131.348
1532485190.641,22.949,29.785,27.344,15.625,-68.359
1532485190.645,19.531,23.926,27.344,8.789,-400.391
1532485190.649,22.461,35.156,26.367,13.672,-437.988
1532485190.652,27.344,28.320,26.367,13.672,-522.461
1532485190.656,25.391,58.594,27.344,15.625,-81.055
1532485190.660,24.902,45.410,27.344,16.602,382.812
1532485190.664,28.809,13.672,31.738,13.184,7.812
1532485190.668,33.691,34.180,34.668,7.812,-324.219
1532485190.672,41.992,29.297,33.691,12.695,-440.430
1532485190.676,42.969,62.988,31.738,14.648,-20.020
1532485190.680,38.086,82.031,28.320,6.836,789.551
1532485190.684,40.527,15.137,30.762,8.301,0.488
1532485190.688,40.039,27.344,34.180,18.555,-505.859
1532485190.691,33.203,32.715,33.203,19.531,-363.281
1532485190.695,28.809,45.898,31.738,11.719,-249.512
1532485190.699,30.762,35.156,30.762,9.277,-100.098
1532485190.703,35.645,29.785,32.227,18.555,-369.141
1532485190.707,35.645,64.941,33.691,16.602,78.613
1532485190.711,37.598,33.691,35.156,7.324,170.898
1532485190.715,41.016,42.969,35.645,14.648,-144.531
1532485190.719,37.598,93.750,31.250,21.484,694.336
1532485190.723,32.227,12.207,29.785,21.484,318.359
1532485190.727,26.855,-2.441,29.785,14.648,-396.484
1532485190.731,22.949,25.391,26.855,8.789,-492.188
1532485190.734,26.367,39.062,27.344,4.883,-462.891
1532485190.738,30.762,36.133,30.762,18.555,0.977
1532485190.742,29.297,15.625,31.738,28.320,-190.430
1532485190.746,24.414,30.273,32.715,16.602,-417.480
1532485190.750,26.367,40.039,32.227,13.672,-466.797
1532485190.754,28.320,67.383,29.785,17.090,-41.992
1532485190.758,25.391,80.078,30.273,19.043,841.797
1532485190.762,30.762,-1.953,33.691,17.578,433.594
1532485190.766,33.691,-1.953,33.691,16.113,-431.152
1532485190.770,31.738,30.273,32.715,22.949,-566.406
1532485190.774,31.738,33.691,31.738,24.414,-400.391
1532485190.777,31.250,51.270,31.250,22.949,121.094
1532485190.781,32.715,29.785,30.273,24.414,-200.684
1532485190.785,37.109,27.832,27.832,24.414,-537.598
1532485190.789,40.527,23.926,30.273,32.715,-375.977
1532485190.793,33.691,26.855,31.738,31.738,-338.379
1532485190.797,29.297,63.477,28.320,23.438,82.520
1532485190.801,32.715,53.711,27.344,25.391,244.141
1532485190.805,33.691,31.250,29.297,21.973,62.012
1532485190.809,34.180,16.602,31.738,24.414,-84.961
1532485190.813,33.691,20.020,32.715,32.715,-435.059
1532485190.816,30.273,87.402,28.809,27.344,80.566
1532485190.820,32.715,56.152,27.344,30.273,786.621
1532485190.824,36.621,-14.160,30.762,29.785,-10.742
1532485190.828,36.621,13.184,33.691,16.113,-403.809
1532485190.832,35.645,27.344,29.785,13.672,-494.141
1532485190.836,34.180,53.223,27.344,23.438,-278.320
1532485190.840,32.715,22.949,30.762,34.180,-24.902
1532485190.844,24.902,14.648,31.250,27.832,-287.598
1532485190.848,19.043,52.734,29.785,15.137,50.293
1532485190.852,22.461,23.438,31.250,21.484,-59.082
1532485190.856,20.020,26.367,33.203,32.715,-146.484
1532485190.859,12.207,14.648,31.738,25.391,280.273
1532485190.863,16.113,6.836,27.832,16.602,-202.148
1532485190.867,23.926,36.133,30.273,6.348,-440.430
1532485190.871,27.344,22.949,33.691,9.277,-439.453
1532485190.875,28.809,44.922,34.668,14.160,-186.035
1532485190.879,27.344,88.379,33.203,9.277,748.047
1532485190.883,30.273,18.555,29.297,18.066,203.613
1532485190.887,32.227,13.184,26.855,21.973,-488.770
1532485190.891,32.227,32.715,26.855,25.391,-380.859
1532485190.895,30.273,64.941,27.832,23.438,80.566
1532485190.899,25.879,99.609,28.809,14.648,853.516
1532485190.902,32.227,18.555,32.227,25.391,202.148
1532485190.906,33.691,12.695,33.203,35.645,-454.590
1532485190.910,30.273,30.762,34.668,26.367,-471.191
1532485190.914,27.832,42.480,37.109,22.461,-457.031
1532485190.918,26.855,50.293,33.203,26.855,-62.500
1532485190.922,27.344,25.391,29.297,26.367,-276.855
1532485190.926,20.508,31.250,27.832,24.414,-402.344
1532485190.930,16.602,34.180,26.855,16.602,-421.875
1532485190.934,9.766,48.828,27.344,9.277,-473.633
1532485190.938,11.230,62.988,29.297,11.230,79.102
1532485190.941,18.555,41.504,29.785,17.578,322.266
1532485190.945,19.531,31.738,31.738,19.043,158.691
1532485190.949,21.973,21.973,33.203,16.113,-246.582
1532485190.953,25.879,35.156,34.180,22.461,-525.879
1532485190.957,23.438,96.191,32.715,27.344,423.340
1532485190.961,24.902,27.344,32.227,18.555,705.078
1532485190.965,24.902,7.812,34.668,16.602,-178.711
1532485190.969,22.949,35.645,33.203,18.066,-433.105
1532485190.973,27.832,29.297,32.227,22.949,-456.055
1532485190.977,26.855,59.570,29.785,25.879,-6.836
1532485190.981,26.367,23.438,29.785,18.555,-103.516
1532485190.984,33.691,27.832,32.715,26.367,-520.508
1532485190.988,33.691,62.012,31.250,34.668,-30.273
1532485190.992,38.574,29.785,29.297,31.738,34.180
1532485190.996,43.945,64.941,33.203,30.762,124.512
1532485191.000,38.086,67.871,35.156,26.367,757.324
1532485191.004,39.062,-0.977,34.668,26.367,-33.203
1532485191.008,41.504,17.090,35.156,29.297,-457.520
1532485191.012,35.156,27.344,35.156,23.926,-435.547
1532485191.016,33.691,52.734,34.668,18.066,-375.488
1532485191.020,43.945,38.574,33.691,22.949,-142.578
1532485191.024,42.480,19.531,32.227,28.320,-318.359
1532485191.027,38.574,28.809,32.715,29.297,-342.773
1532485191.031,39.551,27.344,33.691,31.250,-462.891
1532485191.035,40.039,72.266,32.227,30.273,-30.762
1532485191.039,38.086,80.078,34.180,32.227,831.055
1532485191.043,39.551,-5.859,38.086,41.016,218.262
1532485191.047,39.551,9.277,37.598,36.621,-465.820
1532485191.051,40.527,34.668,36.621,31.250,-559.570
1532485191.055,38.574,34.668,36.621,31.250,-397.461
1532485191.059,34.180,27.832,37.109,29.297,37.109
1532485191.063,31.738,22.949,35.645,31.738,-263.184
1532485191.066,31.250,41.016,32.715,28.320,-484.863
1532485191.070,31.738,37.109,31.738,25.391,-455.566
1532485191.074,27.344,30.273,32.227,28.320,-250.488
1532485191.078,19.531,31.738,31.738,31.738,167.480
1532485191.082,13.672,52.246,29.297,23.926,177.246
1532485191.086,12.695,41.504,29.785,13.672,125.488
1532485191.090,14.648,4.883,29.785,12.695,-154.785
1532485191.094,8.789,28.320,28.320,13.184,-291.504
1532485191.098,5.859,95.215,28.809,5.859,648.438
1532485191.102,17.578,20.508,31.250,8.789,523.438
1532485191.106,23.438,-3.906,33.691,25.391,-327.148
1532485191.109,20.020,22.461,34.180,33.691,-378.906
1532485191.113,16.602,35.645,31.250,30.762,-399.902
1532485191.117,14.160,72.266,25.879,13.184,25.391
1532485191.121,18.066,34.668,26.367,23.438,-131.836
1532485191.125,21.484,33.691,27.832,31.250,-352.539
1532485191.129,20.508,60.547,26.367,21.973,134.766
1532485191.133,18.066,28.320,23.438,24.414,-102.051
1532485191.137,17.578,81.055,23.926,23.926,219.727
1532485191.141,25.391,43.945,30.273,26.367,777.344
1532485191.145,25.879,-22.461,30.273,35.645,-121.094
1532485191.148,20.508,18.555,29.297,34.668,-527.344
1532485191.152,25.879,32.227,31.250,26.855,-545.898
1532485191.156,30.762,60.547,30.273,25.879,-163.574
1532485191.160,31.250,34.668,28.809,29.785,-16.113
1532485191.164,34.668,26.367,31.738,33.691,-401.367
1532485191.168,37.598,47.363,32.715,29.297,-451.172
1532485191.172,37.109,41.504,28.809,30.762,-434.570
1532485191.176,31.738,71.289,26.367,38.086,217.285
1532485191.180,29.785,64.453,30.273,33.203,857.910
1532485191.184,35.156,6.348,33.203,33.691,-41.992
1532485191.188,34.180,24.414,31.738,35.645,-531.250
1532485191.191,26.367,29.297,29.785,28.320,-413.574
1532485191.195,18.555,35.645,29.297,25.879,-312.012
1532485191.199,14.648,33.691,29.785,28.320,-135.742
1532485191.203,16.602,23.438,31.738,27.832,-396.973
1532485191.207,21.484,28.320,32.715,26.855,-370.117
1532485191.211,20.996,28.809,32.715,19.531,-343.750
1532485191.215,19.531,38.574,30.762,20.996,-330.078
1532485191.219,22.949,35.156,30.273,26.855,-25.391
1532485191.223,26.855,46.387,33.203,19.043,207.031
1532485191.227,28.809,25.391,33.203,16.602,181.152
1532485191.231,24.414,1.465,31.250,18.066,-326.172
1532485191.234,22.949,43.457,32.715,17.578,-357.422
1532485191.238,19.043,87.891,32.227,15.137,698.242
1532485191.242,17.578,-1.465,31.738,16.113,438.477
1532485191.246,18.066,-4.395,30.762,12.207,-360.840
1532485191.250,17.090,36.621,30.762,7.324,-504.395
1532485191.254,15.625,35.156,30.273,14.160,-404.785
1532485191.258,10.254,33.203,28.320,15.625,166.016
1532485191.262,8.301,8.789,28.320,17.090,-134.766
1532485191.266,12.207,33.203,31.250,15.625,-452.637
1532485191.270,14.648,52.734,30.762,19.531,5.371
1532485191.273,15.625,28.809,29.297,29.297,57.617
1532485191.277,18.555,77.148,26.367,21.973,603.027
1532485191.281,19.043,21.973,26.367,23.438,597.656
1532485191.285,20.020,-7.812,27.832,31.738,-366.211
1532485191.289,22.949,36.133,28.809,24.902,-462.891
1532485191.293,22.461,35.156,32.715,22.949,-369.141
1532485191.297,17.578,62.012,29.785,14.648,9.766
1532485191.301,20.996,36.133,26.855,10.742,-170.898
1532485191.305,21.973,30.273,27.832,24.902,-450.684
1532485191.309,20.508,30.762,30.273,21.973,-286.621
1532485191.313,22.461,38.574,29.785,9.277,-414.551
1532485191.316,22.949,87.402,28.320,11.719,197.266
1532485191.320,27.832,33.203,28.320,14.648,547.852
1532485191.324,32.715,2.930,29.297,20.508,-176.758
1532485191.328,27.832,26.367,26.367,21.973,-333.496
1532485191.332,28.320,25.879,26.855,19.043,-502.441
1532485191.336,30.762,57.617,30.762,19.531,-193.848
1532485191.340,31.738,20.996,30.273,20.996,312.500
1532485191.344,33.691,3.906,29.297,25.391,-177.734
1532485191.348,27.832,34.180,28.809,22.949,-422.363
1532485191.352,22.949,39.551,24.414,15.625,-472.656
1532485191.356,24.414,42.969,24.902,23.438,-253.418
1532485191.359,24.414,23.438,27.344,30.273,91.797
1532485191.363,22.461,43.945,25.879,26.367,173.828
1532485191.367,22.949,36.133,27.344,25.879,55.176
1532485191.371,28.320,10.742,31.738,30.273,-360.352
1532485191.375,30.273,44.434,30.762,29.297,-165.527
1532485191.379,30.273,82.520,27.344,22.461,765.137
1532485191.383,36.621,18.066,30.273,29.785,187.988
1532485191.387,39.062,26.367,29.785,35.156,-319.336
1532485191.391,40.527,31.250,29.785,35.645,-215.820
1532485191.395,43.457,26.367,30.762,30.273,-274.902
1532485191.398,43.945,32.227,26.855,24.902,14.648
1532485191.402,41.504,20.508,26.855,30.273,-331.055
1532485191.406,41.016,34.180,29.785,31.250,-356.445
1532485191.410,41.504,34.668,29.297,22.949,93.750
1532485191.414,41.504,33.691,29.785,23.926,73.242
1532485191.418,40.039,85.449,29.297,25.879,662.109
1532485191.422,39.551,4.395,27.344,22.461,474.609
1532485191.426,39.062,-20.508,27.832,25.391,-313.965
1532485191.430,38.086,22.461,29.785,25.879,-454.102
1532485191.434,36.133,37.109,31.250,27.344,-491.699
1532485191.438,38.086,49.805,31.738,33.691,27.344
1532485191.441,42.969,12.695,32.715,40.039,-106.445
1532485191.445,43.457,18.066,28.320,29.297,-400.879
1532485191.449,43.945,28.809,26.855,21.484,-446.289
1532485191.453,46.387,36.133,29.297,25.391,-468.750
1532485191.457,45.410,69.824,28.809,34.180,380.859
1532485191.461,48.828,34.180,32.227,39.062,470.215
1532485191.465,44.434,11.230,34.180,36.621,-287.598
1532485191.469,38.086,23.438,31.250,33.691,-389.648
1532485191.473,34.668,25.391,32.715,27.832,-413.574
1532485191.477,26.367,76.172,34.668,22.949,223.633
1532485191.480,26.855,31.738,34.668,21.973,583.496
1532485191.484,32.227,0.488,32.715,26.367,-278.809
1532485191.488,29.785,32.715,29.297,29.785,-432.617
1532485191.492,24.414,26.367,30.273,19.043,-323.242
1532485191.496,17.578,49.316,29.297,9.766,-132.324
1532485191.500,18.066,45.898,29.297,17.090,-75.684
1532485191.504,24.414,50.781,30.762,28.809,49.805
1532485191.508,25.391,28.809,28.320,27.344,204.102
1532485191.512,26.367,2.441,26.367,17.090,-324.707
1532485191.516,22.949,65.918,26.855,15.625,-196.289
1532485191.520,20.020,88.379,26.855,21.484,752.930
1532485191.523,21.484,1.953,26.367,22.461,192.871
1532485191.527,18.066,3.906,26.367,18.555,-401.855
1532485191.531,14.648,26.855,26.855,16.602,-473.145
1532485191.535,17.578,34.668,26.855,23.438,-430.664
1532485191.539,22.461,28.809,26.855,24.414,-26.367
1532485191.543,25.879,18.066,27.344,25.391,-235.352
1532485191.547,22.461,42.480,28.809,25.879,-387.207
1532485191.551,22.949,52.734,26.855,23.926,-113.770
1532485191.555,25.879,41.992,27.344,33.203,136.719
1532485191.559,17.090,70.801,29.785,31.250,768.066
1532485191.563,19.531,15.137,29.297,19.043,281.250
1532485191.566,20.508,6.348,28.809,20.996,-504.395
1532485191.570,18.555,29.297,26.855,23.438,-535.156
1532485191.574,20.020,34.180,27.344,24.414,-323.242
1532485191.578,16.602,31.738,30.762,23.926,88.867
1532485191.582,15.625,21.973,29.785,16.602,-303.223
1532485191.586,20.508,40.039,31.250,16.602,-490.234
1532485191.590,22.461,24.414,33.691,28.809,-368.652
1532485191.594,23.438,29.297,34.180,22.461,-300.781
1532485191.598,21.973,69.824,35.645,13.184,449.219
1532485191.602,28.320,27.344,37.109,24.902,255.859
1532485191.605,31.250,14.160,34.668,34.180,-298.828
1532485191.609,23.926,16.602,32.227,26.855,-249.512
1532485191.613,19.043,23.438,33.203,18.555,-381.348
1532485191.617,20.996,88.379,30.273,16.113,397.949
1532485191.621,28.809,22.461,30.273,23.926,522.461
1532485191.625,30.762,-7.324,30.762,29.297,-234.863
1532485191.629,27.344,24.414,29.785,18.555,-354.004
1532485191.633,25.879,33.203,30.762,19.531,-445.312
1532485191.637,23.926,57.129,29.297,21.973,-50.781
1532485191.641,22.949,26.367,30.273,23.438,25.391
1532485191.645,24.902,35.156,31.738,18.066,95.215
1532485191.648,24.414,23.926,32.227,10.254,111.328
1532485191.652,23.438,6.348,30.273,6.836,-456.543
1532485191.656,17.578,68.848,26.855,11.719,49.316
1532485191.660,16.113,44.434,27.344,9.277,828.613
1532485191.664,16.602,-10.254,28.320,-1.465,-47.852
1532485191.668,14.160,24.902,26.855,9.277,-534.668
1532485191.672,14.648,26.367,26.855,16.602,-437.988
1532485191.676,16.113,37.109,27.344,13.184,-187.012
1532485191.680,14.648,31.738,26.367,13.672,-18.066
1532485191.684,13.184,24.414,26.855,7.812,-419.922
1532485191.688,15.137,43.457,29.297,13.184,-377.441
1532485191.691,13.672,46.875,25.879,19.043,68.359
1532485191.695,9.277,57.617,23.438,12.207,340.332
1532485191.699,11.719,74.707,24.414,9.277,782.715
1532485191.703,18.555,8.789,25.391,9.277,147.461
1532485191.707,19.531,10.742,26.367,14.648,-411.621
1532485191.711,20.020,30.762,30.762,28.809,-404.785
1532485191.715,19.043,35.156,29.785,26.855,-409.668
1532485191.719,22.461,36.133,29.297,19.531,-108.887
1532485191.723,26.367,27.832,30.762,20.020,-275.879
1532485191.727,26.855,32.715,28.809,25.391,-330.078
1532485191.730,25.391,34.180,29.297,25.391,-405.762
1532485191.734,23.438,46.875,30.762,23.926,-398.926
1532485191.738,24.902,58.594,29.785,37.109,299.805
1532485191.742,26.855,21.973,28.320,38.574,270.020
1532485191.746,27.832,21.973,31.250,28.809,-229.492
1532485191.750,24.902,30.762,32.227,30.762,-421.387
1532485191.754,23.926,46.875,31.738,35.156,-362.793
1532485191.758,21.484,96.191,32.227,28.809,659.668
1532485191.762,19.531,10.742,33.691,23.438,544.922
1532485191.766,21.484,-0.977,34.668,23.438,-378.906
1532485191.770,25.879,31.250,32.227,23.438,-494.629
1532485191.773,26.367,32.715,29.785,28.809,-319.824
1532485191.777,25.879,51.270,31.250,32.227,160.156
1532485191.781,27.832,28.809,31.250,25.391,-133.789
1532485191.785,28.320,47.852,30.273,25.879,-69.824
1532485191.789,32.715,23.438,30.762,34.668,142.090
1532485191.793,30.273,13.672,30.762,27.344,-335.938
1532485191.797,21.973,100.586,27.832,17.578,317.871
1532485191.801,29.297,45.898,29.785,25.879,732.422
1532485191.805,34.180,-6.348,30.762,34.668,-221.680
1532485191.809,30.762,42.480,29.785,29.785,-243.164
1532485191.813,31.250,33.691,30.762,27.832,-282.715
1532485191.816,30.762,70.312,31.250,25.391,-154.785
1532485191.820,35.156,41.016,32.227,30.762,28.809
1532485191.824,33.203,1.953,31.250,30.762,-355.469
1532485191.828,26.855,32.227,30.273,23.438,-320.801
1532485191.832,24.902,47.363,29.297,23.926,-122.559
1532485191.836,26.855,66.406,28.809,24.902,250.488
1532485191.840,31.250,58.594,29.297,19.043,787.109
1532485191.844,34.668,-8.789,28.809,20.996,67.383
1532485191.848,30.273,10.742,26.855,24.902,-532.715
1532485191.852,31.738,31.250,26.855,22.461,-572.266
1532485191.855,31.738,36.621,26.367,22.461,-371.582
1532485191.859,28.809,21.484,29.785,20.996,-37.598
1532485191.863,29.297,19.043,33.203,21.484,-360.840
1532485191.867,30.762,34.668,31.250,16.602,-511.719
1532485191.871,34.180,26.367,29.785,17.578,-467.285
1532485191.875,34.180,33.203,31.250,23.438,-256.836
1532485191.879,31.250,41.992,29.785,12.695,287.109
1532485191.883,30.273,20.020,28.320,14.160,13.672
1532485191.887,32.227,27.344,28.320,16.113,-345.703
1532485191.891,38.086,26.367,29.785,17.578,-351.562
1532485191.895,38.574,41.992,30.273,24.414,-218.750
1532485191.898,35.645,96.191,27.344,17.578,711.426
1532485191.902,42.969,20.020,28.809,20.508,317.871
1532485191.906,41.504,-0.977,27.832,26.855,-379.883
1532485191.910,34.668,20.020,26.855,19.043,-384.277
1532485191.914,35.156,32.715,26.367,12.695,-362.793
1532485191.918,36.621,36.133,25.879,13.672,-0.977
1532485191.922,37.598,20.996,28.320,19.043,-206.055
1532485191.926,33.691,51.758,28.320,22.949,66.406
1532485191.930,31.738,33.203,27.344,22.949,191.895
1532485191.934,32.227,25.879,28.809,29.297,-341.309
1532485191.937,32.715,95.215,27.344,27.344,503.418
1532485191.941,26.855,20.020,28.809,29.297,666.504
1532485191.945,20.020,-17.090,30.762,29.785,-302.246
1532485191.949,28.320,22.461,28.809,18.555,-532.715
1532485191.953,31.738,28.809,24.902,19.043,-510.742
1532485191.957,26.855,48.340,24.414,24.902,32.227
1532485191.961,31.250,16.113,26.367,31.250,-41.016
1532485191.965,35.156,17.578,24.902,31.250,-493.652
1532485191.969,33.203,41.504,26.855,25.391,-410.645
1532485191.973,35.156,46.387,29.297,33.203,-43.457
1532485191.977,33.203,63.965,29.785,33.691,526.367
1532485191.980,27.832,31.738,31.250,22.461,732.910
1532485191.984,30.273,-10.742,32.715,27.832,-191.406
1532485191.988,28.320,17.090,31.250,35.156,-508.789
1532485191.992,24.414,19.043,32.227,37.598,-401.855
1532485191.996,26.855,45.898,35.645,27.832,-207.031
1532485192.000,28.320,31.738,34.180,21.973,-149.414
1532485192.004,25.391,14.160,28.320,29.297,-438.477
1532485192.008,23.438,19.043,29.785,33.691,-325.684
1532485192.012,21.484,17.578,31.250,32.227,-380.859
1532485192.016,21.973,46.387,28.809,29.785,-302.246
1532485192.020,24.414,48.828,28.809,31.250,250.000
1532485192.023,20.996,10.742,28.809,36.621,149.902
1532485192.027,19.531,11.719,31.250,35.645,-187.988
1532485192.031,21.973,16.602,30.273,26.367,-446.777
1532485192.035,23.438,46.875,23.926,23.438,-303.711
1532485192.039,25.391,76.660,24.414,25.879,726.562
1532485192.043,27.832,-6.348,30.762,19.531,304.199
1532485192.047,28.320,0.977,30.762,19.043,-435.547
1532485192.051,34.668,29.297,28.809,26.367,-515.625
1532485192.055,39.062,27.832,32.227,24.414,-346.191
1532485192.059,36.133,12.695,37.109,21.973,78.613
1532485192.062,38.086,11.230,38.086,23.438,-225.586
1532485192.066,38.086,51.270,34.180,21.484,-77.148
1532485192.070,41.016,11.719,32.715,29.297,-43.457
1532485192.074,43.945,16.113,34.668,30.273,-226.562
1532485192.078,36.621,81.543,35.645,17.090,707.031
1532485192.082,36.621,4.883,37.598,17.090,384.277
1532485192.086,41.016,-7.324,34.668,22.461,-460.449
1532485192.090,41.016,19.043,35.156,23.438,-440.430
1532485192.094,34.668,17.578,35.645,22.461,-336.914
1532485192.098,34.180,41.504,34.180,21.973,58.105
1532485192.102,41.016,28.809,34.668,21.484,-238.770
1532485192.105,42.480,27.832,35.156,23.926,-439.453
1532485192.109,41.504,26.367,36.621,25.879,-266.602
1532485192.113,39.551,51.270,34.668,20.508,-117.676
1532485192.117,42.480,91.309,33.203,16.113,620.117
1532485192.121,41.016,20.508,33.691,27.832,668.457
1532485192.125,35.156,-13.672,34.668,28.320,-187.988
1532485192.129,36.133,21.973,37.598,21.973,-439.941
1532485192.133,36.133,36.133,36.133,18.066,-537.109
1532485192.137,35.156,66.406,34.180,8.301,-140.137
1532485192.141,32.227,25.879,32.227,14.648,-50.293
1532485192.145,25.391,16.602,29.785,16.602,-378.418
1532485192.148,23.926,40.527,29.785,8.789,-418.457
1532485192.152,27.344,38.086,30.762,3.418,-502.930
1532485192.156,28.809,62.988,30.762,16.602,-95.703
1532485192.160,29.785,54.688,31.738,27.832,389.648
1532485192.164,28.809,21.484,32.715,18.555,11.719
1532485192.168,24.902,33.691,30.762,21.484,-330.078
1532485192.172,28.809,28.320,28.320,24.414,-419.922
1532485192.176,24.902,56.152,27.832,16.602,-35.156
1532485192.180,15.137,76.660,26.367,12.695,786.621
1532485192.184,19.531,6.836,27.344,8.789,54.199
1532485192.187,22.461,10.254,26.855,15.625,-477.051
1532485192.191,21.484,21.973,26.367,27.832,-347.656
1532485192.195,22.461,34.668,29.297,21.973,-248.047
1532485192.199,21.973,32.715,29.297,18.066,-85.938
1532485192.203,21.973,32.715,28.809,19.043,-343.750
1532485192.207,25.879,60.059,30.273,23.438,113.770
1532485192.211,26.367,13.672,32.227,21.973,79.102
1532485192.215,17.090,32.715,29.297,14.648,-251.953
1532485192.219,25.391,95.703,28.809,11.719,707.520
1532485192.223,36.133,3.418,34.668,13.184,348.145
1532485192.227,30.762,-7.324,34.180,22.949,-390.625
1532485192.230,28.320,52.734,31.738,31.250,-315.918
1532485192.234,28.809,42.969,31.738,24.902,-289.551
1532485192.238,29.297,21.484,29.297,18.555,2.930
1532485192.242,29.785,10.254,31.250,20.996,-174.316
1532485192.246,28.320,23.926,31.738,20.020,-417.480
1532485192.250,33.203,37.109,34.180,16.113,-465.332
1532485192.254,36.133,67.383,38.086,26.855,-63.477
1532485192.258,32.715,83.008,35.156,33.691,826.172
1532485192.262,32.227,-3.906,35.156,23.438,479.492
1532485192.266,33.203,0.488,34.668,21.973,-413.574
1532485192.270,34.668,34.180,32.227,24.414,-560.059
1532485192.273,34.668,26.855,30.762,19.531,-411.133
1532485192.277,27.344,45.898,28.320,19.531,81.543
1532485192.281,24.902,23.926,26.367,21.484,-188.965
1532485192.285,26.367,32.715,26.367,15.137,-527.832
1532485192.289,26.855,31.250,26.855,23.926,-371.582
1532485192.293,25.391,23.438,27.344,29.297,-335.449
1532485192.297,24.902,65.918,27.832,13.672,45.410
1532485192.301,29.297,55.664,26.855,16.602,262.695
1532485192.305,36.133,18.555,27.344,27.832,38.574
1532485192.309,33.691,10.254,30.273,28.320,-133.301
1532485192.312,27.832,17.090,32.227,18.555,-420.898
1532485192.316,22.461,86.426,30.762,16.602,33.203
1532485192.320,20.996,61.035,30.273,18.066,786.133
1532485192.324,25.391,-12.207,31.250,17.090,27.832
1532485192.328,22.461,13.672,30.762,20.996,-394.531
1532485192.332,21.973,23.438,29.785,14.160,-476.562
1532485192.336,25.879,55.176,30.273,10.742,-290.527
1532485192.340,29.297,30.273,32.227,21.973,-17.578
1532485192.344,27.832,15.625,30.762,18.555,-275.879
1532485192.348,24.902,61.523,29.785,9.766,56.641
1532485192.352,28.809,22.461,34.668,10.254,-69.824
1532485192.355,28.320,36.621,35.645,11.230,-171.875
1532485192.359,19.043,72.266,29.785,13.672,759.277
1532485192.363,20.508,0.488,32.227,19.043,169.922
1532485192.367,25.879,10.254,35.645,18.555,-549.805
1532485192.371,29.785,25.879,36.621,23.438,-487.305
1532485192.375,31.250,22.949,38.086,23.926,-291.992
1532485192.379,29.297,19.043,37.109,16.602,-10.254
1532485192.383,27.832,25.879,35.156,16.602,-349.609
1532485192.387,32.227,36.621,32.715,25.391,-467.773
1532485192.391,33.691,26.855,33.203,27.832,-351.562
1532485192.394,31.250,65.430,34.180,23.926,115.723
1532485192.398,28.320,88.379,32.227,22.461,858.398
1532485192.402,32.227,5.371,31.250,28.320,260.742
1532485192.406,37.109,1.953,34.668,34.180,-390.137
1532485192.410,36.133,24.902,33.691,25.879,-410.645
1532485192.414,31.250,38.574,29.297,17.090,-400.391
1532485192.418,26.367,42.480,30.762,17.090,-23.438
1532485192.422,26.367,14.648,31.738,31.250,-232.910
1532485192.426,25.879,20.508,30.273,37.109,-357.422
1532485192.430,26.855,28.809,30.762,28.320,-364.746
1532485192.434,26.855,48.828,25.391,24.902,-430.664
1532485192.437,26.855,62.500,23.438,27.344,93.262
1532485192.441,28.320,43.457,28.809,28.320,307.129
1532485192.445,30.273,40.527,28.320,29.297,149.414
1532485192.449,29.785,28.320,25.879,28.320,-207.031
1532485192.453,29.785,28.320,26.367,22.949,-488.281
1532485192.457,28.320,89.844,26.367,24.902,378.906
1532485192.461,26.367,29.297,27.832,18.555,754.883
1532485192.465,19.531,-9.766,26.855,8.301,-227.539
1532485192.469,12.695,32.715,24.902,15.625,-527.344
1532485192.473,24.414,31.250,26.367,25.879,-432.617
1532485192.477,34.180,54.688,27.344,22.949,-14.160
1532485192.480,30.762,31.250,28.809,16.113,-67.383
1532485192.484,26.367,29.297,28.320,21.973,-472.168
1532485192.488,29.297,65.430,29.785,27.832,45.898
1532485192.492,33.203,32.715,34.180,22.461,210.449
1532485192.496,30.273,53.223,34.668,23.926,195.312
1532485192.500,28.320,71.289,31.738,22.461,752.930
1532485192.504,32.715,0.000,28.320,25.879,4.395
1532485192.508,34.180,8.789,26.367,24.902,-450.684
1532485192.512,32.715,21.973,27.344,21.973,-413.086
1532485192.516,28.320,39.551,26.367,20.996,-387.695
1532485192.519,25.879,27.832,28.809,23.438,-155.762
1532485192.523,26.855,11.719,30.762,23.926,-308.594
1532485192.527,30.273,17.090,29.785,23.926,-337.891
1532485192.531,29.785,21.973,27.832,22.949,-433.105
1532485192.535,29.297,71.289,29.297,21.973,5.371
1532485192.539,31.250,77.148,33.691,28.809,841.797
1532485192.543,34.668,-16.113,34.180,31.250,246.094
1532485192.547,36.133,-4.883,33.691,24.414,-441.895
1532485192.551,33.203,28.809,34.668,21.484,-559.082
1532485192.555,31.738,24.414,36.133,32.227,-420.410
1532485192.559,32.715,14.160,36.621,42.969,29.297
1532485192.562,27.832,8.301,36.621,40.039,-250.000
1532485192.566,23.438,29.297,36.621,30.762,-484.863
1532485192.570,25.879,28.809,34.668,36.133,-470.703
1532485192.574,28.809,31.738,34.180,41.504,-274.902
1532485192.578,27.344,31.738,36.621,34.668,170.898
1532485192.582,27.344,35.156,37.109,21.973,185.547
1532485192.586,33.203,25.391,36.133,22.461,-12.695
1532485192.590,33.691,0.977,36.621,31.250,-264.160
1532485192.594,26.855,22.461,38.086,34.180,-309.570
1532485192.598,16.113,86.914,34.668,22.461,614.746
1532485192.602,16.113,14.648,31.738,15.625,561.035
1532485192.605,20.508,-13.184,31.738,20.020,-316.895
1532485192.609,15.137,12.695,34.668,16.602,-371.582
1532485192.613,8.301,26.855,35.645,21.973,-395.508
1532485192.617,7.324,67.383,33.203,24.414,0.000
1532485192.621,14.160,23.926,33.203,20.996,-132.324
1532485192.625,21.484,17.578,33.203,23.438,-359.375
1532485192.629,21.973,45.410,31.250,19.043,92.773
1532485192.633,20.508,20.020,28.809,17.090,-143.555
1532485192.637,20.020,72.266,27.832,19.531,158.691
1532485192.641,21.973,36.133,28.320,20.996,791.992
1532485192.644,21.484,-26.367,31.738,28.809,-61.523
1532485192.648,21.484,21.484,34.180,22.461,-522.461
1532485192.652,23.926,47.363,31.738,16.113,-411.621
1532485192.656,22.949,54.688,28.809,30.762,-43.457
1532485192.660,26.855,20.508,29.297,33.691,-20.996
1532485192.664,27.344,20.996,28.809,26.367,-388.184
1532485192.668,25.879,39.551,30.273,26.855,-454.590
1532485192.672,31.738,28.320,28.809,36.621,-452.148
1532485192.676,32.227,69.824,28.320,38.574,162.598
1532485192.680,26.855,77.637,29.785,29.785,849.609
1532485192.684,25.879,1.953,28.809,26.855,0.488
1532485192.687,28.809,14.648,28.320,26.855,-518.555
1532485192.691,28.809,28.320,27.832,29.297,-399.414
1532485192.695,25.879,35.156,28.320,28.320,-297.852
1532485192.699,26.367,36.621,30.762,19.043,-112.305
1532485192.703,27.344,28.809,28.809,17.578,-381.836
1532485192.707,27.344,30.273,28.320,23.926,-373.535
1532485192.711,26.855,28.809,30.273,20.996,-334.961
1532485192.715,20.996,40.527,28.320,8.789,-315.430
1532485192.719,20.508,39.062,24.902,16.113,-26.855
1532485192.723,23.926,42.969,25.391,33.203,120.605
1532485192.726,25.391,26.855,28.809,29.785,105.957
1532485192.730,20.020,15.625,28.320,15.137,-323.242
1532485192.734,16.113,52.734,25.879,15.137,-376.953
1532485192.738,16.113,96.191,22.949,21.973,677.246
1532485192.742,20.508,8.789,24.902,24.902,475.586
1532485192.746,21.484,-3.906,29.297,22.949,-340.332
1532485192.750,15.625,32.227,28.809,15.625,-498.535
1532485192.754,18.066,35.645,27.344,11.230,-418.457
1532485192.758,16.602,37.598,29.785,12.207,162.109
1532485192.762,12.207,9.766,29.297,15.625,-106.934
1532485192.766,10.742,35.156,27.832,16.602,-439.453
1532485192.769,13.672,57.129,30.273,20.020,17.090
1532485192.773,16.602,28.320,31.250,22.949,38.574
1532485192.777,13.184,78.613,29.297,16.113,552.246
1532485192.781,12.207,29.785,33.203,17.090,633.301
1532485192.785,13.672,-5.371,34.668,23.926,-352.051
1532485192.789,16.602,22.461,29.297,23.926,-479.980
1532485192.793,17.578,21.973,28.809,22.461,-385.254
1532485192.797,12.695,57.129,27.832,16.602,-39.551
1532485192.801,14.648,30.273,23.926,13.672,-174.805
1532485192.805,20.508,24.414,23.926,13.672,-457.031
1532485192.809,20.508,29.785,26.855,21.484,-284.180
1532485192.812,18.555,25.391,28.320,20.508,-411.133
1532485192.816,17.090,86.426,26.367,12.207,179.688
1532485192.820,18.066,59.082,26.367,16.113,821.289
1532485192.824,25.879,-10.742,28.320,24.414,-3.906
1532485192.828,28.809,16.113,28.809,21.973,-408.203
1532485192.832,22.461,31.738,28.320,14.648,-489.746
1532485192.836,19.043,53.711,27.344,17.090,-336.426
1532485192.840,18.555,31.250,30.273,20.508,-34.180
1532485192.844,17.090,15.625,31.250,19.531,-275.879
1532485192.848,16.602,35.156,28.809,12.207,-391.602
1532485192.851,14.160,41.016,29.297,12.207,-469.727
1532485192.855,16.602,46.875,31.250,20.996,-264.160
1532485192.859,24.414,24.902,31.250,22.949,98.145
1532485192.863,24.414,42.969,31.738,19.531,165.039
1532485192.867,23.926,55.664,28.809,15.137,183.105
1532485192.871,29.297,12.695,30.273,21.484,-212.891
1532485192.875,33.691,35.156,33.691,28.809,-180.664
1532485192.879,32.227,86.426,30.762,19.531,762.207
1532485192.883,32.715,16.113,31.738,15.137,227.051
1532485192.887,38.086,5.859,32.715,13.672,-478.027
1532485192.891,40.527,27.344,32.715,20.020,-395.996
1532485192.894,35.645,31.250,33.691,29.785,-274.902
1532485192.898,33.203,36.133,34.180,19.531,39.062
1532485192.902,39.551,22.461,34.668,18.555,-313.477
1532485192.906,41.504,37.109,32.227,27.344,-355.469
1532485192.910,36.133,45.410,34.668,27.832,119.629
1532485192.914,36.133,42.480,38.574,23.926,74.707
1532485192.918,33.203,86.914,33.691,16.113,645.020
1532485192.922,35.156,15.625,32.715,18.066,514.160
1532485192.926,36.133,-8.789,33.691,21.484,-290.527
1532485192.930,32.227,22.949,32.227,16.602,-454.102
1532485192.934,33.203,38.086,31.250,18.555,-502.441
1532485192.937,31.738,56.152,30.273,20.996,25.391
1532485192.941,32.715,20.020,34.668,19.531,-90.820
1532485192.945,31.250,26.855,35.156,18.555,-392.578
1532485192.949,31.250,33.691,30.762,19.043,-424.316
1532485192.953,34.668,32.227,30.762,24.414,-480.957
1532485192.957,30.273,77.148,30.273,28.320,361.328
1532485192.961,27.832,39.551,32.227,24.414,551.270
1532485192.965,30.762,14.648,33.691,18.066,-249.023
1532485192.969,34.180,38.086,33.203,21.973,-419.922
1532485192.973,37.109,34.180,33.691,29.297,-430.664
1532485192.976,35.156,69.336,34.668,27.344,140.137
1532485192.980,35.156,31.738,34.668,26.855,403.809
1532485192.984,28.809,14.648,33.203,30.273,-349.609
1532485192.988,28.809,41.504,34.180,32.715,-429.688
1532485192.992,30.273,26.855,37.598,33.203,-333.984
1532485192.996,23.926,45.898,36.133,18.555,-138.672
1532485193.000,20.508,43.945,34.180,16.602,-57.617
1532485193.004,24.414,51.758,33.203,27.832,26.367
1532485193.008,28.809,46.387,32.715,32.715,297.852
1532485193.012,29.785,8.301,32.715,26.855,-206.055
1532485193.016,25.879,57.129,29.785,14.160,-234.863
1532485193.019,23.926,85.449,29.297,11.719,742.676
1532485193.023,30.273,-1.465,31.250,14.160,214.844
1532485193.027,34.668,3.418,32.715,14.648,-400.879
1532485193.031,32.227,33.691,34.180,20.996,-463.379
1532485193.035,33.691,33.203,31.250,20.996,-438.965
1532485193.039,36.133,20.020,31.250,23.926,-32.227
1532485193.043,32.227,9.766,32.715,31.250,-227.051
1532485193.047,29.297,34.180,29.297,19.531,-363.281
1532485193.051,30.273,51.270,27.832,17.578,-74.707
1532485193.055,29.785,60.059,27.344,21.484,264.648
1532485193.059,26.367,72.754,26.855,20.508,843.262
1532485193.062,24.902,-0.488,29.297,22.949,291.504
1532485193.066,29.297,4.395,27.832,23.438,-482.422
1532485193.070,33.203,34.180,27.344,20.996,-560.059
1532485193.074,28.809,46.387,25.879,20.020,-197.754
1532485193.078,30.762,29.297,23.926,17.578,219.238
1532485193.082,34.180,13.672,24.414,17.090,-312.988
1532485193.086,31.250,41.992,23.438,18.066,-516.113
1532485193.090,31.738,24.414,23.926,16.602,-396.484
1532485193.094,32.715,28.320,24.902,18.555,-347.168
1532485193.098,33.691,88.867,21.484,17.090,499.023
1532485193.101,40.527,31.250,23.438,23.438,290.527
1532485193.105,39.551,12.207,27.344,32.715,-384.277
1532485193.109,36.133,22.949,27.832,29.297,-294.434
1532485193.113,37.598,35.156,25.879,16.602,-420.410
1532485193.117,24.902,97.656,23.926,11.719,270.508
1532485193.121,24.414,30.273,23.438,24.414,341.309
1532485193.125,37.598,5.859,26.367,27.832,-302.246
1532485193.129,34.180,34.180,25.391,18.066,-352.051
1532485193.133,31.738,40.039,21.484,12.207,-470.703
1532485193.137,34.180,67.871,20.996,14.160,-111.816
1532485193.141,33.691,36.133,22.461,17.090,7.324
1532485193.144,31.738,48.340,23.926,22.949,63.477
1532485193.148,31.738,51.270,24.414,23.926,158.203
1532485193.152,35.156,16.602,25.391,29.297,-401.855
1532485193.156,36.133,71.777,23.438,30.762,-22.949
1532485193.160,40.039,66.895,21.973,22.949,829.590
1532485193.164,46.875,-1.465,24.414,29.297,-5.859
1532485193.168,42.480,21.973,24.902,28.809,-548.828
1532485193.172,41.504,29.297,23.926,35.156,-458.496
1532485193.176,40.527,38.086,22.461,35.156,-211.426
1532485193.180,35.156,31.738,25.391,25.879,-9.766
1532485193.183,34.180,26.367,25.879,28.320,-408.203
1532485193.187,30.762,39.551,24.902,34.180,-410.645
1532485193.191,27.832,36.133,27.832,34.180,-50.781
1532485193.195,29.297,53.223,31.250,28.320,266.113
1532485193.199,30.273,80.078,31.738,26.367,795.410
1532485193.203,36.621,11.719,29.297,33.691,156.250
1532485193.207,34.668,4.395,26.855,40.527,-423.340
1532485193.211,34.668,29.785,25.391,31.738,-403.809
1532485193.215,33.203,37.598,23.438,23.438,-397.949
1532485193.219,31.250,32.227,24.414,21.973,-98.145
1532485193.223,34.668,21.973,24.902,26.367,-289.551
1532485193.226,33.203,21.973,23.438,33.691,-337.891
1532485193.230,29.785,21.484,20.996,29.785,-399.414
1532485193.234,29.297,39.551,22.949,26.367,-409.668
1532485193.238,34.668,55.176,25.879,29.785,295.410
1532485193.242,39.551,29.297,27.344,35.156,363.770
1532485193.246,37.109,20.020,28.809,33.691,-141.602
1532485193.250,35.156,27.344,28.809,28.809,-417.969
1532485193.254,34.180,43.457,28.809,31.738,-396.973
1532485193.258,31.250,92.773,30.273,38.086,628.418
1532485193.262,29.297,11.719,29.297,31.250,587.891
1532485193.266,27.344,-2.930,26.855,18.555,-360.352
1532485193.269,33.203,35.645,28.809,22.949,-505.859
1532485193.273,38.574,33.203,29.297,35.645,-344.238
1532485193.277,33.691,47.363,28.320,28.809,159.180
1532485193.281,29.785,31.738,29.297,23.926,-98.633
1532485193.285,28.809,62.012,27.344,21.973,-67.871
1532485193.289,30.762,41.992,28.320,26.367,237.793
1532485193.293,27.832,7.812,29.297,36.621,-246.582
1532485193.297,17.090,84.473,28.320,28.320,249.512
1532485193.301,22.461,49.316,31.250,24.902,749.023
1532485193.305,31.250,-6.836,32.227,34.668,-182.129
1532485193.308,26.855,20.020,31.738,39.062,-420.410
1532485193.312,23.438,29.785,32.715,33.691,-421.875
1532485193.316,18.555,62.988,31.250,24.902,-251.465
1532485193.320,20.996,37.109,30.273,28.809,-121.582
1532485193.324,19.043,14.160,31.250,35.156,-360.840
1532485193.328,14.648,33.203,30.762,23.438,-290.527
1532485193.332,12.695,48.828,28.809,20.508,-71.777
1532485193.336,14.648,69.336,28.809,28.809,252.930
1532485193.340,20.996,58.105,30.273,25.391,785.156
1532485193.344,24.902,-15.625,30.273,20.020,115.234
1532485193.348,22.461,4.883,30.273,23.438,-502.441
1532485193.351,23.438,30.762,34.180,31.250,-560.547
1532485193.355,25.879,30.762,36.133,36.133,-387.695
1532485193.359,23.438,17.090,36.133,36.133,-32.227
1532485193.363,20.996,19.531,35.156,26.855,-333.008
1532485193.367,26.367,40.039,34.668,23.926,-491.211
1532485193.371,33.203,35.156,32.227,33.203,-474.609
1532485193.375,31.738,34.668,30.273,29.785,-266.113
1532485193.379,24.902,41.504,29.297,23.926,327.637
1532485193.383,26.367,23.926,30.273,24.902,39.551
1532485193.387,31.250,31.250,32.715,28.320,-364.258
1532485193.391,28.809,20.996,35.156,34.180,-350.098
1532485193.394,22.949,33.691,31.250,32.227,-214.355
1532485193.398,23.438,90.820,29.297,22.461,707.031
1532485193.402,31.738,11.719,34.180,21.484,343.262
1532485193.406,37.109,-6.836,31.738,39.062,-385.742
1532485193.410,39.062,18.555,28.320,46.875,-380.371
1532485193.414,34.668,32.715,28.809,32.227,-350.098
1532485193.418,32.227,38.574,29.785,31.250,19.043
1532485193.422,35.156,20.996,30.762,43.457,-192.871
1532485193.426,25.391,49.316,31.250,40.527,63.477
1532485193.430,16.602,29.297,31.738,32.227,218.750
1532485193.433,27.344,22.949,33.691,32.715,-348.633
1532485193.437,23.926,92.285,31.738,29.785,454.590
1532485193.441,26.367,13.672,32.227,30.762,698.730
1532485193.445,34.180,-16.602,34.180,33.691,-272.461
1532485193.449,28.320,30.762,34.668,28.809,-532.227
1532485193.453,26.367,37.109,35.645,30.273,-535.156
1532485193.457,28.320,61.523,33.203,41.016,-12.207
1532485193.461,28.809,23.438,31.738,43.457,-27.832
1532485193.465,25.879,20.020,31.738,25.879,-470.215
1532485193.469,27.344,45.410,28.809,15.625,-415.039
1532485193.473,28.809,47.852,26.855,25.391,-66.406
1532485193.476,29.297,66.895,28.809,23.438,497.559
1532485193.480,29.785,45.410,32.227,20.508,759.766
1532485193.484,29.297,-6.836,31.738,31.738,-163.086
1532485193.488,31.250,14.648,28.809,32.715,-529.785
1532485193.492,29.785,21.484,30.762,31.738,-412.109
1532485193.496,24.902,50.781,31.738,30.762,-195.801
1532485193.500,25.879,40.039,30.762,26.855,-138.672
1532485193.504,29.297,23.438,28.809,26.855,-455.566
1532485193.508,30.273,28.809,29.785,30.762,-338.867
1532485193.512,28.809,23.438,30.762,28.809,-363.281
1532485193.516,30.273,48.828,30.273,24.902,-295.898
1532485193.519,34.180,50.781,32.227,32.227,228.027
1532485193.523,37.109,20.508,33.691,41.992,79.590
1532485193.527,37.598,19.043,33.203,36.133,-204.590
1532485193.531,32.227,20.020,33.691,29.785,-403.809
1532485193.535,32.227,54.688,33.203,23.438,-309.082
1532485193.539,39.062,93.262,32.227,28.809,717.773
1532485193.543,43.457,5.859,34.180,38.086,336.426
1532485193.547,37.109,0.000,33.203,34.668,-400.879
1532485193.551,35.645,37.598,30.273,27.832,-508.301
1532485193.555,37.109,41.504,30.762,23.438,-359.375
1532485193.558,35.645,23.926,32.227,28.809,89.844
1532485193.562,34.668,21.484,31.250,19.043,-197.266
1532485193.566,28.809,65.918,27.832,8.789,-5.371
1532485193.570,32.227,22.461,27.344,19.531,-3.418
1532485193.574,31.738,20.020,26.367,21.973,-258.301
1532485193.578,27.344,86.426,22.949,13.672,692.383
1532485193.582,37.598,7.324,23.438,11.719,437.012
1532485193.586,40.527,-6.836,25.391,20.996,-459.961
1532485193.590,36.621,21.973,25.879,27.832,-467.773
1532485193.594,32.715,26.367,23.926,22.461,-339.844
1532485193.598,29.297,45.898,25.391,14.160,69.824
1532485193.601,31.250,25.391,27.832,17.578,-230.469
1532485193.605,26.367,21.484,26.855,20.020,-483.887
1532485193.609,24.414,26.367,26.855,26.367,-264.648
1532485193.613,25.879,52.734,26.367,31.250,-51.270
1532485193.617,21.973,90.332,23.926,14.648,583.984
1532485193.621,23.926,18.555,23.926,18.555,676.758
1532485193.625,28.320,-21.484,23.926,36.133,-163.086
1532485193.629,28.809,17.578,26.855,31.738,-420.898
1532485193.633,25.391,33.203,28.809,27.832,-522.461
1532485193.637,23.926,66.406,26.367,33.691,-205.078
1532485193.640,28.809,30.273,26.855,37.109,-68.848
1532485193.644,31.250,13.672,29.297,33.203,-355.957
1532485193.648,30.273,34.180,27.832,24.902,-399.414
1532485193.652,32.715,30.762,25.391,19.531,-515.625
1532485193.656,34.180,52.734,25.879,28.320,-155.273
1532485193.660,30.762,35.156,24.902,34.180,388.672
1532485193.664,27.344,3.906,26.367,32.715,41.504
1532485193.668,23.438,22.461,27.832,26.855,-338.379
1532485193.672,26.855,16.113,26.855,20.020,-445.801
1532485193.676,26.855,49.316,28.320,16.113,-86.426
1532485193.680,18.066,71.777,28.320,12.207,777.344
1532485193.683,18.555,-4.395,27.832,14.648,83.496
1532485193.687,22.461,7.812,28.809,23.438,-504.395
1532485193.691,25.879,25.391,30.762,25.391,-378.906
1532485193.695,25.879,27.832,30.762,21.973,-259.277
1532485193.699,25.879,21.973,33.203,24.902,-75.195
1532485193.703,28.320,19.043,33.203,27.832,-372.070
1532485193.707,20.996,50.781,29.785,24.902,42.480
1532485193.711,19.531,19.531,30.273,24.414,192.871
1532485193.715,24.414,25.391,30.273,25.391,-125.488
1532485193.719,24.414,84.473,27.344,22.949,693.359
1532485193.723,28.809,7.812,30.273,32.715,336.914
1532485193.726,27.344,-7.812,30.273,27.344,-387.207
1532485193.730,26.855,26.855,27.832,18.066,-477.051
1532485193.734,29.297,41.992,26.855,24.414,-470.215
1532485193.738,32.227,36.133,28.320,27.344,4.395
1532485193.742,30.762,13.672,32.227,32.715,-176.270
1532485193.746,26.367,26.855,33.691,29.785,-403.809
1532485193.750,25.391,29.297,31.738,23.926,-446.289
1532485193.754,27.344,56.641,29.785,28.320,-162.109
1532485193.758,24.414,80.566,30.762,22.949,771.973
1532485193.762,23.926,-3.418,34.668,21.973,540.039
1532485193.765,26.855,-6.348,33.203,27.344,-383.301
1532485193.769,29.297,29.785,29.785,21.973,-570.801
1532485193.773,29.297,31.250,28.320,21.973,-441.406
1532485193.777,24.414,54.199,29.297,18.555,96.680
1532485193.781,20.508,27.832,31.738,22.461,-137.207
1532485193.785,21.484,26.367,32.227,24.414,-526.855
1532485193.789,23.438,30.273,34.668,29.297,-385.254
1532485193.793,26.367,24.414,36.133,31.738,-342.773
1532485193.797,27.344,65.430,34.180,22.949,40.039
1532485193.801,25.391,61.035,34.180,22.461,277.344
1532485193.805,26.855,21.484,34.180,23.438,14.160
1532485193.808,27.832,17.578,35.645,22.949,-147.461
1532485193.812,25.391,21.973,32.715,22.461,-408.203
1532485193.816,20.508,78.613,31.250,15.625,-5.859
1532485193.820,22.461,62.988,28.809,17.090,789.062
1532485193.824,28.809,-9.277,24.414,22.949,48.340
1532485193.828,28.809,16.113,26.855,17.090,-395.996
1532485193.832,32.227,34.180,28.809,23.438,-460.938
1532485193.836,35.156,58.594,23.926,30.273,-324.219
1532485193.840,35.645,35.645,29.297,32.715,-34.180
1532485193.844,36.621,21.973,35.645,32.227,-254.395
1532485193.848,34.668,64.453,32.715,23.438,42.480
1532485193.851,34.668,27.344,33.203,24.902,-126.953
1532485193.855,33.691,41.992,33.691,31.738,-230.469
1532485193.859,28.320,78.613,32.227,30.273,751.465
1532485193.863,23.926,0.488,33.203,18.555,216.309
1532485193.867,27.832,10.254,31.250,15.137,-537.598
1532485193.871,34.180,31.738,28.809,19.531,-516.113
1532485193.875,31.250,30.273,28.809,19.043,-310.059
1532485193.879,31.738,23.438,31.738,16.602,25.391
1532485193.883,30.273,13.672,31.250,11.719,-317.871
1532485193.887,32.227,33.203,31.250,25.391,-477.051
1532485193.890,31.738,32.227,31.738,36.133,-359.375
1532485193.894,27.832,63.965,27.832,33.691,147.949
1532485193.898,27.832,95.703,26.367,16.113,856.934
1532485193.902,23.926,19.043,29.785,16.113,207.031
1532485193.906,25.879,10.254,30.762,28.320,-387.207
1532485193.910,30.762,20.996,29.297,28.809,-385.742
1532485193.914,23.438,44.922,27.344,29.785,-382.324
1532485193.918,16.602,88.867,25.391,17.578,454.102
1532485193.922,24.902,25.391,26.367,18.555,109.863
1532485193.926,32.715,19.043,27.832,23.926,-417.480
1532485193.930,30.273,38.574,28.809,20.020,-354.492
1532485193.933,26.855,52.246,29.297,15.625,-463.867
1532485193.937,28.809,74.219,29.785,25.879,47.363
1532485193.941,29.785,54.199,30.273,36.621,341.797
1532485193.945,26.855,36.621,30.273,25.391,223.145
1532485193.949,27.344,19.531,29.785,18.555,-143.066
1532485193.953,26.367,27.344,29.297,27.344,-534.668
1532485193.957,22.461,94.727,27.344,34.180,277.344
1532485193.961,25.391,34.180,30.762,30.762,772.949
1532485193.965,27.832,-9.766,34.668,30.273,-202.148
1532485193.969,25.879,29.785,32.715,31.738,-552.246
1532485193.972,27.344,26.855,32.715,31.250,-474.121
1532485193.976,27.832,58.105,35.645,31.738,-66.406
1532485193.980,26.855,32.227,37.109,24.902,-62.500
1532485193.984,26.367,32.227,35.645,26.367,-476.562
1532485193.988,23.926,67.383,33.691,35.156,37.598
1532485193.992,23.926,2.930,33.691,31.738,17.090
1532485193.996,19.531,41.504,33.203,22.949,-13.184
1532485194.000,20.508,80.078,32.715,17.578,762.695
1532485194.004,29.297,0.977,36.133,26.855,2.930
1532485194.008,31.250,10.742,39.551,37.109,-484.375
1532485194.012,27.344,21.973,39.062,33.203,-417.480
1532485194.015,19.043,38.574,36.133,28.320,-390.137
1532485194.019,18.066,29.785,31.738,25.391,-157.715
1532485194.023,24.414,15.137,30.762,28.809,-328.613
1532485194.027,22.949,24.414,33.691,35.645,-350.586
1532485194.031,15.625,30.762,34.180,38.086,-428.711
1532485194.035,12.695,70.801,34.180,32.715,-11.230
1532485194.039,15.137,85.449,33.203,32.227,837.891
1532485194.043,16.113,1.953,33.203,39.062,262.695
1532485194.047,10.742,3.418,30.762,28.809,-427.734
1532485194.051,9.277,36.133,27.344,23.926,-559.570
1532485194.055,14.160,35.645,26.367,35.645,-436.035
1532485194.058,13.184,21.973,26.367,39.551,44.922
1532485194.062,13.672,16.113,28.809,32.715,-231.445
1532485194.066,17.090,38.086,30.273,28.320,-476.562
1532485194.070,19.043,35.156,27.344,20.996,-476.562
1532485194.074,20.508,41.016,25.879,23.438,-295.898
1532485194.078,20.508,46.387,31.250,31.250,201.172
1532485194.082,20.996,55.664,31.250,25.391,222.168
1532485194.086,13.184,57.129,28.320,20.508,100.586
1532485194.090,12.695,23.926,27.344,22.461,-160.156
1532485194.094,20.508,34.180,27.344,31.250,-323.242
1532485194.097,18.066,101.562,30.273,31.738,591.797
1532485194.101,19.043,28.320,30.273,23.438,591.797
1532485194.105,22.461,-5.371,32.227,27.344,-322.266
1532485194.109,23.926,25.879,34.180,29.785,-387.695
1532485194.113,21.973,33.691,30.273,24.414,-386.719
1532485194.117,21.973,70.801,27.832,23.438,-14.648
1532485194.121,30.273,36.621,27.832,27.344,-143.066
1532485194.125,28.809,26.367,29.297,34.180,-377.441
1532485194.129,24.414,53.711,31.250,35.156,143.066
1532485194.133,28.320,39.551,31.738,35.156,4.883
1532485194.137,28.809,76.172,33.203,32.227,168.945
1532485194.140,29.785,45.410,35.645,30.273,777.832
1532485194.144,36.133,-13.184,38.086,27.344,-37.598
1532485194.148,36.133,21.484,36.133,19.531,-511.230
1532485194.152,38.574,31.250,33.203,20.508,-557.129
1532485194.156,41.504,51.758,31.738,27.344,-261.230
1532485194.160,37.598,25.879,30.762,25.879,-24.902
1532485194.164,33.691,20.508,31.738,14.648,-362.793
1532485194.168,32.715,34.180,31.250,17.090,-478.516
1532485194.172,34.668,31.738,29.297,24.414,-464.844
1532485194.176,33.203,57.129,29.297,27.832,191.406
1532485194.180,32.227,15.137,32.715,25.391,554.199
1532485194.183,28.809,-4.395,32.227,17.090,-234.375
1532485194.187,29.297,26.367,28.809,18.555,-433.594
1532485194.191,35.156,11.230,27.832,30.273,-401.855
1532485194.195,32.227,36.621,24.902,28.320,-173.340
1532485194.199,26.367,49.316,21.973,17.090,567.871
1532485194.203,23.926,1.953,24.414,22.949,-57.617
1532485194.207,22.461,12.207,25.879,25.391,-433.594
1532485194.211,17.090,19.531,26.367,25.879,-317.871
1532485194.215,22.949,27.344,27.344,27.832,-318.359
1532485194.219,35.156,32.715,28.320,24.414,-12.695
1532485194.222,34.668,37.598,29.785,23.438,102.051
1532485194.226,30.273,14.160,31.250,24.902,77.637
1532485194.230,28.320,3.418,31.250,22.461,-309.082
1532485194.234,31.738,46.875,28.809,13.672,-395.508
1532485194.238,31.738,90.820,27.344,19.043,653.320
1532485194.242,35.156,0.000,29.297,19.043,502.930
1532485194.246,34.668,-8.301,28.809,17.090,-334.473
1532485194.250,33.691,31.738,26.855,25.879,-503.418
1532485194.254,36.133,39.062,25.879,21.973,-457.520
1532485194.258,32.227,49.805,25.879,27.344,129.395
1532485194.262,32.227,14.648,24.414,26.367,-94.238
1532485194.265,31.738,30.762,24.902,18.555,-458.008
1532485194.269,29.785,54.199,24.902,23.438,-87.402
1532485194.273,31.738,33.691,25.391,25.879,-20.996
1532485194.277,29.297,78.125,27.832,21.484,524.902
1532485194.281,26.855,26.367,27.832,15.137,666.016
1532485194.285,31.738,-11.230,27.344,10.742,-323.242
1532485194.289,37.109,24.414,27.832,16.602,-508.301
1532485194.293,36.133,23.926,28.320,19.531,-405.273
1532485194.297,39.551,64.453,29.785,23.926,-52.734
1532485194.301,44.434,37.598,33.691,29.297,-166.016
1532485194.305,43.457,20.020,35.156,35.156,-480.469
1532485194.308,42.969,28.320,34.668,36.621,-321.777
1532485194.312,35.156,31.738,32.715,23.926,-375.000
1532485194.316,27.344,68.359,32.227,23.438,140.625
1532485194.320,33.691,22.949,33.203,32.227,393.066
1532485194.324,37.598,1.465,32.715,31.738,-231.934
1532485194.328,34.180,28.809,32.227,25.391,-287.109
1532485194.332,33.691,25.879,33.691,22.949,-477.051
1532485194.336,35.645,70.312,32.227,21.973,-235.840
1532485194.340,37.598,65.430,30.273,29.297,696.289
1532485194.344,41.016,0.000,30.762,36.133,100.586
1532485194.347,37.598,26.855,30.273,23.926,-448.730
1532485194.351,33.691,42.480,29.297,17.578,-479.492
1532485194.355,32.227,38.574,26.855,29.297,-360.352
1532485194.359,32.227,26.855,27.832,35.156,25.879
1532485194.363,30.762,43.945,28.320,27.832,168.945
1532485194.367,32.227,37.598,25.391,17.090,29.785
1532485194.371,34.180,13.184,26.367,14.160,-417.969
1532485194.375,29.297,41.016,23.438,26.367,-235.840
1532485194.379,26.855,85.938,22.949,25.879,756.836
1532485194.383,28.809,16.113,26.855,21.973,248.535
1532485194.387,28.809,2.930,24.902,29.297,-506.348
1532485194.390,30.762,24.902,22.461,32.227,-445.801
1532485194.394,27.344,24.902,22.949,27.344,-296.875
1532485194.398,22.949,30.762,26.367,24.414,48.828
1532485194.402,24.902,21.484,28.320,25.879,-331.543
1532485194.406,26.855,41.016,27.832,27.832,-424.805
1532485194.410,27.832,49.316,28.320,31.250,81.543
1532485194.414,30.762,46.875,34.180,42.480,82.520
1532485194.418,30.762,97.656,36.133,36.621,638.672
1532485194.422,31.738,21.973,35.156,29.785,532.715
1532485194.426,33.203,-8.789,34.180,33.691,-296.875
1532485194.429,28.809,27.832,31.738,30.273,-446.289
1532485194.433,26.855,44.922,30.762,28.320,-501.465
1532485194.437,31.738,63.477,28.809,28.809,-20.020
1532485194.441,37.109,24.902,29.785,35.645,-98.633
1532485194.445,34.668,24.414,30.273,27.832,-378.418
1532485194.449,30.762,33.691,27.344,16.113,-400.879
1532485194.453,32.715,44.434,30.273,26.367,-525.391
1532485194.457,30.762,86.426,33.203,33.691,335.449
1532485194.461,30.762,16.113,33.691,36.133,623.047
1532485194.465,29.785,-2.441,33.203,36.621,-285.645
1532485194.469,27.832,36.133,29.297,27.344,-505.371
1532485194.472,30.273,27.832,29.785,34.668,-487.793
1532485194.476,28.320,59.082,31.250,38.574,-15.625
1532485194.480,26.367,30.762,30.762,32.715,121.094
1532485194.484,28.320,19.531,34.180,33.691,-418.945
1532485194.488,31.738,35.156,36.133,31.250,-413.574
1532485194.492,28.809,26.367,32.715,20.996,-323.730
1532485194.496,28.320,47.363,31.738,24.902,-117.676
1532485194.500,30.273,42.969,30.273,28.320,-15.137
1532485194.504,27.832,47.852,32.715,29.785,72.754
1532485194.508,29.785,30.762,37.109,36.133,187.988
1532485194.512,35.645,2.441,36.133,40.527,-270.996
1532485194.515,36.133,55.664,35.156,31.738,-199.219
1532485194.519,32.227,90.820,33.203,24.902,739.258
1532485194.523,38.086,13.184,34.180,39.062,234.863
1532485194.527,35.156,5.371,35.645,38.574,-369.629
1532485194.531,25.879,34.668,35.645,23.438,-413.574
1532485194.535,24.414,44.922,34.180,24.414,-409.180
1532485194.539,23.438,35.645,32.715,29.785,-15.137
1532485194.543,23.438,17.578,31.250,27.344,-201.660
1532485194.547,22.461,36.133,30.273,21.484,-324.707
1532485194.551,24.902,54.199,30.273,13.672,-50.293
1532485194.554,27.344,62.988,31.738,24.902,193.848
1532485194.558,27.344,81.055,33.203,31.738,805.176
1532485194.562,30.762,7.812,34.668,26.367,354.492
1532485194.566,30.273,11.719,36.133,21.973,-443.848
1532485194.570,30.273,39.551,33.691,17.578,-550.781
1532485194.574,25.391,40.039,32.227,32.227,-369.141
1532485194.578,22.461,43.945,33.203,36.621,125.977
1532485194.582,25.391,28.809,31.738,26.367,-225.586
1532485194.586,28.320,44.434,32.227,22.461,-497.070
1532485194.590,31.738,36.621,30.762,25.391,-393.555
1532485194.594,30.762,43.945,29.785,27.344,-299.316
1532485194.597,24.902,79.590,31.738,16.602,480.957
1532485194.601,22.461,35.156,33.691,10.254,298.340
1532485194.605,24.414,25.391,35.156,17.578,-335.938
1532485194.609,23.438,22.461,35.645,21.484,-231.934
1532485194.613,23.438,17.578,34.180,16.113,-358.887
1532485194.617,23.438,84.961,31.250,15.625,302.246
1532485194.621,29.785,24.902,34.668,29.297,550.293
1532485194.625,34.668,-3.418,37.109,21.484,-209.961
1532485194.629,33.203,33.691,37.109,10.742,-337.891
1532485194.633,27.344,39.062,36.621,15.625,-434.570
1532485194.637,25.391,62.500,33.691,24.414,-152.344
1532485194.640,30.762,39.551,31.738,30.273,-3.906
1532485194.644,26.855,44.922,31.738,29.785,122.559
1532485194.648,22.461,36.621,30.273,20.508,132.324
1532485194.652,31.250,16.602,31.250,24.414,-468.750
1532485194.656,32.715,71.289,31.738,31.738,-83.984
1532485194.660,29.785,61.035,30.273,23.438,816.895
1532485194.664,35.645,-8.301,32.227,20.508,50.781
1532485194.668,34.180,21.484,32.715,23.438,-536.133
1532485194.672,35.156,34.180,30.273,26.367,-478.516
1532485194.676,34.668,35.645,28.320,28.320,-240.723
1532485194.679,29.785,25.391,27.344,26.367,14.648
1532485194.683,27.344,22.949,25.879,27.832,-374.512
1532485194.687,29.785,48.828,26.367,29.785,-413.086
1532485194.691,27.344,49.805,25.391,26.367,39.062
1532485194.695,21.973,48.828,26.855,26.855,363.770
1532485194.699,22.949,74.219,27.344,22.949,813.965
1532485194.703,30.273,12.695,28.809,19.531,162.598
1532485194.707,27.344,6.348,29.785,25.391,-440.918
1532485194.711,22.949,23.926,28.320,30.273,-412.109
1532485194.715,23.926,30.762,28.320,27.344,-367.676
1532485194.719,25.879,29.785,27.832,25.879,-65.918
1532485194.722,28.809,19.043,27.344,29.297,-301.270
1532485194.726,26.367,26.855,28.809,30.273,-333.496
1532485194.730,22.949,25.879,30.273,20.996,-375.977
1532485194.734,23.438,54.199,30.762,13.672,-413.574
1532485194.738,20.508,68.848,29.297,15.137,424.316
1532485194.742,20.996,16.113,30.273,31.738,345.703
1532485194.746,28.320,14.160,34.668,41.016,-245.605
1532485194.750,36.621,25.391,33.691,35.156,-405.762
1532485194.754,29.785,39.062,28.320,24.902,-425.293
1532485194.758,17.090,93.750,26.855,14.160,538.086
1532485194.762,22.461,29.297,26.855,20.996,604.980
1532485194.765,30.273,1.465,28.320,30.273,-239.258
1532485194.769,30.762,25.391,31.738,31.738,-492.676
1532485194.773,28.320,29.297,31.250,20.020,-384.766
1532485194.777,21.484,44.434,29.297,19.531,123.047
1532485194.781,18.555,20.508,33.691,28.320,-64.453
1532485194.785,18.555,50.293,36.133,25.879,-45.898
1532485194.789,21.484,27.832,34.668,33.203,83.008
1532485194.793,18.066,5.859,33.203,34.180,-315.918
1532485194.797,12.207,68.848,32.227,22.461,169.434
1532485194.801,19.043,31.250,32.715,17.090,272.461
1532485194.804,21.973,4.883,34.180,27.344,-372.070
1532485194.808,21.484,25.391,33.203,25.879,-286.133
1532485194.812,23.438,17.578,34.180,17.090,-396.484
1532485194.816,19.531,73.730,32.715,19.043,-38.086
1532485194.820,24.414,47.363,29.297,25.391,635.742
1532485194.824,27.344,-9.277,33.203,35.645,-88.379
1532485194.828,25.391,33.691,34.180,33.203,-341.309
1532485194.832,22.461,51.758,32.227,20.996,-47.852
1532485194.836,21.484,65.430,32.227,22.949,207.031
1532485194.840,23.926,69.336,31.738,28.809,776.855
1532485194.844,27.832,-0.977,34.180,35.156,130.859
1532485194.847,27.344,12.695,33.691,39.551,-492.676
1532485194.851,26.855,40.039,34.180,33.203,-571.777
1532485194.855,33.203,41.016,35.156,34.668,-450.195
1532485194.859,37.109,27.832,36.133,38.574,-63.477
1532485194.863,34.668,25.391,39.062,34.180,-316.895
1532485194.867,34.180,48.340,38.086,33.691,-503.906
1532485194.871,36.133,43.457,36.133,36.621,-511.719
1532485194.875,36.621,38.574,37.598,40.527,-316.895
1532485194.879,32.227,47.852,37.109,36.133,265.625
1532485194.883,26.367,38.086,34.668,28.320,74.707
1532485194.886,23.926,38.574,34.668,32.227,-353.027
1532485194.890,22.461,24.414,35.645,36.621,-392.090
1532485194.894,17.578,39.551,36.621,33.691,-234.863
1532485194.898,10.254,101.562,37.598,27.344,701.660
1532485194.902,13.184,22.949,40.527,28.809,369.141
1532485194.906,13.672,-0.977,39.062,26.367,-399.902
1532485194.910,12.695,22.949,35.645,24.414,-387.695
1532485194.914,17.090,38.574,35.156,30.273,-335.938
1532485194.918,22.461,47.363,33.691,25.391,32.715
1532485194.922,25.391,27.344,35.156,21.973,-212.891
1532485194.926,18.555,54.199,33.691,25.391,30.273
1532485194.929,12.207,21.484,32.715,23.926,156.250
1532485194.933,15.137,20.996,33.691,16.602,-441.895
1532485194.937,16.602,100.586,30.762,12.207,378.906
1532485194.941,18.555,23.438,33.691,18.066,720.215
1532485194.945,21.484,-16.602,34.180,15.137,-222.168
1532485194.949,22.461,29.785,31.738,7.324,-502.930
1532485194.953,26.367,37.598,34.668,16.113,-547.363
1532485194.957,27.344,61.035,35.645,26.855,-67.383
1532485194.961,31.738,24.902,35.156,34.180,-15.625
1532485194.965,30.273,22.461,39.062,27.344,-432.129
1532485194.969,28.320,42.969,37.109,20.996,-413.574
1532485194.972,32.227,37.109,29.297,23.926,-139.648
1532485194.976,30.273,64.453,31.250,23.438,437.012
1532485194.980,26.367,48.340,32.227,19.043,796.875
1532485194.984,28.809,0.000,30.762,22.949,-119.141
1532485194.988,33.691,21.973,31.250,30.762,-548.828
1532485194.992,38.574,28.320,33.691,25.391,-430.176
1532485194.996,38.086,48.828,36.133,25.879,-239.746
1532485195.000,39.551,44.434,38.574,24.414,-126.953
1532485195.004,42.480,32.715,37.109,29.785,-441.895
1532485195.008,42.969,41.016,37.109,44.922,-364.746
1532485195.011,40.527,31.738,40.527,35.156,-354.492
1532485195.015,36.621,51.270,36.621,24.902,-293.457
1532485195.019,41.016,64.941,35.645,29.785,229.004
1532485195.023,45.410,32.715,39.062,40.527,77.148
1532485195.027,44.922,31.250,39.551,40.527,-202.637
1532485195.031,48.340,32.715,40.039,30.273,-381.836
1532485195.035,47.852,58.105,38.086,33.691,-311.523
1532485195.039,41.992,98.145,37.109,39.551,711.426
1532485195.043,41.504,7.812,37.598,39.551,353.516
1532485195.047,39.551,0.000,38.574,33.691,-379.883
1532485195.051,29.297,38.574,40.527,28.320,-496.582
1532485195.054,33.691,40.527,39.062,25.879,-384.277
1532485195.058,35.645,21.973,36.621,26.367,91.309
1532485195.062,28.320,13.184,34.668,28.320,-174.805
1532485195.066,23.926,62.012,31.250,20.508,-26.367
1532485195.070,26.367,29.297,32.227,17.090,9.277
1532485195.074,29.297,31.250,35.156,20.508,-266.602
1532485195.078,22.461,96.680,33.691,12.695,670.898
1532485195.082,21.484,20.020,33.203,9.277,491.699
1532485195.086,27.344,9.766,35.156,20.020,-433.105
1532485195.090,28.320,37.109,36.621,33.203,-470.703
1532485195.094,21.484,31.250,34.180,23.438,-334.961
1532485195.097,18.555,53.711,35.156,15.137,98.633
1532485195.101,20.996,31.250,36.621,26.367,-191.406
1532485195.105,23.926,29.297,36.133,29.785,-480.957
1532485195.109,28.320,34.668,36.133,30.273,-258.789
1532485195.113,27.344,50.781,35.156,26.367,-8.301
1532485195.117,27.344,88.379,34.668,16.113,589.844
1532485195.121,36.133,31.738,38.574,21.484,692.871
1532485195.125,37.598,-6.836,39.551,31.738,-150.391
1532485195.129,33.691,25.391,35.645,32.715,-423.828
1532485195.133,34.180,38.086,36.133,28.320,-510.742
1532485195.136,32.715,70.312,37.598,27.344,-233.398
1532485195.140,32.227,41.016,38.086,32.715,-75.684
1532485195.144,31.250,24.414,36.621,30.273,-346.191
1532485195.148,26.855,39.551,31.250,20.508,-384.277
1532485195.152,31.738,36.133,32.715,25.879,-524.414
1532485195.156,34.668,63.965,36.133,38.574,-204.102
1532485195.160,31.738,56.152,36.133,35.156,393.555
1532485195.164,31.250,18.066,36.133,30.762,68.848
1532485195.168,28.809,32.715,37.598,30.273,-338.379
1532485195.172,30.762,28.320,36.621,29.785,-456.543
1532485195.176,30.273,55.176,35.156,26.367,-130.859
1532485195.179,26.855,92.773,32.715,26.367,752.930
1532485195.183,35.156,41.992,32.715,26.367,262.695
1532485195.187,38.574,21.484,31.738,31.250,-378.418
1532485195.191,34.668,27.832,29.785,36.621,-410.645
1532485195.195,35.156,44.434,31.250,35.156,-255.371
1532485195.199,38.574,41.016,33.203,40.527,-63.477
1532485195.203,35.156,44.434,33.691,41.992,-372.070
1532485195.207,30.762,73.242,33.203,35.156,28.320
1532485195.211,31.738,38.086,33.691,27.344,190.430
1532485195.215,30.762,43.945,32.227,18.066,-136.230
1532485195.218,33.203,107.422,31.250,21.484,682.617
1532485195.222,36.133,27.344,32.227,28.320,347.168
1532485195.226,33.203,5.859,33.203,33.691,-388.184
1532485195.230,29.297,39.062,34.668,29.297,-462.402
1532485195.234,30.762,52.734,34.668,18.066,-474.609
1532485195.238,31.738,50.781,34.180,27.344,-15.137
1532485195.242,32.715,27.344,35.156,38.086,-167.480
1532485195.246,31.738,39.551,34.668,27.344,-391.113
1532485195.250,28.809,50.781,34.180,18.555,-417.480
1532485195.254,28.809,75.684,35.645,30.762,-105.957
1532485195.258,25.879,97.656,36.133,30.762,769.531
1532485195.261,22.949,12.695,38.574,26.855,577.148
1532485195.265,21.973,2.441,41.992,32.227,-345.215
1532485195.269,24.414,40.039,42.969,31.250,-564.941
1532485195.273,29.297,35.645,40.527,33.691,-461.426
1532485195.277,29.785,58.105,41.504,37.109,58.594
1532485195.281,27.344,34.668,43.457,26.367,-116.699
1532485195.285,28.809,36.133,40.527,16.602,-525.391
1532485195.289,32.227,40.527,39.551,28.320,-409.668
1532485195.293,32.227,31.738,41.016,29.785,-360.352
1532485195.297,28.809,68.359,41.504,27.832,4.883
1532485195.301,23.926,62.012,39.551,22.949,273.438
1532485195.304,27.344,32.227,37.109,21.484,12.207
1532485195.308,31.738,28.809,38.574,32.715,-151.855
1532485195.312,29.785,23.926,39.062,31.250,-381.836
1532485195.316,25.391,89.355,35.645,22.949,-29.297
1532485195.320,30.762,86.914,34.180,22.949,781.738
1532485195.324,37.109,4.395,37.598,23.438,64.941
1532485195.328,34.180,29.297,40.039,19.043,-393.066
1532485195.332,30.762,42.969,35.645,15.625,-435.059
1532485195.336,29.297,57.129,32.227,22.461,-346.191
1532485195.340,34.668,40.039,35.156,38.574,-54.688
1532485195.343,35.645,30.273,38.574,40.039,-241.699
1532485195.347,33.203,72.754,39.551,34.180,100.586
1532485195.351,34.668,37.109,39.551,35.156,-57.617
1532485195.355,32.715,47.363,36.133,30.273,-247.070
1532485195.359,31.250,90.820,37.109,27.344,738.770
1532485195.363,37.109,13.672,39.551,37.109,253.418
1532485195.367,37.598,17.578,37.598,39.551,-521.973
1532485195.371,41.504,48.340,39.551,37.598,-535.156
1532485195.375,41.016,37.109,39.551,36.133,-334.473
1532485195.379,37.109,26.367,36.133,35.645,37.598
1532485195.383,37.109,28.809,38.574,38.574,-309.082
1532485195.386,40.527,40.527,41.992,35.645,-503.418
1532485195.390,42.480,37.598,41.504,36.621,-378.418
1532485195.394,38.574,65.918,41.504,40.527,121.094
1532485195.398,34.668,90.820,39.551,23.438,865.723
1532485195.402,39.551,15.625,38.574,21.973,304.688
1532485195.406,41.504,8.789,39.062,32.715,-414.062
1532485195.410,39.062,29.297,37.109,34.668,-428.223
1532485195.414,35.156,35.156,34.668,33.691,-390.137
1532485195.418,34.180,50.293,34.668,30.273,-6.836
1532485195.422,36.133,29.785,36.133,36.621,-243.652
1532485195.426,34.180,29.297,38.086,42.969,-397.949
1532485195.429,29.785,23.438,37.109,36.133,-341.797
1532485195.433,24.902,44.434,33.203,31.250,-442.871
1532485195.437,24.902,73.730,32.715,24.902,45.410
1532485195.441,26.855,55.664,34.668,22.461,376.953
1532485195.445,26.855,37.109,38.574,21.484,218.262
1532485195.449,23.438,26.855,40.527,15.625,-168.457
1532485195.453,23.926,31.250,41.016,19.531,-538.574
1532485195.457,24.414,97.168,39.062,22.461,208.496
1532485195.461,25.879,46.875,36.621,12.695,792.969
1532485195.465,28.320,-6.348,38.086,11.719,-139.160
1532485195.468,26.855,37.598,35.156,12.207,-530.762
1532485195.472,27.344,43.945,32.715,19.531,-475.586
1532485195.476,23.926,66.406,33.203,34.668,-87.891
1532485195.480,22.461,41.016,34.180,30.273,-28.809
1532485195.484,21.973,41.504,35.156,23.926,-443.359
1532485195.488,19.043,75.195,33.691,30.762,43.945
1532485195.492,20.508,20.996,36.621,31.738,42.969
1532485195.496,19.043,53.711,39.062,35.645,-26.367
1532485195.500,12.207,87.402,33.203,31.738,762.695
1532485195.504,17.578,7.812,34.668,29.785,43.457
1532485195.508,19.531,18.555,36.133,38.574,-476.074
1532485195.511,15.625,40.039,37.109,37.598,-383.301
1532485195.515,12.695,50.293,36.133,22.461,-361.328
1532485195.519,10.742,39.551,34.180,20.996,-142.578
1532485195.523,13.184,28.320,33.691,26.855,-312.500
1532485195.527,15.137,36.133,33.691,23.926,-324.707
1532485195.531,14.648,40.527,33.203,23.926,-394.043
1532485195.535,16.113,83.496,32.227,25.391,-14.648
1532485195.539,17.090,95.703,32.715,27.832,836.426
1532485195.543,22.949,12.695,33.203,40.039,293.457
1532485195.547,25.879,18.555,29.785,30.273,-392.090
1532485195.551,23.438,45.410,29.785,20.508,-531.738
1532485195.554,20.020,46.387,30.762,33.203,-435.059
1532485195.558,21.973,41.504,31.250,37.109,60.547
1532485195.562,19.531,28.809,31.250,27.832,-195.801
1532485195.566,13.184,43.945,30.762,25.391,-453.125
1532485195.570,16.602,45.410,32.227,34.668,-461.426
1532485195.574,19.043,43.945,33.203,32.715,-306.641
1532485195.578,14.648,46.387,32.227,21.484,211.426
1532485195.582,12.207,56.641,31.250,17.578,270.996
1532485195.586,12.695,43.457,30.762,18.066,0.488
1532485195.590,14.648,20.020,30.273,19.531,-292.480
1532485195.593,12.207,43.457,32.227,28.320,-261.230
1532485195.597,11.230,82.520,33.203,27.832,451.172
1532485195.601,16.602,37.598,31.738,25.879,103.516
1532485195.605,20.508,49.805,31.738,29.785,-280.273
1532485195.609,17.578,41.992,32.715,35.645,-31.250
1532485195.613,13.184,25.879,34.180,31.250,-356.445
1532485195.617,11.719,105.957,31.738,14.160,297.852
1532485195.621,22.461,45.898,32.715,12.207,749.512
1532485195.625,20.020,-5.859,33.691,26.855,-111.816
1532485195.629,10.742,48.340,31.738,19.531,71.777
1532485195.633,18.066,23.926,33.691,8.789,-72.266
1532485195.636,20.508,75.195,30.762,20.508,12.695
1532485195.640,18.066,61.523,29.297,26.367,776.855
1532485195.644,18.555,-18.066,33.203,16.602,-33.691
1532485195.648,17.578,20.020,33.203,13.672,-543.457
1532485195.652,20.020,34.668,33.691,14.160,-596.680
1532485195.656,20.020,49.316,33.691,20.020,-333.984
1532485195.660,20.020,26.855,33.203,26.855,-50.781
1532485195.664,22.461,18.555,33.203,22.461,-373.535
1532485195.668,23.438,41.504,30.762,16.602,-488.281
1532485195.672,28.320,33.203,31.250,33.203,-505.859
1532485195.675,24.902,63.477,32.227,40.527,83.008
1532485195.679,18.066,75.684,32.715,24.414,849.609
1532485195.683,24.902,10.254,35.645,30.762,57.617
1532485195.687,29.785,12.695,34.180,32.715,-549.316
1532485195.691,25.879,32.227,32.227,26.855,-443.848
1532485195.695,25.391,33.203,32.715,23.926,-307.617
1532485195.699,25.879,29.785,32.227,11.719,-89.844
1532485195.703,24.902,25.879,30.273,19.531,-398.438
1532485195.707,24.902,28.809,30.762,27.344,-418.457
1532485195.711,26.855,26.855,32.715,20.508,-337.402
1532485195.715,26.855,41.504,32.715,14.648,-293.945
1532485195.718,26.855,47.363,35.645,20.020,23.926
1532485195.722,27.832,53.711,35.156,29.297,138.672
1532485195.726,29.785,58.594,33.203,28.809,355.957
1532485195.730,36.621,18.555,33.691,26.855,115.723
1532485195.734,35.645,33.691,33.691,26.855,-314.941
1532485195.738,31.738,103.027,33.203,27.832,621.094
1532485195.742,37.598,15.625,36.133,33.203,544.922
1532485195.746,33.691,-9.766,35.645,31.738,-323.242
1532485195.750,28.809,31.738,33.691,25.879,-505.859
1532485195.754,28.809,44.434,33.691,24.902,-489.746
1532485195.758,26.855,54.688,32.227,34.180,106.934
1532485195.761,27.344,15.137,34.180,32.227,-79.102
1532485195.765,21.973,33.203,36.621,25.879,-429.688
1532485195.769,22.949,66.406,36.621,30.762,-13.672
1532485195.773,26.855,47.363,37.109,38.574,68.359
1532485195.777,20.508,80.566,39.062,28.320,523.438
1532485195.781,17.090,31.250,38.574,18.066,683.105
1532485195.785,20.508,-3.418,36.621,23.926,-310.547
1532485195.789,23.438,31.250,36.133,27.832,-544.922
1532485195.793,22.461,33.203,36.133,24.414,-421.875
1532485195.797,20.508,64.453,36.621,22.461,-94.238
1532485195.800,21.973,39.062,36.621,26.367,-163.574
1532485195.804,24.414,27.344,35.645,25.879,-485.352
1532485195.808,26.367,34.668,35.645,27.344,-333.496
1532485195.812,26.855,31.250,33.691,24.902,-389.648
1532485195.816,22.949,86.914,28.320,13.672,154.297
1532485195.820,24.902,69.824,28.320,14.160,832.031
1532485195.824,30.273,0.488,31.738,18.555,22.949
1532485195.828,24.902,18.555,32.227,12.207,-420.410
1532485195.832,24.414,34.180,30.762,16.113,-471.191
1532485195.836,31.250,57.129,32.227,27.832,-416.504
1532485195.840,32.227,40.527,31.250,29.785,-104.004
1532485195.843,26.367,20.996,31.250,31.738,-275.391
1532485195.847,20.020,33.203,29.785,22.461,-377.930
1532485195.851,24.414,39.062,27.344,19.043,-471.680
1532485195.855,28.320,49.805,29.785,21.484,-339.844
1532485195.859,26.855,34.668,32.227,25.391,58.105
1532485195.863,20.020,41.992,27.832,27.832,190.430
1532485195.867,20.020,49.316,25.879,20.508,175.781
1532485195.871,32.227,17.578,32.227,28.809,-275.879
1532485195.875,35.645,44.434,33.203,38.086,-229.980
1532485195.879,31.250,93.750,31.250,31.250,765.625
1532485195.883,35.645,20.020,34.180,32.227,285.156
1532485195.886,37.598,5.371,33.691,28.320,-482.910
1532485195.890,37.109,24.902,33.691,30.762,-433.594
1532485195.894,33.203,26.855,33.203,37.109,-271.484
1532485195.898,26.855,34.180,29.785,23.926,96.680
1532485195.902,28.320,25.391,33.691,22.949,-298.828
1532485195.906,29.785,44.922,36.133,28.809,-421.387
1532485195.910,24.902,41.016,30.273,28.809,119.141
1532485195.914,22.949,28.809,29.785,28.320,68.848
1532485195.918,20.020,85.449,30.273,19.531,605.957
1532485195.922,22.949,18.555,30.273,16.602,575.195
1532485195.925,20.020,-10.742,30.762,21.973,-273.438
1532485195.929,14.160,24.414,28.809,20.996,-416.504
1532485195.933,10.254,39.062,26.855,19.043,-485.840
1532485195.937,7.324,68.359,23.926,15.625,-41.992
1532485195.941,10.254,35.156,23.438,18.066,-99.121
1532485195.945,16.113,32.227,24.414,25.879,-365.723
1532485195.949,8.301,35.645,30.762,25.879,-377.441
1532485195.953,-5.859,38.574,33.691,9.277,-516.113
1532485195.957,-10.254,76.172,33.203,11.230,279.785
1532485195.961,-3.418,16.602,33.203,25.879,604.980
1532485195.965,6.348,-0.977,29.785,19.531,-234.863
1532485195.968,7.324,38.086,26.367,8.301,-464.844
1532485195.972,9.277,35.156,28.320,17.090,-496.094
1532485195.976,11.719,62.988,29.297,27.832,-15.137
1532485195.980,10.742,35.645,28.809,21.973,270.020
1532485195.984,16.602,25.391,32.715,25.879,-365.234
1532485195.988,24.902,44.434,32.227,31.738,-458.984
1532485195.992,23.926,34.668,31.738,36.133,-348.633
1532485195.996,19.043,38.574,31.250,32.227,-151.855
1532485196.000,19.531,40.039,30.273,23.438,-29.297
1532485196.004,23.926,55.176,30.762,28.809,45.898
1532485196.008,26.855,35.156,32.715,40.039,153.809
1532485196.011,27.832,6.348,33.691,36.133,-269.531
1532485196.015,29.297,58.594,31.738,24.902,-207.031
1532485196.019,29.785,91.797,31.738,26.367,734.863
1532485196.023,31.738,13.672,33.203,35.645,230.957
1532485196.027,28.320,24.414,30.762,34.668,-210.938
1532485196.031,23.438,31.738,29.297,23.926,-232.910
1532485196.035,25.391,30.762,32.227,21.973,-410.645
1532485196.039,26.367,30.762,32.715,30.273,-24.902
1532485196.043,21.484,12.207,31.250,35.645,-214.355
1532485196.047,19.531,44.922,32.715,32.715,-333.984
1532485196.050,20.020,65.430,32.227,31.738,-49.805
1532485196.054,18.555,48.828,28.809,26.855,34.180
1532485196.058,14.648,81.055,30.273,22.949,702.637
1532485196.062,18.555,12.695,31.738,27.344,422.852
1532485196.066,18.066,1.465,27.832,16.113,-450.684
1532485196.070,16.602,42.969,29.297,22.461,-544.434
1532485196.074,19.043,48.340,30.762,34.180,-220.703
1532485196.078,20.020,33.203,31.250,34.180,193.848
1532485196.082,19.043,20.020,31.250,34.180,-226.074
1532485196.086,21.484,44.434,31.738,16.602,-507.324
1532485196.090,25.391,31.250,33.203,19.043,-399.414
1532485196.093,21.973,33.203,34.668,33.691,-359.863
1532485196.097,20.996,98.633,33.691,20.996,501.953
1532485196.101,31.738,35.645,31.738,24.414,462.402
1532485196.105,37.109,11.230,32.715,36.621,-383.789
1532485196.109,33.203,34.668,36.621,39.062,-373.535
1532485196.113,31.250,36.621,35.645,37.109,-407.715
1532485196.117,32.715,87.402,33.691,31.738,20.996
1532485196.121,38.086,49.316,34.180,33.203,0.000
1532485196.125,41.016,27.344,33.203,34.180,-365.234
1532485196.129,37.109,35.156,32.715,27.344,-291.016
1532485196.132,29.297,41.992,32.715,25.391,-414.062
1532485196.136,30.762,71.777,32.715,27.344,-157.715
1532485196.140,31.250,43.945,31.738,32.715,5.859
1532485196.144,25.879,41.016,30.762,34.180,143.066
1532485196.148,26.367,37.109,35.156,34.180,195.312
1532485196.152,28.320,18.066,38.574,36.621,-404.297
1532485196.156,25.391,63.477,37.109,30.762,-105.957
1532485196.160,23.438,63.477,36.133,30.762,814.453
1532485196.164,26.367,-4.395,36.621,32.715,110.840
1532485196.168,26.367,21.973,35.645,23.438,-494.141
1532485196.172,26.367,37.598,35.645,37.598,-458.008
1532485196.175,25.391,45.410,37.109,41.504,-242.188
1532485196.179,22.949,38.086,38.086,34.180,40.527
1532485196.183,23.926,31.738,39.062,35.156,-340.820
1532485196.187,27.832,51.270,35.645,34.180,-412.109
1532485196.191,27.832,47.363,35.156,40.039,-13.672
1532485196.195,26.855,43.457,36.621,36.621,198.730
1532485196.199,25.391,83.008,32.715,29.297,751.953
1532485196.203,32.715,20.508,31.738,24.414,211.914
1532485196.207,36.133,8.301,32.227,26.367,-428.711
1532485196.211,31.250,31.250,30.762,34.668,-377.930
1532485196.215,26.855,38.574,28.320,32.227,-334.961
1532485196.218,28.809,41.992,28.809,27.832,-38.574
1532485196.222,33.691,28.320,30.762,29.785,-287.109
1532485196.226,30.273,23.926,30.273,33.691,-329.590
1532485196.230,25.391,19.043,31.250,25.879,-348.145
1532485196.234,21.484,45.898,33.203,21.484,-392.578
1532485196.238,25.879,71.777,32.227,27.832,401.855
1532485196.242,28.809,34.668,33.203,32.227,462.891
1532485196.246,20.020,10.254,35.645,35.645,-87.402
1532485196.250,14.648,17.578,34.180,23.926,-368.652
1532485196.254,17.578,39.551,31.738,18.555,-446.289
1532485196.257,17.578,87.891,32.227,24.414,504.883
1532485196.261,19.043,12.695,34.180,22.461,503.418
1532485196.265,18.555,-3.906,34.180,17.578,-342.773
1532485196.269,17.578,29.785,31.250,21.484,-479.492
1532485196.273,21.973,34.180,26.855,23.926,-390.137
1532485196.277,26.367,57.617,26.367,20.996,138.184
1532485196.281,24.902,32.715,29.297,25.391,-23.926
1532485196.285,23.438,48.828,30.273,25.391,-126.953
1532485196.289,27.344,38.574,30.273,24.414,94.238
1532485196.293,28.809,13.184,32.715,24.902,-302.734
1532485196.297,19.043,77.148,33.203,22.461,177.734
1532485196.300,14.160,51.758,32.715,22.949,784.668
1532485196.304,22.949,-4.883,34.180,26.855,-124.023
1532485196.308,23.926,23.926,31.738,27.832,-420.898
1532485196.312,19.531,25.879,29.297,32.227,-366.699
1532485196.316,19.043,56.641,29.785,24.414,-246.094
1532485196.320,24.414,42.480,28.809,19.531,-107.422
1532485196.324,26.367,15.625,24.414,22.949,-358.887
1532485196.328,21.973,34.180,23.438,22.461,-264.160
1532485196.332,19.043,51.758,26.367,18.555,-13.672
1532485196.336,16.602,75.684,26.855,14.160,240.234
1532485196.340,15.137,76.660,28.809,15.625,784.668
1532485196.343,14.648,-1.953,31.738,22.461,189.941
1532485196.347,12.207,10.254,31.738,11.719,-443.359
1532485196.351,12.695,41.504,29.297,6.348,-534.668
1532485196.355,16.113,39.062,28.809,17.090,-418.945
1532485196.359,17.090,24.414,30.273,23.438,-17.578
1532485196.363,15.137,22.461,29.785,19.531,-259.766
1532485196.367,13.672,40.527,28.809,14.648,-454.102
1532485196.371,18.555,40.527,31.250,19.043,-481.445
1532485196.375,18.066,40.527,31.250,17.578,-292.480
1532485196.379,14.648,47.852,30.762,16.602,336.426
1532485196.382,18.066,34.180,34.180,28.809,137.207
1532485196.386,20.020,36.133,32.715,26.367,-330.566
1532485196.390,21.973,33.691,32.227,21.484,-360.840
1532485196.394,18.066,46.875,30.273,26.855,-217.285
1532485196.398,10.254,93.262,27.344,16.602,697.754
1532485196.402,16.113,15.625,27.832,6.836,413.574
1532485196.406,18.066,1.953,26.855,12.695,-374.023
1532485196.410,13.184,23.926,27.344,22.949,-368.652
1532485196.414,13.672,36.621,25.391,22.949,-314.941
1532485196.418,16.602,58.105,23.438,18.066,47.363
1532485196.422,23.438,35.645,26.367,27.344,-187.500
1532485196.425,26.367,59.570,27.344,30.762,29.785
1532485196.429,23.438,46.875,24.414,24.414,330.078
1532485196.433,22.461,29.785,23.926,19.043,-280.273
1532485196.437,21.484,102.051,25.391,11.230,327.637
1532485196.441,22.461,26.367,25.391,13.184,745.117
1532485196.445,20.508,-15.625,23.926,20.996,-206.543
1532485196.449,16.113,55.176,23.926,19.043,-335.938
1532485196.453,19.043,43.457,26.367,24.414,-385.742
1532485196.457,20.508,61.035,26.855,30.762,-127.441
1532485196.461,21.973,35.645,27.832,34.668,-31.250
1532485196.464,25.391,23.438,28.320,32.715,-438.477
1532485196.468,32.715,47.852,25.391,32.715,-436.035
1532485196.472,40.527,49.316,24.414,40.527,-119.629
1532485196.476,30.762,64.453,23.926,20.508,411.133
1532485196.480,25.391,56.152,22.949,15.137,790.527
1532485196.484,32.715,10.254,24.902,29.297,-102.051
1532485196.488,30.762,29.297,28.320,30.273,-570.801
1532485196.492,26.367,37.109,30.762,32.715,-442.383
1532485196.496,24.414,47.363,27.832,28.809,-261.719
1532485196.500,21.973,40.039,28.809,20.996,-124.512
1532485196.504,21.973,32.715,30.762,28.320,-452.148
1532485196.507,31.250,38.574,30.273,34.668,-395.508
1532485196.511,31.738,25.391,30.273,29.297,-358.398
1532485196.515,31.250,45.410,31.738,24.902,-303.223
1532485196.519,34.668,62.500,32.227,27.832,207.031
1532485196.523,35.645,26.855,33.203,35.645,54.688
1532485196.527,30.762,18.555,32.715,34.668,-218.262
1532485196.531,25.391,24.902,30.762,27.344,-395.508
1532485196.535,28.320,56.152,28.809,20.020,-288.086
1532485196.539,36.621,59.082,30.762,20.996,562.500
1532485196.543,41.504,10.742,37.598,34.180,106.934
1532485196.547,34.668,34.668,39.551,37.109,-344.727
1532485196.550,31.250,40.039,37.109,33.691,-424.805
1532485196.554,28.809,52.246,33.691,29.785,-351.562
1532485196.558,22.461,93.750,32.227,27.832,657.227
1532485196.562,24.414,27.344,31.250,26.855,346.191
1532485196.566,26.367,40.039,31.250,24.414,12.695
1532485196.570,32.227,31.738,32.227,22.461,-27.344
1532485196.574,34.668,24.414,31.738,29.297,-361.328
1532485196.578,28.809,91.309,29.297,23.926,633.301
1532485196.582,30.762,17.090,30.273,20.020,520.996
1532485196.586,36.133,-1.465,29.297,26.855,-479.492
1532485196.589,37.598,25.391,31.738,31.250,-543.945
1532485196.593,34.180,29.297,31.250,31.250,-400.879
1532485196.597,26.367,53.223,27.832,23.438,41.992
1532485196.601,26.855,34.668,29.297,17.090,-215.332
1532485196.605,29.785,29.785,31.738,18.066,-539.062
1532485196.609,27.344,34.668,32.715,24.414,-289.062
1532485196.613,24.902,41.992,33.203,28.809,-48.828
1532485196.617,22.461,83.008,28.809,19.043,489.746
1532485196.621,24.902,56.152,27.832,20.996,861.816
1532485196.625,33.691,-8.789,32.715,38.086,-21.484
1532485196.629,32.227,12.207,31.738,27.344,-470.703
1532485196.632,28.809,30.762,27.832,16.113,-540.039
1532485196.636,26.367,62.988,27.344,17.090,-331.543
1532485196.640,31.738,39.062,28.809,23.438,-141.602
1532485196.644,34.180,14.160,25.879,24.902,-379.395
1532485196.648,25.879,27.832,24.414,23.438,-410.645
1532485196.652,27.344,33.691,24.902,19.043,-546.875
1532485196.656,24.414,57.129,25.879,12.695,-274.414
1532485196.660,26.367,51.758,26.367,26.367,345.703
1532485196.664,28.320,29.297,27.344,28.809,162.109
1532485196.668,25.391,37.598,28.320,6.836,-280.273
1532485196.672,29.785,28.809,30.273,20.508,-507.812
1532485196.675,30.273,56.152,27.832,36.133,-183.594
1532485196.679,25.879,80.078,26.855,20.508,757.324
1532485196.683,27.832,7.812,28.320,21.973,124.023
1532485196.687,31.738,11.719,26.367,31.250,-560.059
1532485196.691,30.762,29.297,26.855,26.367,-446.777
1532485196.695,30.762,32.715,29.297,22.461,-280.762
1532485196.699,33.691,31.738,31.250,26.855,-63.965
1532485196.703,31.738,36.621,30.273,28.809,-383.301
1532485196.707,30.762,63.965,31.250,29.297,32.227
1532485196.711,30.762,17.090,31.250,29.785,80.078
1532485196.714,29.785,33.691,26.855,20.996,-268.066
1532485196.718,26.855,99.609,24.414,16.602,675.293
1532485196.722,27.344,14.160,22.461,23.438,371.094
1532485196.726,31.738,-3.418,24.414,32.715,-380.371
1532485196.730,33.203,24.902,26.367,29.297,-448.730
1532485196.734,29.785,40.039,24.902,20.996,-473.145
1532485196.738,33.691,48.340,23.926,22.461,-7.812
1532485196.742,40.039,20.508,25.879,31.250,-162.109
1532485196.746,38.574,27.832,24.902,25.879,-397.461
1532485196.750,33.691,39.062,23.926,17.578,-416.016
1532485196.754,33.203,63.477,21.973,17.578,-180.664
1532485196.757,32.715,93.750,21.484,17.090,707.520
1532485196.761,30.762,14.160,26.367,15.137,619.629
1532485196.765,27.344,-3.418,26.367,17.090,-326.660
1532485196.769,24.902,32.227,22.461,19.043,-581.055
1532485196.773,31.250,33.203,23.438,18.555,-494.629
1532485196.777,33.691,59.082,24.902,19.531,24.902
1532485196.781,34.180,38.574,25.391,23.438,-106.934
1532485196.785,31.738,42.480,26.855,20.508,-527.832
1532485196.789,26.855,41.016,24.902,18.066,-422.363
1532485196.793,27.344,31.738,25.879,20.996,-373.535
1532485196.797,24.902,69.336,26.855,23.926,-18.066
1532485196.800,23.926,63.477,28.809,18.555,263.672
1532485196.804,28.320,27.344,30.762,17.090,-60.547
1532485196.808,27.832,28.320,30.273,22.949,-198.730
1532485196.812,26.855,22.461,33.691,20.996,-364.258
1532485196.816,24.902,79.102,34.668,18.555,-63.965
1532485196.820,23.438,87.402,32.227,19.531,774.414
1532485196.824,26.855,5.371,32.715,22.949,86.914
1532485196.828,26.367,22.461,33.203,17.090,-397.461
1532485196.832,25.391,42.969,32.227,11.230,-422.852
1532485196.836,24.414,51.270,32.227,17.090,-358.398
1532485196.839,26.367,30.762,32.715,21.484,-53.223
1532485196.843,28.320,21.973,30.273,27.832,-232.422
1532485196.847,21.973,58.594,27.344,23.926,48.828
1532485196.851,20.508,26.855,27.344,19.043,-101.562
1532485196.855,29.297,42.480,31.738,37.109,-267.090
1532485196.859,33.691,89.355,32.227,38.086,735.352
1532485196.863,24.902,11.230,29.297,21.973,293.945
1532485196.867,20.020,13.184,27.832,19.043,-512.695
1532485196.871,24.902,57.129,27.832,27.344,-400.879
1532485196.875,24.902,38.086,30.762,39.062,-157.227
1532485196.879,24.902,23.926,31.250,38.086,82.031
1532485196.882,26.367,33.203,29.785,29.785,-282.715
1532485196.886,33.203,42.969,29.785,23.926,-502.441
1532485196.890,35.156,37.109,31.250,32.227,-383.301
1532485196.894,31.738,63.477,30.273,40.527,13.672
1532485196.898,27.344,103.027,27.832,31.250,839.355
1532485196.902,30.762,19.531,26.855,30.273,506.836
1532485196.906,34.180,-1.953,27.832,29.297,-353.516
1532485196.910,31.250,27.344,27.832,23.438,-447.266
1532485196.914,25.391,39.062,24.414,21.484,-390.137
1532485196.918,22.949,60.059,22.949,20.996,-4.395
1532485196.921,23.926,32.227,25.391,21.973,-236.328
1532485196.925,23.438,27.832,22.461,26.367,-411.621
1532485196.929,20.996,25.879,21.973,28.809,-327.148
1532485196.933,17.578,44.922,23.926,19.043,-448.242
1532485196.937,19.043,78.125,22.461,17.578,4.395
1532485196.941,23.926,59.082,26.367,21.484,372.070
1532485196.945,25.879,34.180,29.785,16.602,216.797
1532485196.949,25.879,25.391,28.809,12.207,-164.062
1532485196.953,28.320,28.809,29.785,19.531,-552.246
1532485196.957,29.297,88.867,29.297,26.855,132.324
1532485196.961,29.785,48.828,29.785,21.973,806.152
1532485196.964,31.250,-6.836,29.785,23.438,-99.121
1532485196.968,31.250,25.879,29.297,25.391,-542.969
1532485196.972,29.785,26.855,30.273,24.414,-496.094
1532485196.976,28.809,50.293,29.785,22.949,-125.977
1532485196.980,29.297,32.227,29.297,22.461,-17.090
1532485196.984,27.832,31.250,27.832,29.785,-435.547
1532485196.988,26.855,65.918,25.879,25.879,-10.742
1532485196.992,28.320,25.391,27.344,25.391,135.742
1532485196.996,28.320,36.621,29.785,24.414,45.898
1532485197.000,29.297,76.660,28.809,9.766,737.793
1532485197.004,34.180,4.883,28.809,17.090,66.895
1532485197.007,36.133,4.883,29.297,33.691,-493.652
1532485197.011,34.668,22.949,29.785,32.715,-399.902
1532485197.015,26.367,29.297,28.809,25.879,-374.512
1532485197.019,25.391,25.391,26.367,18.555,-155.762
1532485197.023,27.832,22.461,26.855,17.090,-336.914
1532485197.027,23.926,22.949,27.344,21.973,-346.680
1532485197.031,19.531,25.879,27.832,20.508,-384.766
1532485197.035,16.113,75.195,28.809,16.602,9.277
1532485197.039,15.625,90.820,27.832,9.766,841.797
1532485197.043,19.531,2.930,32.227,18.066,301.270
1532485197.046,20.508,0.000,33.203,19.043,-382.812
1532485197.050,20.020,33.203,30.762,13.672,-539.551
1532485197.054,20.020,34.180,29.297,17.578,-465.820
1532485197.058,19.531,28.320,29.297,19.531,58.594
1532485197.062,20.020,13.672,32.715,27.344,-182.129
1532485197.066,16.602,30.762,34.668,24.902,-453.125
1532485197.070,17.090,34.668,29.785,20.020,-486.328
1532485197.074,17.090,47.363,26.855,18.066,-349.609
1532485197.078,15.137,52.246,29.785,15.625,207.031
1532485197.082,13.672,47.852,29.785,12.207,256.348
1532485197.086,15.625,56.152,30.273,9.277,141.602
1532485197.089,19.531,21.973,33.203,21.973,-93.262
1532485197.093,19.531,23.926,32.715,27.832,-356.934
1532485197.097,14.160,98.145,29.785,16.602,502.441
1532485197.101,19.531,35.156,29.297,12.207,653.809
1532485197.105,26.855,-2.441,29.297,13.672,-313.477
1532485197.109,25.879,26.855,31.738,23.438,-419.434
1532485197.113,27.344,26.367,32.227,23.926,-387.207
1532485197.117,24.414,65.430,29.785,11.230,-72.266
1532485197.121,27.344,35.156,33.691,27.344,-161.621
1532485197.125,30.273,27.832,35.645,37.109,-399.902
1532485197.129,23.438,48.340,33.203,26.855,152.344
1532485197.132,25.391,23.438,34.668,22.461,-25.391
1532485197.136,31.738,55.664,35.156,23.926,-35.645
1532485197.140,31.250,27.832,36.133,27.832,342.285
1532485197.144,27.344,0.000,36.621,27.832,-191.406
1532485197.148,25.391,28.809,34.668,20.996,-366.211
1532485197.152,24.414,25.391,35.156,21.973,-545.898
1532485197.156,24.902,58.594,32.715,22.461,-190.430
1532485197.160,25.391,27.344,32.227,27.832,511.719
1532485197.164,26.855,-3.418,32.715,32.227,-92.773
1532485197.168,32.227,39.062,30.762,22.949,-496.094
1532485197.171,38.574,37.598,32.227,16.602,-473.145
1532485197.175,33.203,66.895,30.273,16.602,110.840
1532485197.179,25.879,74.219,28.809,11.230,866.699
1532485197.183,29.785,5.859,32.715,9.277,89.844
1532485197.187,34.668,18.066,29.785,15.137,-549.316
1532485197.191,36.133,36.133,32.227,21.973,-459.473
1532485197.195,32.227,24.414,32.715,15.625,-297.363
1532485197.199,27.344,19.043,26.367,12.695,-59.570
1532485197.203,25.879,25.879,28.320,15.137,-391.113
1532485197.207,27.832,32.227,33.203,20.508,-433.594
1532485197.211,25.391,22.949,31.250,26.855,-328.613
1532485197.214,18.066,34.180,30.273,16.113,-276.855
1532485197.218,18.555,39.062,33.691,14.648,25.391
1532485197.222,23.926,50.781,35.156,23.926,175.293
1532485197.226,24.414,42.480,32.227,20.020,263.184
1532485197.230,24.902,8.789,32.715,19.043,-143.555
1532485197.234,22.461,42.480,33.203,17.578,-403.809
1532485197.238,20.996,104.004,33.203,12.695,613.770
1532485197.242,26.855,15.137,34.668,20.508,583.008
1532485197.246,26.855,-11.719,34.180,21.484,-269.043
1532485197.250,23.438,29.297,32.227,14.160,-457.520
1532485197.254,25.391,42.480,32.715,22.949,-475.586
1532485197.257,20.508,58.594,33.691,30.762,97.656
1532485197.261,21.484,19.531,32.715,26.367,-50.293
1532485197.265,29.297,34.180,29.297,19.531,-404.785
1532485197.269,28.320,62.988,22.949,16.113,17.090
1532485197.273,29.297,46.387,22.949,23.926,73.730
1532485197.277,24.902,81.055,26.855,29.297,475.586
1532485197.281,25.391,39.551,32.227,24.414,726.562
1532485197.285,29.297,2.441,34.668,20.020,-251.465
1532485197.289,30.273,31.250,31.738,26.855,-557.129
1532485197.293,30.762,43.457,32.227,36.621,-254.395
1532485197.296,29.785,59.570,29.785,25.879,60.059
1532485197.300,31.738,33.203,27.344,18.066,-154.297
1532485197.304,37.109,31.738,30.273,26.855,-477.051
1532485197.308,35.156,42.480,30.273,31.738,-334.473
1532485197.312,32.715,32.227,32.715,36.133,-375.977
1532485197.316,24.414,78.613,32.715,30.273,123.047
1532485197.320,19.531,80.078,31.250,21.973,821.289
1532485197.324,20.996,3.418,32.715,31.738,33.203
1532485197.328,20.020,15.137,34.180,30.762,-423.340
1532485197.332,19.531,39.062,34.668,27.832,-455.566
1532485197.336,17.578,49.316,32.227,28.809,-425.293
1532485197.339,16.113,35.645,31.738,26.367,-112.305
1532485197.343,14.160,24.902,30.762,20.996,-265.625
1532485197.347,12.695,34.668,29.785,18.555,-366.211
1532485197.351,13.184,40.527,30.762,20.996,-470.703
1532485197.355,14.648,38.574,29.297,21.484,-361.816
1532485197.359,14.648,24.414,29.297,26.367,57.129
1532485197.363,13.184,39.551,28.320,21.484,228.516
1532485197.367,18.555,35.645,23.926,8.789,71.289
1532485197.371,29.297,15.137,23.926,18.066,-388.672
1532485197.375,21.973,41.016,32.715,26.367,-247.070
1532485197.378,6.348,80.566,37.598,13.672,751.953
1532485197.382,4.395,8.789,35.645,5.859,326.172
1532485197.386,12.695,5.859,34.668,14.160,-471.191
1532485197.390,21.484,35.645,34.668,21.973,-450.684
1532485197.394,19.043,34.668,35.645,19.043,-276.367
1532485197.398,17.090,37.109,34.668,17.578,120.605
1532485197.402,22.461,21.973,32.715,21.484,-277.344
1532485197.406,24.902,41.504,34.180,23.926,-446.289
1532485197.410,23.926,46.387,35.156,22.949,47.852
1532485197.414,21.973,35.645,36.621,24.414,60.059
1532485197.418,19.531,89.844,35.156,16.602,600.586
1532485197.421,24.414,24.414,35.156,20.996,597.656
1532485197.425,27.344,-5.859,36.621,39.062,-250.000
1532485197.429,26.855,21.973,34.668,34.180,-394.043
1532485197.433,28.809,30.273,34.668,21.484,-463.867
1532485197.437,33.691,67.383,35.156,27.832,-62.500
1532485197.441,34.668,32.227,37.109,35.645,-85.938
1532485197.445,29.785,23.438,39.062,28.320,-342.285
1532485197.449,27.344,32.715,34.668,21.973,-345.215
1532485197.453,28.809,38.086,34.668,21.484,-501.465
1532485197.457,29.297,75.684,34.668,22.949,237.793
1532485197.461,26.855,18.555,34.668,23.926,597.168
1532485197.464,22.949,-5.371,36.133,20.996,-208.984
1532485197.468,20.996,29.297,36.133,16.113,-444.824
1532485197.472,21.973,27.832,34.668,20.996,-486.816
1532485197.476,23.438,49.316,33.691,25.391,-41.016
1532485197.480,25.391,23.438,38.086,22.461,305.176
1532485197.484,25.879,19.043,38.574,26.855,-304.199
1532485197.488,26.367,41.016,34.180,28.320,-448.242
1532485197.492,26.367,31.250,32.715,28.320,-332.520
1532485197.496,21.484,40.527,34.180,20.020,-146.973
1532485197.500,19.531,35.645,33.691,16.113,-9.766
1532485197.503,18.555,49.805,31.738,21.484,49.316
1532485197.507,13.672,43.945,30.762,23.438,235.840
1532485197.511,20.996,5.859,31.738,25.391,-163.574
1532485197.515,20.508,45.410,32.715,24.414,-208.496
1532485197.519,12.695,80.566,31.738,16.602,734.375
1532485197.523,20.996,2.441,32.227,18.555,262.695
1532485197.527,22.949,-1.953,33.203,24.414,-362.793
1532485197.531,21.973,27.832,35.156,26.367,-391.602
1532485197.535,23.438,39.551,31.738,21.484,-405.762
1532485197.539,25.391,37.109,28.809,24.902,-19.043
1532485197.543,26.855,19.043,29.785,22.949,-195.312
1532485197.546,20.020,40.039,32.227,15.137,-302.734
1532485197.550,17.578,57.617,34.180,23.438,-35.156
1532485197.554,22.949,56.641,30.762,23.926,151.855
1532485197.558,19.531,77.148,29.297,16.602,784.668
1532485197.562,20.508,2.930,34.668,16.602,430.664
1532485197.566,24.414,-0.977,35.645,18.066,-400.391
1532485197.570,23.438,32.715,33.203,16.113,-562.500
1532485197.574,20.508,38.086,34.668,19.043,-416.992
1532485197.578,18.555,42.480,35.156,28.809,131.836
1532485197.582,22.949,20.508,34.180,25.391,-171.875
1532485197.586,24.414,36.621,35.645,20.020,-509.277
1532485197.589,28.809,35.156,35.156,33.691,-416.504
1532485197.593,28.320,37.598,34.180,35.156,-327.148
1532485197.597,20.996,75.195,32.715,25.879,431.152
1532485197.601,25.879,37.598,34.180,22.949,309.082
1532485197.605,27.832,22.949,34.668,29.785,-357.910
1532485197.609,21.973,37.598,33.203,32.227,-249.023
1532485197.613,20.508,35.645,33.691,27.832,-361.328
1532485197.617,17.090,90.820,31.738,21.484,189.453
1532485197.621,21.484,42.480,30.762,19.531,568.848
1532485197.625,29.785,2.930,33.203,29.297,-177.246
1532485197.628,26.367,28.320,35.645,29.297,-333.496
1532485197.632,25.391,38.574,36.621,28.320,-397.949
1532485197.636,28.320,71.289,37.109,31.250,-224.121
1532485197.640,27.832,49.316,36.133,40.039,-30.273
1532485197.644,27.344,48.828,34.668,44.922,152.832
1532485197.648,21.973,40.527,35.156,37.109,155.273
1532485197.652,21.973,22.461,33.203,26.367,-454.102
1532485197.656,23.926,72.266,32.715,23.438,-187.012
1532485197.660,21.973,81.543,34.668,35.645,788.086
1532485197.664,22.949,4.395,33.203,34.668,139.160
1532485197.668,25.391,25.391,32.227,25.391,-510.254
1532485197.671,24.902,46.387,35.156,26.367,-485.352
1532485197.675,19.043,40.527,34.668,26.367,-285.156
1532485197.679,19.531,31.250,35.645,24.902,32.715
1532485197.683,14.648,27.344,37.109,19.043,-332.520
1532485197.687,8.789,41.504,32.715,9.766,-439.941
1532485197.691,9.277,48.340,34.668,13.184,4.883
1532485197.695,6.836,57.617,37.598,25.391,378.906
1532485197.699,3.906,76.172,32.715,19.531,839.844
1532485197.703,8.789,9.766,32.227,12.695,190.430
1532485197.707,14.160,2.930,32.227,10.254,-447.754
1532485197.710,17.090,27.344,31.738,14.648,-428.223
1532485197.714,11.719,48.828,31.250,17.090,-204.102
1532485197.718,14.648,38.086,28.809,9.277,71.289
1532485197.722,23.926,17.578,30.762,21.484,-335.449
1532485197.726,20.508,28.320,31.250,29.297,-375.488
1532485197.730,14.160,19.531,30.273,20.020,-359.863
1532485197.734,13.184,37.109,27.832,19.043,-436.035
1532485197.738,16.113,61.035,23.926,22.949,159.668
1532485197.742,20.508,24.414,24.902,24.414,211.426
1532485197.746,15.625,12.207,27.344,27.832,-217.285
1532485197.750,13.672,24.414,29.785,23.926,-358.887
1532485197.753,20.508,44.434,29.297,20.996,-474.121
1532485197.757,23.438,104.980,27.832,20.020,466.797
1532485197.761,22.949,24.414,28.809,18.066,708.984
1532485197.765,20.020,-8.789,29.297,16.113,-244.141
1532485197.769,20.020,34.180,28.320,10.254,-501.953
1532485197.773,21.973,35.156,24.414,19.531,-423.828
1532485197.777,20.020,49.805,24.414,24.902,46.387
1532485197.781,19.531,31.738,25.879,22.949,-30.762
1532485197.785,20.508,54.199,23.926,18.555,-36.621
1532485197.789,22.949,36.133,22.949,19.531,86.426
1532485197.793,22.461,9.766,24.414,22.949,-364.258
1532485197.796,15.625,80.566,23.438,15.137,115.234
1532485197.800,13.672,67.871,24.902,2.930,785.645
1532485197.804,21.484,3.418,27.832,16.113,-118.164
1532485197.808,21.484,26.367,23.926,35.156,-461.914
1532485197.812,18.555,27.832,21.973,22.461,-374.512
1532485197.816,14.160,57.129,22.949,9.277,-265.137
1532485197.820,15.625,43.945,21.484,18.555,-124.512
1532485197.824,20.508,17.090,20.508,19.043,-367.188
1532485197.828,13.184,34.180,20.508,11.230,-273.438
1532485197.832,9.277,46.387,21.484,13.672,-23.926
1532485197.835,12.695,59.570,22.461,10.742,208.496
1532485197.839,9.277,67.871,23.926,10.254,774.902
1532485197.843,13.672,-4.883,26.367,19.043,215.332
1532485197.847,15.137,-1.465,25.391,17.090,-422.852
1532485197.851,7.812,27.832,19.531,6.836,-524.902
1532485197.855,7.324,25.879,17.578,6.836,-440.918
1532485197.859,10.742,13.184,20.020,10.742,-28.809
1532485197.863,7.812,8.789,22.461,4.883,-249.512
1532485197.867,5.859,29.297,21.484,3.906,-448.242
1532485197.871,7.812,29.297,21.484,11.719,-486.816
1532485197.875,8.301,36.621,21.973,20.508,-305.176
1532485197.878,7.324,44.434,22.461,21.973,330.566
1532485197.882,5.371,26.367,21.484,17.578,201.172
1532485197.886,8.789,23.926,21.973,16.113,-280.762
1532485197.890,12.695,18.066,25.391,21.484,-377.930
1532485197.894,10.254,30.273,26.855,24.902,-240.234
1532485197.898,5.371,86.914,25.391,16.113,685.547
1532485197.902,7.812,18.066,24.414,6.836,447.754
1532485197.906,10.742,0.488,23.926,17.090,-379.395
1532485197.910,10.742,21.973,22.949,29.785,-375.488
1532485197.914,11.230,30.762,20.020,22.461,-308.105
1532485197.918,13.672,55.176,18.555,16.113,54.199
1532485197.921,17.090,30.273,19.531,17.090,-192.383
1532485197.925,16.602,49.805,21.484,24.902,0.000
1532485197.929,16.602,38.086,24.414,29.785,286.621
1532485197.933,19.531,20.996,25.391,25.391,-330.566
1532485197.937,20.020,87.402,24.414,17.578,252.441
1532485197.941,22.949,28.320,25.391,14.160,757.812
1532485197.945,19.531,-22.461,25.879,15.625,-144.043
1532485197.949,16.602,19.043,24.902,21.484,-465.332
1532485197.953,24.902,34.180,24.902,21.484,-545.898
1532485197.957,23.926,59.082,23.926,23.926,-173.340
1532485197.960,19.531,25.391,22.461,28.809,-12.207
1532485197.964,19.043,14.160,23.438,24.414,-388.184
1532485197.968,21.484,42.969,22.949,16.113,-414.062
1532485197.972,25.879,48.828,22.461,28.320,-107.910
1532485197.976,22.949,58.105,22.949,34.668,399.902
1532485197.980,21.484,47.363,22.949,18.555,806.152
1532485197.984,26.367,-2.441,22.461,17.090,-53.223
1532485197.988,24.902,11.719,20.996,24.902,-562.988
1532485197.992,23.438,22.949,21.973,27.344,-439.453
1532485197.996,22.949,34.180,22.949,25.391,-261.230
1532485198.000,22.461,28.320,21.973,14.160,-102.539
1532485198.003,28.809,26.367,19.043,18.555,-436.523
1532485198.007,31.250,35.645,18.066,27.344,-405.273
1532485198.011,25.879,24.414,19.531,13.184,-346.191
1532485198.015,20.020,39.062,20.508,5.859,-289.062
1532485198.019,20.996,51.758,19.043,10.742,219.727
1532485198.023,27.344,20.020,20.996,14.648,58.105
1532485198.027,23.438,16.602,21.973,21.973,-214.844
1532485198.031,24.414,27.344,23.926,22.949,-346.191
