timestamps,TP9,AF7,AF8,TP10,Right AUX
1532484414.299,5.859,32.227,27.832,2.930,62.988
1532484414.302,3.906,28.320,34.180,-7.324,132.812
1532484414.306,4.883,33.203,33.691,-11.230,30.273
1532484414.310,15.137,37.109,30.273,-16.113,-56.152
1532484414.314,20.020,35.156,28.809,-8.789,32.715
1532484414.318,15.625,26.855,29.297,7.324,109.863
1532484414.322,14.160,28.320,29.785,0.000,-0.977
1532484414.326,16.602,41.016,28.809,1.953,-48.828
1532484414.330,20.996,37.109,30.762,10.742,32.227
1532484414.334,25.391,20.996,33.691,1.465,23.438
1532484414.338,23.438,27.344,35.156,-7.324,-28.809
1532484414.342,20.020,39.551,30.273,-4.883,-6.348
1532484414.345,20.996,38.574,26.855,-1.465,-7.324
1532484414.349,25.879,40.527,29.785,16.113,122.559
1532484414.353,22.461,26.855,33.203,18.066,143.555
1532484414.357,18.066,25.391,33.203,-3.906,11.719
1532484414.361,29.297,38.574,32.715,-2.441,7.812
1532484414.365,36.621,34.668,34.668,18.555,83.008
1532484414.369,32.715,27.832,35.156,18.555,84.961
1532484414.373,29.297,32.227,36.621,2.930,-60.547
1532484414.377,32.227,40.527,35.156,0.000,-143.066
1532484414.381,33.691,40.527,35.156,14.648,68.359
1532484414.384,26.855,28.809,37.109,4.883,181.641
1532484414.388,20.508,27.832,35.156,-7.324,86.426
1532484414.392,19.043,35.645,34.668,0.488,-28.809
1532484414.396,21.973,38.086,34.668,6.348,25.879
1532484414.400,21.973,28.809,39.062,19.043,177.246
1532484414.404,16.602,31.250,43.457,12.695,106.445
1532484414.408,18.066,40.527,39.551,-1.465,11.230
1532484414.412,24.902,33.203,36.621,5.371,-32.715
1532484414.416,24.902,30.762,37.598,6.348,1.465
1532484414.420,16.113,30.762,36.621,-7.812,100.586
1532484414.424,13.184,35.156,36.133,-11.719,-3.906
1532484414.427,19.531,41.016,38.086,1.953,-44.434
1532484414.431,24.902,33.691,38.574,9.277,42.969
1532484414.435,18.066,27.344,36.621,4.883,59.570
1532484414.439,13.672,35.156,36.621,-0.488,54.199
1532484414.443,19.043,42.480,38.574,-2.930,-5.371
1532484414.447,18.555,40.039,37.598,5.371,76.172
1532484414.451,15.625,26.367,37.109,7.324,162.109
1532484414.455,18.066,25.879,37.109,1.465,83.496
1532484414.459,21.484,39.062,34.668,-0.488,-22.461
1532484414.463,23.926,36.133,35.645,7.812,-7.324
1532484414.466,23.438,23.438,36.621,9.766,136.230
1532484414.470,11.230,19.043,34.180,0.977,146.973
1532484414.474,7.324,26.855,31.738,-4.883,-113.281
1532484414.478,28.320,38.086,31.738,1.953,-110.352
1532484414.482,36.133,32.227,31.250,14.648,121.094
1532484414.486,20.508,25.391,32.227,9.277,130.859
1532484414.490,13.184,27.344,33.691,-1.465,35.645
1532484414.494,21.484,31.738,33.203,0.977,-40.039
1532484414.498,27.344,34.668,34.180,11.230,105.469
1532484414.502,24.902,25.879,32.715,11.230,210.938
1532484414.506,21.484,23.438,28.809,3.906,42.480
1532484414.509,22.949,30.762,28.320,-4.883,-82.031
1532484414.513,27.832,29.297,30.762,2.930,-73.730
1532484414.517,28.320,29.785,29.785,17.090,21.973
1532484414.521,23.926,31.250,29.297,11.230,106.445
1532484414.525,20.508,31.738,26.367,6.836,13.184
1532484414.529,23.926,35.156,24.902,11.719,26.367
1532484414.533,21.973,28.320,29.785,14.648,123.535
1532484414.537,11.719,25.879,29.297,0.000,128.418
1532484414.541,10.742,39.062,28.320,0.977,-1.953
1532484414.545,17.578,38.086,26.855,13.184,-87.891
1532484414.549,16.113,27.344,26.855,14.648,90.332
1532484414.552,12.207,24.414,31.738,8.789,129.395
1532484414.556,13.184,29.785,29.785,0.977,-49.316
1532484414.560,16.602,38.574,23.926,6.348,-84.473
1532484414.564,20.996,39.551,30.762,12.207,60.059
1532484414.568,17.090,30.762,33.203,16.113,187.500
1532484414.572,11.230,25.391,29.785,8.301,12.207
1532484414.576,12.207,26.855,33.203,0.000,-161.133
1532484414.580,17.090,29.297,31.250,11.230,1.953
1532484414.584,14.160,27.344,29.785,17.090,131.348
1532484414.588,6.348,25.879,30.762,9.277,100.098
1532484414.591,10.742,36.133,31.250,-0.488,-52.246
1532484414.595,13.184,37.109,31.250,-1.465,-34.180
1532484414.599,9.766,23.438,30.762,3.906,109.375
1532484414.603,9.277,23.926,30.273,1.465,49.316
1532484414.607,6.348,35.156,29.785,-4.395,-55.664
1532484414.611,5.859,34.668,27.832,-6.348,-61.035
1532484414.615,8.301,27.344,28.320,0.488,-34.180
1532484414.619,8.789,26.367,30.273,5.859,41.504
1532484414.623,7.324,31.250,29.785,-0.977,21.973
1532484414.627,8.301,38.086,32.227,-3.906,-37.598
1532484414.631,10.742,31.738,34.668,7.812,43.457
1532484414.634,10.254,21.484,30.762,8.301,125.977
1532484414.638,8.301,19.043,29.297,-10.742,62.988
1532484414.642,11.230,31.738,30.762,-2.930,-30.273
1532484414.646,18.555,34.180,31.738,14.160,-26.855
1532484414.650,16.602,30.273,29.785,16.602,63.965
1532484414.654,9.766,28.809,31.250,5.371,-3.418
1532484414.658,6.348,28.320,33.203,-2.441,-114.258
1532484414.662,11.230,31.250,30.273,2.930,-46.387
1532484414.666,15.625,30.762,29.297,9.766,98.145
1532484414.670,13.184,26.855,30.762,7.324,153.320
1532484414.674,9.277,31.738,30.762,-3.418,-3.418
1532484414.677,19.043,35.645,28.809,-6.348,-37.598
1532484414.681,22.461,32.227,28.320,-2.930,83.008
1532484414.685,13.184,28.809,27.344,0.977,133.789
1532484414.689,11.230,31.738,23.926,-1.953,79.590
1532484414.693,19.043,35.156,23.926,0.488,-33.203
1532484414.697,23.926,29.297,25.391,6.348,-20.020
1532484414.701,22.461,19.531,25.879,5.859,105.957
1532484414.705,20.508,23.438,25.879,7.324,75.684
1532484414.709,22.949,38.086,28.809,12.207,-11.230
1532484414.713,25.879,31.738,32.227,13.184,-39.062
1532484414.716,21.973,24.414,35.156,16.602,2.441
1532484414.720,14.160,31.738,35.156,15.137,44.434
1532484414.724,14.160,39.551,32.227,7.812,-12.207
1532484414.728,25.879,41.992,32.715,3.906,-8.301
1532484414.732,25.391,36.133,35.645,16.113,86.426
1532484414.736,19.043,33.691,37.109,23.926,156.250
1532484414.740,20.508,31.250,36.621,15.137,49.805
1532484414.744,25.391,34.180,34.668,16.113,-80.078
1532484414.748,26.855,37.109,33.203,20.996,76.660
1532484414.752,20.020,23.926,33.203,11.719,129.883
1532484414.756,18.066,28.320,30.762,3.906,-72.266
1532484414.759,24.414,41.504,30.273,8.789,-95.215
1532484414.763,27.344,32.715,31.738,10.254,41.016
1532484414.767,26.367,27.832,30.273,6.348,162.109
1532484414.771,19.043,28.320,29.785,-2.930,65.918
1532484414.775,15.137,30.273,22.949,-9.766,-73.242
1532484414.779,20.020,27.832,21.484,-0.488,-27.344
1532484414.783,21.484,24.902,25.391,8.789,110.352
1532484414.787,17.090,24.414,29.297,0.488,125.488
1532484414.791,13.672,26.367,30.762,-5.859,-42.480
1532484414.795,19.043,28.809,25.391,-6.836,-140.137
1532484414.798,22.949,28.320,26.367,-0.977,14.160
1532484414.802,17.578,19.531,31.250,1.953,155.273
1532484414.806,15.137,27.344,30.273,-0.488,73.730
1532484414.810,20.508,34.180,25.879,2.930,-3.418
1532484414.814,21.973,26.367,25.879,9.277,58.105
1532484414.818,20.996,27.832,29.297,9.277,169.922
1532484414.822,18.555,32.715,27.832,2.930,98.633
1532484414.826,16.113,40.039,27.344,3.906,-34.668
1532484414.830,23.438,35.645,30.273,13.672,34.668
1532484414.834,22.461,20.996,29.297,18.555,123.535
1532484414.838,10.742,19.531,26.855,18.555,21.973
1532484414.841,11.230,28.320,28.809,11.719,-86.426
1532484414.845,22.461,38.086,33.691,12.207,-5.371
1532484414.849,22.461,37.109,36.133,21.973,159.180
1532484414.853,16.602,24.902,34.668,8.789,43.457
1532484414.857,14.160,33.203,29.785,-7.812,-153.809
1532484414.861,19.043,41.992,25.879,-0.977,-41.016
1532484414.865,22.949,26.855,29.785,13.184,115.234
1532484414.869,16.113,13.184,31.250,11.719,156.738
1532484414.873,12.207,23.926,29.297,3.418,40.039
1532484414.877,15.625,35.645,29.785,2.441,-51.270
1532484414.881,19.531,30.273,30.273,11.230,9.277
1532484414.884,18.066,27.344,29.785,11.719,83.008
1532484414.888,12.207,29.785,30.273,2.930,87.891
1532484414.892,12.207,24.414,28.809,-3.906,-44.922
1532484414.896,18.555,27.832,27.344,-2.441,-115.234
1532484414.900,17.090,31.250,26.855,6.348,68.359
1532484414.904,8.789,25.391,26.367,0.977,107.422
1532484414.908,6.348,30.762,24.902,-11.230,-20.508
1532484414.912,9.766,31.738,25.391,0.488,-30.762
1532484414.916,11.719,26.367,27.344,5.371,87.891
1532484414.920,11.230,28.809,28.320,-3.418,126.953
1532484414.923,11.719,31.738,25.391,-9.766,14.160
1532484414.927,13.184,33.691,22.461,-14.160,-40.039
1532484414.931,16.113,32.715,25.391,-10.742,24.902
1532484414.935,16.113,30.762,27.832,-10.742,6.348
1532484414.939,18.555,41.992,27.832,-6.836,-60.547
1532484414.943,27.832,40.527,27.832,-4.395,-43.457
1532484414.947,28.809,32.227,29.297,5.371,75.195
1532484414.951,22.949,27.344,27.344,7.324,145.996
1532484414.955,20.020,32.227,28.320,-7.324,43.945
1532484414.959,20.508,41.992,29.785,-6.836,-57.129
1532484414.963,24.902,42.969,29.297,5.371,3.906
1532484414.966,28.320,36.621,29.297,6.836,152.344
1532484414.970,18.066,26.367,29.785,-4.883,133.789
1532484414.974,10.742,32.227,27.832,-6.348,-46.875
1532484414.978,20.508,37.598,25.879,2.441,-89.355
1532484414.982,22.461,26.855,28.320,11.719,53.223
1532484414.986,19.043,29.297,29.297,7.812,123.047
1532484414.990,17.090,41.504,27.832,2.441,86.426
1532484414.994,20.020,32.227,26.855,-3.906,-107.910
1532484414.998,24.414,34.668,26.367,0.000,-72.266
1532484415.002,21.484,41.504,26.367,10.742,166.992
1532484415.006,17.090,36.621,30.273,2.441,103.516
1532484415.009,20.020,38.574,28.320,4.883,0.000
1532484415.013,25.879,37.109,27.832,15.137,9.766
1532484415.017,26.367,32.227,28.809,15.137,76.172
1532484415.021,19.043,33.691,27.832,7.324,40.527
1532484415.025,18.066,42.480,28.809,-3.906,-64.941
1532484415.029,23.438,44.922,26.855,-0.488,18.066
1532484415.033,24.414,27.832,26.367,5.859,80.078
1532484415.037,16.113,18.555,27.344,-7.324,11.230
1532484415.041,9.277,33.691,26.855,-8.789,3.906
1532484415.045,20.020,41.992,26.855,1.953,20.996
1532484415.048,21.973,35.645,27.832,10.742,147.461
1532484415.052,10.742,33.203,29.785,3.906,158.691
1532484415.056,14.160,37.109,29.297,-0.488,34.668
1532484415.060,18.555,34.180,27.832,3.906,-23.438
1532484415.064,20.508,36.621,28.809,11.719,54.199
1532484415.068,20.508,35.645,31.738,13.672,157.227
1532484415.072,16.602,27.344,31.250,0.488,0.000
1532484415.076,18.066,38.574,30.762,-4.883,-200.684
1532484415.080,22.461,48.340,29.785,-0.977,-26.367
1532484415.084,21.484,33.691,32.227,8.789,154.785
1532484415.088,19.531,27.832,35.156,11.230,117.188
1532484415.091,24.902,31.250,34.668,10.742,-13.184
1532484415.095,31.250,35.645,33.203,17.090,-54.688
1532484415.099,33.691,36.621,33.203,17.090,110.352
1532484415.103,33.691,34.668,32.715,16.113,148.926
1532484415.107,31.250,41.992,31.250,8.789,5.371
1532484415.111,33.691,46.387,33.691,10.742,-54.199
1532484415.115,36.133,45.410,35.156,20.020,-11.230
1532484415.119,30.273,39.062,33.203,14.160,36.621
1532484415.123,20.996,32.227,35.645,0.488,8.789
1532484415.127,23.926,39.551,35.645,4.395,-58.105
1532484415.130,31.250,38.574,36.621,21.973,35.645
1532484415.134,27.344,28.320,36.621,14.648,67.383
1532484415.138,23.926,33.691,35.645,-3.906,-16.602
1532484415.142,28.809,41.016,31.738,-5.859,-37.598
1532484415.146,36.133,46.387,28.320,6.348,20.508
1532484415.150,32.715,34.180,29.785,3.906,140.137
1532484415.154,21.973,26.367,25.879,-3.418,80.566
1532484415.158,21.484,41.992,19.531,-3.906,-17.090
1532484415.162,31.738,44.922,20.508,-0.488,-31.738
1532484415.166,32.715,38.574,24.414,7.324,41.992
1532484415.170,27.832,32.715,25.391,4.883,163.574
1532484415.173,27.832,30.273,24.414,-4.395,-54.688
1532484415.177,31.250,38.574,25.391,-0.977,-198.242
1532484415.181,35.645,41.504,25.879,3.418,55.664
1532484415.185,33.691,30.273,26.367,3.906,150.391
1532484415.189,27.344,32.715,27.344,-6.348,72.266
1532484415.193,27.832,41.992,28.320,-11.230,-60.547
1532484415.197,29.297,42.480,28.320,0.977,6.836
1532484415.201,23.926,33.203,28.809,10.254,156.250
1532484415.205,18.066,25.391,29.297,4.883,100.586
1532484415.209,20.508,31.250,28.809,5.859,-14.648
1532484415.213,26.855,37.109,29.297,10.742,-85.449
1532484415.216,21.484,32.227,31.250,8.789,-9.277
1532484415.220,15.625,29.785,30.273,5.859,115.723
1532484415.224,20.508,34.180,30.762,5.371,5.371
1532484415.228,26.367,37.109,31.250,10.742,0.488
1532484415.232,27.344,27.344,34.180,15.625,95.215
1532484415.236,22.461,24.414,34.668,13.672,100.098
1532484415.240,19.043,32.715,30.762,9.766,32.227
1532484415.244,25.391,37.598,31.738,10.742,-22.461
1532484415.248,29.785,37.598,29.785,13.672,97.656
1532484415.252,25.391,32.715,28.809,8.789,142.578
1532484415.255,21.973,36.621,30.273,-0.488,-2.930
1532484415.259,24.414,39.062,29.297,-1.953,-101.074
1532484415.263,30.273,33.203,31.738,-0.488,10.742
1532484415.267,29.785,33.691,32.715,4.395,169.922
1532484415.271,23.438,27.344,36.621,0.488,78.125
1532484415.275,21.484,36.133,37.598,-6.348,-157.715
1532484415.279,23.926,50.781,32.715,-4.883,-81.055
1532484415.283,26.367,40.039,33.203,4.883,121.094
1532484415.287,15.137,32.227,32.227,6.836,137.695
1532484415.291,4.883,33.691,28.320,-11.230,20.508
1532484415.295,14.160,33.203,30.762,-4.395,-48.828
1532484415.298,19.043,31.738,31.738,6.348,92.773
1532484415.302,9.766,22.461,29.785,2.441,116.211
1532484415.306,7.324,28.320,32.227,-7.812,-17.578
1532484415.310,14.648,35.645,31.738,-9.277,-72.266
1532484415.314,16.113,30.273,31.250,-1.953,-75.684
1532484415.318,9.766,25.391,32.715,-9.277,33.203
1532484415.322,5.859,28.809,33.691,-9.766,79.102
1532484415.326,7.324,33.691,30.273,-14.160,-17.090
1532484415.330,12.695,31.738,26.855,-13.672,-3.906
1532484415.334,14.648,29.297,30.762,-3.418,62.012
1532484415.338,8.789,32.227,30.762,-10.742,83.008
1532484415.341,9.766,40.527,26.855,-11.719,3.418
1532484415.345,15.137,40.039,26.855,-6.836,-3.418
1532484415.349,15.625,33.691,28.809,-4.395,103.027
1532484415.353,9.277,24.414,27.344,-15.625,0.000
1532484415.357,4.883,32.227,25.391,-21.973,-145.996
1532484415.361,9.277,43.457,21.484,-11.719,-68.848
1532484415.365,9.277,35.645,20.508,-2.930,84.473
1532484415.369,5.371,24.414,25.391,-4.395,135.254
1532484415.373,3.906,28.809,27.344,-12.695,-1.953
1532484415.377,8.301,34.668,23.438,-15.137,-42.969
1532484415.380,14.648,26.855,22.461,-3.906,47.363
1532484415.384,12.207,23.438,23.926,-9.277,145.020
1532484415.388,6.348,24.902,25.391,-21.484,91.309
1532484415.392,6.348,34.668,26.855,-17.090,-57.617
1532484415.396,6.836,39.062,27.344,-11.719,-39.062
1532484415.400,5.859,33.691,26.367,-3.418,80.566
1532484415.404,-0.488,28.809,25.879,-9.766,77.148
1532484415.408,1.465,37.598,25.391,-18.066,-15.625
1532484415.412,14.160,38.574,25.879,-4.395,-58.105
1532484415.416,8.789,28.320,25.879,0.488,-19.531
1532484415.420,0.488,25.391,27.344,-2.441,74.707
1532484415.423,2.441,29.297,31.738,1.465,58.105
1532484415.427,8.301,31.738,34.180,5.371,-21.973
1532484415.431,13.672,27.344,33.203,7.812,-1.465
1532484415.435,13.672,27.832,36.133,9.766,118.164
1532484415.439,13.184,32.715,36.133,5.859,82.031
1532484415.443,21.484,33.203,31.738,1.465,-75.684
1532484415.447,30.273,37.598,30.273,14.160,-26.367
1532484415.451,24.414,30.762,26.855,19.043,106.445
1532484415.455,20.020,24.414,28.320,4.883,-47.363
1532484415.459,22.461,38.574,28.809,-6.836,-131.836
1532484415.463,26.367,38.086,26.855,2.930,6.348
1532484415.466,29.785,30.762,28.809,15.625,143.066
1532484415.470,27.344,29.785,31.250,7.812,129.395
1532484415.474,24.902,33.203,31.250,5.371,-16.602
1532484415.478,28.809,38.574,27.832,13.672,-41.016
1532484415.482,33.691,34.668,29.785,20.020,125.977
1532484415.486,30.762,20.508,32.227,14.648,191.895
1532484415.490,23.438,24.902,32.227,3.418,28.809
1532484415.494,25.879,39.551,29.785,4.883,-88.867
1532484415.498,28.320,39.551,30.762,19.043,8.789
1532484415.502,20.996,34.180,34.668,21.484,153.809
1532484415.505,12.695,32.715,34.180,8.301,98.145
1532484415.509,17.090,36.133,32.227,4.883,-12.207
1532484415.513,23.926,36.621,34.180,11.719,-52.246
1532484415.517,22.949,36.133,34.180,13.672,43.945
1532484415.521,21.484,33.203,33.203,11.719,131.348
1532484415.525,22.949,33.203,35.156,12.207,3.418
1532484415.529,26.367,35.645,34.180,11.230,-8.789
1532484415.533,22.949,27.832,31.738,10.254,127.441
1532484415.537,15.625,19.043,33.691,12.207,98.633
1532484415.541,13.672,28.320,33.203,9.277,-25.391
1532484415.545,13.672,27.832,33.691,6.836,-23.438
1532484415.548,20.996,21.973,33.203,11.230,95.215
1532484415.552,23.926,20.508,34.668,7.324,84.961
1532484415.556,17.578,29.785,37.598,5.859,-71.777
1532484415.560,14.648,42.969,33.691,6.348,-61.035
1532484415.564,20.996,37.598,32.227,8.301,67.383
1532484415.568,21.973,29.785,36.133,15.625,185.547
1532484415.572,18.555,25.391,38.086,12.207,66.895
1532484415.576,22.461,33.203,32.715,8.789,-79.590
1532484415.580,27.344,37.109,28.809,20.996,34.180
1532484415.584,22.949,28.320,33.203,24.414,134.277
1532484415.587,15.137,26.367,35.156,16.602,76.172
1532484415.591,14.648,30.762,33.203,5.371,-67.383
1532484415.595,19.043,36.621,32.715,9.766,-147.461
1532484415.599,21.484,37.109,32.227,18.555,29.785
1532484415.603,14.648,27.344,30.762,9.766,166.016
1532484415.607,5.371,29.297,28.809,6.836,38.574
1532484415.611,16.113,39.062,29.785,5.371,-58.594
1532484415.615,24.902,30.762,28.320,8.301,51.758
1532484415.619,15.137,19.531,25.879,7.812,160.156
1532484415.623,8.301,26.367,24.414,-4.395,83.008
1532484415.627,14.648,34.180,23.926,-5.859,2.441
1532484415.630,20.020,30.273,22.461,5.371,67.383
1532484415.634,21.484,23.438,26.367,6.348,53.711
1532484415.638,19.531,32.227,31.738,0.977,13.184
1532484415.642,17.090,36.133,25.391,-0.977,10.742
1532484415.646,20.996,30.273,24.902,9.766,26.855
1532484415.650,20.020,23.926,28.320,16.602,143.555
1532484415.654,14.160,20.996,31.250,1.953,113.281
1532484415.658,13.672,28.809,32.715,-7.324,1.953
1532484415.662,17.578,29.297,29.785,0.488,28.320
1532484415.666,20.508,29.297,30.762,9.277,105.469
1532484415.670,13.672,31.250,29.297,4.883,113.281
1532484415.673,8.789,35.645,24.414,-0.488,27.344
1532484415.677,11.719,39.551,20.996,-3.906,-53.223
1532484415.681,16.602,38.574,19.531,-0.488,23.926
1532484415.685,15.625,27.344,21.973,-8.301,114.258
1532484415.689,9.766,23.926,24.414,-5.859,87.402
1532484415.693,12.695,30.273,21.484,2.441,-104.004
1532484415.697,19.043,33.691,23.438,1.953,-106.445
1532484415.701,14.648,30.273,27.344,7.812,160.645
1532484415.705,10.742,26.367,26.367,-2.930,112.793
1532484415.709,10.742,32.227,22.461,-9.277,-0.977
1532484415.712,15.625,30.273,23.438,-5.371,22.461
1532484415.716,21.973,26.855,27.832,-0.977,126.953
1532484415.720,17.090,27.344,28.809,-4.883,154.297
1532484415.724,13.184,33.203,28.809,-10.742,-14.160
1532484415.728,22.949,41.016,29.785,6.836,-80.566
1532484415.732,27.344,34.668,27.832,16.602,-10.742
1532484415.736,21.973,30.273,23.926,10.742,7.324
1532484415.740,20.996,44.434,25.391,8.301,16.602
1532484415.744,28.320,44.434,29.297,14.648,-14.648
1532484415.748,34.668,35.156,27.344,13.672,62.012
1532484415.752,31.738,29.297,29.785,12.207,132.812
1532484415.755,26.855,31.250,28.809,10.254,45.410
1532484415.759,28.809,40.039,23.438,0.977,-17.578
1532484415.763,35.156,41.016,23.438,4.883,36.133
1532484415.767,32.715,34.180,21.484,10.254,153.809
1532484415.771,22.949,23.438,19.043,3.906,84.961
1532484415.775,25.879,25.391,20.020,-0.488,-136.230
1532484415.779,33.691,39.062,20.508,7.324,-56.152
1532484415.783,35.156,36.133,24.902,17.578,141.113
1532484415.787,33.203,32.227,27.832,12.695,107.422
1532484415.791,29.785,36.621,21.484,-3.906,-16.602
1532484415.795,35.645,38.086,18.555,-5.371,-105.469
1532484415.798,39.551,40.039,19.043,6.348,41.992
1532484415.802,30.762,31.738,20.508,4.883,153.320
1532484415.806,23.926,31.738,20.996,-1.465,49.805
1532484415.810,26.855,38.086,20.996,3.418,-64.453
1532484415.814,29.785,36.133,23.438,9.277,-26.855
1532484415.818,28.809,27.832,25.391,4.883,93.750
1532484415.822,25.879,35.645,25.879,-2.441,21.484
1532484415.826,21.484,44.922,27.344,-5.859,-58.594
1532484415.830,20.508,26.367,29.297,2.930,31.250
1532484415.834,18.066,19.043,28.809,9.766,29.297
1532484415.837,11.230,28.809,28.320,0.000,-19.531
1532484415.841,8.301,32.715,32.227,-3.418,-34.668
1532484415.845,15.625,33.691,33.691,9.766,-75.684
1532484415.849,18.066,33.691,33.203,13.184,78.125
1532484415.853,12.207,23.438,32.227,4.395,112.793
1532484415.857,9.766,31.738,29.785,1.465,-6.348
1532484415.861,17.578,38.086,29.785,-2.441,-34.668
1532484415.865,22.949,28.809,27.832,-1.953,9.766
1532484415.869,12.695,22.461,24.414,3.418,81.055
1532484415.873,7.812,21.973,26.367,-4.883,-41.016
1532484415.877,12.695,30.762,26.367,-13.184,-177.246
1532484415.880,14.648,35.645,24.902,1.465,-3.906
1532484415.884,16.602,25.879,26.367,14.648,153.809
1532484415.888,12.207,20.508,25.391,0.488,116.699
1532484415.892,14.160,33.203,28.320,-5.859,-42.969
1532484415.896,22.461,41.992,27.832,14.160,-26.367
1532484415.900,21.484,29.785,26.855,18.555,125.977
1532484415.904,15.625,24.414,27.344,7.324,79.102
1532484415.908,10.742,37.109,23.926,3.906,-5.371
1532484415.912,17.578,36.621,24.902,0.977,-61.035
1532484415.916,28.320,34.668,26.367,3.906,-4.395
1532484415.919,26.367,31.738,29.297,11.719,139.160
1532484415.923,22.461,24.902,30.273,2.441,36.621
1532484415.927,27.832,28.809,29.297,-1.465,-27.832
1532484415.931,29.297,25.879,30.273,12.207,28.320
1532484415.935,25.391,18.555,29.785,17.090,98.145
1532484415.939,21.973,21.484,34.180,9.277,109.863
1532484415.943,21.973,29.297,33.203,10.254,-4.883
1532484415.947,20.508,31.250,28.809,18.066,28.320
1532484415.951,18.555,22.461,32.227,17.578,107.910
1532484415.955,17.578,22.461,35.156,7.324,29.297
1532484415.959,16.113,30.273,32.227,1.465,-56.152
1532484415.962,19.043,29.785,34.180,11.719,-53.711
1532484415.966,21.973,25.391,37.598,18.066,69.824
1532484415.970,13.672,21.973,35.645,18.066,115.723
1532484415.974,11.230,28.809,34.668,15.137,-113.770
1532484415.978,20.020,40.039,36.133,13.672,-122.559
1532484415.982,24.902,33.691,36.133,19.043,98.145
1532484415.986,21.973,28.809,31.250,11.719,140.137
1532484415.990,14.648,34.180,29.297,2.930,59.570
1532484415.994,16.602,41.992,30.762,3.906,-39.551
1532484415.998,23.438,45.898,30.762,13.184,42.480
1532484416.002,21.973,32.715,30.762,17.090,140.137
1532484416.005,18.555,30.762,30.273,7.324,42.480
1532484416.009,20.020,37.598,28.809,-2.441,-69.824
1532484416.013,23.438,32.715,27.344,-1.465,-72.754
1532484416.017,24.414,30.273,29.785,4.883,23.926
1532484416.021,19.531,33.691,28.320,2.930,96.680
1532484416.025,17.578,36.621,24.414,-0.977,0.977
1532484416.029,25.391,36.621,21.484,1.953,32.227
1532484416.033,33.691,27.832,18.066,-1.953,144.043
1532484416.037,29.785,24.414,18.066,-10.254,156.250
1532484416.041,28.809,35.156,20.996,-12.207,53.711
1532484416.044,33.691,42.480,23.438,-8.301,-14.160
1532484416.048,34.180,43.945,22.949,1.953,96.680
1532484416.052,33.691,40.527,23.926,5.371,108.398
1532484416.056,34.180,39.551,25.391,-4.395,-42.480
1532484416.060,38.574,47.363,24.414,-9.766,-72.266
1532484416.064,43.945,47.852,23.438,2.441,40.039
1532484416.068,36.133,36.621,24.902,9.277,154.297
1532484416.072,24.902,27.832,25.391,-8.301,49.316
1532484416.076,22.949,33.691,24.414,-18.555,-147.949
1532484416.080,29.297,42.480,26.855,-5.859,-78.613
1532484416.084,29.785,33.691,23.926,-0.977,76.172
1532484416.087,24.902,30.762,20.996,-6.836,99.609
1532484416.091,25.879,36.133,24.414,-6.348,-44.922
1532484416.095,32.715,41.992,25.391,-3.418,-46.875
1532484416.099,34.180,38.086,30.273,-0.488,86.914
1532484416.103,23.926,27.832,32.715,-6.348,85.449
1532484416.107,17.578,31.738,33.691,-6.348,28.320
1532484416.111,25.391,33.691,35.156,-2.930,-28.320
1532484416.115,26.855,34.180,36.133,-0.488,-37.598
1532484416.119,20.996,34.180,33.691,-1.953,75.195
1532484416.123,19.531,31.250,31.738,-6.348,61.523
1532484416.127,19.043,40.527,32.227,-7.324,-33.691
1532484416.130,20.996,30.762,30.762,2.441,18.555
1532484416.134,24.902,18.555,28.320,8.301,114.746
1532484416.138,21.484,24.414,30.273,-7.324,67.383
1532484416.142,20.508,33.203,32.227,-13.184,-71.777
1532484416.146,22.949,37.109,28.809,0.977,-37.598
1532484416.150,19.531,28.320,29.297,4.395,76.172
1532484416.154,16.113,20.508,33.203,-7.812,-21.484
1532484416.158,17.578,29.785,31.250,-12.207,-115.234
1532484416.162,20.508,33.691,29.785,-3.906,-15.625
1532484416.166,18.066,26.855,31.250,3.906,103.516
1532484416.169,8.789,20.508,34.668,2.441,148.438
1532484416.173,6.348,26.367,36.621,-4.395,-3.906
1532484416.177,15.625,36.621,32.715,-2.930,-71.289
1532484416.181,21.484,29.297,32.715,2.441,55.176
1532484416.185,17.578,19.043,33.691,2.930,139.160
1532484416.189,11.230,25.879,32.227,-2.441,59.082
1532484416.193,14.160,36.621,30.273,-4.883,-75.684
1532484416.197,20.508,40.039,32.227,1.953,-58.105
1532484416.201,13.672,35.645,34.180,7.812,45.410
1532484416.205,1.465,26.367,31.250,-2.930,41.016
1532484416.209,2.441,29.785,29.785,-10.254,-20.508
1532484416.212,10.742,32.715,31.738,-6.836,-83.008
1532484416.216,12.207,31.738,31.738,0.488,-15.137
1532484416.220,8.789,32.227,29.785,0.488,111.816
1532484416.224,9.766,32.715,27.832,-4.395,23.926
1532484416.228,20.508,37.598,28.320,1.465,-23.926
1532484416.232,28.320,29.785,29.297,9.766,57.129
1532484416.236,23.438,22.949,29.297,9.766,121.094
1532484416.240,20.508,25.391,30.762,2.930,8.301
1532484416.244,23.438,31.250,29.297,0.488,-144.043
1532484416.248,27.344,36.133,31.738,12.207,11.230
1532484416.251,28.320,31.250,38.574,20.996,136.719
1532484416.255,20.020,25.391,38.574,8.789,-70.312
1532484416.259,20.996,34.668,35.645,3.418,-157.227
1532484416.263,27.344,38.574,33.691,14.160,-3.906
1532484416.267,27.344,32.227,31.738,15.137,154.785
1532484416.271,20.996,28.320,30.273,1.465,104.492
1532484416.275,18.555,33.203,31.738,-4.395,-57.129
1532484416.279,23.926,33.691,33.691,-1.465,-23.926
1532484416.283,25.879,23.438,34.668,6.348,142.578
1532484416.287,22.949,20.508,39.062,4.883,118.164
1532484416.291,20.508,25.879,38.574,-3.906,-34.668
1532484416.294,21.484,29.297,32.227,-8.301,-138.672
1532484416.298,24.414,32.227,28.809,0.488,-13.672
1532484416.302,27.344,25.391,29.785,10.742,164.551
1532484416.306,23.438,23.926,29.297,5.371,77.148
1532484416.310,20.996,35.645,28.809,-0.488,-20.508
1532484416.314,27.832,35.156,30.762,7.812,22.949
1532484416.318,25.391,22.949,28.809,17.090,98.145
1532484416.322,17.578,29.297,24.414,4.883,67.871
1532484416.326,20.996,39.551,24.414,-3.906,-30.273
1532484416.330,27.344,34.668,22.949,2.930,14.648
1532484416.334,23.926,20.508,24.414,9.766,119.141
1532484416.337,15.625,20.996,26.855,-5.371,59.570
1532484416.341,15.137,35.156,25.879,-11.719,-14.648
1532484416.345,20.996,35.645,27.832,3.418,-14.648
1532484416.349,22.461,30.273,28.809,7.812,101.074
1532484416.353,16.113,20.020,27.344,0.000,82.031
1532484416.357,11.719,25.391,27.832,-9.766,-89.844
1532484416.361,19.043,36.621,30.762,1.953,-48.340
1532484416.365,23.926,29.785,29.297,7.812,70.801
1532484416.369,20.020,20.508,27.832,0.488,133.789
1532484416.373,17.578,25.391,28.320,-5.371,46.387
1532484416.376,19.043,32.227,23.926,-5.859,-74.707
1532484416.380,19.531,29.297,24.414,5.371,-30.762
1532484416.384,15.625,24.902,27.832,11.230,79.102
1532484416.388,7.324,19.531,27.832,-6.348,85.938
1532484416.392,7.324,23.926,24.902,-21.484,-42.969
1532484416.396,17.090,28.809,24.902,-9.766,-109.863
1532484416.400,19.531,28.809,23.438,-3.418,86.426
1532484416.404,14.160,22.461,24.902,-9.277,129.395
1532484416.408,13.672,24.902,26.855,-5.371,-0.488
1532484416.412,21.484,29.785,25.391,-7.324,-27.344
1532484416.416,26.367,27.344,27.832,0.488,57.129
1532484416.419,21.484,21.484,27.344,7.324,107.910
1532484416.423,18.066,30.762,26.855,0.488,-2.441
1532484416.427,22.461,39.551,27.832,0.977,-86.426
1532484416.431,23.926,23.926,27.832,5.859,3.418
1532484416.435,21.484,12.695,31.738,2.441,23.438
1532484416.439,19.043,25.879,31.738,-1.465,-14.648
1532484416.443,22.949,36.621,28.320,-0.488,-41.016
1532484416.447,28.320,39.062,27.832,3.418,27.832
1532484416.451,25.391,30.762,30.762,11.230,138.184
1532484416.455,20.508,27.344,33.203,5.859,65.430
1532484416.459,20.508,36.621,31.250,-3.906,-16.113
1532484416.462,27.832,38.574,30.273,-0.977,23.438
1532484416.466,29.785,32.227,30.762,16.113,142.578
1532484416.470,23.438,26.855,31.250,8.301,127.930
1532484416.474,19.043,29.297,29.297,-2.441,-37.109
1532484416.478,26.855,31.250,27.832,5.859,-96.191
1532484416.482,34.180,29.785,29.297,13.672,66.406
1532484416.486,32.227,22.461,29.297,14.648,136.230
1532484416.490,25.391,23.926,28.809,11.230,74.219
1532484416.494,24.414,38.574,28.809,6.348,-98.145
1532484416.498,29.297,41.504,31.738,14.648,-79.590
1532484416.501,22.949,27.344,35.156,21.973,126.465
1532484416.505,16.113,29.785,34.668,15.137,78.125
1532484416.509,18.555,38.574,30.273,8.301,-0.977
1532484416.513,24.902,35.156,29.785,14.160,17.578
1532484416.517,24.414,27.832,30.273,27.832,107.422
1532484416.521,22.949,25.879,29.785,23.926,62.012
1532484416.525,23.926,35.156,26.367,8.301,-108.398
1532484416.529,30.273,41.016,28.320,12.695,-33.691
1532484416.533,30.273,30.273,30.762,21.973,31.738
1532484416.537,21.973,20.996,29.297,17.090,-34.668
1532484416.541,18.555,28.320,29.785,15.625,-45.898
1532484416.544,21.973,36.621,29.785,16.602,-78.613
1532484416.548,26.855,33.691,27.832,23.926,47.363
1532484416.552,25.391,26.855,32.227,28.320,117.676
1532484416.556,19.043,32.715,34.668,18.555,-3.418
1532484416.560,18.555,39.062,31.738,15.137,-60.059
1532484416.564,23.926,37.598,32.715,19.043,22.461
1532484416.568,23.438,34.668,35.156,17.578,115.234
1532484416.572,16.113,24.414,34.668,2.441,0.977
1532484416.576,13.672,26.855,31.250,-0.977,-175.781
1532484416.580,24.414,34.180,31.250,6.836,-62.012
1532484416.583,24.414,30.762,30.762,13.184,133.301
1532484416.587,16.602,29.785,31.738,1.465,146.484
1532484416.591,17.090,37.109,32.227,-10.742,-3.906
1532484416.595,21.484,41.016,33.691,1.953,-63.965
1532484416.599,25.879,36.621,34.668,13.672,88.867
1532484416.603,22.461,27.344,32.715,11.719,134.277
1532484416.607,15.625,33.203,30.762,2.930,12.207
1532484416.611,17.578,37.598,28.809,1.465,-82.031
1532484416.615,22.461,35.156,28.809,13.672,-16.602
1532484416.619,20.996,35.645,31.250,15.625,83.496
1532484416.623,14.160,34.668,32.227,6.348,-9.277
1532484416.626,13.672,35.156,29.785,7.324,-49.805
1532484416.630,20.020,29.785,26.855,13.672,53.223
1532484416.634,18.555,22.461,28.320,16.602,10.742
1532484416.638,8.301,24.414,29.297,12.207,-26.367
1532484416.642,10.742,29.297,30.273,2.930,-29.785
1532484416.646,20.020,27.344,32.227,9.766,9.277
1532484416.650,20.020,21.484,34.180,19.043,144.531
1532484416.654,14.160,20.020,32.715,2.930,85.449
1532484416.658,14.648,26.855,28.320,-3.418,-19.043
1532484416.662,20.020,29.297,28.809,9.766,-62.012
1532484416.666,19.043,26.855,31.738,10.254,17.578
1532484416.669,16.602,25.391,33.691,7.324,130.371
1532484416.673,15.625,22.949,31.250,-0.977,-67.383
1532484416.677,16.602,31.738,30.273,-9.277,-179.199
1532484416.681,22.949,38.086,32.715,4.883,33.203
1532484416.685,24.414,28.320,30.273,14.648,157.715
1532484416.689,18.066,30.273,28.320,6.836,86.914
1532484416.693,14.648,38.086,27.344,0.977,-50.781
1532484416.697,20.020,42.480,25.879,5.859,22.949
1532484416.701,23.438,34.180,27.344,10.254,158.691
1532484416.705,18.555,30.762,27.344,6.348,120.605
1532484416.708,16.113,36.621,25.879,0.977,-8.301
1532484416.712,21.973,34.668,25.391,-0.977,-111.328
1532484416.716,26.855,27.344,25.391,5.371,-10.254
1532484416.720,21.973,21.973,24.902,3.906,116.699
1532484416.724,17.578,31.250,25.391,-6.836,14.160
1532484416.728,24.414,41.992,24.902,-7.812,-10.742
1532484416.732,26.367,37.109,26.367,5.371,89.355
1532484416.736,23.438,28.809,30.273,8.789,141.113
1532484416.740,20.508,36.133,33.203,-4.395,59.570
1532484416.744,20.996,39.062,32.715,2.441,-41.016
1532484416.748,28.809,33.203,32.715,14.648,65.430
1532484416.751,23.926,26.367,33.203,6.836,127.441
1532484416.755,12.207,25.879,35.156,-6.836,-10.742
1532484416.759,13.672,36.133,33.203,-5.859,-121.582
1532484416.763,20.996,36.621,32.715,1.465,-23.926
1532484416.767,16.113,25.391,36.621,4.395,172.363
1532484416.771,6.836,20.020,39.062,-7.324,111.328
1532484416.775,7.324,30.762,36.133,-16.113,-126.953
1532484416.779,10.742,40.527,33.203,-0.977,-99.609
1532484416.783,9.766,33.691,32.715,9.766,106.934
1532484416.787,4.883,24.902,33.691,6.836,141.602
1532484416.791,3.906,24.414,33.203,1.465,-30.762
1532484416.794,11.719,28.320,31.250,0.977,-112.793
1532484416.798,14.160,25.879,29.297,0.977,75.195
1532484416.802,10.254,19.043,35.156,-2.441,135.254
1532484416.806,9.766,23.926,37.109,-6.836,-17.578
1532484416.810,12.207,33.691,32.227,-17.090,-65.918
1532484416.814,14.648,26.367,34.180,-6.348,-76.660
1532484416.818,11.230,22.949,34.668,9.766,8.789
1532484416.822,5.859,29.785,31.738,-0.488,87.891
1532484416.826,6.836,31.250,26.855,-8.789,-27.344
1532484416.830,13.184,31.250,25.879,-2.930,10.254
1532484416.833,16.113,26.367,28.809,-2.441,133.301
1532484416.837,15.137,27.344,32.227,-0.977,116.211
1532484416.841,16.602,36.621,33.203,0.977,2.930
1532484416.845,21.973,39.062,29.297,-0.488,4.883
1532484416.849,21.484,34.180,30.273,8.301,120.117
1532484416.853,15.137,21.973,31.738,-3.418,28.320
1532484416.857,10.742,33.203,29.785,-14.160,-144.531
1532484416.861,18.066,48.828,27.832,-6.348,-74.219
1532484416.865,25.879,43.945,28.320,2.441,99.609
1532484416.869,26.367,40.039,30.762,4.883,184.570
1532484416.873,24.414,30.762,29.297,-3.906,48.828
1532484416.876,26.855,37.109,27.832,-1.465,-59.082
1532484416.880,32.227,45.410,27.832,6.836,50.781
1532484416.884,30.762,39.551,26.367,0.977,168.945
1532484416.888,25.391,35.645,25.879,-5.371,113.770
1532484416.892,22.461,38.574,25.879,-7.324,-42.969
1532484416.896,26.855,43.457,25.391,-4.883,-57.129
1532484416.900,32.715,39.551,29.297,4.883,53.711
1532484416.904,32.227,37.109,32.227,1.465,116.699
1532484416.908,27.344,42.480,28.320,-5.859,12.207
1532484416.912,28.809,46.387,29.785,1.953,-96.680
1532484416.916,30.273,46.387,29.785,11.719,-25.391
1532484416.919,21.973,40.527,29.785,10.254,97.656
1532484416.923,19.531,35.645,34.668,2.441,65.430
1532484416.927,25.879,41.016,33.691,8.301,-31.738
1532484416.931,31.250,42.480,32.715,19.531,37.109
1532484416.935,29.297,34.180,38.574,20.020,135.254
1532484416.939,26.367,34.668,41.016,17.090,114.258
1532484416.943,27.832,38.574,39.551,15.625,-15.137
1532484416.947,28.320,41.016,37.598,19.043,-10.254
1532484416.951,26.855,33.203,35.645,13.184,130.859
1532484416.955,21.484,23.926,32.715,8.301,-6.348
1532484416.958,17.578,39.551,31.250,10.254,-110.840
1532484416.962,20.508,43.945,30.762,8.301,35.156
1532484416.966,22.461,34.180,28.809,17.090,166.504
1532484416.970,20.508,22.461,33.203,16.602,122.070
1532484416.974,18.066,25.391,32.227,2.441,-6.836
1532484416.978,20.020,34.180,26.367,-1.953,2.930
1532484416.982,26.367,31.250,28.320,7.324,131.836
1532484416.986,23.926,23.438,30.273,10.254,191.406
1532484416.990,17.090,23.926,30.762,-1.953,53.711
1532484416.994,19.531,31.250,30.273,-2.930,-162.109
1532484416.998,21.973,36.621,28.320,6.836,-61.035
1532484417.001,16.602,33.691,29.297,10.254,194.824
1532484417.005,8.301,28.320,25.391,-4.395,117.676
1532484417.009,9.766,33.691,20.996,-14.160,10.742
1532484417.013,20.508,33.691,22.949,-2.441,24.902
1532484417.017,20.508,31.250,22.949,1.953,106.934
1532484417.021,14.160,29.297,25.879,-4.395,113.281
1532484417.025,17.578,35.645,26.855,-9.766,-31.738
1532484417.029,21.973,35.156,24.414,-0.488,-62.012
1532484417.033,22.461,23.438,24.414,7.812,81.055
1532484417.037,19.531,19.531,25.391,-2.441,93.262
1532484417.040,13.672,33.203,24.902,-10.254,-32.715
1532484417.044,16.602,41.992,24.902,-4.395,-81.543
1532484417.048,24.414,39.551,25.879,4.883,68.359
1532484417.052,22.461,29.297,23.438,-4.883,106.445
1532484417.056,20.996,32.227,21.484,-20.508,-50.781
1532484417.060,26.367,45.410,21.973,-18.066,-32.715
1532484417.064,30.273,42.480,21.973,-3.418,95.703
1532484417.068,27.344,31.738,24.414,3.906,169.434
1532484417.072,21.973,31.250,27.344,-2.441,64.453
1532484417.076,22.461,39.062,23.926,-8.789,-48.828
1532484417.080,29.785,33.203,21.484,1.953,2.441
1532484417.083,29.785,18.555,23.926,10.254,84.473
1532484417.087,21.973,19.531,23.926,-4.395,58.105
1532484417.091,21.484,31.738,23.438,-13.184,-67.871
1532484417.095,26.367,36.133,21.484,-4.883,-158.691
1532484417.099,27.344,37.598,25.879,6.836,37.109
1532484417.103,24.414,30.762,31.738,3.418,154.785
1532484417.107,20.508,36.133,31.738,1.465,41.992
1532484417.111,23.438,44.434,31.250,3.906,-29.785
1532484417.115,31.250,40.039,28.320,13.672,59.082
1532484417.119,26.855,35.156,26.855,16.113,187.012
1532484417.123,19.043,33.203,28.809,2.441,82.031
1532484417.126,12.695,36.621,30.762,0.488,-24.414
1532484417.130,20.020,32.227,32.715,10.254,25.391
1532484417.134,27.344,27.832,34.668,9.277,15.137
1532484417.138,15.137,31.250,32.227,-2.930,-1.953
1532484417.142,11.719,34.180,30.273,-6.836,4.395
1532484417.146,20.020,36.621,29.785,0.000,-17.578
1532484417.150,22.461,31.738,28.809,6.348,94.238
1532484417.154,15.625,27.832,33.203,3.418,113.281
1532484417.158,12.695,36.133,35.156,0.000,-14.648
1532484417.162,21.484,42.969,31.250,3.906,-23.926
1532484417.165,25.879,38.574,28.320,16.113,109.375
1532484417.169,21.484,30.762,30.762,13.672,173.340
1532484417.173,18.555,31.738,30.273,1.953,44.922
1532484417.177,19.531,37.109,26.855,1.953,-71.289
1532484417.181,21.484,35.645,26.855,2.930,9.766
1532484417.185,16.602,30.273,26.367,1.953,112.793
1532484417.189,10.742,35.645,25.391,-2.930,94.727
1532484417.193,10.742,33.691,23.926,-11.230,-78.125
1532484417.197,15.625,30.762,25.879,2.930,-119.629
1532484417.201,20.508,33.203,29.297,16.602,136.719
1532484417.205,17.090,29.785,31.738,14.160,101.562
1532484417.208,13.184,37.598,32.227,12.207,-56.641
1532484417.212,20.996,36.621,27.344,10.254,-21.973
1532484417.216,21.973,31.250,26.855,12.695,119.629
1532484417.220,14.160,26.367,27.344,14.160,182.617
1532484417.224,8.789,27.832,23.438,-7.324,-8.789
1532484417.228,14.160,35.645,24.414,-9.277,-88.379
1532484417.232,18.066,29.297,22.461,9.766,21.973
1532484417.236,14.648,18.555,20.996,4.883,32.227
1532484417.240,15.137,28.809,25.391,-3.906,26.855
1532484417.244,21.484,32.227,22.461,4.395,0.977
1532484417.248,28.809,23.926,22.949,18.555,49.316
1532484417.251,28.320,20.996,26.367,18.066,83.496
1532484417.255,20.508,27.832,25.391,5.859,43.945
1532484417.259,17.578,37.109,24.414,-1.953,-1.953
1532484417.263,26.855,40.039,24.414,6.836,-18.555
1532484417.267,29.785,38.086,26.855,13.672,90.820
1532484417.271,23.926,31.738,27.344,9.277,64.941
1532484417.275,21.973,34.180,27.832,0.000,-123.047
1532484417.279,24.414,40.527,27.832,9.766,-68.359
1532484417.283,23.926,36.133,25.879,15.625,91.797
1532484417.287,20.508,32.715,27.832,9.766,121.582
1532484417.290,22.461,34.668,31.738,10.254,-0.977
1532484417.294,32.715,36.133,32.715,3.906,-128.418
1532484417.298,37.598,39.062,32.715,7.324,24.414
1532484417.302,28.809,28.809,34.668,12.695,164.062
1532484417.306,19.043,23.926,35.645,6.836,60.547
1532484417.310,20.508,36.133,33.203,-0.488,-58.105
1532484417.314,25.879,41.992,32.227,11.230,18.066
1532484417.318,19.531,29.785,29.785,9.277,129.883
1532484417.322,8.789,26.367,27.344,-8.301,25.391
1532484417.326,10.742,42.480,27.832,-2.930,-102.051
1532484417.330,18.555,44.434,27.344,2.441,-21.484
1532484417.333,18.066,30.273,31.738,-0.488,43.945
1532484417.337,14.648,30.273,35.645,-0.977,17.090
1532484417.341,14.160,39.551,32.715,-3.906,-17.578
1532484417.345,17.090,40.527,28.809,5.859,-37.109
1532484417.349,19.043,33.203,29.297,19.531,86.914
1532484417.353,18.555,23.438,30.273,13.672,112.305
1532484417.357,19.043,29.297,34.668,11.230,13.184
1532484417.361,25.391,38.086,38.086,9.277,-54.199
1532484417.365,30.762,40.527,36.621,10.254,-16.113
1532484417.369,23.438,32.715,34.668,11.230,61.035
1532484417.372,14.648,24.414,31.738,-4.883,-61.035
1532484417.376,14.648,36.621,29.297,-10.254,-147.949
1532484417.380,21.484,39.062,28.320,-2.441,13.672
1532484417.384,21.973,23.926,29.785,0.977,93.262
1532484417.388,17.090,28.320,32.715,3.418,83.984
1532484417.392,15.137,36.133,31.738,-6.348,-33.203
1532484417.396,21.973,38.574,30.273,-1.953,-46.387
1532484417.400,23.926,33.203,30.762,14.648,119.141
1532484417.404,16.113,24.902,32.227,3.906,142.578
1532484417.408,13.672,28.320,32.715,1.953,26.855
1532484417.412,23.926,27.832,32.227,3.418,-92.285
1532484417.415,31.250,29.297,34.668,12.695,-49.316
1532484417.419,28.809,32.715,34.668,20.020,86.426
1532484417.423,25.391,33.691,33.691,10.742,30.762
1532484417.427,28.809,39.551,32.227,3.418,-42.480
1532484417.431,36.133,35.156,32.227,2.930,-3.418
1532484417.435,32.227,27.344,35.156,0.977,53.711
1532484417.439,21.484,30.273,37.598,-6.348,49.316
1532484417.443,21.484,36.621,37.109,2.441,-73.730
1532484417.447,26.855,39.062,33.691,17.090,-32.227
1532484417.451,25.391,23.926,35.156,19.531,99.121
1532484417.455,19.531,28.320,40.039,12.207,82.520
1532484417.458,21.484,42.969,39.062,3.418,-22.461
1532484417.462,26.367,30.762,32.715,6.836,-99.121
1532484417.466,27.344,25.879,33.203,10.742,72.266
1532484417.470,19.531,27.832,33.691,3.906,183.105
1532484417.474,15.625,30.762,32.715,-5.371,-70.801
1532484417.478,21.484,41.504,36.133,-2.930,-151.367
1532484417.482,22.949,40.527,32.715,3.418,86.426
1532484417.486,20.508,26.367,30.273,2.930,180.664
1532484417.490,17.578,24.414,31.250,-2.441,41.016
1532484417.494,23.438,34.180,26.855,-2.930,-86.426
1532484417.497,28.809,34.668,28.809,4.883,0.000
1532484417.501,24.414,27.344,30.273,5.859,113.770
1532484417.505,17.578,25.391,26.855,-3.906,21.973
1532484417.509,19.531,38.574,24.414,-4.395,-91.797
1532484417.513,27.344,38.086,28.320,2.441,-91.797
1532484417.517,26.367,24.414,30.273,2.441,-1.953
1532484417.521,20.996,25.391,29.785,1.465,93.262
1532484417.525,22.949,34.180,29.785,-0.977,18.066
1532484417.529,30.762,37.109,29.785,8.301,11.230
1532484417.533,35.645,34.180,29.297,23.438,85.938
1532484417.537,29.785,31.738,26.855,18.066,134.277
1532484417.540,24.414,34.180,29.297,6.348,57.129
1532484417.544,30.762,38.086,29.785,11.719,-15.137
1532484417.548,35.156,37.109,31.250,26.855,79.102
1532484417.552,28.320,32.227,33.203,17.090,119.629
1532484417.556,22.461,35.645,31.250,-1.465,22.949
1532484417.560,24.414,45.410,30.762,0.000,-78.125
1532484417.564,23.926,43.457,30.762,7.324,-10.742
1532484417.568,15.625,37.598,28.809,-1.465,173.828
1532484417.572,10.742,30.273,29.297,-9.277,80.566
1532484417.576,10.742,38.086,31.250,-12.207,-117.188
1532484417.580,12.207,44.922,28.320,-5.859,-4.395
1532484417.583,14.160,32.227,26.855,7.812,157.227
1532484417.587,10.742,28.320,27.832,2.441,141.113
1532484417.591,10.742,36.133,28.320,1.465,-15.137
1532484417.595,20.996,41.992,23.438,12.695,-24.414
1532484417.599,19.043,34.668,28.809,18.066,63.965
1532484417.603,10.254,28.809,34.180,11.230,72.266
1532484417.607,11.719,36.621,30.273,0.977,42.480
1532484417.611,18.555,42.480,32.715,2.930,-16.602
1532484417.615,21.973,39.551,32.227,12.695,-22.461
1532484417.619,19.043,36.133,26.855,13.672,52.246
1532484417.622,14.160,35.156,26.855,4.395,59.082
1532484417.626,15.137,42.480,26.367,6.836,-22.461
1532484417.630,12.695,45.410,27.344,6.836,31.738
1532484417.634,11.719,36.621,29.785,6.836,138.672
1532484417.638,20.996,30.273,31.738,7.812,97.656
1532484417.642,20.508,36.621,29.297,5.371,-10.742
1532484417.646,18.555,38.574,26.367,5.371,-41.992
1532484417.650,14.160,32.227,26.367,-0.488,58.594
1532484417.654,7.324,25.391,26.855,-2.930,57.617
1532484417.658,5.859,33.203,24.414,-0.977,-62.988
1532484417.662,12.207,40.039,23.438,5.371,-20.020
1532484417.665,20.020,35.645,25.391,16.113,118.164
1532484417.669,22.949,26.855,26.367,17.578,171.387
1532484417.673,21.484,30.762,26.367,9.766,53.223
1532484417.677,17.090,40.039,25.391,9.277,-24.902
1532484417.681,18.555,39.062,25.879,14.648,33.691
1532484417.685,22.949,35.156,24.902,9.766,132.812
1532484417.689,20.020,32.715,23.438,-3.418,97.656
1532484417.693,17.578,31.738,27.344,-1.953,-16.602
1532484417.697,22.461,33.691,28.320,4.883,-27.344
1532484417.701,23.438,35.645,26.855,5.859,108.398
1532484417.704,17.090,34.668,27.344,-2.930,130.859
1532484417.708,18.066,40.527,27.832,-9.277,28.320
1532484417.712,30.762,38.574,27.832,-1.953,-30.273
1532484417.716,35.645,34.180,23.926,-0.488,10.254
1532484417.720,26.855,29.785,22.949,-2.930,110.840
1532484417.724,20.996,28.809,26.367,-0.488,47.852
1532484417.728,24.414,33.203,22.949,3.906,-6.836
1532484417.732,25.879,30.273,25.391,12.695,79.102
1532484417.736,21.973,26.855,28.809,10.254,146.484
1532484417.740,17.578,23.926,26.855,1.465,20.020
1532484417.744,18.555,30.273,25.879,-1.465,-136.719
1532484417.747,21.973,35.156,26.855,9.766,6.836
1532484417.751,21.484,23.438,29.297,10.254,154.785
1532484417.755,16.113,25.391,27.344,-3.906,13.184
1532484417.759,19.043,42.480,23.926,-0.977,-28.320
1532484417.763,29.785,41.504,25.391,10.254,56.152
1532484417.767,26.855,35.156,27.832,13.672,167.480
1532484417.771,20.020,31.250,30.762,5.859,142.090
1532484417.775,24.414,30.762,30.762,-4.395,-9.766
1532484417.779,32.227,37.598,29.297,6.348,-4.395
1532484417.783,31.738,34.668,28.809,19.531,126.953
1532484417.787,27.344,24.414,30.762,12.695,145.020
1532484417.790,27.832,30.273,32.227,0.977,3.418
1532484417.794,30.762,36.621,28.809,-6.348,-150.879
1532484417.798,35.645,38.574,30.273,10.254,-30.762
1532484417.802,34.180,31.250,31.250,15.625,182.617
1532484417.806,26.367,29.785,30.762,7.324,104.004
1532484417.810,25.879,39.062,31.738,5.859,0.488
1532484417.814,33.203,39.062,29.297,6.348,28.320
1532484417.818,30.762,32.227,30.762,12.695,138.672
1532484417.822,20.020,29.297,35.645,8.789,106.934
1532484417.826,18.066,35.645,36.133,-4.883,-29.785
1532484417.829,23.926,38.086,33.691,-2.930,16.113
1532484417.833,25.391,30.273,33.203,10.742,109.375
1532484417.837,20.508,24.414,37.598,4.883,30.273
1532484417.841,18.066,34.180,39.062,-7.324,-80.078
1532484417.845,20.020,38.086,34.180,0.977,-59.082
1532484417.849,22.461,36.133,35.645,17.090,134.277
1532484417.853,19.531,24.414,35.156,7.812,87.891
1532484417.857,11.719,28.320,31.738,-4.395,-139.648
1532484417.861,16.602,41.504,35.156,4.395,-91.797
1532484417.865,23.438,32.227,35.645,17.578,55.176
1532484417.869,17.578,22.949,33.203,14.648,162.109
1532484417.872,14.160,25.391,30.762,5.859,66.895
1532484417.876,17.090,34.668,27.832,7.324,-41.992
1532484417.880,24.414,33.203,28.320,16.602,7.324
1532484417.884,26.855,29.297,30.273,21.484,64.941
1532484417.888,19.043,32.227,32.227,11.719,114.746
1532484417.892,16.113,30.273,31.250,4.395,-30.273
1532484417.896,21.973,36.133,27.832,8.301,-143.066
1532484417.900,23.926,42.969,31.250,14.160,81.055
1532484417.904,16.113,34.180,34.180,10.254,170.898
1532484417.908,11.719,34.668,30.762,3.418,37.598
1532484417.912,16.602,39.062,26.855,2.930,-33.203
1532484417.915,23.438,37.109,28.809,2.930,33.691
1532484417.919,20.020,33.691,31.738,1.953,101.074
1532484417.923,12.695,34.180,32.715,1.465,32.715
1532484417.927,15.137,35.645,28.809,-5.371,-44.922
1532484417.931,20.508,31.738,28.809,2.441,3.418
1532484417.935,18.066,26.855,34.668,4.395,-2.441
1532484417.939,16.113,38.574,32.227,-0.977,-6.348
1532484417.943,20.020,44.922,28.320,0.977,-16.602
1532484417.947,22.461,43.457,32.227,6.836,29.785
1532484417.951,22.461,34.180,32.227,10.742,147.949
1532484417.954,18.555,28.320,33.691,6.836,87.402
1532484417.958,19.043,38.574,32.715,2.441,-23.438
1532484417.962,25.391,44.922,28.320,0.000,-33.691
1532484417.966,21.973,39.062,29.297,7.812,106.934
1532484417.970,17.578,31.738,30.762,0.488,180.664
1532484417.974,20.996,37.109,27.832,-9.766,10.742
1532484417.978,27.832,41.016,26.367,3.906,-105.957
1532484417.982,30.762,33.691,25.391,10.742,41.016
1532484417.986,30.273,31.738,25.879,7.324,123.535
1532484417.990,26.367,41.504,28.809,2.930,67.383
1532484417.994,27.344,44.922,29.785,-5.859,-114.258
1532484417.997,33.203,44.434,29.297,3.906,-93.262
1532484418.001,24.902,41.504,27.832,14.648,161.133
1532484418.005,19.043,35.645,24.414,0.977,120.605
1532484418.009,23.926,41.992,24.414,-4.395,3.906
1532484418.013,29.785,44.434,26.855,7.324,-6.348
1532484418.017,27.832,37.598,23.926,11.230,135.742
1532484418.021,26.367,29.297,24.902,6.836,136.230
1532484418.025,27.344,33.691,28.320,4.395,-72.266
1532484418.029,24.902,45.898,26.855,9.766,-35.156
1532484418.033,28.320,38.086,26.367,9.277,73.730
1532484418.037,26.367,30.762,27.832,1.465,20.996
1532484418.040,24.902,41.504,28.320,5.371,-4.883
1532484418.044,30.273,44.922,29.297,12.695,-24.902
1532484418.048,34.180,41.504,30.273,19.531,97.656
1532484418.052,31.738,28.320,29.785,19.531,129.395
1532484418.056,23.926,29.785,29.785,7.324,-0.488
1532484418.060,23.926,42.969,29.785,4.883,-29.297
1532484418.064,30.273,42.969,30.273,8.789,75.195
1532484418.068,23.926,33.203,29.785,5.859,168.945
1532484418.072,16.602,31.250,32.715,-7.812,45.898
1532484418.076,21.973,41.992,36.621,-8.301,-131.348
1532484418.079,27.832,48.828,33.691,10.254,-43.945
1532484418.083,26.855,41.016,32.715,15.137,164.062
1532484418.087,20.508,36.621,34.668,11.230,171.875
1532484418.091,17.578,38.574,35.645,8.301,-29.297
1532484418.095,25.391,41.504,35.645,16.113,-77.637
1532484418.099,25.879,40.039,30.273,23.438,112.793
1532484418.103,20.508,29.785,29.785,13.672,168.945
1532484418.107,16.602,32.227,33.691,0.977,88.867
1532484418.111,20.508,33.691,33.691,8.301,-16.602
1532484418.115,24.414,30.762,33.203,25.391,9.766
1532484418.119,18.555,32.227,35.156,25.391,116.699
1532484418.122,14.648,35.156,35.645,10.742,63.477
1532484418.126,14.160,42.480,33.203,-4.395,-14.648
1532484418.130,18.555,41.992,34.668,3.418,55.664
1532484418.134,20.508,32.227,34.668,9.277,33.203
1532484418.138,15.625,33.691,32.715,4.395,-17.578
1532484418.142,15.137,40.527,33.203,5.371,-31.738
1532484418.146,24.902,43.457,32.715,7.812,-24.902
1532484418.150,28.809,38.086,33.203,16.113,111.328
1532484418.154,24.414,31.738,30.273,11.719,95.215
1532484418.158,21.484,39.062,27.832,2.930,-6.348
1532484418.161,23.438,40.527,28.320,10.254,-50.781
1532484418.165,30.273,35.156,30.273,23.438,24.414
1532484418.169,29.785,33.203,31.738,23.438,168.945
1532484418.173,26.855,29.297,33.691,4.883,-7.812
1532484418.177,30.273,37.109,34.180,2.441,-165.039
1532484418.181,36.621,41.504,31.250,23.438,42.969
1532484418.185,34.180,30.273,31.250,20.508,149.414
1532484418.189,23.926,25.879,31.738,8.301,82.031
1532484418.193,21.973,33.203,29.785,8.301,-34.668
1532484418.197,26.855,41.504,29.785,12.695,19.043
1532484418.201,25.391,35.156,28.320,12.695,173.828
1532484418.204,22.461,29.785,27.832,5.859,174.316
1532484418.208,24.902,34.668,27.344,-0.977,-2.441
1532484418.212,26.855,35.156,27.832,-1.465,-128.418
1532484418.216,24.902,34.180,28.809,-3.906,-35.156
1532484418.220,16.602,31.738,27.832,-3.418,106.445
1532484418.224,12.207,29.785,29.785,-1.953,62.012
1532484418.228,17.578,30.762,30.762,9.766,-16.113
1532484418.232,19.043,28.809,29.297,16.113,44.922
1532484418.236,11.719,22.949,29.297,9.766,118.164
1532484418.240,10.254,23.926,32.715,3.418,63.477
1532484418.244,15.137,31.738,31.738,0.000,-21.484
1532484418.247,21.973,32.715,28.809,0.000,61.035
1532484418.251,35.645,30.273,23.926,14.160,158.691
1532484418.255,42.969,29.297,28.809,22.461,45.410
1532484418.259,18.555,30.273,41.504,4.883,-92.285
1532484418.263,2.930,29.297,41.016,10.254,-9.277
1532484418.267,17.090,21.484,37.109,20.508,125.488
1532484418.271,22.461,17.090,40.527,10.254,80.566
1532484418.275,18.555,23.438,44.434,3.906,-138.672
1532484418.279,25.391,34.668,40.039,10.254,-110.840
1532484418.283,28.809,30.273,37.598,15.137,141.602
1532484418.286,21.484,19.043,37.109,9.766,164.062
1532484418.290,20.996,20.020,33.691,3.906,16.602
1532484418.294,29.785,23.438,31.250,8.789,-78.613
1532484418.298,29.785,25.391,29.785,18.066,63.477
1532484418.302,22.461,22.461,31.250,11.230,135.742
1532484418.306,17.578,27.344,35.645,3.418,2.930
1532484418.310,23.926,38.574,34.180,8.301,-26.855
1532484418.314,31.738,33.203,29.785,7.812,-51.270
1532484418.318,30.762,31.250,32.227,12.207,18.066
1532484418.322,26.855,34.180,32.227,15.137,122.070
1532484418.326,25.879,35.645,33.203,4.395,4.395
1532484418.329,28.809,38.086,34.180,8.301,-40.039
1532484418.333,29.785,36.621,35.156,21.973,76.660
1532484418.337,23.926,29.297,36.133,19.043,133.301
1532484418.341,19.043,30.762,33.203,3.906,49.316
1532484418.345,23.438,36.621,33.691,0.977,18.555
1532484418.349,27.344,33.203,33.691,13.184,93.750
1532484418.353,21.484,25.391,33.203,1.953,48.828
1532484418.357,19.043,29.297,33.203,-4.395,-102.539
1532484418.361,27.832,38.086,32.227,8.301,-69.336
1532484418.365,32.227,36.621,31.250,8.789,77.148
1532484418.369,27.832,24.902,32.715,9.277,177.246
1532484418.372,22.949,21.973,33.691,1.953,72.754
1532484418.376,26.367,34.668,32.715,-0.488,-59.570
1532484418.380,34.180,32.227,34.180,15.137,29.785
1532484418.384,35.645,24.414,33.203,12.207,195.312
1532484418.388,31.738,23.438,31.250,-0.488,115.723
1532484418.392,28.320,35.156,33.691,3.418,-64.453
1532484418.396,35.156,44.922,35.645,7.324,-52.734
1532484418.400,43.945,39.062,34.668,7.324,56.152
1532484418.404,38.086,34.668,33.203,2.930,130.859
1532484418.408,28.809,37.598,33.203,-0.977,62.988
1532484418.411,30.762,39.062,33.691,-8.789,-44.434
1532484418.415,30.273,36.133,34.668,-0.977,-10.254
1532484418.419,23.926,31.738,34.668,10.742,109.863
1532484418.423,21.484,31.250,35.645,8.301,83.008
1532484418.427,25.879,40.527,35.156,14.160,-6.348
1532484418.431,35.156,39.551,35.156,22.461,29.297
1532484418.435,31.250,35.645,28.809,19.531,107.910
1532484418.439,23.438,41.016,25.879,6.348,128.418
1532484418.443,27.344,39.551,31.250,4.395,7.324
1532484418.447,31.250,36.133,29.297,16.113,-42.480
1532484418.451,28.809,30.273,28.320,20.020,103.516
1532484418.454,25.391,21.484,30.762,15.625,22.949
1532484418.458,23.926,36.621,29.297,5.371,-84.961
1532484418.462,27.344,37.109,26.855,3.906,24.902
1532484418.466,28.809,25.879,28.320,17.090,112.793
1532484418.470,27.344,28.809,30.762,14.160,153.809
1532484418.474,26.367,35.645,30.273,7.324,0.000
1532484418.478,28.320,44.434,30.273,15.137,-51.758
1532484418.482,31.250,39.551,29.297,12.695,114.746
1532484418.486,26.367,32.227,26.855,2.441,172.363
1532484418.490,24.902,29.297,28.320,0.977,52.246
1532484418.493,29.785,32.715,26.855,-6.348,-154.297
1532484418.497,36.133,41.504,23.438,0.977,-117.676
1532484418.501,35.156,41.016,28.809,10.742,151.855
1532484418.505,28.320,34.668,34.180,-1.953,124.512
1532484418.509,21.484,38.086,32.227,1.465,-27.832
1532484418.513,24.902,39.062,29.785,9.766,-62.012
1532484418.517,23.926,35.645,30.273,4.883,88.867
1532484418.521,16.113,28.320,31.738,6.836,188.477
1532484418.525,20.020,30.273,26.367,2.441,25.391
1532484418.529,25.879,37.109,23.926,-3.418,-39.551
1532484418.533,26.855,34.180,26.367,7.812,80.078
1532484418.536,21.973,29.297,27.832,17.578,108.887
1532484418.540,21.973,32.227,25.391,-2.441,15.137
1532484418.544,23.438,36.133,21.973,-20.020,-59.082
1532484418.548,21.973,38.574,24.414,-2.930,58.105
1532484418.552,20.508,31.250,28.809,-0.977,131.836
1532484418.556,17.090,33.203,28.809,-21.484,-38.574
1532484418.560,17.578,48.828,26.855,-21.973,-75.684
1532484418.564,21.973,47.852,26.367,-5.859,10.742
1532484418.568,22.461,37.598,26.855,2.930,114.258
1532484418.572,15.625,30.762,25.391,-6.348,81.543
1532484418.576,13.184,40.039,25.391,-13.672,-40.039
1532484418.579,21.484,45.898,26.367,-6.836,16.113
1532484418.583,22.949,34.180,26.855,0.977,80.566
1532484418.587,16.113,30.762,26.855,0.000,76.172
1532484418.591,19.043,37.109,26.367,-7.324,-4.395
1532484418.595,29.297,43.457,27.344,-6.348,-138.184
1532484418.599,31.250,46.875,26.855,7.324,31.738
1532484418.603,27.344,37.109,28.809,8.301,166.504
1532484418.607,26.367,38.574,29.297,7.812,38.086
1532484418.611,33.203,46.387,25.879,3.418,-40.527
1532484418.615,34.668,45.898,22.461,-1.953,28.320
1532484418.618,28.320,38.086,23.926,6.348,190.430
1532484418.622,25.391,30.273,29.297,9.277,118.164
1532484418.626,26.367,40.527,27.344,6.348,-59.570
1532484418.630,27.344,44.434,25.391,10.742,-12.695
1532484418.634,27.344,36.621,30.273,10.254,13.184
1532484418.638,22.949,41.016,29.297,2.441,44.434
1532484418.642,27.344,51.270,17.578,4.395,28.320
1532484418.646,51.270,52.734,18.066,20.020,-9.766
1532484418.650,33.691,39.062,35.156,14.648,128.418
1532484418.654,-0.977,26.855,41.992,-1.953,144.531
1532484418.658,6.348,31.738,41.504,-2.441,39.062
1532484418.661,23.926,33.691,43.457,8.789,-11.230
1532484418.665,27.832,29.297,41.016,24.414,86.914
1532484418.669,26.367,26.855,41.016,13.184,174.316
1532484418.673,21.484,27.832,39.551,0.000,35.645
1532484418.677,20.996,35.645,33.203,1.465,-82.031
1532484418.681,27.344,32.227,31.250,6.836,-32.227
1532484418.685,24.902,26.855,32.227,13.184,54.199
1532484418.689,17.578,28.809,32.227,8.789,101.074
1532484418.693,18.555,30.762,31.250,-3.418,-83.496
1532484418.697,24.414,32.715,31.250,-3.906,-147.949
1532484418.701,24.414,28.320,29.297,5.859,127.930
1532484418.704,21.484,22.949,27.832,11.719,162.109
1532484418.708,19.531,27.832,25.391,2.930,13.672
1532484418.712,25.391,34.668,23.926,1.465,-51.270
1532484418.716,29.785,36.621,23.438,15.625,62.988
1532484418.720,22.949,31.738,22.461,20.508,163.086
1532484418.724,22.949,37.109,22.949,2.441,4.883
1532484418.728,28.320,43.457,22.949,1.465,-108.887
1532484418.732,27.832,34.668,24.902,10.742,-8.301
1532484418.736,20.996,24.902,26.855,5.371,44.434
1532484418.740,17.090,30.762,26.367,3.418,49.316
1532484418.743,22.461,40.039,24.414,-7.812,-18.066
1532484418.747,29.297,42.480,24.902,6.348,39.062
1532484418.751,24.902,31.738,27.832,21.973,138.184
1532484418.755,21.484,30.762,31.738,10.742,72.266
1532484418.759,23.438,37.109,30.762,4.395,-26.367
1532484418.763,30.273,37.598,26.855,7.812,-20.508
1532484418.767,31.250,34.668,26.855,13.672,134.766
1532484418.771,24.414,28.809,27.832,11.719,136.719
1532484418.775,22.949,31.738,27.344,4.395,-104.492
1532484418.779,29.785,42.969,26.855,7.812,-108.887
1532484418.783,35.156,41.992,26.855,10.742,116.211
1532484418.786,31.250,24.414,28.809,15.137,181.641
1532484418.790,28.320,27.344,29.785,9.277,53.711
1532484418.794,29.785,44.922,24.414,-3.906,-70.801
1532484418.798,26.855,44.922,20.996,6.348,64.453
1532484418.802,23.926,40.039,22.949,14.648,146.484
1532484418.806,20.020,42.969,22.949,-3.418,74.219
1532484418.810,19.043,44.922,21.973,-13.672,-33.691
1532484418.814,21.484,45.898,21.484,-13.672,-25.391
1532484418.818,19.043,39.551,21.484,-15.625,125.000
1532484418.822,8.301,33.203,23.438,-15.625,97.656
1532484418.825,4.883,40.527,23.438,-12.695,-32.715
1532484418.829,17.578,45.410,18.555,-13.184,-11.230
1532484418.833,21.973,40.039,19.531,-8.789,85.449
1532484418.837,14.648,33.203,20.020,-3.418,130.371
1532484418.841,15.137,41.504,20.508,-6.348,37.598
1532484418.845,20.508,42.480,23.926,-9.766,-34.180
1532484418.849,21.973,39.551,25.879,4.883,109.863
1532484418.853,14.648,37.109,24.902,8.301,107.910
1532484418.857,13.184,39.551,22.461,-6.836,-34.180
1532484418.861,25.391,42.480,21.973,-8.789,-62.012
1532484418.865,29.297,40.039,22.949,-7.812,-14.648
1532484418.868,18.555,39.551,20.020,-3.906,106.934
1532484418.872,12.207,35.156,22.461,-12.695,26.855
1532484418.876,17.090,42.480,24.902,-11.230,-130.859
1532484418.880,27.344,44.434,20.020,5.371,-16.113
1532484418.884,30.762,37.109,23.438,2.441,139.648
1532484418.888,30.762,36.621,25.391,4.883,137.695
1532484418.892,28.320,37.109,23.438,-3.906,-13.672
1532484418.896,26.855,45.410,22.949,-8.789,-33.691
1532484418.900,31.250,45.898,21.484,0.977,132.324
1532484418.904,29.297,39.062,22.949,1.465,162.598
1532484418.908,27.344,41.992,23.438,0.977,58.105
1532484418.911,30.273,44.434,25.879,2.930,-51.758
1532484418.915,27.344,36.133,27.344,4.395,-3.906
1532484418.919,23.438,28.320,26.855,-3.906,122.559
1532484418.923,22.461,32.227,24.902,-10.254,39.551
1532484418.927,23.926,40.527,24.414,-4.883,-34.180
1532484418.931,25.879,40.039,23.926,4.883,9.277
1532484418.935,25.879,35.156,23.926,2.930,67.383
1532484418.939,20.020,32.227,22.949,-6.836,81.543
1532484418.943,19.531,38.086,19.043,-5.859,-5.371
1532484418.947,26.367,44.434,20.508,5.859,6.836
1532484418.950,23.438,38.086,23.438,8.301,105.957
1532484418.954,15.137,38.574,21.484,-5.859,110.352
1532484418.958,16.602,41.016,21.973,-4.395,-28.809
1532484418.962,26.367,37.109,23.438,5.371,-110.840
1532484418.966,28.809,40.039,23.926,11.719,50.781
1532484418.970,24.414,33.203,23.926,10.254,170.410
1532484418.974,21.973,30.273,23.438,0.488,-19.043
1532484418.978,27.344,36.621,22.461,-0.488,-179.199
1532484418.982,34.668,38.574,24.414,3.418,3.906
1532484418.986,26.367,32.715,27.344,6.836,162.109
1532484418.990,16.113,30.273,27.344,9.277,105.469
1532484418.993,15.137,32.715,28.809,7.324,-63.477
1532484418.997,18.066,39.062,28.809,11.230,-12.207
1532484419.001,20.020,37.598,29.785,11.230,152.344
1532484419.005,19.531,21.973,30.762,3.418,82.520
1532484419.009,19.531,28.809,27.344,3.906,-62.012
1532484419.013,25.391,37.598,28.809,5.859,-113.281
1532484419.017,26.367,31.738,30.762,11.719,-18.555
1532484419.021,19.043,31.250,29.297,0.000,125.977
1532484419.025,13.672,36.621,26.855,-10.742,33.691
1532484419.029,18.066,41.992,24.414,4.883,-25.879
1532484419.033,24.414,40.527,23.926,9.277,82.520
1532484419.036,18.555,35.156,29.785,7.324,137.207
1532484419.040,20.508,35.156,32.227,-3.418,56.152
1532484419.044,26.367,35.156,29.297,-9.766,-17.090
1532484419.048,26.367,35.156,29.785,0.000,54.199
1532484419.052,24.414,30.762,27.832,3.906,140.137
1532484419.056,17.578,29.297,28.320,-11.719,16.113
1532484419.060,21.484,38.574,32.227,-15.137,-92.773
1532484419.064,30.762,41.504,31.250,-0.488,-28.320
1532484419.068,26.855,29.785,29.297,9.277,145.020
1532484419.072,18.066,16.602,29.785,7.324,127.441
1532484419.075,19.043,32.715,26.367,-9.766,-109.863
1532484419.079,28.809,49.316,28.809,-5.859,-78.613
1532484419.083,28.320,41.016,34.668,8.301,110.840
1532484419.087,17.090,39.062,30.762,1.465,171.387
1532484419.091,11.719,41.504,28.320,-7.324,34.180
1532484419.095,17.578,43.945,30.273,-8.301,-86.426
1532484419.099,21.973,40.527,31.250,1.953,-4.395
1532484419.103,16.113,24.414,31.250,-0.488,58.594
1532484419.107,9.766,28.809,29.785,-13.184,5.371
1532484419.111,15.625,37.598,29.297,-16.113,-29.785
1532484419.115,21.484,33.691,32.227,-6.348,-65.430
1532484419.118,19.043,35.645,33.691,6.348,46.875
1532484419.122,16.602,30.273,32.227,3.906,116.211
1532484419.126,15.137,31.738,27.832,-1.953,-25.879
1532484419.130,19.531,41.992,25.879,9.277,-4.395
1532484419.134,19.043,34.180,29.785,16.113,126.465
1532484419.138,11.230,28.320,34.180,10.742,113.281
1532484419.142,12.207,39.062,36.133,3.906,4.395
1532484419.146,19.531,36.133,36.621,6.348,-73.242
1532484419.150,20.020,28.809,38.574,22.461,31.738
1532484419.154,19.531,26.855,43.457,18.066,51.270
1532484419.157,17.578,35.645,41.992,3.418,-112.305
1532484419.161,25.879,47.852,39.551,13.672,-66.895
1532484419.165,31.738,39.062,39.062,28.320,81.055
1532484419.169,24.414,30.762,36.621,25.879,175.781
1532484419.173,23.926,32.715,38.086,18.555,64.941
1532484419.177,29.297,42.969,38.086,17.090,-47.852
1532484419.181,33.691,41.992,34.180,21.484,28.809
1532484419.185,29.297,30.762,34.180,20.996,135.254
1532484419.189,25.879,32.715,34.668,13.184,139.160
1532484419.193,29.785,37.598,30.762,2.441,-26.367
1532484419.197,36.133,37.598,28.809,7.812,-83.984
1532484419.200,38.574,35.156,31.250,23.438,88.379
1532484419.204,34.180,30.762,33.203,18.555,148.438
1532484419.208,33.203,37.109,32.227,1.953,44.922
1532484419.212,40.527,35.156,29.785,4.395,-47.363
1532484419.216,40.039,30.762,31.250,18.066,-61.035
1532484419.220,32.715,34.668,35.156,15.625,82.031
1532484419.224,21.484,29.297,32.715,8.301,64.453
1532484419.228,21.484,36.133,28.320,6.836,-39.062
1532484419.232,21.973,38.086,27.832,12.207,38.574
1532484419.236,11.719,29.785,28.809,12.695,132.324
1532484419.240,3.418,28.320,29.297,2.930,66.406
1532484419.243,4.395,28.809,29.785,-2.441,-81.055
1532484419.247,11.230,28.809,30.762,6.348,2.441
1532484419.251,10.254,22.949,30.762,4.883,173.340
1532484419.255,3.906,21.973,30.762,-6.836,24.414
1532484419.259,5.371,40.039,27.344,-6.348,-88.867
1532484419.263,14.160,42.480,28.809,-5.859,-16.602
1532484419.267,18.066,35.156,35.156,8.301,121.094
1532484419.271,13.184,27.832,33.203,15.137,168.457
1532484419.275,15.625,33.691,29.785,4.395,-12.695
1532484419.279,26.855,39.551,29.785,13.184,-65.918
1532484419.282,28.320,29.785,34.180,30.762,100.586
1532484419.286,16.602,22.461,38.574,24.414,133.301
1532484419.290,6.836,24.414,37.598,3.418,-1.953
1532484419.294,10.254,26.855,35.156,-6.836,-164.062
1532484419.298,23.438,32.227,33.203,11.230,-80.566
1532484419.302,22.949,27.344,34.668,21.484,156.250
1532484419.306,17.578,28.809,38.086,9.766,113.281
1532484419.310,20.020,33.203,36.621,1.953,-5.371
1532484419.314,20.020,20.020,31.738,2.441,-16.113
1532484419.318,19.043,22.949,30.762,18.555,103.516
1532484419.322,10.254,29.297,33.691,14.160,144.043
1532484419.325,12.695,35.156,33.691,0.000,22.949
1532484419.329,29.297,36.133,34.668,12.207,3.906
1532484419.333,30.762,28.809,40.039,21.973,86.426
1532484419.337,21.973,27.344,44.922,14.160,86.426
1532484419.341,17.090,34.668,41.504,2.930,-33.691
1532484419.345,20.020,41.992,37.109,5.859,-76.172
1532484419.349,21.973,39.551,39.062,16.602,96.191
1532484419.353,20.508,26.367,38.574,12.695,119.141
1532484419.357,19.531,25.879,37.598,-2.930,-95.703
1532484419.361,19.043,37.109,35.645,6.836,-111.816
1532484419.365,20.996,34.180,33.691,23.926,50.781
1532484419.368,16.602,25.391,34.668,20.508,180.664
1532484419.372,11.719,22.461,35.156,12.207,79.590
1532484419.376,17.090,28.320,34.668,10.742,-59.082
1532484419.380,22.461,31.250,33.203,14.160,-39.551
1532484419.384,24.902,29.297,33.203,16.602,55.176
1532484419.388,21.973,34.180,33.203,14.160,124.023
1532484419.392,22.461,34.668,32.227,9.766,-34.668
1532484419.396,30.762,35.156,30.273,14.648,-93.750
1532484419.400,33.203,36.621,30.762,15.625,106.934
1532484419.404,25.879,28.320,32.715,8.789,145.996
1532484419.407,17.578,36.133,31.250,8.301,56.152
1532484419.411,21.973,36.133,29.785,6.836,-49.316
1532484419.415,26.367,32.227,32.227,9.277,-71.289
1532484419.419,18.555,36.133,30.273,11.230,77.637
1532484419.423,15.137,32.227,24.902,2.930,75.684
1532484419.427,17.578,37.109,26.367,2.930,-63.477
1532484419.431,23.926,40.039,32.227,8.301,-41.504
1532484419.435,23.926,26.367,33.203,11.230,3.906
1532484419.439,20.508,25.391,33.691,1.953,40.527
1532484419.443,20.508,37.109,32.715,-9.277,17.090
1532484419.447,21.973,39.551,30.273,-1.465,19.531
1532484419.450,20.508,32.715,32.227,6.836,126.953
1532484419.454,13.672,27.832,33.203,0.000,79.590
1532484419.458,9.766,36.621,28.809,-3.906,-25.391
1532484419.462,15.137,42.969,29.785,4.395,-43.945
1532484419.466,19.043,41.016,33.691,5.371,88.867
1532484419.470,15.625,37.598,33.691,0.000,145.996
1532484419.474,11.719,32.715,31.250,-7.324,-11.230
1532484419.478,14.160,33.691,29.297,0.488,-114.258
1532484419.482,19.043,38.086,31.250,10.254,9.277
1532484419.486,21.484,36.621,33.203,10.254,137.695
1532484419.490,21.484,31.250,32.715,7.324,83.496
1532484419.493,21.973,25.391,34.180,5.371,-164.062
1532484419.497,22.949,31.250,35.156,16.602,-163.086
1532484419.501,21.973,30.762,37.598,22.949,114.746
1532484419.505,17.578,27.344,37.109,14.648,121.582
1532484419.509,18.066,30.762,34.180,7.324,-21.973
1532484419.513,21.973,32.227,36.621,9.766,-85.938
1532484419.517,22.949,35.645,39.062,13.184,57.129
1532484419.521,20.020,30.762,38.574,12.207,106.445
1532484419.525,15.625,35.645,38.086,-4.395,-13.184
1532484419.529,21.484,44.922,37.109,-5.859,-3.418
1532484419.532,24.414,35.645,35.645,20.508,31.250
1532484419.536,18.066,29.785,38.086,22.461,18.555
1532484419.540,13.672,37.598,37.109,9.766,5.859
1532484419.544,15.625,39.551,33.691,1.953,-41.016
1532484419.548,18.555,37.598,35.645,17.090,34.180
1532484419.552,14.160,20.508,35.645,23.438,126.465
1532484419.556,7.812,15.137,30.273,0.000,71.289
1532484419.560,8.789,32.227,27.344,-10.254,-17.578
1532484419.564,18.066,35.645,28.809,-1.465,2.930
1532484419.568,19.043,27.832,30.273,4.395,106.445
1532484419.572,14.648,23.926,28.809,-9.766,44.922
1532484419.575,11.719,32.715,26.367,-31.250,-146.973
1532484419.579,14.648,42.969,27.344,-25.879,-88.379
1532484419.583,15.625,35.156,30.273,-2.930,148.926
1532484419.587,6.348,22.949,29.785,0.000,208.008
1532484419.591,3.418,29.785,27.344,-11.230,25.391
1532484419.595,9.766,34.668,26.367,-14.648,-82.520
1532484419.599,14.648,32.227,29.297,-0.977,63.965
1532484419.603,13.184,28.320,30.762,-4.883,169.434
1532484419.607,11.719,29.297,29.297,-21.973,102.051
1532484419.611,15.137,31.250,29.297,-16.602,-32.715
1532484419.614,19.043,32.715,30.273,-4.883,-44.922
1532484419.618,14.648,30.762,29.297,-4.883,49.316
1532484419.622,7.812,30.762,26.855,-6.348,38.574
1532484419.626,12.695,44.434,26.855,-6.348,-20.996
1532484419.630,21.973,41.504,25.879,-5.371,-1.465
1532484419.634,20.996,25.879,27.344,-0.977,4.883
1532484419.638,14.648,25.879,28.809,-7.812,1.465
1532484419.642,14.160,39.062,28.320,-8.301,16.113
1532484419.646,22.461,34.668,28.809,2.930,-0.977
1532484419.650,23.438,21.484,30.273,5.859,86.914
1532484419.654,15.137,16.113,28.809,3.418,123.535
1532484419.657,3.906,25.391,26.367,-5.859,15.625
1532484419.661,7.324,36.621,24.902,-9.766,-65.918
1532484419.665,18.066,39.551,24.414,1.953,18.555
1532484419.669,16.602,35.156,26.855,3.418,157.227
1532484419.673,12.695,28.320,27.832,-9.766,10.254
1532484419.677,11.719,36.621,25.879,-12.695,-174.316
1532484419.681,17.578,43.945,25.391,5.371,-13.184
1532484419.685,17.578,24.902,26.367,9.277,167.480
1532484419.689,11.230,13.672,28.320,0.000,100.586
1532484419.693,11.230,27.344,28.320,-7.324,-115.723
1532484419.697,19.043,38.086,23.438,0.977,-73.730
1532484419.700,21.484,33.203,24.414,19.043,114.746
1532484419.704,18.555,29.785,30.273,13.184,131.836
1532484419.708,21.484,33.203,32.715,9.277,-31.738
1532484419.712,27.344,34.180,32.715,12.695,-124.512
1532484419.716,29.297,36.133,33.691,15.137,-56.641
1532484419.720,25.879,33.691,32.227,15.137,90.332
1532484419.724,21.973,31.738,28.320,5.859,73.242
1532484419.728,27.344,40.527,24.902,0.977,-28.320
1532484419.732,34.668,41.016,24.414,10.742,33.203
1532484419.736,28.320,30.762,26.855,20.996,136.719
1532484419.739,21.973,34.180,24.902,12.695,113.770
1532484419.743,24.414,42.969,22.949,5.859,4.395
1532484419.747,26.855,38.574,23.438,5.859,-8.789
1532484419.751,20.996,29.785,22.949,7.812,77.148
1532484419.755,12.207,26.855,23.438,7.812,71.777
1532484419.759,9.766,36.133,24.414,-3.418,-62.012
1532484419.763,15.625,40.039,24.902,0.000,-20.996
1532484419.767,17.578,26.367,26.367,12.207,138.184
1532484419.771,13.672,19.531,27.832,3.906,144.043
1532484419.775,11.719,28.809,26.367,-1.953,-84.473
1532484419.779,14.648,41.992,26.367,3.906,-145.996
1532484419.782,15.625,39.551,26.855,4.395,61.523
1532484419.786,8.789,29.785,25.879,-1.953,157.715
1532484419.790,4.883,22.461,25.879,-3.906,36.621
1532484419.794,9.277,25.879,24.902,-10.742,-106.445
1532484419.798,11.719,34.180,24.414,-11.230,20.020
1532484419.802,7.324,24.902,24.414,0.000,142.578
1532484419.806,4.395,21.973,24.414,-11.719,25.879
1532484419.810,7.812,32.715,25.879,-20.020,-78.125
1532484419.814,17.578,30.762,27.344,-9.277,-114.258
1532484419.818,18.555,23.438,28.809,-2.930,15.625
1532484419.822,16.113,23.926,27.344,-3.418,155.273
1532484419.825,20.508,30.273,24.902,-7.324,21.484
1532484419.829,31.250,31.738,26.367,-2.441,-38.086
1532484419.833,33.691,25.879,24.902,6.836,55.176
1532484419.837,24.902,23.438,26.367,4.883,118.652
1532484419.841,20.996,25.879,29.297,-4.883,55.176
1532484419.845,28.320,31.738,28.320,0.488,-30.273
1532484419.849,35.156,32.715,28.320,14.648,52.734
1532484419.853,30.273,24.414,27.344,11.230,63.965
1532484419.857,27.344,24.902,26.367,0.977,-55.176
1532484419.861,31.250,37.598,25.879,6.836,-38.574
1532484419.864,35.645,38.574,26.855,20.508,34.180
1532484419.868,32.715,27.832,31.250,22.461,118.164
1532484419.872,27.832,26.855,31.738,10.254,76.172
1532484419.876,27.832,39.551,30.762,7.324,-48.340
1532484419.880,28.320,40.039,31.250,12.207,2.441
1532484419.884,28.809,33.691,30.762,4.395,136.719
1532484419.888,26.855,33.203,29.297,-1.953,147.949
1532484419.892,24.414,36.133,27.344,-4.883,-25.391
1532484419.896,25.391,36.133,24.902,-3.418,-86.426
1532484419.900,22.949,30.762,21.484,2.441,41.016
1532484419.904,19.531,27.344,23.438,2.930,110.352
1532484419.907,19.531,29.785,25.391,0.000,62.500
1532484419.911,24.414,26.855,25.879,-4.883,-58.594
1532484419.915,28.320,19.043,23.926,-0.977,-66.895
1532484419.919,20.996,24.414,26.367,1.465,91.797
1532484419.923,12.207,21.973,31.738,-11.230,82.031
1532484419.927,13.184,19.531,28.809,-8.789,-51.270
1532484419.931,15.625,25.879,27.832,2.930,-16.602
1532484419.935,10.742,24.414,28.809,1.953,79.102
1532484419.939,3.418,23.438,26.855,-4.883,117.676
1532484419.943,5.859,24.414,25.391,-8.789,-10.742
1532484419.946,13.672,26.855,25.879,-2.930,-81.055
1532484419.950,17.090,20.508,28.320,6.348,95.703
1532484419.954,13.184,13.184,29.297,0.000,26.855
1532484419.958,8.789,27.832,27.832,-8.789,-108.398
1532484419.962,14.160,27.344,26.855,-10.742,-27.344
1532484419.966,18.555,18.066,27.832,-5.371,81.543
1532484419.970,12.207,18.555,32.227,1.465,150.391
1532484419.974,6.836,23.926,31.738,-1.465,48.340
1532484419.978,15.137,31.250,29.297,-3.906,-54.199
1532484419.982,20.020,27.832,28.809,4.883,45.410
1532484419.986,11.719,21.484,29.785,12.207,132.812
1532484419.989,8.301,21.973,30.762,8.301,62.012
1532484419.993,11.719,24.902,31.250,-4.883,-154.785
1532484419.997,12.695,28.320,31.738,-0.488,-138.184
1532484420.001,8.789,28.320,30.762,3.906,146.973
1532484420.005,3.906,22.461,28.809,-4.395,153.320
1532484420.009,6.836,28.320,25.879,-7.324,-7.324
1532484420.013,13.672,31.250,26.855,-4.395,-62.988
1532484420.017,14.160,30.273,28.809,2.930,87.891
1532484420.021,9.766,29.785,28.809,-1.953,173.828
1532484420.025,15.625,34.668,31.250,-8.789,34.180
1532484420.029,30.762,39.062,34.668,2.930,-38.086
1532484420.032,32.715,41.016,30.762,18.066,59.082
1532484420.036,26.367,33.691,26.855,13.672,102.539
1532484420.040,21.973,27.344,27.832,4.883,-3.418
1532484420.044,21.973,39.062,28.320,6.348,-105.469
1532484420.048,22.461,44.434,28.320,13.672,17.578
1532484420.052,18.066,30.273,26.855,18.066,130.859
1532484420.056,12.695,27.832,28.809,6.836,0.977
1532484420.060,11.719,37.109,28.809,3.906,-44.434
1532484420.064,19.043,35.645,29.785,9.277,16.602
1532484420.068,18.066,24.902,32.715,9.766,145.996
1532484420.071,10.742,14.160,33.203,5.859,125.977
1532484420.075,15.137,26.855,32.227,6.348,-35.645
1532484420.079,22.461,30.762,30.273,6.348,-15.137
1532484420.083,21.973,19.531,31.738,3.418,82.520
1532484420.087,19.531,13.672,32.227,4.883,73.242
1532484420.091,20.020,14.160,33.203,2.930,-13.672
1532484420.095,24.902,20.508,32.715,-1.953,-154.297
1532484420.099,28.809,27.832,28.320,6.348,-7.812
1532484420.103,21.484,23.438,30.762,11.230,157.227
1532484420.107,16.113,31.738,34.180,3.418,78.613
1532484420.111,20.020,35.156,33.203,2.441,-20.020
1532484420.114,20.508,23.926,31.738,2.930,-11.719
1532484420.118,17.090,20.996,31.250,4.395,147.949
1532484420.122,14.160,17.578,34.668,2.441,120.605
1532484420.126,12.207,26.855,32.715,-5.371,-24.902
1532484420.130,14.648,31.250,26.367,-3.906,-26.367
1532484420.134,15.137,24.902,30.762,-1.953,4.883
1532484420.138,12.207,27.344,31.250,-6.836,29.297
1532484420.142,11.230,37.598,25.879,-5.371,18.066
1532484420.146,14.648,37.109,25.391,0.488,-20.996
1532484420.150,14.648,29.785,25.879,3.418,92.285
1532484420.154,6.836,23.438,26.367,-5.859,132.812
1532484420.157,1.953,23.926,25.391,-18.555,58.594
1532484420.161,7.324,28.320,24.414,-15.137,-21.973
1532484420.165,12.207,32.715,23.926,-7.812,14.648
1532484420.169,7.324,28.320,24.902,-7.324,136.230
1532484420.173,3.418,27.344,27.344,-9.277,84.473
1532484420.177,5.859,28.809,27.832,-12.695,-73.242
1532484420.181,9.766,28.320,25.391,-7.324,-63.477
1532484420.185,8.789,31.250,24.414,-3.906,92.773
1532484420.189,3.906,25.879,26.367,-9.766,154.297
1532484420.193,0.977,24.902,28.320,-20.996,-28.320
1532484420.196,8.789,35.645,29.297,-15.625,-119.141
1532484420.200,13.672,34.668,28.809,0.488,94.238
1532484420.204,9.766,27.832,30.762,-0.977,137.695
1532484420.208,10.254,35.645,33.691,-13.672,17.090
1532484420.212,16.602,38.574,31.250,-6.348,-68.848
1532484420.216,19.531,33.203,32.227,12.207,52.734
1532484420.220,17.090,23.438,34.668,7.812,143.555
1532484420.224,18.066,23.926,34.180,0.488,-10.254
1532484420.228,21.973,36.621,31.738,-0.977,-119.141
1532484420.232,22.949,37.598,30.273,7.812,-17.090
1532484420.236,19.043,33.691,32.227,15.137,43.945
1532484420.239,17.578,35.156,33.691,11.230,44.922
1532484420.243,22.949,34.668,36.133,8.301,1.953
1532484420.247,26.367,35.645,36.133,9.277,28.809
1532484420.251,24.414,33.691,36.133,13.184,137.207
1532484420.255,20.508,34.180,34.180,0.488,130.371
1532484420.259,20.508,38.574,28.809,-7.324,-1.465
1532484420.263,24.902,41.992,27.344,-1.465,-25.391
1532484420.267,22.949,40.039,25.391,4.395,146.484
1532484420.271,17.578,30.762,25.879,7.324,165.527
1532484420.275,18.066,31.738,27.832,1.465,-77.637
1532484420.278,25.879,47.852,27.832,-1.465,-145.020
1532484420.282,29.297,43.945,27.344,8.789,51.270
1532484420.286,22.949,23.926,29.297,10.254,146.484
1532484420.290,20.020,25.391,27.832,-0.977,42.969
1532484420.294,23.438,36.133,20.996,-6.836,-51.270
1532484420.298,23.926,37.598,22.949,3.418,29.297
1532484420.302,24.414,30.762,27.344,9.766,147.949
1532484420.306,22.949,24.414,27.344,0.488,123.535
1532484420.310,19.531,30.273,28.320,-1.953,-21.484
1532484420.314,24.902,36.621,29.785,5.371,-38.574
1532484420.318,25.391,32.227,30.762,9.277,73.242
1532484420.321,15.625,34.180,29.297,7.324,66.406
1532484420.325,12.207,43.457,26.367,1.953,-15.625
1532484420.329,18.066,41.992,24.902,8.301,-19.043
1532484420.333,20.020,33.203,25.879,11.230,35.645
1532484420.337,13.672,24.414,28.809,8.789,26.855
1532484420.341,9.766,29.297,29.785,6.348,-18.555
1532484420.345,14.648,38.086,27.832,4.883,-58.105
1532484420.349,22.949,40.039,31.250,16.602,64.453
1532484420.353,23.438,30.273,34.668,15.625,165.039
1532484420.357,20.020,29.785,31.738,11.230,91.309
1532484420.361,28.320,40.527,29.785,14.160,2.930
1532484420.364,34.180,32.227,29.297,13.184,2.441
1532484420.368,25.879,26.367,30.273,20.996,93.262
1532484420.372,21.484,27.344,33.203,17.090,33.691
1532484420.376,24.902,31.738,33.203,5.371,-131.836
1532484420.380,30.273,39.062,30.273,11.230,-61.523
1532484420.384,28.809,34.668,30.273,20.020,119.629
1532484420.388,22.461,24.414,29.785,14.648,139.648
1532484420.392,20.996,25.391,30.762,8.789,-6.836
1532484420.396,25.879,32.715,33.203,13.184,-65.918
1532484420.400,25.391,32.227,33.203,16.113,57.129
1532484420.403,19.531,27.832,32.715,12.207,139.160
1532484420.407,18.066,31.738,33.203,15.625,69.824
1532484420.411,24.902,27.832,36.133,18.555,-70.312
1532484420.415,27.344,27.832,39.062,21.484,-63.477
1532484420.419,17.578,23.926,37.109,26.855,104.492
1532484420.423,29.297,17.578,41.504,36.621,80.078
1532484420.427,37.109,32.715,38.574,22.949,-44.922
1532484420.431,18.066,34.668,26.855,-8.789,-6.836
1532484420.435,10.742,25.391,26.855,-5.859,86.426
1532484420.439,8.789,25.879,23.438,-3.418,97.168
1532484420.443,20.508,37.598,21.484,-7.812,-22.949
1532484420.446,34.180,47.363,23.926,4.395,-25.391
1532484420.450,29.785,38.086,23.438,7.324,117.188
1532484420.454,21.484,34.668,21.484,-8.789,149.414
1532484420.458,19.531,38.574,21.973,-4.395,22.461
1532484420.462,22.461,31.738,21.973,1.953,-105.469
1532484420.466,24.414,33.691,18.066,4.395,0.488
1532484420.470,23.926,34.668,18.555,3.418,164.551
1532484420.474,20.020,28.809,21.484,-15.137,-3.418
1532484420.478,20.020,38.574,17.578,-14.160,-163.574
1532484420.482,20.508,43.945,17.090,0.488,30.762
1532484420.486,16.602,34.668,20.020,1.953,166.016
1532484420.489,11.719,30.273,20.996,-4.883,105.469
1532484420.493,11.719,38.086,20.020,-12.207,-43.457
1532484420.497,19.043,42.969,22.949,-6.836,12.207
1532484420.501,20.020,34.668,24.414,6.348,160.645
1532484420.505,9.277,28.809,23.438,5.371,87.402
1532484420.509,5.859,32.715,25.879,-4.395,-46.387
1532484420.513,20.508,29.785,25.879,-5.371,-85.938
1532484420.517,29.785,24.414,25.879,5.371,-50.293
1532484420.521,19.043,27.832,26.367,7.812,83.008
1532484420.525,8.789,30.762,25.879,-1.953,62.500
1532484420.528,13.672,29.297,24.902,-0.488,-14.648
1532484420.532,20.508,24.902,27.344,12.207,61.035
1532484420.536,17.090,19.531,30.273,9.766,130.371
1532484420.540,12.695,18.066,32.715,3.906,74.707
1532484420.544,20.996,26.367,35.156,2.441,-38.574
1532484420.548,25.879,31.250,34.180,7.812,30.762
1532484420.552,20.508,21.484,31.250,12.207,136.230
1532484420.556,19.043,16.113,31.250,4.395,45.410
1532484420.560,21.973,28.809,32.227,1.465,-46.387
1532484420.564,30.762,36.133,29.785,16.602,11.719
1532484420.568,34.668,30.273,31.738,26.367,142.578
1532484420.571,27.832,21.973,34.180,15.625,132.812
1532484420.575,24.414,23.926,31.250,2.441,-100.586
1532484420.579,26.367,33.691,28.809,10.254,-129.883
1532484420.583,26.855,33.691,29.785,20.996,71.777
1532484420.587,21.484,25.879,31.738,12.695,162.109
1532484420.591,14.160,23.926,34.180,0.488,41.992
1532484420.595,17.090,31.250,33.203,0.488,-72.266
1532484420.599,24.902,33.691,31.250,16.113,-7.324
1532484420.603,20.996,27.344,34.180,17.090,82.520
1532484420.607,14.160,28.809,34.180,5.859,64.941
1532484420.611,15.137,32.715,31.250,0.977,-10.742
1532484420.614,22.461,23.438,29.785,3.906,-89.355
1532484420.618,21.484,23.438,28.809,10.742,23.926
1532484420.622,15.137,26.367,29.785,7.324,84.961
1532484420.626,12.207,35.645,29.297,-6.836,-37.598
1532484420.630,16.602,38.086,30.762,2.930,10.742
1532484420.634,32.227,26.855,35.645,28.320,85.449
1532484420.638,24.414,34.668,31.250,8.789,77.148
1532484420.642,1.465,37.598,22.461,-28.320,0.977
1532484420.646,9.277,31.738,20.020,-14.648,-86.914
1532484420.650,19.043,32.227,20.996,5.859,13.672
1532484420.653,9.766,21.484,24.414,-8.301,51.270
1532484420.657,1.465,22.949,25.391,-19.043,-75.684
1532484420.661,7.324,38.086,23.438,-7.812,-69.336
1532484420.665,12.695,35.645,25.879,2.930,38.086
1532484420.669,9.277,25.879,30.762,4.883,180.664
1532484420.673,6.836,22.461,30.273,-0.488,91.797
1532484420.677,13.184,29.297,28.809,-8.301,-44.434
1532484420.681,15.137,29.785,31.250,-4.883,21.484
1532484420.685,10.742,23.438,29.785,6.348,120.117
1532484420.689,-1.465,20.020,31.250,-2.930,120.605
1532484420.693,1.953,23.438,35.156,-10.254,-41.504
1532484420.696,22.461,30.762,36.621,5.859,-104.492
1532484420.700,22.461,25.391,34.668,3.906,59.082
1532484420.704,17.578,17.090,31.738,-0.488,118.652
1532484420.708,16.113,27.344,30.762,-2.930,45.898
1532484420.712,22.461,33.203,32.715,-7.812,-62.988
1532484420.716,26.367,31.738,34.180,-2.441,-46.875
1532484420.720,21.973,29.785,34.180,3.418,110.840
1532484420.724,23.438,29.297,33.691,-1.465,67.871
1532484420.728,32.227,38.086,32.227,-1.465,-6.836
1532484420.732,36.621,36.133,35.156,7.812,20.020
1532484420.735,27.344,31.738,38.574,13.672,104.980
1532484420.739,18.066,29.297,36.621,10.742,66.895
1532484420.743,20.508,33.203,33.203,4.395,-97.168
1532484420.747,25.879,41.992,29.785,12.207,11.719
1532484420.751,26.855,30.762,31.738,13.184,157.227
1532484420.755,21.973,23.926,35.645,7.812,7.324
1532484420.759,20.996,40.039,36.133,6.348,-73.242
1532484420.763,28.320,41.992,33.691,10.742,-22.949
1532484420.767,31.250,36.133,31.738,18.066,117.188
1532484420.771,27.832,27.344,35.645,18.555,166.504
1532484420.775,23.926,31.250,34.180,7.324,4.395
1532484420.778,26.367,36.621,29.785,6.348,-49.805
1532484420.782,29.785,29.297,30.273,15.137,77.148
1532484420.786,28.809,22.461,31.738,17.090,131.348
1532484420.790,23.438,22.461,32.227,11.230,18.555
1532484420.794,24.414,29.785,35.156,0.977,-149.902
1532484420.798,28.320,36.621,33.691,1.953,-86.426
1532484420.802,22.949,27.344,33.691,10.254,135.742
1532484420.806,19.043,22.949,38.086,8.301,117.188
1532484420.810,18.555,31.250,34.668,3.906,26.367
1532484420.814,19.531,29.785,29.785,0.000,-52.734
1532484420.818,16.113,28.320,32.715,4.395,64.453
1532484420.821,10.742,23.438,36.133,0.977,135.742
1532484420.825,10.254,26.855,33.691,-11.230,-7.324
1532484420.829,12.695,31.250,33.691,-4.883,-9.277
1532484420.833,12.207,21.973,36.621,3.418,77.148
1532484420.837,4.883,13.672,36.621,-4.883,77.148
1532484420.841,0.977,22.949,35.156,-7.812,6.836
1532484420.845,6.348,33.691,34.668,-1.465,-40.039
1532484420.849,11.719,28.320,33.203,2.930,79.102
1532484420.853,14.160,12.695,31.250,2.930,89.844
1532484420.857,12.695,15.137,31.250,-2.441,-77.148
1532484420.860,12.695,28.320,30.762,-11.719,-76.660
1532484420.864,20.996,25.391,29.297,-10.254,16.602
1532484420.868,24.414,19.531,33.203,2.441,148.926
1532484420.872,21.973,17.090,38.086,4.395,81.055
1532484420.876,17.578,22.949,32.227,-8.789,-61.035
1532484420.880,21.484,22.461,31.738,-2.441,-60.547
1532484420.884,25.391,20.996,36.621,14.648,43.457
1532484420.888,21.973,21.484,39.551,15.137,153.320
1532484420.892,19.531,22.461,38.574,5.859,7.812
1532484420.896,22.461,30.762,35.156,4.883,-143.066
1532484420.900,25.879,34.668,35.156,11.719,42.480
1532484420.903,21.973,25.879,39.062,12.207,187.012
1532484420.907,18.066,25.879,40.039,13.184,98.145
1532484420.911,23.438,28.809,39.551,13.672,-66.895
1532484420.915,32.227,30.273,42.480,18.555,-34.180
1532484420.919,30.273,19.043,42.480,23.438,106.934
1532484420.923,20.020,19.043,38.574,6.348,69.336
1532484420.927,22.461,29.297,38.574,0.977,-48.340
1532484420.931,31.738,30.762,40.039,15.137,-53.711
1532484420.935,30.762,24.902,41.016,14.648,-3.906
1532484420.939,20.996,22.461,38.086,6.836,23.926
1532484420.943,17.090,26.855,35.156,1.465,9.277
1532484420.946,20.020,34.668,37.109,6.348,30.273
1532484420.950,18.066,28.809,34.668,16.602,136.719
1532484420.954,14.160,17.578,33.691,10.742,94.727
1532484420.958,11.719,26.367,36.621,3.418,5.371
1532484420.962,16.602,33.203,32.227,0.977,-9.766
1532484420.966,23.438,33.203,28.809,-4.883,112.793
1532484420.970,17.090,25.879,31.738,-6.348,205.078
1532484420.974,11.230,20.020,33.691,-5.371,38.574
1532484420.978,11.719,28.320,31.250,-5.859,-93.750
1532484420.982,18.555,36.133,28.320,1.465,2.930
1532484420.985,17.090,34.668,28.809,3.906,156.250
1532484420.989,9.277,32.227,27.344,-7.812,120.605
1532484420.993,13.184,31.738,24.414,-17.090,-124.023
1532484420.997,21.484,42.480,24.414,-8.301,-148.438
1532484421.001,19.531,39.062,22.949,1.953,104.980
1532484421.005,13.184,25.391,21.973,-9.277,144.043
1532484421.009,11.230,30.273,25.879,-11.719,27.344
1532484421.013,13.184,32.715,26.855,-5.371,-29.785
1532484421.017,13.184,30.762,26.855,5.371,98.633
1532484421.021,9.277,22.461,28.320,2.930,141.602
1532484421.025,7.812,25.879,26.855,-1.953,-27.832
1532484421.028,13.672,37.598,25.879,-1.465,-35.645
1532484421.032,19.531,33.203,26.367,0.977,25.879
1532484421.036,17.090,21.973,26.855,-0.977,28.320
1532484421.040,10.742,20.508,23.926,-9.277,51.758
1532484421.044,13.184,25.879,23.438,-4.395,-11.719
1532484421.048,20.508,28.320,26.855,5.371,-0.977
1532484421.052,22.461,23.926,28.320,11.230,79.590
1532484421.056,22.949,25.391,24.414,-1.465,65.918
1532484421.060,25.391,31.250,24.414,-3.906,-27.344
1532484421.064,25.879,32.715,26.855,1.953,-2.930
1532484421.067,26.367,34.668,27.832,13.184,91.797
1532484421.071,23.926,28.809,27.832,20.020,34.180
1532484421.075,22.461,32.227,24.902,3.906,-126.953
1532484421.079,26.855,44.434,25.391,4.395,-88.867
1532484421.083,33.203,39.062,30.762,19.531,136.230
1532484421.087,31.250,28.809,31.738,14.648,195.801
1532484421.091,22.461,29.785,25.879,1.465,37.109
1532484421.095,26.855,36.621,25.391,4.395,-68.848
1532484421.099,32.227,36.133,29.297,11.719,43.945
1532484421.103,31.250,26.367,30.273,12.695,164.551
1532484421.107,26.855,19.043,28.809,2.441,99.121
1532484421.110,25.391,24.414,28.809,0.977,-62.012
1532484421.114,29.297,33.691,28.809,11.230,-58.105
1532484421.118,26.855,27.832,28.809,11.230,94.238
1532484421.122,23.438,20.508,29.785,-3.418,140.625
1532484421.126,19.043,22.949,26.367,-5.859,8.789
1532484421.130,20.020,25.879,26.367,1.465,13.672
1532484421.134,22.949,18.066,27.344,-0.977,31.738
1532484421.138,14.648,13.672,27.832,-6.348,18.066
1532484421.142,10.742,22.949,30.273,2.441,38.574
1532484421.146,19.531,24.902,30.273,6.348,-17.090
1532484421.150,22.461,19.531,28.320,6.836,59.570
1532484421.153,19.043,14.160,32.715,9.277,126.465
1532484421.157,26.367,23.438,36.133,5.859,72.754
1532484421.161,24.414,35.645,26.367,-1.465,-31.250
1532484421.165,11.230,30.762,21.484,-11.230,-8.301
1532484421.169,8.789,22.461,28.809,-2.930,124.023
1532484421.173,9.277,18.066,31.250,-3.906,-14.648
1532484421.177,10.254,21.973,26.367,-9.766,-172.363
1532484421.181,17.090,31.738,24.902,2.441,7.324
1532484421.185,20.996,27.832,25.879,12.207,177.246
1532484421.189,18.555,24.414,26.367,6.348,126.953
1532484421.192,18.555,35.645,28.320,2.930,-15.625
1532484421.196,29.297,40.527,28.320,16.602,-28.809
1532484421.200,36.621,41.992,29.297,31.738,123.535
1532484421.204,28.809,27.832,30.273,26.367,186.523
1532484421.208,22.949,22.949,30.762,18.555,30.762
1532484421.212,27.344,31.738,27.344,16.113,-83.984
1532484421.216,32.715,27.344,28.809,21.973,-28.320
1532484421.220,27.832,26.367,30.273,30.273,108.398
1532484421.224,20.996,26.855,26.855,16.113,96.680
1532484421.228,21.973,28.809,25.879,0.000,-16.602
1532484421.232,24.902,23.926,28.809,14.160,-1.953
1532484421.235,18.555,19.043,25.879,23.438,106.934
1532484421.239,11.719,22.461,24.902,6.836,101.562
1532484421.243,12.207,27.832,26.367,1.465,-10.254
1532484421.247,20.020,28.320,22.949,6.836,17.090
1532484421.251,20.020,18.066,21.484,11.230,115.234
1532484421.255,11.719,15.137,23.438,3.906,47.363
1532484421.259,14.648,30.762,22.949,-0.488,-52.246
1532484421.263,21.973,36.621,24.414,2.930,-11.719
1532484421.267,20.996,28.809,27.344,0.977,115.723
1532484421.271,21.973,23.438,28.809,0.977,158.203
1532484421.275,22.461,26.855,27.344,-4.395,-64.453
1532484421.278,20.996,33.691,27.344,-0.488,-142.090
1532484421.282,23.926,33.691,26.367,10.742,49.805
1532484421.286,19.043,27.344,23.438,5.371,136.230
1532484421.290,14.160,19.531,25.879,-9.766,70.801
1532484421.294,17.090,24.902,26.855,-5.371,-41.504
1532484421.298,23.438,36.133,26.855,9.766,15.137
1532484421.302,26.367,28.809,30.762,10.254,144.043
1532484421.306,22.461,22.949,31.250,2.930,57.129
1532484421.310,21.484,37.109,28.809,6.836,-32.715
1532484421.314,26.855,35.645,26.367,7.812,-83.496
1532484421.317,26.855,26.855,29.785,8.789,-7.812
1532484421.321,22.949,27.344,32.715,10.254,125.000
1532484421.325,23.438,38.574,31.738,-1.953,21.973
1532484421.329,27.344,42.969,29.785,-6.348,-15.137
1532484421.333,26.855,27.344,28.809,-0.488,70.801
1532484421.337,23.926,24.902,29.297,-8.301,133.789
1532484421.341,23.926,28.320,29.297,-20.996,77.148
1532484421.345,30.273,27.344,27.832,-15.137,-52.734
1532484421.349,35.645,31.738,23.926,7.812,-14.160
1532484421.353,29.297,26.367,26.855,7.812,26.855
1532484421.357,19.531,25.391,31.250,-2.930,-61.523
1532484421.360,17.578,39.062,27.344,-4.395,-33.691
1532484421.364,26.367,42.480,22.461,2.930,26.367
1532484421.368,23.438,32.715,21.973,16.113,141.113
1532484421.372,12.695,23.438,25.879,3.906,115.723
1532484421.376,10.254,29.297,26.855,-11.719,-15.625
1532484421.380,14.648,35.645,24.414,5.371,13.184
1532484421.384,17.578,32.227,25.879,11.719,144.043
1532484421.388,17.578,25.391,28.809,-1.465,172.852
1532484421.392,16.113,26.367,28.320,-8.301,14.648
1532484421.396,17.090,27.832,26.367,-11.719,-74.707
1532484421.399,23.438,33.691,25.879,-8.301,21.484
1532484421.403,24.902,28.809,27.344,1.953,98.145
1532484421.407,16.602,21.973,26.367,-4.883,29.785
1532484421.411,18.555,30.762,24.902,-17.578,-72.754
1532484421.415,29.785,35.645,27.344,-1.465,-98.145
1532484421.419,26.855,36.133,26.367,7.812,92.773
1532484421.423,17.578,32.227,26.367,-1.465,138.672
1532484421.427,16.113,37.598,24.414,-13.184,-16.602
1532484421.431,25.391,39.062,24.414,-2.930,-7.812
1532484421.435,29.785,30.273,27.344,15.137,84.473
1532484421.439,22.949,29.297,29.785,3.418,142.578
1532484421.442,20.020,33.691,29.785,-10.254,-2.930
1532484421.446,24.414,37.109,30.273,4.395,-103.516
1532484421.450,28.809,31.250,32.715,19.043,78.613
1532484421.454,26.367,18.555,34.180,5.859,65.430
1532484421.458,20.996,27.344,33.203,-8.301,-55.176
1532484421.462,24.414,35.645,29.785,0.977,-53.711
1532484421.466,28.320,35.156,27.344,14.648,-6.348
1532484421.470,22.461,29.297,28.809,10.254,118.652
1532484421.474,20.508,28.320,28.809,-3.418,71.777
1532484421.478,22.949,39.062,25.879,-7.324,-2.441
1532484421.482,24.902,36.133,23.438,-2.441,49.805
1532484421.485,25.879,28.320,24.414,-6.348,148.926
1532484421.489,21.973,32.227,28.320,-7.812,95.215
1532484421.493,20.020,39.551,29.785,-9.766,-131.348
1532484421.497,21.973,40.039,27.344,-5.371,-123.535
1532484421.501,22.949,33.203,26.855,8.789,114.258
1532484421.505,19.531,26.855,26.855,1.465,161.621
1532484421.509,14.648,32.715,25.879,-7.324,43.457
1532484421.513,20.996,38.086,26.855,-3.906,-49.805
1532484421.517,24.902,33.691,27.344,12.695,90.820
1532484421.521,16.602,25.391,31.738,7.812,184.082
1532484421.524,10.254,30.273,34.180,-1.953,34.180
1532484421.528,14.648,41.504,30.762,5.859,-25.391
1532484421.532,20.996,43.945,31.250,11.719,65.918
1532484421.536,17.578,34.668,30.273,4.883,125.488
1532484421.540,14.160,26.367,26.367,-1.465,48.340
1532484421.544,18.066,36.133,25.391,-2.441,-47.363
1532484421.548,22.949,39.551,25.879,-0.488,32.227
1532484421.552,22.949,23.926,25.879,5.859,124.023
1532484421.556,13.672,19.531,25.391,0.977,34.668
1532484421.560,11.719,27.832,24.902,0.977,-20.508
1532484421.564,19.531,30.273,24.902,1.953,4.883
1532484421.567,22.949,21.973,27.344,3.906,125.488
1532484421.571,22.461,18.066,29.297,6.348,123.535
1532484421.575,20.996,31.738,30.762,0.977,-5.859
1532484421.579,24.414,39.551,29.785,6.348,-14.160
1532484421.583,27.832,38.574,27.344,16.602,39.551
1532484421.587,23.926,30.762,30.762,6.836,95.703
1532484421.591,19.531,26.367,33.203,-2.930,29.785
1532484421.595,21.484,34.668,30.762,-7.324,-130.859
1532484421.599,25.391,39.551,25.879,0.000,-36.133
1532484421.603,23.438,34.180,24.414,13.672,166.992
1532484421.607,16.602,32.227,26.855,5.859,126.953
1532484421.610,17.090,36.621,28.809,-2.930,-42.969
1532484421.614,23.438,41.016,29.785,2.930,-28.320
1532484421.618,22.949,38.574,29.297,0.000,169.922
1532484421.622,20.508,26.855,30.762,1.953,145.996
1532484421.626,20.508,27.344,31.250,6.348,-9.277
1532484421.630,29.297,36.621,31.738,8.789,-23.438
1532484421.634,36.621,34.668,32.715,17.578,-10.742
1532484421.638,33.203,34.180,35.156,14.648,53.711
1532484421.642,28.809,42.480,36.133,9.277,32.227
1532484421.646,28.320,41.504,33.203,16.113,-60.547
1532484421.649,24.414,35.156,32.227,20.508,72.266
1532484421.653,18.555,29.297,33.691,18.555,151.367
1532484421.657,14.648,31.738,33.203,9.277,84.473
1532484421.661,18.555,37.109,32.227,-1.953,-3.418
1532484421.665,20.996,32.227,32.715,8.789,25.879
1532484421.669,16.602,30.273,35.156,19.043,156.250
1532484421.673,13.672,29.785,35.156,16.113,98.145
1532484421.677,14.648,30.273,32.715,6.836,-63.477
1532484421.681,16.602,29.785,30.273,4.883,-62.500
1532484421.685,19.531,29.297,33.203,15.625,81.055
1532484421.689,13.184,32.227,35.156,3.418,159.668
1532484421.692,6.348,36.621,32.715,-7.324,-12.695
1532484421.696,15.625,41.504,32.715,-8.789,-111.328
1532484421.700,19.043,41.992,33.691,-0.488,53.711
1532484421.704,12.695,31.250,34.668,13.672,128.418
1532484421.708,12.207,34.180,35.645,5.371,45.898
1532484421.712,18.555,40.527,34.180,0.000,-41.016
1532484421.716,28.809,39.062,36.133,12.207,45.898
1532484421.720,31.250,30.762,35.156,18.555,177.246
1532484421.724,24.902,25.879,32.715,7.324,63.477
1532484421.728,30.273,34.180,31.250,10.254,-83.984
1532484421.732,40.527,35.645,33.203,18.555,-38.086
1532484421.735,37.598,29.785,35.156,8.789,48.340
1532484421.739,29.785,31.738,34.180,4.395,61.523
1532484421.743,24.902,44.434,31.250,4.395,0.488
1532484421.747,28.809,51.270,29.785,10.254,27.344
1532484421.751,30.273,41.504,31.738,21.484,127.930
1532484421.755,19.531,32.715,31.250,13.672,134.277
1532484421.759,10.254,36.133,31.738,2.441,22.949
1532484421.763,13.184,42.480,34.180,4.883,-62.500
1532484421.767,17.578,40.527,34.180,9.766,69.336
1532484421.771,14.648,32.715,35.156,9.277,133.301
1532484421.774,10.254,35.156,34.668,-2.441,-68.359
1532484421.778,11.230,45.898,30.273,-10.742,-137.695
1532484421.782,21.484,41.504,27.832,0.488,36.621
1532484421.786,21.973,28.320,33.691,8.301,147.461
1532484421.790,14.648,28.809,35.645,1.953,78.125
1532484421.794,16.602,37.109,32.715,-0.488,-41.016
1532484421.798,20.996,40.039,31.250,12.695,9.277
1532484421.802,21.973,30.273,34.180,15.625,138.184
1532484421.806,17.090,24.902,34.668,0.977,119.141
1532484421.810,13.184,30.762,29.297,-1.465,2.930
1532484421.814,21.484,35.156,29.785,8.301,-21.484
1532484421.817,28.320,31.250,34.668,15.625,69.824
1532484421.821,20.508,25.879,34.180,11.719,69.336
1532484421.825,16.602,34.180,31.250,0.977,-45.410
1532484421.829,25.879,41.504,31.250,0.977,-22.461
1532484421.833,29.785,33.203,34.668,2.441,48.828
1532484421.837,24.902,20.508,38.086,6.836,39.062
1532484421.841,21.973,22.949,38.086,12.207,18.066
1532484421.845,25.879,39.062,37.109,9.277,-28.809
1532484421.849,32.715,41.504,36.133,14.160,59.570
1532484421.853,29.297,21.484,36.133,12.695,121.582
1532484421.856,18.066,20.508,34.180,5.859,42.969
1532484421.860,19.043,34.668,30.762,2.441,-17.090
1532484421.864,25.879,36.621,32.715,10.742,-26.367
1532484421.868,23.926,34.180,32.715,17.578,56.641
1532484421.872,19.531,27.344,29.785,7.812,44.922
1532484421.876,16.113,29.297,29.785,-6.836,-131.348
1532484421.880,21.973,40.039,30.273,-1.953,-115.723
1532484421.884,28.320,35.156,28.320,8.789,74.707
1532484421.888,19.043,23.926,31.738,5.371,125.977
1532484421.892,11.719,25.879,33.203,-4.395,-7.324
1532484421.896,13.184,33.691,30.273,-4.883,-63.477
1532484421.899,14.160,33.203,29.785,-0.977,77.637
1532484421.903,14.160,27.832,30.762,-3.906,176.758
1532484421.907,11.719,28.320,32.227,-8.789,80.078
1532484421.911,14.648,35.156,29.785,-4.883,-46.875
1532484421.915,18.555,33.691,26.367,-6.348,-93.262
1532484421.919,14.160,25.391,24.414,-17.090,62.500
1532484421.923,7.812,23.926,20.996,-20.020,117.676
1532484421.927,12.207,33.203,21.484,-16.602,-18.555
1532484421.931,19.043,39.551,25.879,-10.254,6.836
1532484421.935,17.578,32.715,30.762,-2.930,101.074
1532484421.939,10.254,31.738,32.715,-13.184,74.219
1532484421.942,6.348,36.133,31.250,-19.043,-13.184
1532484421.946,13.672,36.133,31.738,-17.090,-20.996
1532484421.950,20.020,33.203,33.203,-4.883,73.730
1532484421.954,18.066,26.855,34.180,3.906,126.465
1532484421.958,14.160,30.273,35.645,-1.953,14.648
1532484421.962,16.602,37.109,34.180,0.488,-116.699
1532484421.966,28.809,38.086,35.645,9.766,-1.465
1532484421.970,31.250,33.203,38.086,4.883,184.082
1532484421.974,23.438,28.809,38.574,-5.371,6.348
1532484421.978,25.879,37.109,37.109,0.488,-181.641
1532484421.981,33.691,42.480,36.133,14.648,-6.348
1532484421.985,31.738,35.645,39.062,18.555,152.344
1532484421.989,27.344,29.297,38.574,7.324,157.227
1532484421.993,29.785,29.297,37.598,12.207,0.000
1532484421.997,36.133,35.156,37.109,16.602,-81.543
1532484422.001,31.250,31.250,36.621,8.301,71.777
1532484422.005,20.020,23.438,38.086,4.395,100.098
1532484422.009,21.484,31.738,36.621,5.371,-35.645
1532484422.013,26.855,38.086,36.133,2.930,-104.004
1532484422.017,25.391,37.598,38.574,10.742,-36.621
1532484422.021,21.484,35.645,39.551,15.137,130.859
1532484422.024,20.020,33.203,40.039,5.371,42.969
1532484422.028,20.508,39.062,40.039,2.441,-43.945
1532484422.032,28.320,39.551,40.527,19.043,67.871
1532484422.036,28.320,31.738,41.504,20.508,155.273
1532484422.040,16.602,29.297,37.598,1.465,90.332
1532484422.044,16.602,37.598,31.250,-0.488,-36.133
1532484422.048,23.438,42.480,30.762,10.742,24.414
1532484422.052,20.020,33.203,34.180,14.160,107.422
1532484422.056,12.695,20.020,32.715,0.000,-31.250
1532484422.060,11.230,28.809,28.320,-7.812,-120.605
1532484422.064,16.113,40.527,26.855,5.859,-38.086
1532484422.067,19.531,35.156,28.320,7.324,140.137
1532484422.071,15.137,26.367,29.785,-6.348,161.621
1532484422.075,11.230,29.785,30.762,-11.230,-21.973
1532484422.079,15.625,35.645,25.879,-1.953,-46.387
1532484422.083,20.508,37.598,25.391,9.766,93.750
1532484422.087,18.066,34.668,29.785,14.160,159.668
1532484422.091,15.137,27.832,30.273,7.812,60.059
1532484422.095,15.137,34.180,27.832,0.488,-52.246
1532484422.099,15.625,36.133,24.414,6.348,17.090
1532484422.103,16.113,24.414,26.367,8.301,119.629
1532484422.106,11.230,25.879,25.879,2.441,76.172
1532484422.110,8.301,34.180,25.879,-3.418,0.488
1532484422.114,12.207,26.367,27.344,-3.906,-114.746
1532484422.118,15.625,26.855,29.785,9.277,-27.344
1532484422.122,8.789,29.297,30.273,9.277,110.352
1532484422.126,6.348,32.227,28.809,0.977,-9.277
1532484422.130,14.648,34.668,27.832,0.977,-9.766
1532484422.134,18.555,33.691,26.855,3.906,97.168
1532484422.138,12.695,34.668,28.809,0.977,135.254
1532484422.142,8.789,33.691,26.367,-3.906,34.180
1532484422.146,14.648,33.203,22.461,-3.906,-103.027
1532484422.149,15.137,34.180,22.461,4.883,17.578
1532484422.153,12.695,29.785,26.855,1.465,61.523
1532484422.157,5.371,24.902,30.273,-7.324,-67.383
1532484422.161,0.977,30.762,28.809,-2.930,-59.082
1532484422.165,7.812,29.785,27.832,4.395,44.922
1532484422.169,10.254,20.020,30.273,7.812,165.527
1532484422.173,9.277,23.438,33.691,3.906,67.871
1532484422.177,5.859,32.715,31.250,-6.836,-58.594
1532484422.181,9.277,36.621,27.832,0.000,-14.160
1532484422.185,10.742,33.203,31.738,10.254,105.957
1532484422.188,6.836,29.785,33.691,0.977,137.695
1532484422.192,9.277,32.715,32.715,-8.301,-40.527
1532484422.196,13.184,35.156,29.785,-5.371,-114.746
1532484422.200,12.695,34.180,27.344,3.906,88.867
1532484422.204,7.812,28.320,30.273,0.977,163.574
1532484422.208,7.324,35.156,29.785,-13.672,74.707
1532484422.212,15.137,35.645,27.344,-6.348,-65.918
1532484422.216,20.996,34.668,28.320,11.719,-64.453
1532484422.220,22.461,37.598,25.879,8.789,102.051
1532484422.224,17.578,28.320,23.438,-3.418,67.871
1532484422.228,16.602,29.297,25.879,-0.977,0.000
1532484422.231,27.832,30.273,26.367,6.836,19.531
1532484422.235,29.297,25.879,28.320,6.348,74.219
1532484422.239,22.461,31.250,32.715,1.465,56.152
1532484422.243,21.484,37.598,33.203,-0.977,-95.215
1532484422.247,23.926,35.645,30.273,9.277,-44.922
1532484422.251,21.973,27.832,30.762,9.766,122.070
1532484422.255,15.137,21.973,30.273,-5.859,31.738
1532484422.259,14.648,35.645,27.344,-6.836,-50.781
1532484422.263,19.043,40.039,26.855,-5.371,1.953
1532484422.267,20.508,33.691,27.832,8.789,119.141
1532484422.271,20.508,24.902,28.320,5.859,122.559
1532484422.274,16.602,27.832,27.832,-5.371,-32.227
1532484422.278,19.043,34.668,28.809,0.000,-80.078
1532484422.282,22.461,32.715,27.832,2.441,34.668
1532484422.286,17.578,27.832,29.785,2.930,121.094
1532484422.290,11.719,29.297,32.715,5.371,18.066
1532484422.294,9.277,39.062,30.273,3.906,-185.059
1532484422.298,14.160,45.410,32.715,10.254,-125.488
1532484422.302,18.555,38.574,35.156,8.789,126.953
1532484422.306,12.695,33.691,31.738,-3.418,117.676
1532484422.310,13.672,38.574,27.832,-1.465,-26.855
1532484422.313,20.508,38.574,25.879,3.418,-88.867
1532484422.317,18.555,36.621,25.879,11.230,81.055
1532484422.321,13.184,28.809,26.855,2.930,160.156
1532484422.325,9.277,30.762,27.344,-4.883,21.484
1532484422.329,11.719,36.621,31.250,5.859,-40.039
1532484422.333,15.625,30.273,35.156,14.160,23.926
1532484422.337,3.418,27.832,34.668,8.301,70.312
1532484422.341,0.000,34.180,29.297,-2.930,20.996
1532484422.345,12.207,42.969,26.367,-10.742,-47.363
1532484422.349,16.602,42.969,30.762,-3.418,62.012
1532484422.353,16.113,29.297,31.250,3.906,92.285
1532484422.356,12.207,30.273,28.809,0.488,-55.664
1532484422.360,12.695,41.992,27.344,-6.836,-74.219
1532484422.364,17.578,39.062,25.879,-3.906,9.766
1532484422.368,18.066,27.832,27.344,7.812,124.023
1532484422.372,16.602,23.438,28.320,6.836,76.172
1532484422.376,17.578,33.203,26.855,-2.930,-34.668
1532484422.380,22.949,34.668,25.391,1.953,-50.293
1532484422.384,29.297,30.762,26.367,5.859,41.016
1532484422.388,28.809,22.949,29.297,2.930,124.023
1532484422.392,24.414,16.602,33.203,-1.465,-15.625
1532484422.396,25.391,26.367,28.809,-6.348,-143.066
1532484422.399,25.391,32.227,23.438,4.395,18.066
1532484422.403,21.973,24.902,25.879,9.766,163.086
1532484422.407,20.020,27.832,27.832,2.441,94.727
1532484422.411,20.996,32.715,28.320,0.000,-50.781
1532484422.415,22.949,34.668,29.785,5.859,-4.395
1532484422.419,20.020,30.762,28.809,6.836,148.926
1532484422.423,13.672,24.414,30.273,2.441,106.934
1532484422.427,9.766,26.367,32.227,-1.953,-34.180
1532484422.431,16.602,29.297,32.227,7.324,-65.918
1532484422.435,20.508,27.832,28.320,14.648,8.789
1532484422.438,17.090,23.438,30.762,9.277,65.430
1532484422.442,18.555,27.344,32.715,-6.836,-10.254
1532484422.446,26.367,40.039,31.738,-1.953,-16.113
1532484422.450,30.273,33.691,35.645,21.484,123.047
1532484422.454,26.367,29.297,35.156,20.020,112.305
1532484422.458,20.508,37.598,34.668,17.090,16.113
1532484422.462,19.531,37.598,33.203,11.719,-50.293
1532484422.466,26.855,36.621,31.250,15.137,61.523
1532484422.470,31.250,31.250,30.273,16.113,124.512
1532484422.474,23.926,26.855,26.855,0.000,-22.461
1532484422.478,20.996,32.715,27.344,-4.395,-99.609
1532484422.481,28.320,37.598,27.832,7.324,-1.953
1532484422.485,28.809,33.203,28.320,12.207,147.461
1532484422.489,22.949,29.785,32.227,12.207,151.855
1532484422.493,23.438,28.320,31.738,10.254,-94.238
1532484422.497,26.855,29.785,29.785,9.766,-170.898
1532484422.501,19.531,37.598,31.738,21.973,82.520
1532484422.505,15.137,35.156,35.156,17.578,153.809
1532484422.509,19.531,34.668,35.156,10.254,27.832
1532484422.513,21.484,41.504,34.668,9.766,-85.938
1532484422.517,21.973,44.434,32.227,21.973,44.434
1532484422.520,18.066,34.180,34.180,29.297,151.855
1532484422.524,19.531,34.668,37.598,19.531,22.949
1532484422.528,20.996,43.945,32.715,12.207,-54.688
1532484422.532,21.484,41.016,33.691,9.277,-34.180
1532484422.536,21.484,38.574,37.598,10.742,28.809
1532484422.540,18.555,36.621,32.715,9.277,69.336
1532484422.544,22.461,37.109,28.320,-0.977,-5.371
1532484422.548,33.691,38.086,26.855,8.301,26.367
1532484422.552,30.762,32.715,27.832,22.461,118.652
1532484422.556,22.949,29.785,28.809,11.230,86.914
1532484422.560,24.414,36.133,26.855,0.000,-22.949
1532484422.563,24.902,40.527,26.367,3.906,-20.020
1532484422.567,23.438,30.273,24.902,9.277,83.496
1532484422.571,18.066,21.973,23.438,0.977,67.383
1532484422.575,10.742,30.273,24.902,-7.324,-100.586
1532484422.579,14.648,41.016,24.902,-3.906,-103.516
1532484422.583,20.020,35.645,24.902,5.859,102.539
1532484422.587,16.602,24.414,28.320,3.906,160.156
1532484422.591,12.695,25.879,29.785,-3.906,24.414
1532484422.595,17.090,35.645,26.367,-5.371,-65.918
1532484422.599,21.973,37.109,24.902,-0.977,38.574
1532484422.603,16.113,23.438,27.832,7.812,171.387
1532484422.606,7.324,18.066,29.297,4.883,116.211
1532484422.610,7.324,25.391,24.902,-7.812,-41.992
1532484422.614,12.207,26.855,25.391,-4.395,-86.914
1532484422.618,11.719,29.785,26.855,1.465,62.988
1532484422.622,5.371,29.297,24.902,-3.906,148.438
1532484422.626,4.395,30.273,26.855,-7.812,18.555
1532484422.630,12.695,35.645,28.809,-0.977,-19.043
1532484422.634,22.461,29.785,27.832,9.766,19.531
1532484422.638,17.578,24.902,26.855,-1.953,23.926
1532484422.642,7.812,32.227,25.391,-14.648,37.109
1532484422.645,9.766,33.203,26.367,-3.418,-31.738
1532484422.649,16.113,30.762,27.832,1.953,20.508
1532484422.653,18.555,26.367,27.344,-0.488,120.605
1532484422.657,15.625,25.879,29.785,-4.883,87.402
1532484422.661,16.602,31.738,29.297,-12.207,-20.996
1532484422.665,21.484,33.691,26.367,5.859,-18.555
1532484422.669,18.555,28.320,29.785,10.742,156.738
1532484422.673,14.648,20.508,32.227,-12.207,67.383
1532484422.677,17.578,28.320,33.203,-5.859,-147.949
1532484422.681,20.996,36.133,34.668,7.324,-39.551
1532484422.685,20.020,28.809,31.738,12.207,137.695
1532484422.688,19.043,21.973,30.273,11.230,146.973
1532484422.692,19.531,28.809,30.273,-2.441,-32.227
1532484422.696,20.508,39.062,28.809,-8.301,-78.125
1532484422.700,20.508,37.109,28.320,4.395,108.398
1532484422.704,15.137,27.344,28.809,4.883,158.203
1532484422.708,11.719,26.855,30.273,0.488,0.977
1532484422.712,17.578,33.203,27.344,1.465,-128.906
1532484422.716,20.020,38.086,24.414,1.465,-79.102
1532484422.720,18.555,35.156,29.297,0.977,108.887
1532484422.724,21.484,31.250,32.227,-3.418,88.379
1532484422.728,27.344,39.551,29.785,-3.418,-36.621
1532484422.731,35.156,39.062,30.762,7.324,-31.250
1532484422.735,34.180,35.645,34.180,18.066,75.684
1532484422.739,25.391,38.574,34.668,12.695,124.023
1532484422.743,23.438,43.457,36.133,9.766,1.953
1532484422.747,27.832,46.875,37.109,18.555,-14.160
1532484422.751,29.297,38.086,36.133,22.949,82.031
1532484422.755,22.949,28.320,33.203,20.508,65.430
1532484422.759,18.066,36.621,31.250,0.977,-32.715
1532484422.763,23.438,42.969,31.738,-3.906,-45.410
1532484422.767,27.344,40.527,35.645,15.137,60.059
1532484422.770,25.391,30.273,38.574,16.113,139.160
1532484422.774,20.508,24.902,38.086,9.766,-63.477
1532484422.778,22.461,41.992,32.715,12.207,-176.758
1532484422.782,31.738,42.480,31.250,18.066,24.902
1532484422.786,31.250,35.645,33.691,18.555,176.270
1532484422.790,22.949,34.180,34.180,10.254,123.535
1532484422.794,21.973,38.086,33.203,3.906,-41.504
1532484422.798,31.250,41.016,34.180,14.648,8.789
1532484422.802,31.738,31.250,36.133,24.902,116.699
1532484422.806,23.438,24.902,34.180,18.555,54.688
1532484422.810,21.973,29.785,29.785,8.301,-3.418
1532484422.813,27.344,29.297,27.344,5.371,-104.980
1532484422.817,26.855,29.297,27.832,10.254,-18.555
1532484422.821,20.508,25.391,29.785,9.766,166.992
1532484422.825,14.648,28.320,27.832,1.953,18.066
1532484422.829,17.090,36.621,24.902,5.371,-62.988
1532484422.833,25.879,36.621,27.344,17.578,53.711
1532484422.837,21.973,36.133,27.832,9.766,141.113
1532484422.841,19.043,36.133,26.855,-3.418,82.520
1532484422.845,22.461,40.039,27.832,-1.465,-38.574
1532484422.849,22.461,38.574,26.367,6.348,-0.977
1532484422.852,19.531,29.297,29.297,11.719,49.316
1532484422.856,16.602,29.785,30.273,1.953,-42.969
1532484422.860,19.043,39.062,28.809,0.977,-51.270
1532484422.864,20.996,35.645,31.738,11.230,5.859
1532484422.868,20.996,32.715,34.668,18.066,114.258
1532484422.872,17.578,30.273,31.738,14.648,81.055
1532484422.876,16.113,37.598,30.273,-3.418,-36.621
1532484422.880,23.438,39.062,33.691,-1.465,-4.395
1532484422.884,26.855,25.391,35.645,19.043,65.918
1532484422.888,22.949,23.926,35.645,15.625,117.188
1532484422.892,18.555,30.762,35.156,6.836,17.090
1532484422.895,23.438,39.062,35.645,13.672,-107.422
1532484422.899,28.320,41.504,33.691,16.113,15.137
1532484422.903,25.879,34.180,30.762,17.578,152.832
1532484422.907,27.832,34.668,31.250,11.230,80.078
1532484422.911,30.762,34.180,30.273,1.465,-51.270
1532484422.915,36.133,35.156,29.785,11.719,-109.863
1532484422.919,34.180,37.109,31.250,17.090,80.566
1532484422.923,28.320,29.297,34.180,9.766,121.094
1532484422.927,26.855,36.133,32.715,5.859,-10.254
1532484422.931,29.785,40.527,31.738,12.207,-0.488
1532484422.935,28.809,34.180,31.250,14.160,90.820
1532484422.938,25.391,30.762,29.297,7.812,165.039
1532484422.942,22.949,32.227,30.273,-1.465,32.715
1532484422.946,27.832,38.086,30.762,0.488,-92.773
1532484422.950,35.156,36.621,31.250,15.625,17.578
1532484422.954,31.250,29.297,33.691,9.766,17.090
1532484422.958,22.949,37.109,34.668,-2.441,-38.574
1532484422.962,23.926,41.992,29.297,0.977,-32.715
1532484422.966,31.738,40.039,28.809,9.277,46.387
1532484422.970,31.250,32.715,34.180,20.020,193.359
1532484422.974,26.367,28.320,35.645,18.555,84.473
1532484422.977,27.344,41.016,35.156,11.719,-15.137
1532484422.981,30.273,41.992,32.227,18.555,30.273
1532484422.985,28.320,30.273,31.738,19.531,147.949
1532484422.989,18.066,23.438,33.691,6.348,101.074
1532484422.993,13.672,30.762,31.738,-0.977,-140.137
1532484422.997,20.508,35.156,28.809,-1.953,-121.582
1532484423.001,20.508,27.832,28.320,7.812,98.633
1532484423.005,12.695,26.367,31.738,7.324,93.750
1532484423.009,7.324,38.086,29.297,-4.883,8.789
1532484423.013,14.160,43.457,25.391,-8.301,-20.020
1532484423.017,19.043,38.086,26.855,-3.906,78.613
1532484423.020,13.184,29.297,27.832,-11.230,154.785
1532484423.024,8.789,31.250,29.297,-12.695,48.340
1532484423.028,14.160,39.062,27.832,-3.418,-49.316
1532484423.032,19.531,41.016,29.297,1.953,3.418
1532484423.036,14.648,30.762,29.297,3.418,87.891
1532484423.040,8.789,26.367,27.344,-3.418,29.297
1532484423.044,13.672,37.598,27.832,-9.766,-90.332
1532484423.048,22.949,40.527,27.344,-6.836,-13.672
1532484423.052,21.973,24.414,26.367,-2.441,100.098
1532484423.056,14.648,23.438,28.809,-8.789,19.043
1532484423.060,14.160,40.527,29.297,-12.207,-66.406
1532484423.063,17.578,42.969,23.926,-6.836,-52.734
1532484423.067,19.043,36.621,21.973,4.883,115.234
1532484423.071,18.066,23.926,25.879,5.371,140.137
1532484423.075,15.625,31.738,26.855,-6.836,24.902
1532484423.079,19.531,41.992,26.367,-6.348,-18.066
1532484423.083,26.367,35.156,29.297,0.977,10.742
1532484423.087,22.461,28.809,30.762,0.488,92.285
1532484423.091,16.113,27.344,28.809,-5.371,40.527
1532484423.095,20.020,36.133,28.809,-10.254,-71.777
1532484423.099,27.344,43.945,30.762,0.000,20.508
1532484423.102,23.926,34.180,30.762,10.254,145.508
1532484423.106,17.578,23.926,34.668,9.766,125.000
1532484423.110,20.020,26.367,37.598,0.000,0.977
1532484423.114,26.855,33.691,33.691,3.906,-77.148
1532484423.118,28.320,34.180,35.156,23.438,50.293
1532484423.122,18.555,31.250,37.109,19.531,112.305
1532484423.126,15.625,39.062,32.227,11.230,-0.488
1532484423.130,20.996,45.410,32.715,15.625,-28.320
1532484423.134,20.996,41.992,38.086,8.301,-17.090
1532484423.138,16.113,36.621,35.156,0.000,42.480
1532484423.142,10.254,33.691,30.273,3.906,38.086
1532484423.145,13.672,38.086,32.715,-1.953,-43.945
1532484423.149,19.043,37.598,35.156,5.371,69.336
1532484423.153,13.672,26.855,33.691,15.137,130.371
1532484423.157,9.766,27.344,34.180,0.000,46.387
1532484423.161,13.184,37.598,33.203,-6.836,-28.809
1532484423.165,22.461,41.016,32.227,1.465,20.508
1532484423.169,25.879,34.180,33.691,4.883,144.043
1532484423.173,17.090,28.809,34.180,1.465,104.004
1532484423.177,19.531,31.250,30.762,-6.348,-53.223
1532484423.181,25.391,35.645,28.320,-4.883,-101.562
1532484423.185,23.438,35.645,27.832,9.766,18.555
1532484423.188,17.578,33.691,29.297,11.230,128.418
1532484423.192,14.648,35.156,29.297,-0.488,-4.883
1532484423.196,21.973,36.621,27.832,-2.441,-158.691
1532484423.200,25.391,38.574,29.297,9.277,26.367
1532484423.204,20.020,29.785,29.297,6.836,154.297
1532484423.208,13.672,27.344,25.391,-7.812,48.828
1532484423.212,14.648,35.156,22.461,-12.207,-49.805
1532484423.216,21.973,35.156,23.438,-2.930,21.484
1532484423.220,25.391,23.438,26.367,11.230,131.348
1532484423.224,22.949,21.484,29.785,13.672,61.035
1532484423.227,26.367,36.133,31.738,10.742,-62.012
1532484423.231,34.180,35.645,34.180,8.789,-44.922
1532484423.235,30.762,26.367,34.668,10.254,35.645
1532484423.239,26.367,26.855,31.738,13.184,35.156
1532484423.243,26.367,35.645,29.297,2.930,-41.504
1532484423.247,27.832,39.062,30.273,-3.906,-34.180
1532484423.251,29.297,32.227,31.738,5.859,69.336
1532484423.255,25.391,27.344,30.762,12.207,109.375
1532484423.259,21.973,32.715,30.273,5.859,42.480
1532484423.263,26.855,35.645,33.691,6.836,-40.527
1532484423.267,32.227,37.109,35.156,20.508,56.641
1532484423.270,26.855,32.227,37.598,21.973,138.184
1532484423.274,19.043,26.855,38.574,9.766,-59.082
1532484423.278,23.926,40.039,35.645,4.883,-163.086
1532484423.282,32.227,47.363,34.668,8.789,17.578
1532484423.286,29.297,41.016,37.109,10.254,187.988
1532484423.290,22.461,36.133,37.598,8.301,132.812
1532484423.294,21.973,40.039,34.668,1.465,-31.250
1532484423.298,27.832,39.551,33.203,2.930,-52.734
1532484423.302,30.273,35.645,33.203,11.719,92.773
1532484423.306,23.438,33.203,33.203,8.789,135.254
1532484423.309,18.555,35.156,30.762,4.883,2.441
1532484423.313,22.461,40.527,27.832,1.953,-21.484
1532484423.317,26.367,43.945,28.809,7.324,65.430
1532484423.321,24.414,38.574,31.738,9.766,62.988
1532484423.325,16.602,36.621,30.273,2.930,-16.602
1532484423.329,18.555,41.504,29.297,9.766,-7.812
1532484423.333,24.414,34.668,32.227,7.812,11.719
1532484423.337,22.461,30.762,31.250,7.812,24.414
1532484423.341,15.137,34.180,30.273,10.742,41.504
1532484423.345,14.160,38.086,29.785,2.930,-15.137
1532484423.349,20.508,36.133,29.785,10.742,24.414
1532484423.352,17.090,30.273,30.762,14.160,126.465
1532484423.356,10.742,30.273,30.273,4.883,62.988
1532484423.360,9.277,38.086,25.879,-5.371,-54.199
1532484423.364,12.207,38.086,24.414,-0.488,-36.621
1532484423.368,16.602,36.133,29.297,5.859,90.820
1532484423.372,17.578,28.320,34.668,-2.930,113.281
1532484423.376,17.090,29.785,36.621,-7.324,-80.566
1532484423.380,23.438,41.016,33.691,-3.906,-57.617
1532484423.384,29.785,38.086,32.227,9.766,133.301
1532484423.388,26.855,32.227,34.180,8.301,175.781
1532484423.392,23.438,34.668,33.691,-4.395,51.758
1532484423.395,29.297,43.457,35.645,-1.465,-43.457
1532484423.399,34.180,41.016,37.598,4.395,55.176
1532484423.403,31.250,38.574,41.016,10.742,154.297
1532484423.407,25.879,39.062,41.504,10.254,93.750
1532484423.411,26.855,33.203,40.039,-3.418,-51.758
1532484423.415,35.156,37.598,42.969,-0.977,-132.324
1532484423.419,32.715,41.016,41.992,12.695,57.129
1532484423.423,24.414,32.715,40.039,7.812,138.184
1532484423.427,22.949,39.551,37.109,0.977,-26.367
1532484423.431,29.297,40.039,35.156,6.836,-28.809
1532484423.434,31.738,30.762,35.645,11.230,80.566
1532484423.438,24.902,32.715,33.691,2.441,118.164
1532484423.442,25.879,38.574,35.156,-3.906,15.625
1532484423.446,31.738,42.480,36.133,2.930,-24.902
1532484423.450,30.273,34.668,33.691,11.230,91.309
1532484423.454,22.949,25.391,32.715,16.602,136.719
