timestamps,TP9,AF7,AF8,TP10,Right AUX
1532486188.860,19.043,41.504,35.156,13.184,-866.699
1532486188.864,19.531,49.316,33.203,23.438,-504.883
1532486188.868,22.949,33.691,35.645,24.902,41.504
1532486188.872,24.902,30.273,40.527,33.691,-501.465
1532486188.876,24.902,43.945,41.504,29.297,-739.258
1532486188.880,29.785,47.852,40.527,27.832,-66.406
1532486188.883,29.297,51.758,39.551,52.246,549.805
1532486188.887,28.320,49.316,38.574,49.316,865.723
1532486188.891,34.180,24.414,41.016,28.809,-58.105
1532486188.895,35.156,29.785,40.039,22.949,-798.828
1532486188.899,34.668,39.551,39.551,27.344,-733.887
1532486188.903,28.809,45.898,43.945,37.598,-508.301
1532486188.907,28.809,45.898,46.875,46.875,-10.742
1532486188.911,34.668,37.598,44.434,49.316,-541.016
1532486188.915,33.691,36.133,41.992,53.223,-637.207
1532486188.919,33.203,30.762,44.922,42.969,-539.551
1532486188.922,32.227,42.969,47.852,34.180,-584.473
1532486188.926,36.621,55.176,47.363,25.391,481.445
1532486188.930,41.016,42.480,42.480,22.949,502.930
1532486188.934,32.715,39.551,40.527,29.785,-288.086
1532486188.938,20.508,42.480,39.551,22.949,-553.711
1532486188.942,16.113,48.340,38.086,21.973,-668.457
1532486188.946,31.250,71.289,35.156,17.578,534.668
1532486188.950,35.156,40.527,36.621,18.066,631.348
1532486188.954,24.414,31.738,40.039,42.480,-482.422
1532486188.958,28.809,51.270,41.992,21.484,-800.293
1532486188.962,31.250,54.199,42.969,14.160,-720.215
1532486188.965,25.391,58.594,41.992,34.180,168.457
1532486188.969,22.461,42.969,43.945,15.625,-40.039
1532486188.973,20.996,59.570,41.992,14.160,-1.953
1532486188.977,28.320,51.758,40.527,38.574,543.945
1532486188.981,37.598,27.344,41.504,44.922,-260.742
1532486188.985,35.645,58.105,40.527,31.738,183.105
1532486188.989,29.297,47.852,41.504,24.902,801.270
1532486188.993,30.762,27.832,42.969,28.320,-471.191
1532486188.997,33.203,42.969,36.133,38.574,-804.688
1532486189.001,32.715,42.969,31.250,35.645,-665.527
1532486189.005,31.738,48.340,35.156,34.180,-285.645
1532486189.008,30.273,43.945,39.062,38.574,-166.016
1532486189.012,35.645,43.945,40.527,34.668,-697.266
1532486189.016,33.203,43.457,37.109,25.391,-532.715
1532486189.020,19.531,39.062,35.156,32.715,6.836
1532486189.024,17.090,47.363,36.621,17.578,437.500
1532486189.028,19.531,47.363,32.715,-1.953,807.617
1532486189.032,23.438,23.438,30.273,24.902,-23.926
1532486189.036,24.902,29.297,36.133,21.973,-707.520
1532486189.040,18.555,38.574,37.109,21.484,-868.652
1532486189.044,20.508,45.410,33.691,33.691,-561.523
1532486189.047,30.273,36.133,39.062,39.062,-24.414
1532486189.051,31.250,30.273,42.480,41.016,-454.102
1532486189.055,25.391,34.668,37.598,29.785,-674.805
1532486189.059,25.879,32.227,36.133,15.625,-809.082
1532486189.063,32.715,34.668,36.621,27.344,-586.914
1532486189.067,33.203,34.668,36.133,39.551,454.590
1532486189.071,29.297,29.785,37.598,31.250,625.000
1532486189.075,28.809,33.203,38.086,28.809,-149.414
1532486189.079,31.738,40.527,38.086,45.410,-682.129
1532486189.083,30.762,43.945,36.621,46.387,-426.758
1532486189.087,23.926,58.594,37.109,28.809,717.773
1532486189.090,23.438,32.227,39.551,21.484,245.605
1532486189.094,24.414,30.273,39.062,33.203,-728.027
1532486189.098,20.508,41.504,38.086,47.852,-698.730
1532486189.102,26.855,41.504,38.086,39.062,-470.215
1532486189.106,26.855,45.898,38.574,32.227,186.035
1532486189.110,30.273,37.598,42.480,50.781,-354.004
1532486189.114,38.086,46.387,41.992,41.016,-71.777
1532486189.118,41.016,39.062,41.992,52.734,557.617
1532486189.122,37.598,33.691,43.457,67.383,-275.391
1532486189.126,27.344,62.988,37.109,43.945,404.785
1532486189.130,32.227,36.621,36.621,39.062,698.242
1532486189.133,34.180,23.926,40.527,38.574,-434.570
1532486189.137,24.414,35.645,41.504,24.414,-718.750
1532486189.141,14.160,41.016,40.527,12.695,-856.934
1532486189.145,17.578,50.781,38.086,32.227,-163.086
1532486189.149,24.414,27.344,36.133,49.316,-46.387
1532486189.153,15.137,22.949,37.598,31.738,-630.371
1532486189.157,9.277,35.645,38.086,29.785,-653.809
1532486189.161,15.137,44.922,35.156,38.086,-138.184
1532486189.165,17.090,52.734,33.203,28.809,630.371
1532486189.169,20.020,37.109,35.156,32.227,812.500
1532486189.172,26.855,22.949,37.598,23.438,-324.707
1532486189.176,26.367,37.598,35.645,19.043,-906.250
1532486189.180,27.832,40.527,30.762,30.762,-810.059
1532486189.184,22.949,41.992,32.227,21.484,-365.234
1532486189.188,18.066,27.344,38.086,9.766,-108.398
1532486189.192,23.926,27.344,34.180,16.602,-722.656
1532486189.196,23.438,41.504,31.250,39.062,-698.242
1532486189.200,20.020,35.645,34.180,42.969,-582.520
1532486189.204,21.973,36.621,36.621,26.367,-394.043
1532486189.208,20.996,43.945,34.180,23.926,494.141
1532486189.212,24.902,40.527,34.180,34.668,543.945
1532486189.215,31.250,34.180,36.621,44.434,-77.637
1532486189.219,29.785,35.156,36.133,49.316,-562.500
1532486189.223,29.297,52.246,34.668,33.203,-480.469
1532486189.227,25.879,54.688,33.691,14.648,662.598
1532486189.231,27.832,24.414,38.574,28.809,210.449
1532486189.235,27.832,29.785,40.039,41.504,-591.309
1532486189.239,20.996,44.922,37.109,39.551,-758.301
1532486189.243,21.484,50.781,36.133,26.855,-667.480
1532486189.247,27.344,50.293,34.180,34.180,77.637
1532486189.251,24.902,42.480,35.156,41.504,-246.582
1532486189.254,26.855,56.152,33.691,30.273,14.648
1532486189.258,27.344,57.129,33.691,34.668,433.105
1532486189.262,30.762,55.176,33.203,42.969,120.117
1532486189.266,33.691,69.336,31.250,41.504,721.680
1532486189.270,30.273,40.527,34.180,31.250,400.391
1532486189.274,26.855,34.180,33.691,35.156,-733.887
1532486189.278,24.902,50.781,32.227,38.086,-926.758
1532486189.282,25.879,51.270,35.156,20.996,-667.480
1532486189.286,29.785,42.480,33.203,16.602,181.152
1532486189.290,25.879,33.691,35.156,36.621,-284.180
1532486189.294,28.320,45.410,38.086,35.156,-881.836
1532486189.297,34.668,46.875,35.156,14.160,-588.379
1532486189.301,33.203,46.875,37.109,42.480,-43.945
1532486189.305,26.367,59.082,36.621,41.504,783.203
1532486189.309,16.602,36.133,35.645,30.762,645.508
1532486189.313,28.320,25.879,40.039,43.945,-467.773
1532486189.317,26.855,41.504,39.551,38.086,-688.477
1532486189.321,17.578,43.945,41.504,35.645,-747.070
1532486189.325,20.508,59.570,40.527,32.227,-314.453
1532486189.329,23.926,47.852,36.133,37.109,-184.570
1532486189.333,23.438,41.992,38.574,38.086,-608.887
1532486189.337,18.555,44.922,41.016,26.367,-533.203
1532486189.340,15.625,46.387,41.992,20.020,-782.715
1532486189.344,17.090,57.617,41.992,30.273,-371.094
1532486189.348,18.066,43.945,42.480,21.484,594.727
1532486189.352,19.531,35.156,41.992,15.625,622.559
1532486189.356,17.578,41.016,39.062,24.414,198.730
1532486189.360,19.043,38.574,38.574,26.367,-635.742
1532486189.364,22.949,51.270,38.086,31.250,-401.855
1532486189.368,26.367,58.594,38.086,14.160,783.203
1532486189.372,29.297,34.180,39.551,22.461,-18.066
1532486189.376,26.367,37.598,37.598,29.297,-851.562
1532486189.379,27.344,41.016,37.109,27.344,-789.062
1532486189.383,22.949,42.480,36.133,23.926,-434.082
1532486189.387,22.949,40.527,38.086,6.836,5.859
1532486189.391,26.855,43.945,39.551,24.902,-572.266
1532486189.395,30.273,57.129,34.668,27.832,-48.340
1532486189.399,43.457,47.363,35.645,41.016,436.035
1532486189.403,38.086,42.480,41.992,52.734,-75.195
1532486189.407,19.531,61.523,48.828,26.855,660.156
1532486189.411,22.949,36.133,49.316,27.344,167.480
1532486189.415,31.738,33.203,40.527,24.902,-698.242
1532486189.419,36.621,48.340,39.551,25.879,-708.984
1532486189.422,30.762,44.922,41.992,35.645,-654.297
1532486189.426,31.738,42.480,41.016,18.555,6.348
1532486189.430,41.504,41.016,43.457,26.855,-343.750
1532486189.434,35.645,37.598,42.969,41.992,-624.023
1532486189.438,30.762,34.668,41.992,45.410,-595.215
1532486189.442,30.273,50.293,41.504,45.898,-114.746
1532486189.446,34.180,61.523,40.527,45.410,889.160
1532486189.450,41.016,34.180,44.434,38.574,511.719
1532486189.454,34.668,29.785,45.410,37.598,-541.016
1532486189.458,31.738,46.387,43.945,30.273,-895.508
1532486189.462,36.621,51.270,38.574,23.438,-863.770
1532486189.465,35.645,55.664,36.621,41.504,59.082
1532486189.469,30.273,42.969,39.062,42.969,-76.172
1532486189.473,29.785,44.434,41.992,32.715,-781.250
1532486189.477,30.273,53.223,43.457,40.039,-730.957
1532486189.481,25.879,52.734,36.621,31.250,-674.805
1532486189.485,21.973,53.711,34.668,19.531,45.410
1532486189.489,20.508,57.617,38.574,33.691,564.453
1532486189.493,15.137,59.570,41.504,31.738,466.797
1532486189.497,26.367,50.293,45.410,28.809,281.250
1532486189.501,37.109,43.457,48.828,40.527,-473.145
1532486189.504,25.391,69.824,48.340,31.738,-108.398
1532486189.508,27.832,72.266,45.898,32.715,808.594
1532486189.512,41.992,48.340,46.875,50.781,-212.891
1532486189.516,43.945,51.270,47.363,54.199,-690.430
1532486189.520,41.016,52.246,48.828,46.875,-677.246
1532486189.524,35.645,59.082,53.223,39.551,-539.062
1532486189.528,41.016,47.363,56.152,37.598,-165.039
1532486189.532,47.363,42.480,56.152,43.457,-507.812
1532486189.536,42.480,69.336,53.223,50.293,7.324
1532486189.540,43.457,66.895,52.734,53.223,342.285
1532486189.544,43.457,56.641,53.223,61.035,-49.316
1532486189.547,43.945,72.754,52.246,41.504,672.852
1532486189.551,52.246,51.758,54.199,43.945,154.297
1532486189.555,49.316,50.293,54.688,57.617,-775.391
1532486189.559,46.387,61.035,56.152,45.898,-927.246
1532486189.563,50.293,61.035,59.082,49.805,-661.133
1532486189.567,48.828,54.688,57.617,61.523,64.941
1532486189.571,43.945,54.199,57.129,48.340,-403.809
1532486189.575,46.387,64.941,56.152,59.082,-822.754
1532486189.579,50.293,63.477,56.152,66.895,-733.887
1532486189.583,43.945,70.801,56.152,62.012,46.875
1532486189.586,37.109,70.801,58.105,49.805,953.125
1532486189.590,38.086,37.598,59.570,43.457,160.156
1532486189.594,41.504,42.480,55.664,51.758,-750.000
1532486189.598,40.527,45.898,52.246,58.594,-777.344
1532486189.602,37.109,43.945,52.734,44.434,-565.430
1532486189.606,36.621,59.082,51.758,26.367,131.348
1532486189.610,39.062,56.641,47.852,45.410,-395.020
1532486189.614,39.551,54.199,46.387,52.246,-719.727
1532486189.618,36.133,51.270,49.805,52.246,-505.371
1532486189.622,31.738,57.129,49.805,45.410,-589.844
1532486189.626,27.832,64.941,46.387,40.527,148.926
1532486189.629,26.367,56.152,45.410,50.293,515.625
1532486189.633,28.809,47.363,46.387,34.668,497.559
1532486189.637,31.738,41.016,46.875,29.297,24.414
1532486189.641,34.180,47.363,47.852,30.273,-761.719
1532486189.645,31.738,73.242,44.434,17.090,138.184
1532486189.649,28.809,47.852,41.992,30.762,827.148
1532486189.653,25.391,22.949,42.969,53.711,-282.227
1532486189.657,19.043,42.480,42.480,54.199,-774.902
1532486189.661,26.855,46.387,38.574,48.340,-834.961
1532486189.665,31.738,57.129,37.598,39.551,-222.168
1532486189.669,27.344,45.410,39.551,30.273,16.113
1532486189.672,24.902,40.527,39.062,31.250,-617.676
1532486189.676,14.648,55.664,38.086,22.949,-22.461
1532486189.680,17.578,45.898,38.574,32.715,402.344
1532486189.684,25.391,48.340,39.062,38.574,264.648
1532486189.688,22.461,50.293,38.574,21.484,762.695
1532486189.692,25.879,26.855,36.621,36.621,-190.430
1532486189.696,25.879,35.156,34.668,37.598,-847.168
1532486189.700,23.438,42.969,36.621,29.297,-684.082
1532486189.704,25.879,41.504,38.086,32.715,-488.770
1532486189.708,26.367,38.574,35.645,29.297,-172.363
1532486189.711,26.367,39.062,34.668,23.438,-592.285
1532486189.715,29.297,33.203,35.645,35.645,-620.117
1532486189.719,27.832,31.738,39.062,46.875,-553.711
1532486189.723,19.531,50.293,37.109,38.086,60.547
1532486189.727,21.973,60.059,31.738,34.180,893.555
1532486189.731,36.133,28.320,37.109,40.039,98.145
1532486189.735,34.668,23.438,39.551,41.016,-602.051
1532486189.739,28.809,33.203,37.109,48.828,-797.363
1532486189.743,37.109,40.039,38.086,35.156,-729.980
1532486189.747,42.969,46.387,40.039,27.832,32.227
1532486189.751,34.668,43.457,38.574,38.574,-295.898
1532486189.754,25.391,45.410,35.645,30.762,-643.066
1532486189.758,25.879,46.387,36.133,47.363,-752.930
1532486189.762,31.250,45.410,35.645,52.246,-598.145
1532486189.766,31.250,41.504,33.691,28.320,268.066
1532486189.770,28.320,39.062,35.645,28.809,411.133
1532486189.774,32.227,44.434,33.691,35.645,412.109
1532486189.778,33.203,34.668,29.785,38.574,-175.781
1532486189.782,33.203,30.273,29.785,44.434,-593.262
1532486189.786,22.461,52.246,26.855,37.598,598.145
1532486189.790,16.602,25.879,30.273,20.020,586.914
1532486189.794,23.438,16.113,33.691,27.832,-640.137
1532486189.797,29.297,30.273,31.250,42.969,-741.699
1532486189.801,29.785,26.367,29.785,35.156,-591.797
1532486189.805,25.391,42.480,29.785,16.113,51.270
1532486189.809,26.855,38.086,28.320,25.391,-204.590
1532486189.813,23.438,28.320,25.879,30.762,-724.121
1532486189.817,21.973,35.645,27.344,37.598,122.070
1532486189.821,24.902,28.320,29.785,36.133,351.562
1532486189.825,14.160,41.992,26.855,13.672,319.336
1532486189.829,12.207,41.016,29.785,21.973,756.348
1532486189.833,28.809,14.648,37.109,43.457,-173.828
1532486189.836,36.621,24.414,36.621,32.715,-698.242
1532486189.840,16.602,38.086,31.250,1.465,-838.867
1532486189.844,4.395,41.016,29.297,4.883,-527.344
1532486189.848,19.043,31.250,30.273,30.273,-70.312
1532486189.852,22.461,27.832,33.203,33.691,-472.168
1532486189.856,12.695,29.297,35.156,28.809,-676.270
1532486189.860,19.043,28.320,32.715,30.762,-780.762
1532486189.864,26.855,45.410,30.762,36.133,27.832
1532486189.868,21.484,44.922,32.715,35.156,905.273
1532486189.872,21.973,19.043,34.180,30.762,-65.918
1532486189.876,28.320,28.320,29.785,6.348,-828.125
1532486189.879,35.156,37.598,30.273,9.766,-806.641
1532486189.883,31.738,35.156,31.738,21.973,-496.094
1532486189.887,24.414,33.691,30.273,13.184,267.090
1532486189.891,35.156,30.762,31.250,28.809,-291.504
1532486189.895,44.434,37.109,31.250,43.457,-743.652
1532486189.899,36.621,44.922,31.738,37.109,-578.125
1532486189.903,31.738,42.480,32.715,44.922,-368.164
1532486189.907,31.250,28.809,29.297,31.250,151.855
1532486189.911,33.203,36.133,27.344,29.785,275.391
1532486189.915,33.691,41.504,29.785,38.574,439.453
1532486189.918,33.691,27.832,33.203,44.922,-103.027
1532486189.922,29.297,41.504,32.715,53.223,-526.367
1532486189.926,24.902,62.500,33.203,37.109,641.113
1532486189.930,28.809,35.156,32.227,44.922,446.289
1532486189.934,22.461,32.227,30.273,41.504,-500.977
1532486189.938,13.672,35.645,30.762,22.949,-701.660
1532486189.942,12.207,40.039,30.273,19.043,-752.930
1532486189.946,20.508,55.664,30.762,32.227,120.117
1532486189.950,23.438,42.480,33.691,35.156,-120.605
1532486189.954,14.648,36.133,34.180,28.809,-617.188
1532486189.958,15.137,46.875,32.715,27.832,51.758
1532486189.961,23.438,47.852,33.203,27.832,286.133
1532486189.965,22.949,57.617,34.180,28.809,654.785
1532486189.969,20.996,33.203,35.156,27.832,674.316
1532486189.973,20.508,22.949,35.156,21.484,-514.648
1532486189.977,19.043,44.434,35.645,16.602,-911.133
1532486189.981,18.555,43.457,37.109,29.297,-785.645
1532486189.985,11.230,46.387,39.551,32.227,-130.371
1532486189.989,11.719,43.945,37.598,25.391,-170.898
1532486189.993,17.090,45.410,33.203,39.062,-790.039
1532486189.997,12.207,36.621,31.250,39.062,-658.203
1532486190.001,21.484,29.785,33.691,38.574,-583.496
1532486190.004,20.020,49.805,34.180,20.996,217.773
1532486190.008,16.113,49.316,32.227,20.996,860.352
1532486190.012,28.320,27.344,34.180,33.203,-255.859
1532486190.016,29.785,32.227,32.715,26.855,-688.477
1532486190.020,28.809,34.668,33.691,29.785,-678.223
1532486190.024,26.855,42.480,35.645,29.297,-582.031
1532486190.028,24.414,40.039,34.668,32.227,-208.984
1532486190.032,30.273,37.109,33.691,33.691,-507.324
1532486190.036,33.691,42.969,34.668,33.203,-533.691
1532486190.040,27.832,50.781,38.086,42.480,-669.434
1532486190.043,26.367,56.152,38.086,38.086,-549.805
1532486190.047,32.715,51.758,33.691,27.832,35.645
1532486190.051,38.086,57.617,36.621,33.691,252.930
1532486190.055,37.109,50.293,40.039,44.434,509.277
1532486190.059,37.109,38.086,37.598,50.293,-268.555
1532486190.063,38.086,54.688,34.668,45.410,-531.738
1532486190.067,37.598,68.359,37.598,38.086,733.887
1532486190.071,40.527,37.598,40.039,49.805,220.215
1532486190.075,38.574,40.527,39.551,48.828,-755.859
1532486190.079,37.598,51.270,41.016,34.668,-827.637
1532486190.083,36.133,48.340,37.598,38.086,-502.441
1532486190.086,35.645,47.363,34.668,20.020,239.258
1532486190.090,36.133,42.480,37.598,19.043,-381.348
1532486190.094,32.227,45.898,36.621,33.691,-775.391
1532486190.098,35.156,49.316,38.086,50.293,8.789
1532486190.102,32.715,51.270,39.062,45.410,527.832
1532486190.106,25.879,63.477,35.645,23.438,916.504
1532486190.110,33.203,30.762,35.645,25.879,387.695
1532486190.114,35.156,23.438,36.133,35.156,-587.402
1532486190.118,28.320,36.133,36.133,24.414,-701.172
1532486190.122,28.320,41.992,35.156,13.672,-693.848
1532486190.125,27.344,56.641,37.109,20.996,-8.789
1532486190.129,29.297,43.945,40.527,36.133,-246.582
1532486190.133,30.762,41.016,41.504,29.297,-643.555
1532486190.137,25.879,37.109,40.039,14.160,-534.180
1532486190.141,18.555,41.504,39.062,19.043,-778.320
1532486190.145,20.508,59.082,38.086,35.156,227.539
1532486190.149,22.949,32.715,40.039,37.598,634.766
1532486190.153,27.832,20.020,42.969,37.598,-420.898
1532486190.157,22.461,33.203,43.945,22.461,-741.211
1532486190.161,23.926,37.598,41.016,18.066,-866.211
1532486190.165,31.250,50.293,38.086,35.156,-256.348
1532486190.168,26.855,40.039,40.527,28.809,106.445
1532486190.172,20.020,33.691,39.551,17.090,-566.895
1532486190.176,17.090,38.086,36.621,31.250,-726.562
1532486190.180,14.648,38.086,36.133,48.828,-667.969
1532486190.184,21.484,39.062,38.574,44.922,-239.746
1532486190.188,28.320,37.109,39.062,27.344,45.410
1532486190.192,23.438,47.363,36.621,23.438,249.023
1532486190.196,21.973,41.016,33.691,37.109,380.371
1532486190.200,30.273,24.902,32.715,43.945,-366.211
1532486190.204,24.414,41.504,34.668,39.062,-311.523
1532486190.208,19.043,52.246,33.691,18.066,750.000
1532486190.211,25.391,27.344,33.203,9.766,25.391
1532486190.215,26.367,35.156,38.086,41.504,-674.316
1532486190.219,21.973,38.574,40.039,35.645,-631.348
1532486190.223,19.531,35.156,36.133,17.578,-563.477
1532486190.227,20.996,39.551,32.715,24.902,-33.203
1532486190.231,24.414,38.086,32.227,25.391,-419.434
1532486190.235,21.484,38.086,29.785,5.371,-543.457
1532486190.239,21.484,42.480,32.715,24.414,45.410
1532486190.243,17.578,50.293,36.133,44.922,510.254
1532486190.247,18.066,54.199,38.086,26.367,908.203
1532486190.250,28.809,25.879,41.992,34.668,265.137
1532486190.254,22.461,29.785,37.598,38.574,-616.699
1532486190.258,18.555,43.457,33.203,28.320,-916.992
1532486190.262,21.973,40.527,31.250,20.508,-764.648
1532486190.266,21.973,38.574,33.203,22.949,140.137
1532486190.270,23.438,28.809,38.086,20.508,-242.676
1532486190.274,30.273,32.715,36.133,37.598,-776.855
1532486190.278,33.691,33.203,34.180,46.387,-748.047
1532486190.282,33.203,38.574,37.598,29.785,-646.484
1532486190.286,28.320,59.082,35.156,27.344,533.691
1532486190.290,26.855,37.598,35.645,26.367,437.012
1532486190.293,30.273,28.320,39.062,31.250,-702.637
1532486190.297,27.344,32.715,34.668,24.414,-711.426
1532486190.301,26.855,33.203,33.691,19.043,-593.750
1532486190.305,22.461,52.734,36.133,30.273,91.309
1532486190.309,21.973,50.293,38.086,44.434,211.914
1532486190.313,30.273,41.016,35.645,41.016,-410.645
1532486190.317,28.320,37.598,34.180,32.227,-493.164
1532486190.321,21.973,38.574,32.715,30.273,-571.289
1532486190.325,27.832,49.805,30.762,18.555,-172.363
1532486190.329,42.969,43.945,29.297,34.668,-56.152
1532486190.333,28.809,47.363,27.832,36.621,101.074
1532486190.336,13.672,43.457,35.645,18.066,622.559
1532486190.340,13.672,29.297,39.062,28.320,-280.762
1532486190.344,8.301,50.781,32.227,30.762,-313.965
1532486190.348,19.531,50.781,32.227,28.320,822.266
1532486190.352,29.297,20.508,35.156,42.480,15.137
1532486190.356,31.250,35.645,35.645,39.062,-724.609
1532486190.360,30.762,47.363,36.133,27.344,-836.914
1532486190.364,30.762,51.270,36.621,37.598,-538.574
1532486190.368,32.227,46.875,38.086,24.902,65.430
1532486190.372,34.180,37.598,38.086,22.949,-439.453
1532486190.375,32.715,40.039,38.574,39.551,-721.680
1532486190.379,32.715,50.293,37.109,41.504,-26.855
1532486190.383,29.297,52.734,36.133,43.457,568.848
1532486190.387,25.879,56.641,37.109,32.715,867.188
1532486190.391,28.320,34.180,37.598,26.855,-19.043
1532486190.395,32.227,36.621,36.621,37.109,-798.828
1532486190.399,38.086,46.875,38.574,32.715,-748.535
1532486190.403,30.762,41.504,38.086,25.391,-477.539
1532486190.407,24.414,40.039,32.715,14.648,62.988
1532486190.411,25.391,34.668,30.762,30.273,-519.043
1532486190.415,29.785,39.551,34.180,51.270,-672.363
1532486190.418,28.809,37.109,33.203,26.367,-526.367
1532486190.422,23.438,40.527,32.227,32.227,-565.430
1532486190.426,26.367,52.734,31.738,26.367,537.598
1532486190.430,30.762,34.668,32.715,33.691,482.422
1532486190.434,31.250,28.809,32.227,42.969,-342.285
1532486190.438,26.855,35.156,30.273,6.836,-514.160
1532486190.442,25.391,41.016,32.227,22.949,-633.789
1532486190.446,27.344,53.711,30.273,47.852,480.957
1532486190.450,33.203,20.996,32.715,39.551,476.074
1532486190.454,34.180,19.043,33.691,39.062,-478.516
1532486190.457,28.320,38.574,32.715,33.203,-696.777
1532486190.461,24.902,39.062,33.691,40.039,-713.867
1532486190.465,26.367,44.922,25.879,37.598,152.344
1532486190.469,23.926,35.645,23.926,22.461,44.434
1532486190.473,18.555,46.387,25.879,23.438,77.637
1532486190.477,23.438,43.457,25.879,6.836,578.125
1532486190.481,26.855,26.855,26.367,14.160,-255.371
1532486190.485,19.043,52.734,22.949,40.527,130.859
1532486190.489,11.719,48.340,26.367,28.809,832.031
1532486190.493,10.254,29.297,27.832,27.344,-405.273
1532486190.497,21.973,34.668,27.344,28.809,-808.105
1532486190.500,35.156,33.691,29.785,26.855,-644.531
1532486190.504,30.273,41.992,28.809,38.086,-276.367
1532486190.508,26.367,41.504,29.785,28.809,-128.418
1532486190.512,28.320,41.504,29.785,16.113,-662.598
1532486190.516,31.250,47.852,28.320,41.992,-533.691
1532486190.520,26.855,44.922,32.227,51.270,38.086
1532486190.524,15.137,51.270,31.738,22.949,566.895
1532486190.528,18.555,50.781,30.762,23.926,858.398
1532486190.532,25.879,27.832,32.715,38.574,-27.344
1532486190.536,21.973,40.039,33.203,16.113,-634.766
1532486190.540,18.555,46.875,41.016,6.836,-789.062
1532486190.543,18.555,38.086,41.504,21.484,-713.867
1532486190.547,20.508,37.598,39.551,28.809,-101.562
1532486190.551,23.438,40.527,40.039,31.738,-394.043
1532486190.555,16.602,43.457,36.621,22.949,-631.348
1532486190.559,13.672,46.387,37.598,20.508,-763.672
1532486190.563,24.414,54.199,39.062,25.391,-597.656
1532486190.567,27.344,46.875,35.645,24.414,478.027
1532486190.571,21.973,38.574,36.133,20.508,682.617
1532486190.575,24.414,36.133,35.156,15.625,-118.164
1532486190.579,32.715,34.180,33.203,18.555,-686.035
1532486190.582,32.715,41.992,33.203,44.922,-461.426
1532486190.586,25.879,55.176,32.227,32.715,706.543
1532486190.590,26.855,27.344,36.133,24.414,318.359
1532486190.594,30.273,29.785,40.039,23.438,-712.402
1532486190.598,36.621,41.016,39.551,43.945,-729.004
1532486190.602,35.645,39.062,38.086,53.223,-460.449
1532486190.606,30.762,41.504,38.086,45.410,219.238
1532486190.610,35.645,38.574,38.086,42.969,-312.500
1532486190.614,40.039,50.781,37.598,32.715,42.969
1532486190.618,41.016,41.504,41.016,40.527,426.758
1532486190.622,38.574,41.992,42.480,30.762,-485.840
1532486190.625,34.668,73.730,41.504,42.480,355.957
1532486190.629,38.086,48.340,43.457,41.992,717.285
1532486190.633,37.598,25.391,40.039,22.949,-410.645
1532486190.637,35.156,37.109,38.574,38.086,-676.758
1532486190.641,33.203,47.852,41.504,35.645,-820.312
1532486190.645,28.809,59.082,37.598,27.344,-217.773
1532486190.649,36.133,43.945,35.645,45.410,-40.039
1532486190.653,35.645,38.086,34.180,37.109,-569.336
1532486190.657,29.297,47.852,32.715,23.926,-607.910
1532486190.661,26.367,47.852,30.762,22.949,-144.531
1532486190.665,24.414,54.688,30.273,29.297,607.910
1532486190.668,21.973,45.898,31.250,36.133,842.285
1532486190.672,19.531,23.926,32.227,34.668,-252.930
1532486190.676,26.855,36.621,30.273,8.301,-887.695
1532486190.680,35.156,39.062,30.273,8.789,-827.148
1532486190.684,30.273,34.668,33.691,13.672,-392.090
1532486190.688,24.414,33.203,33.203,11.230,-62.012
1532486190.692,23.926,32.715,31.738,13.672,-664.551
1532486190.696,27.344,36.621,26.367,20.508,-716.797
1532486190.700,23.926,32.715,25.879,25.391,-580.078
1532486190.704,16.113,36.621,27.344,18.066,-360.352
1532486190.707,12.207,45.898,24.902,8.301,524.414
1532486190.711,17.578,43.945,26.855,18.066,558.594
1532486190.715,19.531,36.133,32.715,28.809,-89.355
1532486190.719,19.043,34.668,33.691,22.949,-528.320
1532486190.723,17.090,42.969,34.668,21.973,-443.848
1532486190.727,17.090,55.664,33.203,9.277,636.719
1532486190.731,27.832,37.598,29.297,24.902,463.867
1532486190.735,35.156,28.320,30.273,37.109,-317.871
1532486190.739,31.738,36.621,31.738,20.020,-728.027
1532486190.743,28.809,44.922,33.691,31.250,-662.598
1532486190.747,34.668,40.527,33.203,44.922,78.125
1532486190.750,33.203,35.156,34.180,27.832,-269.531
1532486190.754,25.391,43.945,32.227,21.484,44.434
1532486190.758,24.902,39.551,34.180,30.273,381.836
1532486190.762,23.926,40.039,37.109,39.062,-296.387
1532486190.766,33.691,50.293,36.621,29.297,575.195
1532486190.770,46.387,24.902,40.039,33.691,520.996
1532486190.774,36.621,31.250,35.156,23.926,-706.055
1532486190.778,28.809,48.340,33.203,10.742,-932.617
1532486190.782,33.691,49.316,36.621,24.902,-701.660
1532486190.786,34.668,54.199,41.992,37.109,182.129
1532486190.789,32.715,48.340,42.969,23.438,-205.078
1532486190.793,39.062,52.734,42.969,33.203,-862.793
1532486190.797,46.875,56.641,46.875,35.156,-611.328
1532486190.801,47.363,59.570,41.992,32.227,-52.246
1532486190.805,44.922,69.336,43.945,44.922,758.789
1532486190.809,44.434,47.363,51.270,25.391,682.617
1532486190.813,52.246,36.621,50.293,36.133,-458.984
1532486190.817,50.781,51.758,51.270,54.199,-702.637
1532486190.821,43.457,55.176,51.758,47.852,-719.727
1532486190.825,43.945,68.848,52.246,39.551,-364.258
1532486190.829,51.758,68.359,57.129,44.922,-216.309
1532486190.832,49.316,62.988,58.105,45.898,-618.164
1532486190.836,45.410,55.664,56.152,50.293,-507.812
1532486190.840,40.039,58.105,56.641,33.691,-740.234
1532486190.844,40.527,74.707,56.152,41.992,-440.430
1532486190.848,44.922,66.895,55.176,50.781,614.258
1532486190.852,40.039,51.758,54.199,56.152,656.250
1532486190.856,36.621,57.617,54.199,61.035,-42.480
1532486190.860,39.551,64.453,57.129,44.434,-748.047
1532486190.864,42.480,73.242,55.664,35.645,-431.641
1532486190.868,44.922,76.172,52.734,45.410,751.465
1532486190.872,45.410,47.852,55.176,49.805,52.246
1532486190.875,44.922,58.105,56.641,48.340,-827.637
1532486190.879,49.805,67.383,56.641,57.617,-819.336
1532486190.883,55.176,60.547,56.152,57.617,-445.801
1532486190.887,54.199,54.688,52.734,55.664,84.473
1532486190.891,49.316,55.176,49.805,42.969,-517.090
1532486190.895,44.434,70.312,48.828,48.828,-77.148
1532486190.899,43.945,56.641,48.828,55.176,459.961
1532486190.903,38.574,38.574,46.875,32.227,-52.246
1532486190.907,29.297,62.988,42.969,33.691,659.668
1532486190.911,31.738,43.945,41.992,41.992,198.730
1532486190.914,39.062,38.086,41.992,39.551,-713.379
1532486190.918,36.133,45.898,41.016,42.480,-704.102
1532486190.922,28.809,46.875,40.527,35.156,-632.812
1532486190.926,27.832,47.852,39.551,38.574,31.738
1532486190.930,33.203,39.062,34.668,32.715,-345.703
1532486190.934,37.598,39.062,34.180,28.809,-648.926
1532486190.938,34.668,38.086,38.574,28.320,-568.359
1532486190.942,28.320,51.270,38.086,21.973,-71.777
1532486190.946,31.738,57.129,36.133,15.137,888.184
1532486190.950,35.645,23.926,40.527,32.227,556.152
1532486190.954,30.273,25.879,40.039,33.691,-491.211
1532486190.957,25.391,43.945,35.645,24.902,-869.141
1532486190.961,27.344,44.434,38.086,31.738,-884.766
1532486190.965,30.273,52.246,36.621,38.574,-26.855
1532486190.969,29.297,38.086,35.645,33.691,-80.078
1532486190.973,24.902,40.039,33.691,34.180,-747.559
1532486190.977,22.461,43.945,29.785,30.273,-733.887
1532486190.981,25.391,38.574,33.203,12.695,-705.078
1532486190.985,22.949,48.340,36.621,20.020,-6.836
1532486190.989,16.113,43.945,34.180,27.832,637.207
1532486190.993,14.648,42.969,33.691,18.555,475.098
1532486190.997,21.973,42.480,33.203,35.645,-16.602
1532486191.000,25.391,35.645,31.738,51.270,-596.191
1532486191.004,22.949,55.664,32.227,31.738,-107.422
1532486191.008,22.949,58.105,34.668,7.324,794.434
1532486191.012,31.250,33.691,34.668,18.555,-188.477
1532486191.016,33.203,36.621,36.621,35.645,-695.801
1532486191.020,31.738,42.969,42.969,23.926,-645.996
1532486191.024,29.297,50.293,41.992,15.137,-527.344
1532486191.028,29.297,37.109,44.434,40.039,-162.109
1532486191.032,28.320,35.156,46.875,53.711,-509.277
1532486191.036,22.461,49.805,42.480,35.645,102.051
1532486191.039,23.926,34.668,41.016,32.227,390.137
1532486191.043,26.855,34.668,41.992,38.086,-177.734
1532486191.047,27.832,58.105,41.992,43.457,643.555
1532486191.051,26.367,38.086,41.504,39.551,208.496
1532486191.055,14.160,35.156,42.969,20.508,-728.516
1532486191.059,14.160,47.363,47.363,16.602,-913.574
1532486191.063,29.785,54.199,45.410,33.203,-682.617
1532486191.067,35.645,51.270,40.039,59.082,92.773
1532486191.071,35.645,54.688,39.062,53.223,-348.633
1532486191.075,38.574,58.105,41.992,40.527,-795.898
1532486191.079,25.391,45.898,48.340,39.551,-730.957
1532486191.082,11.719,52.734,47.852,36.621,10.742
1532486191.086,10.742,61.523,44.922,24.414,937.988
1532486191.090,12.207,29.297,42.480,10.254,223.633
1532486191.094,16.602,30.762,39.062,5.371,-737.793
1532486191.098,21.484,40.527,42.969,26.855,-777.344
1532486191.102,20.996,39.551,43.945,43.945,-547.852
1532486191.106,17.090,49.316,41.992,46.387,167.480
1532486191.110,15.625,36.621,41.504,40.039,-351.562
1532486191.114,16.602,30.762,41.992,23.438,-738.281
1532486191.118,11.719,33.691,41.504,18.066,-487.793
1532486191.121,6.836,40.039,39.551,18.555,-573.730
1532486191.125,5.371,52.734,38.086,21.484,112.305
1532486191.129,9.277,37.598,34.180,29.297,520.508
1532486191.133,15.625,31.738,32.715,41.992,500.977
1532486191.137,14.648,27.832,34.180,29.297,57.129
1532486191.141,13.672,31.250,35.156,24.414,-742.188
1532486191.145,16.113,59.570,33.203,38.574,40.527
1532486191.149,18.555,38.574,34.180,31.250,801.270
1532486191.153,20.996,25.391,32.715,23.438,41.992
1532486191.157,17.578,41.992,29.297,21.484,-472.168
1532486191.161,20.020,43.945,29.785,23.926,-862.305
1532486191.164,23.926,46.875,26.855,24.414,-312.988
1532486191.168,25.391,34.668,28.320,25.391,16.602
1532486191.172,27.832,31.738,30.762,20.996,-604.980
1532486191.176,26.367,46.875,28.809,29.785,-32.715
1532486191.180,32.227,38.086,27.832,41.016,359.375
1532486191.184,33.203,46.875,29.785,39.062,123.535
1532486191.188,26.367,55.664,31.738,29.297,745.605
1532486191.192,28.320,20.508,30.273,20.020,-148.438
1532486191.196,35.156,28.320,31.250,34.180,-897.461
1532486191.200,37.598,35.156,33.203,46.387,-728.027
1532486191.204,35.645,33.203,33.203,37.109,-511.230
1532486191.207,34.180,34.668,32.715,26.367,-166.992
1532486191.211,35.156,36.133,34.180,44.922,-617.188
1532486191.215,36.133,41.016,38.086,54.688,-666.504
1532486191.219,37.598,41.992,37.598,42.480,-558.594
1532486191.223,40.527,56.152,35.156,34.180,46.875
1532486191.227,39.551,47.852,35.156,24.902,891.602
1532486191.231,38.086,19.531,35.645,26.855,112.305
1532486191.235,41.992,32.227,33.691,31.738,-597.656
1532486191.239,41.504,45.410,33.203,26.367,-792.480
1532486191.243,36.133,49.805,30.762,25.391,-750.977
1532486191.246,35.156,50.293,28.320,25.879,38.574
1532486191.250,34.668,37.598,33.203,24.414,-279.785
1532486191.254,25.879,35.156,32.715,33.203,-633.301
1532486191.258,29.297,41.992,32.715,30.273,-742.188
1532486191.262,34.668,46.387,34.180,27.344,-632.324
1532486191.266,29.785,44.434,33.203,30.762,261.230
1532486191.270,26.855,42.480,35.156,41.016,444.824
1532486191.274,27.344,44.434,35.645,25.879,418.457
1532486191.278,35.645,31.738,39.551,19.043,-184.570
1532486191.282,42.480,34.180,39.062,42.969,-631.836
1532486191.286,29.785,59.570,29.297,34.180,560.059
1532486191.289,25.391,40.039,31.250,40.527,646.484
1532486191.293,31.738,36.133,38.574,32.227,-604.492
1532486191.297,29.297,43.945,38.086,15.625,-760.742
1532486191.301,30.273,36.621,38.086,25.879,-612.305
1532486191.305,28.320,50.781,37.109,34.668,17.090
1532486191.309,24.414,42.969,34.668,31.738,-200.684
1532486191.313,29.297,41.504,34.668,28.320,-751.953
1532486191.317,34.180,51.758,36.133,40.039,136.719
1532486191.321,32.715,37.598,38.086,27.344,373.047
1532486191.325,30.273,43.457,40.039,25.391,252.441
1532486191.329,34.668,42.969,37.598,41.992,753.418
1532486191.332,39.062,22.949,39.551,47.363,-155.762
1532486191.336,34.180,38.086,42.969,25.879,-705.566
1532486191.340,34.668,41.504,38.086,30.762,-842.773
1532486191.344,40.039,50.293,38.574,44.434,-599.609
1532486191.348,42.480,45.410,43.457,45.410,-103.516
1532486191.352,41.016,34.180,40.039,38.574,-458.496
1532486191.356,36.133,43.457,33.203,36.621,-670.898
1532486191.360,32.715,44.922,33.203,38.574,-777.832
1532486191.364,36.133,58.105,39.062,44.922,8.789
1532486191.368,31.250,59.082,44.434,54.688,907.227
1532486191.371,30.273,34.668,45.410,38.086,-19.043
1532486191.375,25.879,40.527,41.992,28.320,-821.777
1532486191.379,27.344,45.898,40.039,34.668,-840.820
1532486191.383,31.250,45.898,41.016,41.992,-486.328
1532486191.387,26.367,39.062,39.551,44.922,49.805
1532486191.391,26.855,37.598,37.598,28.320,-540.527
1532486191.395,31.738,46.875,38.574,39.062,-760.254
1532486191.399,34.668,41.504,40.039,51.270,-586.914
1532486191.403,31.250,34.180,40.039,40.527,-361.816
1532486191.407,34.180,36.133,43.457,35.156,187.500
1532486191.411,41.016,44.922,43.945,30.273,367.676
1532486191.414,40.039,42.480,43.457,40.039,345.703
1532486191.418,32.715,36.621,46.875,43.457,-281.250
1532486191.422,23.438,55.176,43.945,36.133,-540.527
1532486191.426,20.508,68.848,40.527,40.527,624.023
1532486191.430,25.391,31.250,42.480,40.527,492.188
1532486191.434,26.855,27.344,45.410,30.273,-468.262
1532486191.438,28.809,41.504,47.363,39.551,-672.363
1532486191.442,24.902,42.969,46.387,36.621,-745.117
1532486191.446,21.484,49.316,42.969,35.156,126.953
1532486191.450,24.414,43.457,41.992,53.711,-73.730
1532486191.453,24.902,48.340,43.945,39.062,-603.516
1532486191.457,23.926,51.758,38.574,29.785,97.656
1532486191.461,24.414,42.480,39.062,37.598,351.562
1532486191.465,24.902,58.594,41.016,32.715,618.652
1532486191.469,24.902,41.016,40.039,40.039,710.449
1532486191.473,27.832,22.949,39.551,43.457,-458.984
1532486191.477,30.762,40.039,37.109,30.762,-905.762
1532486191.481,34.668,41.504,40.527,26.855,-785.156
1532486191.485,34.668,49.805,44.922,30.762,-139.648
1532486191.489,30.762,41.016,45.410,28.809,-119.629
1532486191.493,32.715,33.691,42.480,41.016,-758.789
1532486191.496,39.551,40.039,42.969,49.805,-665.039
1532486191.500,39.551,43.457,46.875,57.617,-577.637
1532486191.504,27.344,61.035,43.945,48.340,224.609
1532486191.508,20.996,59.570,44.434,20.996,878.418
1532486191.512,32.227,34.668,46.875,43.457,-227.539
1532486191.516,34.668,39.551,47.852,47.852,-686.035
1532486191.520,29.297,44.434,47.363,23.926,-663.574
1532486191.524,26.855,51.270,41.992,32.715,-561.523
1532486191.528,30.273,49.805,42.480,38.574,-170.410
1532486191.532,36.133,51.758,43.457,45.410,-491.211
1532486191.536,35.156,50.293,43.457,41.992,-540.527
1532486191.539,27.344,42.969,45.410,34.668,-675.781
1532486191.543,29.785,46.875,45.410,24.902,-574.707
1532486191.547,45.898,36.621,48.828,39.062,44.922
1532486191.551,51.270,46.387,48.828,66.895,278.320
1532486191.555,38.086,56.641,45.410,41.504,486.328
1532486191.559,33.691,41.016,44.922,13.672,-269.043
1532486191.563,39.551,51.758,45.410,36.133,-530.273
1532486191.567,37.109,69.336,50.293,51.758,731.934
1532486191.571,33.203,39.062,53.223,48.340,244.141
1532486191.575,32.715,43.945,48.828,41.504,-503.906
1532486191.578,38.086,55.176,47.363,47.852,-607.422
1532486191.582,47.363,54.199,53.223,28.809,-524.414
1532486191.586,42.969,51.758,51.270,38.574,272.461
1532486191.590,23.438,42.480,47.852,72.754,-360.840
1532486191.594,23.438,51.270,44.434,56.641,-789.551
1532486191.598,36.621,62.500,43.945,55.176,65.430
1532486191.602,37.598,59.570,45.898,44.922,222.168
1532486191.606,30.273,69.336,46.875,33.691,667.969
1532486191.610,32.227,48.828,47.363,45.410,495.605
1532486191.614,38.086,42.480,42.480,56.641,-573.242
1532486191.618,41.016,50.293,40.039,52.246,-681.152
1532486191.621,35.645,50.781,44.434,36.621,-686.035
1532486191.625,32.227,64.453,43.945,36.621,-33.203
1532486191.629,41.992,53.711,39.551,45.898,-212.891
1532486191.633,42.969,44.922,38.574,52.246,-619.141
1532486191.637,30.273,39.551,43.457,40.039,-513.672
1532486191.641,32.227,37.109,48.828,29.297,-769.043
1532486191.645,29.785,62.500,47.363,19.043,197.754
1532486191.649,28.809,48.340,39.062,28.809,862.793
1532486191.653,39.551,26.855,40.039,46.875,-247.559
1532486191.657,34.668,44.922,42.480,46.387,-766.113
1532486191.661,36.621,50.293,41.992,35.156,-868.652
1532486191.664,40.039,61.035,40.527,32.715,-355.469
1532486191.668,36.133,41.504,36.621,46.875,14.648
1532486191.672,34.668,36.133,37.109,34.668,-574.219
1532486191.676,38.574,48.340,43.945,32.715,-734.375
1532486191.680,44.434,44.434,40.527,45.410,-682.129
1532486191.684,38.574,41.504,30.762,20.996,-274.414
1532486191.688,30.762,38.086,29.297,1.953,45.410
1532486191.692,24.414,49.805,28.809,9.766,260.742
1532486191.696,26.855,46.875,28.320,41.016,370.117
1532486191.700,31.738,38.086,31.250,50.293,-356.934
1532486191.703,31.250,45.898,34.668,21.973,-279.297
1532486191.707,36.133,40.039,33.203,23.438,241.211
1532486191.711,42.480,41.992,32.715,59.082,-419.434
1532486191.715,36.621,52.246,33.203,65.918,-523.438
1532486191.719,40.039,43.945,34.668,53.711,-463.379
1532486191.723,40.039,47.852,36.133,48.828,-444.824
1532486191.727,28.320,66.406,33.203,34.668,690.430
1532486191.731,40.527,37.109,37.598,39.551,277.832
1532486191.735,45.898,24.414,37.109,47.363,-524.902
1532486191.739,40.039,44.922,33.203,38.086,9.766
1532486191.743,35.156,54.199,32.715,31.250,456.543
1532486191.746,32.715,56.641,32.227,42.969,892.090
1532486191.750,38.086,27.832,37.109,60.547,294.434
1532486191.754,27.832,29.297,40.039,58.594,-636.719
1532486191.758,19.531,40.527,35.156,40.527,-956.543
1532486191.762,22.949,41.992,32.715,26.855,-843.750
1532486191.766,26.855,43.945,33.691,29.785,94.727
1532486191.770,27.344,32.715,35.645,34.180,-253.418
1532486191.774,23.438,41.504,34.180,30.273,-821.777
1532486191.778,20.996,41.992,29.785,28.809,-784.180
1532486191.782,23.438,45.898,29.785,40.039,-724.609
1532486191.785,18.555,62.988,31.738,40.039,487.793
1532486191.789,18.066,30.273,34.180,19.043,608.887
1532486191.793,24.414,28.809,36.621,19.043,-634.766
1532486191.797,27.832,43.945,35.156,35.156,-760.742
1532486191.801,25.879,38.086,34.668,32.715,-639.648
1532486191.805,18.555,51.270,37.109,39.551,40.039
1532486191.809,19.043,42.480,35.645,38.086,-79.590
1532486191.813,26.855,40.039,31.738,30.273,-728.027
1532486191.817,29.785,42.480,32.715,32.227,-511.230
1532486191.821,22.461,39.062,37.598,31.738,-572.754
1532486191.825,19.043,46.387,35.645,38.574,-222.168
1532486191.828,20.508,40.527,30.273,37.598,-50.293
1532486191.832,22.949,43.945,32.227,35.645,203.125
1532486191.836,21.973,40.527,35.645,28.320,460.938
1532486191.840,19.531,33.691,34.180,18.066,-508.301
1532486191.844,25.879,51.758,27.832,33.203,-368.652
1532486191.848,35.156,54.199,28.320,37.598,806.641
1532486191.852,31.738,21.484,35.645,21.484,56.152
1532486191.856,21.973,28.809,35.645,30.273,-703.613
1532486191.860,24.902,39.551,32.715,38.574,-825.195
1532486191.864,26.855,34.668,28.809,23.926,-565.918
1532486191.868,27.832,31.738,29.297,28.809,67.871
1532486191.871,23.926,33.203,32.227,29.297,-404.297
1532486191.875,19.043,42.969,30.273,23.926,-718.262
1532486191.879,26.367,46.875,28.320,46.875,-29.785
1532486191.883,26.367,45.898,28.320,48.828,569.336
1532486191.887,23.438,48.828,28.809,45.898,875.000
1532486191.891,25.879,24.902,32.227,32.227,23.926
1532486191.895,33.203,28.809,36.133,34.668,-779.785
1532486191.899,39.551,41.992,36.133,56.641,-751.465
1532486191.903,35.645,44.922,33.691,48.340,-471.680
1532486191.907,27.832,37.598,33.203,29.297,94.238
1532486191.910,29.785,37.109,33.203,33.203,-494.629
1532486191.914,37.598,47.363,35.645,47.852,-687.500
1532486191.918,38.086,43.945,38.574,54.199,-514.160
1532486191.922,28.809,50.781,37.598,56.641,-556.641
1532486191.926,35.645,62.012,35.645,51.758,531.738
1532486191.930,53.223,45.898,35.645,43.457,504.883
1532486191.934,51.758,39.551,35.156,46.387,-334.961
1532486191.938,41.504,37.598,37.109,51.758,-493.164
1532486191.942,34.668,42.969,35.645,41.504,-657.715
1532486191.946,29.785,61.523,32.227,34.180,419.922
1532486191.950,29.297,30.273,33.203,45.410,506.836
1532486191.953,32.227,25.879,35.645,52.246,-464.844
1532486191.957,25.879,38.086,34.180,34.668,-693.848
1532486191.961,24.414,36.133,33.203,23.438,-747.559
1532486191.965,27.832,45.898,36.133,47.363,70.312
1532486191.969,24.414,34.668,33.203,56.641,55.664
1532486191.973,18.066,42.480,28.320,28.320,80.078
1532486191.977,19.531,47.852,28.809,26.855,569.824
1532486191.981,31.738,35.156,33.203,48.828,-269.043
1532486191.985,28.320,51.270,32.715,33.691,50.293
1532486191.989,22.461,39.551,31.738,20.020,852.539
1532486191.992,23.438,23.926,34.180,33.691,-393.555
1532486191.996,25.879,43.457,32.227,30.273,-682.617
1532486192.000,26.367,34.668,31.250,28.320,-462.891
1532486192.004,14.648,38.086,29.785,13.672,-313.477
1532486192.008,12.207,41.016,26.855,-2.930,-126.465
1532486192.012,18.066,38.086,28.320,31.738,-675.781
1532486192.016,17.578,42.480,31.250,34.668,-586.426
1532486192.020,12.207,34.668,33.203,21.484,48.340
1532486192.024,10.742,44.922,32.715,10.742,522.461
1532486192.028,18.555,51.270,31.250,-4.883,837.402
1532486192.032,23.926,24.902,33.203,41.016,-1.465
1532486192.035,22.461,26.367,31.738,47.363,-651.855
1532486192.039,17.090,41.016,30.762,3.418,-793.945
1532486192.043,10.254,47.363,33.691,17.578,-713.867
1532486192.047,21.484,43.945,38.574,53.223,-94.727
1532486192.051,35.156,40.039,42.480,48.340,-402.344
1532486192.055,27.832,41.016,37.109,34.180,-638.184
1532486192.059,18.066,41.504,36.133,36.133,-775.879
1532486192.063,26.855,45.898,40.039,34.180,-630.859
1532486192.067,31.738,50.781,36.621,32.715,487.305
1532486192.071,28.320,48.340,36.621,29.785,694.336
1532486192.075,31.250,43.457,39.062,31.250,-138.672
1532486192.078,20.508,41.016,39.062,38.574,-712.402
1532486192.082,1.953,47.852,41.504,37.598,-518.066
1532486192.086,-1.953,64.453,44.434,25.879,690.918
1532486192.090,1.465,40.039,47.852,1.465,377.930
1532486192.094,-6.836,35.156,59.082,-7.324,-703.125
1532486192.098,-14.648,41.016,60.059,-12.695,-736.328
1532486192.102,-23.438,41.016,55.176,-22.949,-463.867
1532486192.106,-41.016,48.828,58.105,-61.035,287.598
1532486192.110,-49.805,43.457,62.988,-59.570,-263.184
1532486192.114,-51.270,51.758,67.871,-30.273,-66.895
1532486192.117,-60.547,42.969,70.312,-35.156,643.066
1532486192.121,-71.289,30.762,77.148,-46.875,-224.609
1532486192.125,-75.684,62.988,77.148,-62.012,323.730
1532486192.129,-71.777,46.387,73.730,-62.012,747.070
1532486192.133,-75.684,31.250,73.730,-62.012,-399.902
1532486192.137,-79.102,44.434,77.148,-65.918,-685.547
1532486192.141,-78.125,44.922,80.566,-67.871,-833.008
1532486192.145,-73.242,58.105,80.566,-80.566,-288.574
1532486192.149,-62.500,50.781,76.660,-71.289,-50.781
1532486192.153,-60.547,46.875,73.730,-41.992,-578.125
1532486192.157,-59.570,55.176,72.266,-47.852,-632.324
1532486192.160,-50.781,63.965,67.871,-46.875,-37.598
1532486192.164,-40.039,62.500,65.918,-29.297,651.367
1532486192.168,-39.062,38.574,67.871,-24.902,392.578
1532486192.172,-36.621,38.086,64.941,-30.273,-493.652
1532486192.176,-24.902,52.246,59.570,-21.973,-728.027
1532486192.180,-10.742,50.781,55.664,0.977,-809.570
1532486192.184,-0.977,65.430,53.223,-0.977,-320.801
1532486192.188,4.395,62.500,50.293,-7.324,678.711
1532486192.192,7.812,40.039,48.340,1.953,-273.438
1532486192.196,16.113,46.387,48.828,16.602,-875.488
1532486192.200,25.879,48.828,43.945,32.715,-691.406
1532486192.203,32.715,52.246,40.527,43.945,-481.445
1532486192.207,38.086,60.059,39.551,50.781,420.898
1532486192.211,46.387,62.988,38.086,57.617,605.957
1532486192.215,56.152,54.688,42.969,65.430,187.012
1532486192.219,63.477,49.316,47.852,85.449,-518.555
1532486192.223,64.941,62.500,47.852,89.844,-579.102
1532486192.227,70.801,76.172,43.457,71.777,659.668
1532486192.231,82.520,48.340,42.969,74.707,178.223
1532486192.235,86.426,43.945,41.504,81.543,-687.012
1532486192.239,95.215,56.152,42.969,66.406,-806.152
1532486192.242,98.145,66.895,41.016,99.609,-747.559
1532486192.246,104.492,59.570,37.109,121.094,20.020
1532486192.250,105.469,49.805,37.598,109.375,-331.055
1532486192.254,96.680,64.941,38.086,116.699,18.555
1532486192.258,99.609,56.152,39.062,109.863,452.148
1532486192.262,106.934,50.293,38.574,101.074,-347.168
1532486192.266,105.469,71.289,37.109,102.539,514.160
1532486192.270,109.375,41.992,39.551,119.141,572.754
1532486192.274,113.770,38.574,38.574,103.027,-711.426
1532486192.278,110.352,56.641,36.621,101.562,-981.934
1532486192.282,114.746,57.617,39.551,120.605,-804.688
1532486192.285,112.305,62.988,37.109,132.812,107.422
1532486192.289,107.422,52.246,36.133,116.211,-199.219
1532486192.293,112.793,53.711,36.133,105.469,-899.414
1532486192.297,118.652,61.035,33.691,118.164,-683.105
1532486192.301,115.723,61.035,32.715,124.512,-136.230
1532486192.305,105.469,64.941,34.668,103.516,699.707
1532486192.309,101.074,43.457,32.227,85.449,717.285
1532486192.313,102.051,25.879,27.832,97.656,-475.098
1532486192.317,107.422,36.133,27.344,109.375,-762.695
1532486192.321,99.121,35.156,28.809,93.750,-754.395
1532486192.324,84.961,44.434,26.855,84.961,-415.527
1532486192.328,85.938,41.504,23.926,90.820,-231.934
1532486192.332,90.332,41.016,22.949,90.820,-660.156
1532486192.336,85.449,27.344,22.949,83.008,-550.781
1532486192.340,76.172,22.461,22.949,58.105,-748.535
1532486192.344,73.242,38.574,23.926,58.594,-508.301
1532486192.348,71.777,37.109,23.926,87.891,544.434
1532486192.352,69.336,33.203,22.949,74.219,604.004
1532486192.356,64.453,29.297,22.461,75.684,-163.574
1532486192.360,63.477,22.949,23.926,80.566,-807.129
1532486192.364,62.500,36.621,23.926,68.359,-496.094
1532486192.367,62.988,45.898,23.438,63.965,724.609
1532486192.371,60.547,15.625,22.461,63.477,87.891
1532486192.375,57.129,26.367,21.484,57.129,-829.590
1532486192.379,60.059,31.738,23.926,62.500,-856.934
1532486192.383,56.152,22.461,23.926,52.734,-480.957
1532486192.387,42.480,23.438,22.949,32.715,101.562
1532486192.391,40.527,31.738,26.855,40.527,-495.605
1532486192.395,44.922,45.898,26.367,45.410,-25.391
1532486192.399,44.434,28.320,23.438,34.668,475.098
1532486192.403,42.969,22.949,25.879,33.691,-81.543
1532486192.407,37.598,51.270,26.367,41.992,666.016
1532486192.410,41.016,24.414,31.250,54.199,237.305
1532486192.414,42.969,20.996,32.715,51.758,-761.719
1532486192.418,43.457,35.645,28.809,40.527,-571.289
1532486192.422,41.992,33.691,27.832,38.574,-441.406
1532486192.426,41.504,41.992,25.391,28.320,71.289
1532486192.430,48.340,38.086,26.855,39.551,-342.285
1532486192.434,49.316,37.598,30.273,44.922,-689.453
1532486192.438,46.387,35.645,28.809,34.180,-587.402
1532486192.442,34.668,43.457,25.879,25.391,-20.020
1532486192.446,28.320,57.129,29.785,27.832,843.262
1532486192.449,30.762,31.738,36.133,32.227,252.441
1532486192.453,33.203,25.879,35.645,46.387,-583.496
1532486192.457,31.738,38.086,33.691,58.105,-764.648
1532486192.461,35.156,44.434,33.203,45.898,-937.012
1532486192.465,33.203,59.570,33.691,33.691,68.359
1532486192.469,31.738,33.691,37.109,27.832,342.285
1532486192.473,33.691,26.367,38.574,32.715,-667.969
1532486192.477,33.203,41.016,35.645,44.922,-820.312
1532486192.481,36.621,41.992,32.227,49.316,-814.453
1532486192.485,33.691,47.852,34.668,27.344,-134.277
1532486192.489,28.809,41.992,34.668,23.438,588.867
1532486192.492,25.879,42.969,27.832,36.133,459.961
1532486192.496,28.809,44.434,26.367,32.715,216.797
1532486192.500,33.691,40.039,28.320,41.992,-537.598
1532486192.504,26.855,55.664,26.855,37.109,-253.906
1532486192.508,26.855,60.547,28.809,15.625,789.062
1532486192.512,37.598,36.621,31.250,14.648,-209.961
1532486192.516,40.527,38.574,28.809,25.879,-805.176
1532486192.520,34.668,45.410,30.273,33.203,-720.215
1532486192.524,24.414,49.805,28.320,22.461,-586.914
1532486192.528,27.832,44.922,24.414,22.461,-210.449
1532486192.532,38.574,43.945,26.855,31.738,-585.938
1532486192.535,36.621,55.176,27.344,19.043,59.570
1532486192.539,29.297,49.805,27.344,20.996,401.367
1532486192.543,26.855,51.270,26.855,27.832,-210.449
1532486192.547,28.809,62.012,26.367,35.156,620.605
1532486192.551,30.762,36.133,31.738,46.387,192.383
1532486192.555,29.297,30.762,34.668,30.762,-769.531
1532486192.559,25.391,38.574,31.250,32.715,-955.078
1532486192.563,27.832,41.016,29.785,35.156,-762.207
1532486192.567,21.973,26.855,30.762,40.039,51.758
1532486192.571,20.020,25.879,31.738,35.156,-370.117
1532486192.574,27.832,41.992,31.738,26.855,-843.262
1532486192.578,27.832,41.016,29.297,28.320,-796.875
1532486192.582,27.344,51.270,28.320,32.227,-24.902
1532486192.586,22.461,51.758,28.809,37.109,958.496
1532486192.590,21.484,19.531,31.250,11.230,271.484
1532486192.594,23.438,25.391,32.227,-0.977,-766.113
1532486192.598,25.879,34.668,32.715,35.645,-864.746
1532486192.602,27.832,36.621,38.086,51.270,-628.906
1532486192.606,22.949,45.410,38.086,46.875,134.766
1532486192.610,21.973,27.832,37.598,37.598,-368.164
1532486192.614,26.855,25.391,37.598,22.461,-824.219
1532486192.617,27.344,28.320,36.621,31.250,-556.152
1532486192.621,22.949,33.691,38.086,49.316,-620.605
1532486192.625,18.066,44.922,37.109,19.531,91.309
1532486192.629,23.438,36.133,37.109,20.996,513.184
1532486192.633,24.414,34.668,37.109,34.180,546.387
1532486192.637,21.973,32.227,40.527,29.785,434.570
1532486192.641,19.531,31.250,40.527,31.250,-601.074
1532486192.645,17.578,58.105,34.180,20.996,-86.914
1532486192.649,17.578,47.363,33.691,20.508,848.633
1532486192.653,22.461,22.461,35.156,29.297,-220.703
1532486192.656,23.926,34.668,31.250,17.090,-788.086
1532486192.660,26.855,39.062,29.785,19.043,-904.297
1532486192.664,31.250,51.270,30.762,25.391,-402.344
1532486192.668,26.855,45.898,33.203,19.531,8.301
1532486192.672,22.461,37.598,32.227,27.344,-589.355
1532486192.676,20.508,57.129,29.785,20.508,-19.043
1532486192.680,21.484,54.199,29.785,36.133,385.254
1532486192.684,25.879,46.875,32.715,41.992,67.383
1532486192.688,20.508,56.641,31.250,23.926,723.633
1532486192.692,18.555,35.156,30.273,18.066,-105.957
1532486192.696,23.438,41.992,29.785,17.090,-928.711
1532486192.699,29.785,50.293,25.391,13.672,-786.133
1532486192.703,27.832,44.922,26.855,7.812,-533.203
1532486192.707,20.996,38.574,28.320,18.555,-129.395
1532486192.711,21.484,34.668,27.344,39.551,-625.000
1532486192.715,25.391,33.691,31.250,42.480,-725.586
1532486192.719,21.973,31.250,33.203,28.320,-584.961
1532486192.723,5.371,50.293,30.273,19.043,44.434
1532486192.727,7.324,61.523,29.785,0.000,906.738
1532486192.731,21.973,33.691,34.180,3.418,119.629
1532486192.735,22.461,26.367,33.691,29.785,-628.418
1532486192.739,16.602,34.180,31.738,34.180,-810.059
1532486192.742,13.184,49.316,33.203,31.250,-777.344
1532486192.746,20.020,51.758,37.109,33.203,18.066
1532486192.750,21.973,38.574,40.527,23.438,-303.711
1532486192.754,18.555,40.527,39.062,22.461,-651.367
1532486192.758,14.160,40.527,36.133,26.367,-741.211
1532486192.762,13.184,41.504,38.086,27.832,-709.961
1532486192.766,17.090,49.316,40.039,32.715,281.738
1532486192.770,20.996,47.852,41.016,24.414,549.316
1532486192.774,19.043,49.316,41.016,12.695,545.410
1532486192.778,21.484,39.551,39.062,12.207,253.418
1532486192.781,29.785,38.574,38.086,35.645,-523.926
1532486192.785,22.949,65.918,40.039,45.410,429.688
1532486192.789,22.949,38.086,41.504,45.410,707.520
1532486192.793,30.762,29.785,41.016,41.016,-597.656
1532486192.797,35.156,52.734,38.574,28.320,-810.547
1532486192.801,39.551,46.387,36.133,33.691,-658.691
1532486192.805,31.738,57.617,36.133,32.715,-27.344
1532486192.809,23.438,51.758,34.180,32.715,-178.711
1532486192.813,29.785,41.016,33.203,19.043,-792.480
1532486192.817,31.738,52.246,34.180,34.668,95.703
1532486192.821,21.484,44.922,30.273,59.570,420.898
1532486192.824,15.625,51.758,29.785,37.598,217.773
1532486192.828,17.578,51.270,34.180,33.691,749.512
1532486192.832,19.043,29.297,31.738,38.086,-147.949
1532486192.836,16.602,41.016,28.320,25.879,-769.531
1532486192.840,4.395,54.688,31.250,17.578,-624.512
1532486192.844,7.812,62.500,33.203,19.043,-398.438
1532486192.848,22.461,45.410,30.762,13.184,-145.020
1532486192.852,20.508,36.621,30.273,6.348,-482.910
1532486192.856,13.672,43.945,28.320,12.695,-689.453
1532486192.860,17.578,47.363,26.367,17.090,-808.105
1532486192.864,22.949,63.965,27.344,18.066,-5.859
1532486192.867,22.461,64.941,30.762,26.367,914.551
1532486192.871,27.832,32.227,35.645,41.016,-11.230
1532486192.875,25.391,35.645,34.668,26.367,-840.332
1532486192.879,24.902,47.852,33.691,16.602,-929.688
1532486192.883,31.738,50.293,36.621,38.574,-577.148
1532486192.887,34.668,45.410,39.551,48.340,70.312
1532486192.891,28.809,34.180,37.109,35.645,-525.391
1532486192.895,29.785,45.410,35.156,34.180,-816.895
1532486192.899,33.691,53.223,38.086,33.203,-666.016
1532486192.903,27.344,48.340,39.551,41.016,-405.762
1532486192.906,21.484,44.434,40.039,29.297,226.562
1532486192.910,25.391,53.223,41.016,17.578,473.145
1532486192.914,33.203,55.176,42.969,41.016,544.434
1532486192.918,31.738,29.297,45.410,53.223,-182.129
1532486192.922,26.367,41.504,42.969,53.223,-570.801
1532486192.926,27.344,70.312,41.016,42.480,625.000
1532486192.930,35.156,35.645,42.969,36.621,504.395
1532486192.934,40.527,26.855,41.992,23.926,-510.254
1532486192.938,34.668,37.598,41.992,38.574,-696.289
1532486192.942,27.344,40.039,38.574,33.203,-785.156
1532486192.946,25.391,48.828,32.227,36.133,78.125
1532486192.949,30.273,40.039,34.668,53.711,-97.656
1532486192.953,38.086,40.527,38.086,39.551,-637.695
1532486192.957,32.227,46.387,38.086,40.039,101.074
1532486192.961,33.203,39.551,37.109,60.059,376.465
1532486192.965,41.504,52.734,35.645,49.805,566.406
1532486192.969,45.410,39.551,37.109,50.781,727.539
1532486192.973,42.480,26.855,41.504,44.434,-419.922
1532486192.977,40.039,45.410,45.410,27.832,-929.199
1532486192.981,45.898,48.828,44.922,41.992,-861.816
1532486192.985,40.039,52.246,43.945,51.270,-232.910
1532486192.988,35.156,46.875,41.992,45.410,-103.516
1532486192.992,39.551,49.316,37.598,41.016,-754.883
1532486192.996,41.016,53.711,40.039,49.316,-728.027
1532486193.000,43.945,47.852,42.480,56.152,-619.629
1532486193.004,40.039,61.523,39.551,40.039,223.633
1532486193.008,31.250,57.129,37.598,37.598,899.414
1532486193.012,35.645,31.738,40.039,58.105,-221.680
1532486193.016,37.109,37.109,41.992,56.641,-737.793
1532486193.020,33.691,40.527,44.434,27.344,-694.824
1532486193.024,35.156,45.898,46.387,38.574,-588.867
1532486193.028,40.039,43.457,45.410,50.781,-193.359
1532486193.031,43.457,36.621,43.945,42.480,-544.922
1532486193.035,38.086,38.086,44.434,53.223,-574.219
1532486193.039,32.227,43.945,41.016,45.898,-666.016
1532486193.043,30.762,51.758,37.598,30.762,-593.262
1532486193.047,38.086,43.457,42.969,38.086,23.926
1532486193.051,37.109,45.898,44.922,60.059,265.625
1532486193.055,32.715,52.246,42.969,44.922,532.715
1532486193.059,39.062,39.062,44.922,40.039,-279.297
1532486193.063,39.062,49.805,42.480,40.039,-613.281
1532486193.067,31.738,67.383,37.598,44.434,708.008
1532486193.071,28.320,33.691,38.574,45.410,311.035
1532486193.074,22.461,23.926,38.574,45.898,-721.191
1532486193.078,25.879,34.180,39.062,43.457,-867.676
1532486193.082,25.391,38.086,39.062,37.598,-588.379
1532486193.086,18.555,40.039,39.062,26.367,281.738
1532486193.090,18.555,34.668,35.156,34.180,-298.828
1532486193.094,20.508,35.156,36.621,21.973,-807.617
1532486193.098,26.855,37.598,37.109,22.461,48.340
1532486193.102,28.809,41.992,33.691,30.273,543.945
1532486193.106,17.578,54.688,31.250,19.043,896.484
1532486193.110,21.973,28.809,32.227,38.086,478.516
1532486193.113,32.715,20.996,33.691,42.480,-604.492
1532486193.117,28.809,33.691,33.691,37.109,-742.676
1532486193.121,26.367,35.645,32.227,23.926,-721.191
1532486193.125,29.785,48.340,31.250,33.203,-88.867
1532486193.129,35.156,35.156,34.180,51.270,-257.812
1532486193.133,33.203,33.203,33.203,51.270,-688.477
1532486193.137,22.461,36.621,30.273,34.180,-535.645
1532486193.141,18.066,37.598,34.180,25.879,-764.648
1532486193.145,21.973,66.895,34.180,41.992,185.059
1532486193.149,25.879,54.199,32.227,36.621,883.301
1532486193.153,25.391,21.973,34.668,24.902,-246.582
1532486193.156,17.578,37.109,36.133,25.391,-787.109
1532486193.160,17.090,47.852,37.109,22.949,-918.945
1532486193.164,20.508,55.664,37.598,32.715,-457.520
1532486193.168,17.090,44.434,35.156,31.738,-6.836
1532486193.172,11.230,39.062,32.715,3.418,-566.895
1532486193.176,2.930,45.410,35.645,13.672,-752.930
1532486193.180,5.371,42.969,35.156,29.785,-737.793
1532486193.184,11.719,41.992,31.738,19.043,-351.562
1532486193.188,15.625,41.992,31.738,27.344,57.129
1532486193.192,14.648,50.293,31.738,39.062,316.406
1532486193.196,17.090,43.457,31.250,32.715,390.137
1532486193.199,23.926,33.203,34.180,22.461,-393.555
1532486193.203,21.484,46.387,36.133,30.762,-359.375
1532486193.207,15.137,58.105,34.180,25.391,738.770
1532486193.211,21.973,36.133,36.133,14.160,42.969
1532486193.215,27.344,43.945,38.086,26.855,-713.379
1532486193.219,25.879,45.410,36.133,43.945,-655.762
1532486193.223,21.484,41.016,35.156,21.484,-544.922
1532486193.227,18.555,45.410,37.109,27.344,38.574
1532486193.231,20.020,33.691,39.062,36.621,-417.969
1532486193.235,17.090,37.109,39.551,48.828,-574.707
1532486193.238,10.254,44.434,38.574,41.504,25.879
1532486193.242,6.348,42.969,33.691,19.043,470.215
1532486193.246,12.695,51.758,31.738,18.555,919.434
1532486193.250,19.043,28.809,32.715,28.809,350.098
1532486193.254,20.996,26.367,31.738,45.410,-571.777
1532486193.258,21.484,45.410,31.738,29.785,-941.406
1532486193.262,29.785,60.059,29.785,33.691,-563.477
1532486193.266,38.086,50.293,28.809,48.828,393.555
1532486193.270,21.973,29.297,32.715,39.551,-199.707
1532486193.274,4.395,37.598,37.598,18.066,-769.531
1532486193.278,13.184,38.574,33.203,2.441,-767.578
1532486193.281,25.391,36.621,31.250,37.598,-722.656
1532486193.285,19.531,51.758,33.203,53.711,440.430
1532486193.289,24.414,33.203,34.668,38.086,467.285
1532486193.293,34.668,30.273,35.156,9.277,-696.777
1532486193.297,28.320,42.480,32.715,32.715,-758.301
1532486193.301,26.855,41.016,33.203,52.246,-656.250
1532486193.305,20.020,50.781,34.180,36.133,-6.348
1532486193.309,17.090,38.086,31.738,26.855,-62.012
1532486193.313,28.320,35.645,29.297,14.160,-724.121
1532486193.317,31.250,40.527,30.762,31.250,-537.598
1532486193.320,25.879,36.621,32.227,37.109,-564.453
1532486193.324,21.973,46.875,33.203,30.762,-247.070
1532486193.328,25.391,37.109,35.645,28.320,-35.645
1532486193.332,29.785,33.691,34.668,36.621,266.602
1532486193.336,29.297,30.762,35.156,46.387,504.395
1532486193.340,24.902,27.832,31.738,39.551,-485.352
1532486193.344,22.949,52.246,25.879,19.043,-414.551
1532486193.348,30.273,55.176,26.855,18.555,782.227
1532486193.352,37.598,27.832,29.785,26.367,91.797
1532486193.356,31.738,29.297,31.250,22.949,-677.734
1532486193.360,35.156,33.691,31.738,31.738,-823.242
1532486193.363,38.086,38.086,26.855,29.785,-596.191
1532486193.367,37.109,35.156,25.879,45.410,82.520
1532486193.371,35.156,32.715,25.391,46.875,-396.973
1532486193.375,24.414,43.945,22.949,35.645,-693.359
1532486193.379,22.461,45.898,25.879,37.598,7.812
1532486193.383,21.484,41.504,26.367,29.297,373.047
1532486193.387,16.113,50.293,24.902,18.555,775.879
1532486193.391,19.043,30.273,23.926,8.301,89.355
1532486193.395,26.855,34.668,23.926,17.578,-792.480
1532486193.399,31.738,45.410,20.996,36.133,-772.461
1532486193.403,30.762,40.039,24.414,52.734,-476.562
1532486193.406,27.832,39.062,27.832,44.922,154.297
1532486193.410,30.762,37.598,26.367,26.367,-463.379
1532486193.414,31.738,43.945,25.879,36.133,-707.031
1532486193.418,25.879,39.062,26.855,25.879,-502.930
1532486193.422,19.043,41.016,24.902,26.367,-553.711
1532486193.426,15.137,51.758,23.438,37.109,533.203
1532486193.430,22.461,28.320,25.879,43.457,535.645
1532486193.434,20.996,18.555,25.391,37.109,-348.145
1532486193.438,13.672,24.902,24.414,31.738,-484.863
1532486193.442,13.184,32.227,24.902,31.738,-673.340
1532486193.445,14.160,48.828,21.973,8.301,377.441
1532486193.449,20.020,20.508,22.949,11.230,541.504
1532486193.453,23.438,14.648,21.973,17.090,-450.195
1532486193.457,28.809,28.320,21.484,20.020,-690.918
1532486193.461,31.738,33.691,22.949,20.996,-777.832
1532486193.465,29.785,49.805,22.949,11.230,9.277
1532486193.469,30.762,41.016,27.344,31.250,89.844
1532486193.473,27.344,46.387,31.738,39.551,-35.156
1532486193.477,29.785,56.641,34.668,30.762,613.281
1532486193.481,37.598,41.016,34.668,32.715,248.535
1532486193.485,35.156,50.781,34.668,37.109,179.199
1532486193.488,32.715,48.340,34.668,31.250,802.246
1532486193.492,36.133,30.273,34.668,42.969,-333.496
1532486193.496,37.109,44.434,36.133,31.250,-892.090
1532486193.500,35.156,46.875,39.551,28.320,-714.355
1532486193.504,26.367,51.270,38.574,46.387,-377.930
1532486193.508,23.926,48.340,36.133,31.738,-133.301
1532486193.512,28.320,45.410,38.086,34.668,-688.965
1532486193.516,32.227,53.223,40.527,49.805,-612.305
1532486193.520,33.203,50.781,39.551,47.852,72.266
1532486193.524,29.297,57.617,38.574,36.621,556.641
1532486193.528,29.297,60.547,37.109,35.645,846.680
1532486193.531,38.086,28.809,39.062,41.504,4.395
1532486193.535,38.574,34.668,44.434,40.527,-655.273
1532486193.539,42.969,54.199,48.828,48.828,-803.223
1532486193.543,52.734,60.547,48.340,43.457,-730.469
1532486193.547,52.246,55.664,46.387,38.086,-62.500
1532486193.551,49.805,51.758,48.340,41.504,-383.301
1532486193.555,43.457,56.152,52.246,52.734,-639.160
1532486193.559,40.039,61.523,54.199,58.105,-780.762
1532486193.563,49.805,65.430,56.152,48.828,-643.066
1532486193.567,55.176,69.336,57.617,42.480,493.652
1532486193.570,50.293,66.895,59.082,62.500,781.250
1532486193.574,51.758,66.895,66.406,83.496,201.172
1532486193.578,55.664,69.336,68.848,67.871,-560.547
1532486193.582,60.547,77.148,66.406,53.711,-582.520
1532486193.586,57.129,90.332,67.383,59.082,682.129
1532486193.590,58.105,60.059,68.848,50.293,414.062
1532486193.594,62.988,60.059,71.289,61.523,-737.305
1532486193.598,63.477,69.824,72.266,67.383,-807.617
1532486193.602,61.523,66.895,69.824,54.688,-548.828
1532486193.606,56.152,75.684,69.824,61.523,210.449
1532486193.610,56.152,66.406,72.754,63.965,-286.133
1532486193.613,58.105,78.125,72.266,52.734,-177.246
1532486193.617,58.594,83.008,72.754,68.359,610.840
1532486193.621,65.918,62.500,73.730,70.312,-180.664
1532486193.625,65.918,90.332,73.242,40.527,216.797
1532486193.629,64.941,83.984,75.195,46.387,762.207
1532486193.633,64.941,65.430,73.730,78.613,-392.578
1532486193.637,61.035,77.637,66.895,79.102,-732.422
1532486193.641,58.594,79.590,63.965,63.477,-872.070
1532486193.645,63.477,86.914,62.500,51.758,-382.812
1532486193.649,65.430,74.707,59.570,67.871,-90.820
1532486193.652,57.617,65.430,60.547,72.754,-594.727
1532486193.656,51.758,68.848,59.570,41.992,-657.715
1532486193.660,50.293,70.312,53.711,33.203,-118.164
1532486193.664,50.781,74.707,56.641,41.504,611.816
1532486193.668,52.734,66.406,60.059,61.523,855.957
1532486193.672,54.199,43.945,55.176,67.871,-199.219
1532486193.676,47.363,50.293,51.758,55.176,-924.316
1532486193.680,46.387,56.641,47.363,53.223,-904.785
1532486193.684,50.781,59.082,43.945,46.875,-381.348
1532486193.688,47.363,41.992,42.969,48.340,-28.809
1532486193.692,45.410,41.016,42.969,56.641,-688.965
1532486193.695,46.875,47.363,42.480,45.898,-783.203
1532486193.699,46.875,47.363,40.039,37.109,-655.273
1532486193.703,45.410,54.199,40.039,33.203,-438.477
1532486193.707,40.039,62.012,41.016,40.039,536.133
1532486193.711,41.016,59.082,39.062,48.828,628.906
1532486193.715,43.945,50.781,38.086,42.969,-128.418
1532486193.719,41.992,43.945,37.109,40.527,-576.660
1532486193.723,36.621,59.570,33.203,34.180,-480.957
1532486193.727,32.715,72.266,29.297,37.598,658.203
1532486193.731,35.645,33.203,31.250,43.945,251.953
1532486193.735,34.180,35.156,33.691,59.570,-604.004
1532486193.738,28.320,48.340,34.180,55.664,-742.188
1532486193.742,24.902,51.758,33.691,39.551,-695.312
1532486193.746,29.785,48.828,32.227,37.598,97.168
1532486193.750,36.133,41.992,31.250,32.715,-249.512
1532486193.754,27.832,53.223,32.715,37.109,59.570
1532486193.758,22.949,46.387,36.133,36.133,459.473
1532486193.762,27.344,43.457,34.180,39.551,-341.309
1532486193.766,24.902,63.965,30.273,27.344,509.766
1532486193.770,24.414,32.715,31.738,36.621,626.465
1532486193.774,20.996,28.320,34.180,34.668,-661.621
1532486193.777,30.273,48.828,35.156,33.203,-953.125
1532486193.781,40.039,53.711,33.203,29.785,-798.340
1532486193.785,34.668,51.270,28.320,7.812,83.984
1532486193.789,21.484,41.504,28.809,10.254,-158.203
1532486193.793,16.113,47.363,30.762,4.883,-878.906
1532486193.797,26.855,48.340,32.715,12.207,-663.574
1532486193.801,34.180,44.922,29.297,46.875,-11.719
1532486193.805,24.414,52.246,25.391,29.785,755.859
1532486193.809,24.902,44.434,26.367,2.930,747.559
1532486193.813,31.738,28.809,30.762,21.484,-425.293
1532486193.817,25.391,31.250,32.227,46.875,-749.512
1532486193.820,22.461,26.367,31.250,41.504,-734.375
1532486193.824,23.926,38.086,28.809,13.672,-447.754
1532486193.828,30.273,39.551,27.832,23.926,-215.820
1532486193.832,34.668,41.504,30.762,33.691,-623.535
1532486193.836,30.762,42.969,35.645,33.203,-529.785
1532486193.840,24.902,38.086,35.645,32.715,-728.516
1532486193.844,25.391,44.922,30.762,32.715,-542.480
1532486193.848,30.762,47.363,27.344,26.855,563.965
1532486193.852,33.691,40.527,30.273,19.531,665.527
1532486193.856,33.203,39.551,30.762,21.484,-135.254
1532486193.859,39.062,41.016,29.785,20.996,-790.039
1532486193.863,42.969,40.039,30.762,27.344,-514.648
1532486193.867,32.227,48.828,34.180,39.062,713.867
1532486193.871,25.391,29.785,34.668,32.715,119.141
1532486193.875,26.367,36.621,28.320,15.625,-816.895
1532486193.879,27.832,48.828,26.855,26.855,-871.582
1532486193.883,29.785,46.875,29.297,18.066,-483.398
1532486193.887,28.320,37.598,31.250,24.414,151.367
1532486193.891,24.902,33.203,30.273,34.180,-454.590
1532486193.895,26.367,51.758,27.832,31.738,-60.059
1532486193.899,31.738,44.434,31.250,41.504,575.195
1532486193.902,29.785,29.785,33.203,37.109,273.926
1532486193.906,21.973,53.223,28.320,17.578,754.395
1532486193.910,27.344,35.645,28.320,20.996,226.074
1532486193.914,36.621,23.926,29.785,29.785,-722.168
1532486193.918,31.250,28.809,31.738,40.039,-750.000
1532486193.922,24.414,35.156,34.180,39.062,-669.922
1532486193.926,25.879,44.434,33.203,32.227,56.152
1532486193.930,27.344,42.480,32.715,23.926,-330.078
1532486193.934,25.391,37.109,32.227,14.648,-708.984
1532486193.938,29.785,28.809,33.691,31.738,-572.266
1532486193.942,26.367,42.480,34.668,48.340,-53.223
1532486193.945,21.484,58.105,32.227,25.391,880.371
1532486193.949,31.250,27.832,33.691,23.438,627.930
1532486193.953,32.715,18.066,36.133,41.504,-454.102
1532486193.957,27.832,33.203,34.668,41.992,-872.070
1532486193.961,29.297,43.945,36.133,42.969,-957.031
1532486193.965,35.645,51.758,39.551,52.734,-182.617
1532486193.969,33.691,27.832,38.574,37.598,-76.660
1532486193.973,23.438,29.297,36.621,39.551,-737.305
1532486193.977,27.832,41.016,37.598,45.410,-761.719
1532486193.981,36.621,41.992,40.527,42.480,-780.762
1532486193.984,37.109,48.340,40.039,38.574,-120.117
1532486193.988,41.016,43.457,38.574,50.293,658.691
1532486193.992,41.992,38.086,39.551,41.504,579.102
1532486193.996,42.480,36.133,40.039,41.016,267.090
1532486194.000,44.434,36.133,42.969,61.035,-483.887
1532486194.004,34.180,57.617,42.969,45.410,-240.723
1532486194.008,29.785,53.711,39.062,31.738,790.039
1532486194.012,37.109,28.809,41.992,39.551,-151.855
1532486194.016,35.645,39.062,43.457,28.809,-764.648
1532486194.020,38.574,39.551,44.922,32.227,-679.688
1532486194.024,39.062,40.039,43.457,41.504,-564.941
1532486194.027,30.273,39.062,36.621,36.621,-157.715
1532486194.031,23.926,38.574,36.621,23.438,-537.109
1532486194.035,25.391,49.316,41.504,31.250,63.477
1532486194.039,27.344,42.480,43.457,33.203,458.984
1532486194.043,29.297,46.875,43.457,54.688,-175.781
1532486194.047,38.574,59.082,42.480,71.289,615.723
1532486194.051,46.387,27.344,43.945,60.059,234.375
1532486194.055,41.992,29.297,41.016,47.852,-727.051
1532486194.059,34.180,41.992,46.387,50.781,-931.641
1532486194.063,33.691,41.504,50.781,55.664,-748.535
1532486194.067,31.250,42.969,47.363,44.922,104.980
1532486194.070,26.367,33.691,48.340,50.293,-312.500
1532486194.074,23.438,34.668,46.387,53.223,-820.801
1532486194.078,26.855,36.133,44.434,48.828,-772.949
1532486194.082,26.855,38.086,44.434,57.617,-4.883
1532486194.086,23.438,47.852,45.410,45.898,964.355
1532486194.090,25.879,23.438,46.387,25.879,324.707
1532486194.094,28.809,28.809,45.898,29.297,-736.816
1532486194.098,36.133,41.992,45.898,35.156,-854.004
1532486194.102,41.992,39.062,47.363,26.855,-629.395
1532486194.106,34.668,46.387,46.387,29.297,179.688
1532486194.109,31.250,35.156,46.875,48.340,-283.203
1532486194.113,39.551,40.039,45.410,45.410,-821.289
1532486194.117,38.086,44.922,46.387,44.434,-539.551
1532486194.121,30.273,37.598,46.875,34.668,-616.211
1532486194.125,27.344,54.199,41.016,27.832,1.465
1532486194.129,30.273,57.129,41.016,32.227,517.578
1532486194.133,35.156,41.016,42.969,39.062,451.660
1532486194.137,32.715,30.762,42.480,26.367,-19.531
1532486194.141,21.973,34.668,41.504,23.926,-766.113
1532486194.145,19.043,58.594,41.016,36.133,-113.281
1532486194.149,26.855,44.922,38.574,41.016,834.473
1532486194.152,26.367,19.531,34.668,31.738,-145.996
1532486194.156,20.020,34.668,34.180,10.742,-749.512
1532486194.160,20.508,39.062,34.180,27.344,-869.629
1532486194.164,25.391,42.480,31.250,33.691,-421.387
1532486194.168,27.344,38.086,34.668,23.438,28.320
1532486194.172,21.973,38.086,37.109,26.367,-526.855
1532486194.176,22.949,43.457,33.203,21.973,41.992
1532486194.180,33.203,35.156,34.668,27.832,383.789
1532486194.184,36.133,42.480,38.574,46.387,55.176
1532486194.188,25.391,49.805,38.574,41.992,736.816
1532486194.191,22.949,23.926,37.109,34.180,-63.477
1532486194.195,33.203,28.320,36.621,32.227,-906.738
1532486194.199,33.203,35.645,36.133,25.391,-771.484
1532486194.203,26.855,32.227,37.598,40.527,-501.465
1532486194.207,27.344,28.809,38.086,29.785,-69.336
1532486194.211,31.738,29.297,38.574,33.203,-587.402
1532486194.215,36.133,37.109,37.109,31.738,-711.426
1532486194.219,35.645,35.156,37.598,39.062,-537.598
1532486194.223,26.855,47.852,37.598,33.203,118.652
1532486194.227,25.879,59.082,34.180,12.207,934.570
1532486194.231,33.691,30.273,36.621,41.016,155.762
1532486194.234,32.227,31.738,38.574,56.641,-583.984
1532486194.238,28.809,36.621,41.016,44.922,-768.066
1532486194.242,27.344,35.645,41.504,31.250,-754.395
1532486194.246,29.785,40.039,34.180,22.461,43.945
1532486194.250,35.156,34.180,35.156,32.227,-268.066
1532486194.254,26.855,34.180,38.086,41.016,-635.742
1532486194.258,19.531,36.621,36.133,44.922,-715.332
1532486194.262,28.809,41.992,37.109,32.715,-706.543
1532486194.266,32.715,48.828,33.691,20.020,258.789
1532486194.270,28.809,46.875,31.250,2.930,571.289
1532486194.274,21.973,48.340,32.715,16.113,505.859
1532486194.277,24.902,41.016,35.645,40.039,-61.523
1532486194.281,26.855,42.480,36.133,45.898,-681.152
1532486194.285,21.484,60.547,34.668,38.086,412.598
1532486194.289,25.391,34.668,37.109,21.973,735.840
1532486194.293,31.738,26.367,38.086,31.738,-549.805
1532486194.297,32.227,41.992,36.621,35.645,-809.082
1532486194.301,29.297,44.434,34.180,35.156,-653.320
1532486194.305,24.902,53.711,38.086,22.461,-70.312
1532486194.309,26.855,37.109,41.992,20.508,-180.664
1532486194.313,35.645,38.574,37.598,43.457,-735.840
1532486194.316,38.574,51.270,35.156,25.391,80.566
1532486194.320,32.715,40.527,37.598,33.691,437.988
1532486194.324,27.832,51.758,36.133,51.270,510.254
1532486194.328,28.320,55.176,34.180,30.762,821.289
1532486194.332,32.715,30.762,34.180,26.855,-158.203
1532486194.336,37.109,34.180,37.109,37.109,-698.242
1532486194.340,29.785,41.016,38.574,34.180,-822.266
1532486194.344,28.320,45.898,39.062,20.996,-683.105
1532486194.348,37.109,41.016,39.551,21.973,-157.715
1532486194.352,35.645,37.598,38.086,19.531,-444.824
1532486194.356,28.320,40.527,37.598,24.902,-666.016
1532486194.359,29.785,41.016,36.621,28.320,-782.715
1532486194.363,30.762,51.758,34.180,43.945,-18.066
1532486194.367,31.738,53.223,37.109,52.734,910.645
1532486194.371,32.227,25.391,41.992,35.156,24.414
1532486194.375,31.738,29.785,39.551,45.410,-821.289
1532486194.379,33.691,40.527,36.621,38.574,-917.480
1532486194.383,36.621,38.086,36.133,19.531,-566.406
1532486194.387,36.133,31.738,34.668,32.715,92.285
1532486194.391,28.320,31.738,33.691,35.645,-496.582
1532486194.395,27.344,41.016,37.109,33.203,-810.547
1532486194.399,34.180,40.527,34.668,40.039,-644.531
1532486194.402,28.809,32.715,33.203,26.367,-401.855
1532486194.406,20.996,30.762,35.156,16.113,248.047
1532486194.410,24.902,39.551,34.180,14.648,403.809
1532486194.414,25.879,43.945,33.203,32.715,525.391
1532486194.418,29.297,30.762,34.668,41.992,20.508
1532486194.422,25.391,39.551,36.133,30.762,-546.387
1532486194.426,17.578,66.895,36.133,20.508,575.684
1532486194.430,31.738,33.203,37.598,28.320,557.617
1532486194.434,36.621,24.902,38.086,38.086,-493.652
1532486194.438,27.832,42.480,37.109,20.508,-680.176
1532486194.441,25.879,46.387,36.621,14.648,-785.645
1532486194.445,22.949,53.223,34.180,33.203,24.902
1532486194.449,25.879,35.645,34.180,41.016,-98.633
1532486194.453,25.391,38.574,36.621,45.410,-618.652
1532486194.457,17.090,49.805,30.762,36.133,138.672
1532486194.461,20.020,33.203,31.250,33.203,21.973
1532486194.465,25.391,48.828,36.621,41.016,199.707
1532486194.469,26.855,32.715,36.133,31.250,797.363
1532486194.473,23.926,7.812,35.645,8.789,-359.863
1532486194.477,18.555,32.715,32.715,22.949,-929.688
1532486194.481,20.020,41.016,29.297,41.016,-855.957
1532486194.484,20.020,46.387,28.320,37.598,-256.348
1532486194.488,20.996,40.039,30.762,35.156,-65.918
1532486194.492,21.973,36.621,30.762,8.789,-720.215
1532486194.496,21.484,41.016,28.320,-2.930,-732.422
1532486194.500,25.391,35.645,28.809,20.508,-603.027
1532486194.504,20.020,46.875,30.273,30.273,196.289
1532486194.508,13.672,52.734,28.320,11.230,895.996
1532486194.512,25.391,30.762,29.297,23.438,-192.871
1532486194.516,30.273,32.227,31.250,42.480,-725.586
1532486194.520,25.879,33.691,29.297,30.273,-666.016
1532486194.523,23.926,37.598,30.762,5.859,-592.773
1532486194.527,23.438,40.527,29.297,9.277,34.180
1532486194.531,27.344,33.691,29.785,25.879,-337.402
1532486194.535,24.902,33.203,36.621,35.156,-569.824
1532486194.539,16.602,35.156,39.551,31.250,-637.207
1532486194.543,13.672,41.504,34.668,19.043,-597.656
1532486194.547,20.508,40.039,33.691,30.762,58.105
1532486194.551,22.461,39.062,36.621,45.410,408.691
1532486194.555,14.648,33.691,37.109,39.062,358.398
1532486194.559,16.113,26.367,34.668,16.602,-516.602
1532486194.563,24.902,40.527,32.715,19.043,-627.441
1532486194.566,24.902,55.664,33.203,24.902,699.707
1532486194.570,21.973,25.391,34.180,11.230,363.770
1532486194.574,19.531,26.855,32.715,27.344,-693.848
1532486194.578,22.949,42.969,32.227,39.551,-867.188
1532486194.582,32.227,40.039,30.273,26.855,-598.145
1532486194.586,31.250,42.480,30.273,25.391,294.434
1532486194.590,19.531,35.645,32.227,30.762,-262.207
1532486194.594,21.484,38.086,29.297,19.043,-806.641
1532486194.598,29.785,40.039,28.320,20.020,50.293
1532486194.602,32.715,32.715,28.320,25.391,497.559
1532486194.606,24.902,44.922,27.344,21.973,850.586
1532486194.609,26.367,24.902,31.738,28.320,538.574
1532486194.613,33.203,14.648,33.203,38.086,-567.383
1532486194.617,27.832,30.762,30.762,34.668,-718.262
1532486194.621,21.973,36.621,31.738,19.043,-702.148
1532486194.625,24.414,48.340,33.691,-2.930,-131.348
1532486194.629,29.297,37.598,36.133,34.180,-216.309
1532486194.633,30.762,35.645,39.551,60.547,-637.695
1532486194.637,28.809,37.109,39.551,49.805,-500.977
1532486194.641,22.461,37.598,39.062,26.855,-732.910
1532486194.645,22.949,58.594,41.016,17.090,142.090
1532486194.648,26.855,44.434,39.062,35.645,889.160
1532486194.652,35.156,24.902,38.574,43.457,-187.988
1532486194.656,34.668,44.922,41.504,55.664,-754.883
1532486194.660,32.227,43.457,37.598,61.035,-894.043
1532486194.664,36.621,43.945,36.133,50.293,-499.023
1532486194.668,35.156,41.016,39.551,51.758,-3.418
1532486194.672,29.785,35.645,42.480,38.086,-534.180
1532486194.676,31.250,43.457,42.480,19.531,-755.371
1532486194.680,35.645,46.387,42.480,27.344,-729.980
1532486194.684,31.250,45.410,44.434,45.410,-361.328
1532486194.688,31.738,41.504,42.969,37.109,83.496
1532486194.691,33.203,50.781,41.016,45.410,346.191
1532486194.695,37.109,51.270,42.969,44.922,364.746
1532486194.699,42.480,40.039,44.434,47.852,-392.578
1532486194.703,42.480,49.805,41.992,51.758,-350.586
1532486194.707,37.109,65.430,40.527,37.109,736.328
1532486194.711,38.574,39.062,41.504,44.434,62.988
1532486194.715,41.016,35.645,41.016,42.480,-700.195
1532486194.719,38.574,41.016,40.039,27.832,-637.695
1532486194.723,37.109,29.297,40.527,31.250,-529.785
1532486194.727,34.668,34.668,43.457,43.457,71.289
1532486194.731,41.504,42.480,42.969,43.457,-389.648
1532486194.734,44.434,52.246,41.992,59.570,-564.453
1532486194.738,35.645,60.059,43.945,62.500,33.203
1532486194.742,32.227,66.406,42.969,55.176,455.078
1532486194.746,36.621,74.219,41.016,48.828,920.898
1532486194.750,42.480,39.551,42.480,40.527,398.438
1532486194.754,38.574,31.250,43.457,38.574,-535.156
1532486194.758,33.691,46.875,42.480,38.574,-874.512
1532486194.762,34.668,49.805,41.504,40.039,-840.332
1532486194.766,38.574,54.688,42.969,30.273,124.512
1532486194.770,36.133,41.504,44.922,37.109,-112.305
1532486194.773,36.133,45.898,43.945,43.945,-725.586
1532486194.777,43.457,50.781,40.039,32.227,-733.398
1532486194.781,38.086,50.781,38.574,30.273,-686.035
1532486194.785,29.297,63.477,37.598,41.504,427.246
1532486194.789,29.297,49.805,38.086,36.133,566.895
1532486194.793,25.879,44.434,39.551,36.621,-533.203
1532486194.797,27.832,45.898,39.062,35.645,-601.562
1532486194.801,32.715,38.086,39.551,54.199,-583.496
1532486194.805,24.414,59.082,39.062,59.082,118.652
1532486194.809,20.508,50.293,34.668,28.320,801.758
1532486194.813,27.832,29.785,34.668,26.855,-324.219
1532486194.816,26.855,42.480,37.598,34.180,-678.711
1532486194.820,24.902,43.945,40.527,38.574,-603.027
1532486194.824,23.438,51.270,39.062,30.762,-366.699
1532486194.828,27.344,49.316,37.109,26.855,-126.953
1532486194.832,26.367,53.711,42.480,46.387,178.711
1532486194.836,20.996,48.340,42.969,26.367,438.477
1532486194.840,20.508,35.645,40.527,17.090,-544.434
1532486194.844,25.391,57.617,38.574,28.809,-530.273
1532486194.848,29.785,68.359,37.598,32.715,745.117
1532486194.852,30.273,34.180,39.062,32.227,92.773
1532486194.855,29.785,39.551,38.086,19.043,-728.516
1532486194.859,27.344,49.316,35.645,8.789,-868.164
1532486194.863,20.996,39.551,32.715,21.973,-654.297
1532486194.867,16.113,40.039,33.691,35.156,59.570
1532486194.871,19.531,43.945,36.133,37.109,-390.625
1532486194.875,27.344,52.246,33.691,24.414,-744.141
1532486194.879,30.273,49.805,31.738,30.762,-83.496
1532486194.883,31.738,48.828,35.156,43.945,589.355
1532486194.887,31.738,58.594,35.645,36.621,926.758
1532486194.891,32.227,34.668,36.133,36.621,59.570
1532486194.895,34.180,34.668,38.574,29.297,-820.312
1532486194.898,33.691,41.504,38.086,36.621,-849.121
1532486194.902,30.273,44.434,35.645,36.133,-535.645
1532486194.906,22.461,41.992,36.133,23.926,150.391
1532486194.910,26.855,35.645,35.645,32.715,-477.051
1532486194.914,40.039,51.270,38.574,57.129,-774.902
1532486194.918,41.016,49.805,49.316,65.918,-550.781
1532486194.922,34.180,51.758,52.734,46.875,-565.430
1532486194.926,30.762,70.801,46.387,41.016,494.629
1532486194.930,36.133,62.988,45.410,50.293,757.324
1532486194.934,42.969,53.711,48.828,60.547,-112.305
1532486194.938,43.457,53.711,52.734,45.898,-501.465
1532486194.941,42.480,60.059,54.199,34.668,-708.496
1532486194.945,37.109,80.078,50.293,45.410,252.930
1532486194.949,38.086,55.176,51.758,61.035,747.559
1532486194.953,40.527,40.527,54.688,65.918,-206.543
1532486194.957,37.598,54.199,55.664,48.828,-717.285
1532486194.961,36.133,60.059,57.617,62.012,-837.891
1532486194.965,38.086,68.848,56.641,68.359,-131.348
1532486194.969,40.527,58.594,56.641,58.105,25.879
1532486194.973,40.527,58.594,57.129,49.805,221.191
1532486194.977,43.945,57.617,56.152,42.969,400.391
1532486194.980,48.828,51.758,55.176,50.293,-601.074
1532486194.984,47.363,74.707,54.199,39.062,-132.812
1532486194.988,46.875,68.359,52.734,39.062,851.074
1532486194.992,47.363,45.410,52.734,50.781,-296.875
1532486194.996,47.363,53.711,52.246,54.199,-899.414
1532486195.000,46.387,52.246,57.129,65.918,-726.562
1532486195.004,45.410,56.152,59.570,57.617,-400.391
1532486195.008,44.434,57.129,53.711,47.363,-119.629
1532486195.012,49.805,58.594,53.223,59.082,-686.035
1532486195.016,47.852,68.359,54.199,52.734,-652.344
1532486195.020,42.480,72.754,53.711,40.527,55.176
1532486195.023,38.086,64.941,53.711,41.016,533.691
1532486195.027,33.203,67.871,48.828,39.062,839.355
1532486195.031,37.109,50.293,45.898,57.617,7.812
1532486195.035,34.668,47.363,42.480,50.781,-672.852
1532486195.039,31.250,49.316,41.504,27.344,-815.918
1532486195.043,31.250,48.828,41.016,27.344,-758.301
1532486195.047,36.133,52.246,38.574,30.762,-89.844
1532486195.051,39.062,51.758,37.109,46.387,-409.180
1532486195.055,32.715,50.293,34.668,41.992,-647.949
1532486195.059,31.250,47.363,36.621,16.113,-790.039
1532486195.063,27.832,54.199,38.086,36.621,-716.797
1532486195.066,23.926,56.641,34.668,43.457,545.898
1532486195.070,26.367,39.551,35.645,5.371,518.066
1532486195.074,30.273,39.062,38.086,28.809,-469.727
1532486195.078,34.180,46.875,37.109,49.805,-743.652
1532486195.082,38.574,52.246,39.062,34.180,-582.031
1532486195.086,36.133,60.547,42.969,29.297,644.043
1532486195.090,32.227,34.180,41.016,22.461,489.746
1532486195.094,31.250,32.715,34.668,30.273,-686.523
1532486195.098,35.156,43.945,35.645,44.434,-797.363
1532486195.102,29.785,42.969,39.062,38.086,-533.691
1532486195.105,24.414,47.363,36.133,34.180,231.445
1532486195.109,25.879,38.574,33.691,10.742,-242.676
1532486195.113,28.320,48.340,34.668,14.648,-76.172
1532486195.117,33.691,45.898,37.598,44.922,629.883
1532486195.121,32.715,32.227,39.062,41.016,-272.949
1532486195.125,26.855,58.594,37.598,27.344,152.832
1532486195.129,34.180,48.828,37.109,31.738,790.039
1532486195.133,41.016,29.785,36.133,34.180,-359.863
1532486195.137,39.062,43.457,33.691,24.902,-700.684
1532486195.141,32.715,47.363,34.180,40.527,-826.172
1532486195.145,33.203,55.664,36.133,42.969,-424.316
1532486195.148,35.156,43.945,37.598,44.434,-93.262
1532486195.152,32.715,36.133,36.621,43.945,-559.570
1532486195.156,31.250,42.969,34.180,25.391,-615.723
1532486195.160,29.297,46.387,37.109,22.461,-69.824
1532486195.164,28.320,53.711,36.621,36.621,592.773
1532486195.168,34.180,46.875,35.645,42.480,863.281
1532486195.172,41.992,20.996,35.645,20.508,-144.043
1532486195.176,38.574,30.273,37.109,12.207,-895.508
1532486195.180,39.551,39.551,37.109,37.598,-916.016
1532486195.184,34.180,35.156,37.109,53.711,-538.086
1532486195.187,23.438,27.344,39.062,43.457,-42.480
1532486195.191,20.508,31.738,40.039,25.879,-613.281
1532486195.195,18.066,39.551,39.551,21.484,-809.082
1532486195.199,18.066,37.109,39.551,32.715,-659.180
1532486195.203,18.066,35.156,39.062,20.508,-399.414
1532486195.207,11.230,41.016,37.109,15.625,424.316
1532486195.211,11.230,44.434,38.086,45.898,607.910
1532486195.215,19.043,28.320,38.574,41.992,256.348
1532486195.219,18.555,20.996,38.086,31.738,-387.207
1532486195.223,16.113,43.457,38.086,44.922,-494.629
1532486195.227,18.555,66.895,38.086,26.367,671.875
1532486195.230,30.273,34.668,40.039,37.109,279.785
1532486195.234,34.180,30.273,39.551,45.410,-588.867
1532486195.238,27.344,41.504,41.016,26.367,-709.961
1532486195.242,21.484,44.922,40.527,11.719,-694.824
1532486195.246,25.391,49.805,37.598,14.648,92.285
1532486195.250,22.949,41.992,36.133,42.480,-238.770
1532486195.254,11.719,50.293,36.133,41.504,-1.465
1532486195.258,10.254,46.875,38.086,21.973,449.219
1532486195.262,20.020,44.434,37.109,33.691,-368.164
1532486195.266,27.344,69.336,35.156,30.762,433.105
1532486195.270,24.414,36.133,37.598,1.953,683.105
1532486195.273,17.578,22.461,40.527,5.371,-591.309
1532486195.277,14.648,41.992,38.574,40.527,-932.129
1532486195.281,21.484,42.969,36.621,36.133,-828.613
1532486195.285,20.996,48.828,40.039,20.996,18.066
1532486195.289,15.625,35.645,39.551,35.645,-119.629
1532486195.293,18.555,34.180,39.551,43.457,-844.238
1532486195.297,23.438,46.387,41.992,37.109,-688.477
1532486195.301,25.391,52.734,42.480,28.320,-54.199
1532486195.305,21.484,50.781,40.039,32.715,726.074
1532486195.309,20.020,39.551,39.062,30.762,786.133
1532486195.312,23.926,26.855,41.016,33.691,-397.949
1532486195.316,28.320,37.109,39.062,19.531,-762.207
1532486195.320,28.320,41.504,39.551,25.879,-703.125
1532486195.324,32.227,52.246,41.504,35.156,-443.848
1532486195.328,32.715,49.805,40.527,24.414,-212.402
1532486195.332,32.715,43.457,36.621,22.949,-640.137
1532486195.336,29.297,41.016,37.109,29.785,-543.457
1532486195.340,24.414,37.109,37.109,38.574,-692.871
1532486195.344,27.344,45.898,30.762,24.902,-575.195
1532486195.348,27.832,52.734,30.273,13.184,498.047
1532486195.352,27.832,40.039,34.668,32.227,637.695
1532486195.355,28.809,30.273,37.598,33.691,-126.465
1532486195.359,23.926,38.574,38.574,11.719,-776.855
1532486195.363,26.367,50.781,37.598,24.414,-548.340
1532486195.367,27.832,61.523,36.133,26.367,668.457
1532486195.371,26.367,38.086,38.086,38.086,440.430
1532486195.375,24.414,34.180,36.133,45.410,-489.258
1532486195.379,22.461,40.039,32.715,27.344,-900.391
1532486195.383,24.414,46.875,36.133,35.645,-531.738
1532486195.387,26.855,42.480,38.574,42.969,178.711
1532486195.391,17.090,37.598,37.109,16.602,-444.824
1532486195.395,15.137,54.688,36.133,15.625,-90.820
1532486195.398,27.832,43.945,38.086,47.363,458.496
1532486195.402,32.227,39.551,38.574,40.039,-63.965
1532486195.406,28.809,59.570,36.133,13.672,593.750
1532486195.410,31.250,39.551,38.574,26.367,41.992
1532486195.414,34.668,39.062,40.039,41.992,-804.688
1532486195.418,32.715,43.457,38.086,35.156,-648.926
1532486195.422,27.344,39.551,38.086,41.016,-635.742
1532486195.426,23.438,58.594,37.598,34.668,427.734
1532486195.430,32.715,34.180,38.086,13.184,141.113
1532486195.434,34.180,23.926,35.156,33.203,-709.473
1532486195.437,24.902,39.551,32.715,55.176,-567.871
1532486195.441,21.973,50.781,34.180,48.340,-93.262
1532486195.445,19.531,63.965,33.691,37.598,760.742
1532486195.449,24.902,39.062,35.645,30.762,648.438
1532486195.453,33.203,30.273,41.504,35.645,-442.383
1532486195.457,27.832,44.434,41.016,11.719,-871.094
1532486195.461,23.438,42.969,32.715,24.414,-990.234
1532486195.465,28.809,49.805,31.738,50.293,-326.172
1532486195.469,32.715,36.621,34.180,37.598,-104.492
1532486195.473,27.344,32.715,32.715,45.410,-710.449
1532486195.477,21.484,41.016,33.203,40.527,-781.250
1532486195.480,21.973,37.109,34.180,8.789,-833.008
1532486195.484,23.438,44.922,34.180,19.531,-235.352
1532486195.488,22.461,47.852,32.715,39.551,666.016
1532486195.492,24.902,43.945,31.738,34.668,567.871
1532486195.496,31.250,41.016,36.133,38.086,-82.031
1532486195.500,32.227,34.180,37.109,41.504,-650.391
1532486195.504,27.344,45.898,33.691,39.062,-247.070
1532486195.508,24.902,54.688,34.180,29.297,765.137
1532486195.512,31.250,28.809,35.645,33.691,-127.930
1532486195.516,34.180,32.715,36.621,30.273,-795.898
1532486195.519,31.738,39.062,35.156,33.203,-680.176
1532486195.523,26.367,38.086,34.180,38.574,-544.434
1532486195.527,30.273,35.156,34.180,20.508,-155.762
1532486195.531,37.109,33.203,33.203,20.508,-566.406
1532486195.535,29.785,44.434,31.738,39.551,69.824
1532486195.539,28.809,37.598,35.645,38.574,463.379
1532486195.543,29.785,38.574,36.133,42.969,-208.496
1532486195.547,33.691,57.129,33.203,57.129,609.863
1532486195.551,41.504,26.367,36.621,61.035,259.277
1532486195.555,37.109,20.508,36.621,21.484,-705.566
1532486195.559,33.203,37.598,34.668,22.461,-931.641
1532486195.562,34.668,42.969,33.691,42.969,-809.082
1532486195.566,37.109,38.086,34.180,41.016,70.312
1532486195.570,38.086,30.762,35.156,42.480,-283.691
1532486195.574,37.598,40.039,38.574,34.180,-798.340
1532486195.578,37.109,44.434,41.992,38.086,-783.691
1532486195.582,33.691,51.758,40.039,29.785,-34.668
1532486195.586,32.227,56.641,39.551,38.574,960.449
1532486195.590,34.668,23.438,41.016,35.156,386.230
1532486195.594,37.109,26.367,37.109,23.926,-724.609
1532486195.598,43.457,44.922,37.598,37.598,-895.020
1532486195.602,43.945,45.898,39.551,38.086,-659.668
1532486195.605,32.715,49.316,37.109,43.457,128.906
1532486195.609,31.250,39.551,35.645,37.109,-312.500
1532486195.613,32.715,41.016,37.109,36.621,-863.281
1532486195.617,33.203,38.086,40.527,26.855,-557.129
1532486195.621,31.250,37.109,38.086,13.184,-607.422
1532486195.625,26.855,53.223,33.691,22.461,-1.465
1532486195.629,30.273,48.828,33.203,38.574,582.520
1532486195.633,33.691,40.039,36.621,32.715,533.691
1532486195.637,30.273,27.344,41.016,30.762,94.238
1532486195.641,22.949,18.066,41.504,30.273,-724.121
1532486195.644,22.461,47.852,40.527,25.391,-189.453
1532486195.648,21.973,47.852,35.645,0.488,824.707
1532486195.652,20.020,20.020,34.668,6.348,-109.863
1532486195.656,18.555,31.250,38.574,28.320,-738.770
1532486195.660,18.555,40.527,39.551,26.367,-886.230
1532486195.664,22.949,43.945,40.527,37.109,-504.883
1532486195.668,28.320,31.250,41.992,46.387,15.137
1532486195.672,26.855,23.926,39.551,27.344,-500.488
1532486195.676,12.695,42.969,35.645,13.672,41.504
1532486195.680,16.113,39.062,33.691,29.297,406.250
1532486195.684,26.855,38.086,34.668,26.855,-0.488
1532486195.687,23.926,48.340,34.668,21.484,711.426
1532486195.691,27.344,27.344,35.645,32.227,-16.602
1532486195.695,31.250,36.133,36.133,23.438,-934.082
1532486195.699,38.086,48.340,34.668,21.484,-829.590
1532486195.703,32.715,39.551,32.715,35.156,-512.207
1532486195.707,18.555,35.156,33.691,40.527,-34.180
1532486195.711,16.113,39.551,36.133,25.879,-610.352
1532486195.715,18.555,43.457,36.621,19.043,-777.344
1532486195.719,20.020,38.574,34.668,29.785,-570.801
1532486195.723,18.066,51.270,32.715,30.762,62.500
1532486195.726,19.531,62.988,32.715,13.184,923.828
1532486195.730,27.344,32.227,35.156,20.020,173.340
1532486195.734,29.785,30.273,33.691,53.223,-602.539
1532486195.738,26.855,41.504,35.156,48.340,-744.629
1532486195.742,20.508,46.387,36.133,27.832,-747.559
1532486195.746,21.484,49.805,34.180,11.719,37.598
1532486195.750,27.832,38.574,36.133,26.367,-272.949
1532486195.754,30.273,36.133,35.156,39.551,-631.836
1532486195.758,27.832,37.598,33.203,30.762,-681.152
1532486195.762,25.391,36.133,30.273,26.855,-757.324
1532486195.766,32.715,43.945,30.762,41.992,216.309
1532486195.769,34.668,45.410,33.691,42.480,585.938
1532486195.773,25.879,45.898,32.715,23.926,545.410
1532486195.777,24.902,35.645,33.203,30.762,249.023
1532486195.781,29.297,30.273,30.762,52.734,-583.008
1532486195.785,26.367,54.688,28.809,44.434,284.668
1532486195.789,24.414,37.109,34.180,17.578,748.535
1532486195.793,21.973,28.809,37.598,29.785,-215.332
1532486195.797,26.367,32.227,37.598,38.574,-521.484
1532486195.801,30.762,30.762,38.574,32.715,-717.285
1532486195.805,27.832,49.805,39.551,33.203,-142.578
1532486195.809,24.902,30.762,38.086,33.691,-184.082
1532486195.812,23.438,28.809,36.621,38.086,-814.941
1532486195.816,19.531,43.945,34.180,47.852,90.332
1532486195.820,20.020,25.879,32.715,40.039,123.535
1532486195.824,18.066,42.969,28.320,30.762,-173.828
1532486195.828,18.066,54.199,26.367,25.391,742.676
1532486195.832,24.414,25.879,28.320,17.578,-107.910
1532486195.836,23.926,28.320,30.273,24.902,-734.863
1532486195.840,22.461,34.668,33.203,29.785,-784.668
1532486195.844,25.391,49.316,35.156,27.344,-688.477
1532486195.848,26.367,44.434,34.180,19.531,-168.457
1532486195.851,25.391,28.809,32.227,22.949,-440.430
1532486195.855,20.996,34.180,31.250,27.344,-651.367
1532486195.859,18.555,33.691,29.297,24.902,-771.973
1532486195.863,23.438,39.551,28.320,34.668,-8.301
1532486195.867,29.785,48.340,28.809,39.062,922.852
1532486195.871,32.715,28.320,32.227,35.156,66.406
1532486195.875,27.344,34.668,35.156,37.109,-793.945
1532486195.879,25.391,47.852,34.668,32.227,-958.496
1532486195.883,29.785,45.898,33.691,42.969,-614.746
1532486195.887,29.785,38.574,35.156,41.504,136.719
1532486195.891,25.879,34.180,36.621,28.809,-445.312
1532486195.894,30.273,43.457,34.668,35.156,-831.055
1532486195.898,36.133,43.945,34.180,39.062,-711.914
1532486195.902,32.227,43.945,37.109,37.598,-416.016
1532486195.906,27.344,45.898,35.156,33.691,289.062
1532486195.910,27.344,49.316,34.668,38.086,342.773
1532486195.914,27.832,48.340,39.062,41.992,486.816
1532486195.918,33.203,31.250,41.504,54.199,-18.555
1532486195.922,37.598,39.062,38.086,54.688,-558.105
1532486195.926,30.762,66.406,35.645,37.109,584.961
1532486195.930,37.109,33.203,38.574,21.484,584.961
1532486195.934,43.945,21.484,41.016,35.156,-496.582
1532486195.937,42.969,38.574,40.527,57.129,-655.762
1532486195.941,38.086,44.922,38.086,42.969,-763.184
1532486195.945,36.621,59.570,34.180,21.484,-4.395
1532486195.949,39.551,41.504,35.156,28.809,-99.121
1532486195.953,39.062,32.227,36.621,34.180,-615.723
1532486195.957,26.367,44.434,37.598,27.832,180.664
1532486195.961,22.461,39.551,39.551,27.344,36.133
1532486195.965,29.785,55.664,40.527,41.504,115.234
1532486195.969,24.414,43.945,41.504,50.293,812.012
1532486195.973,19.531,21.484,42.480,32.715,-290.527
1532486195.976,19.531,37.598,44.434,18.555,-909.180
1532486195.980,21.484,38.574,47.363,29.297,-898.438
1532486195.984,24.414,44.434,43.945,46.875,-344.238
1532486195.988,25.879,40.527,42.480,43.457,-46.387
1532486195.992,23.438,42.480,41.016,22.461,-687.012
1532486195.996,27.344,47.852,41.504,30.273,-778.320
1532486196.000,29.785,40.039,42.969,36.621,-639.160
1532486196.004,27.832,56.641,43.945,39.062,195.801
1532486196.008,27.832,59.570,41.016,34.668,908.691
1532486196.012,32.227,28.320,40.527,28.809,-179.688
1532486196.016,39.551,36.133,42.969,33.203,-761.230
1532486196.019,36.621,42.480,43.945,21.973,-670.410
1532486196.023,28.320,42.480,42.969,32.715,-543.945
1532486196.027,24.902,38.086,41.504,41.016,-132.812
1532486196.031,30.273,34.668,41.016,30.762,-539.062
1532486196.035,33.203,34.180,41.992,40.039,-575.684
1532486196.039,31.250,28.809,41.504,45.410,-600.098
1532486196.043,29.785,39.551,40.039,42.969,-568.848
1532486196.047,32.227,46.387,39.062,45.410,99.121
1532486196.051,29.785,48.340,40.039,42.480,483.398
1532486196.055,27.344,39.551,41.016,36.133,423.340
1532486196.058,22.461,32.227,37.109,26.367,-471.191
1532486196.062,20.996,45.410,31.738,5.371,-659.668
1532486196.066,31.738,60.547,30.762,9.766,667.480
1532486196.070,37.109,27.832,34.668,34.180,430.664
1532486196.074,28.320,23.438,34.668,20.996,-636.719
1532486196.078,21.973,41.016,37.109,24.902,-872.070
1532486196.082,27.832,45.898,38.574,46.875,-661.133
1532486196.086,27.344,31.250,32.227,46.387,311.035
1532486196.090,26.367,18.066,32.715,41.016,-178.711
1532486196.094,28.809,36.621,37.598,41.992,-784.668
1532486196.098,33.691,46.387,36.133,44.434,83.984
1532486196.101,36.621,40.527,36.133,46.875,474.609
1532486196.105,32.715,52.734,35.156,40.039,780.762
1532486196.109,28.809,30.762,34.668,29.297,590.332
1532486196.113,33.691,13.672,35.645,30.273,-569.336
1532486196.117,38.086,24.902,34.180,41.504,-744.629
1532486196.121,36.621,28.809,32.227,37.598,-680.664
1532486196.125,32.715,47.852,28.809,28.809,-151.367
1532486196.129,31.738,43.457,29.785,44.922,-235.352
1532486196.133,31.250,38.086,31.738,45.898,-675.293
1532486196.137,31.738,37.598,31.738,42.480,-507.324
1532486196.141,25.879,34.668,29.297,42.480,-693.848
1532486196.144,20.996,55.176,23.438,28.809,147.949
1532486196.148,28.809,44.434,27.832,33.203,902.832
1532486196.152,33.203,16.113,30.273,33.691,-148.926
1532486196.156,28.320,22.461,29.297,17.578,-725.098
1532486196.160,23.438,26.855,29.785,25.879,-894.043
1532486196.164,25.879,37.109,27.344,23.926,-572.754
1532486196.168,29.297,29.297,27.832,35.645,-22.949
1532486196.172,29.785,25.879,28.320,54.199,-486.328
1532486196.176,25.391,33.691,30.762,44.434,-741.211
1532486196.180,24.902,30.273,32.715,34.668,-767.090
1532486196.183,33.203,31.250,28.809,38.086,-411.133
1532486196.187,37.598,35.645,29.297,47.363,118.164
1532486196.191,35.156,32.227,31.250,41.992,400.391
1532486196.195,39.062,30.273,30.762,32.227,379.395
1532486196.199,39.551,32.715,34.668,44.922,-402.832
1532486196.203,33.691,46.387,37.598,48.340,-348.145
1532486196.207,29.297,59.082,33.691,29.297,748.535
1532486196.211,30.273,28.320,31.250,28.320,57.129
1532486196.215,38.086,26.367,29.785,47.852,-514.648
1532486196.219,36.133,30.762,27.832,39.551,-445.801
1532486196.223,30.273,29.297,26.855,27.344,-515.625
1532486196.226,32.227,31.738,27.344,32.715,107.910
1532486196.230,32.715,28.320,29.785,37.109,-416.504
1532486196.234,28.809,31.250,31.250,46.387,-612.793
1532486196.238,22.461,30.762,27.344,30.762,56.641
1532486196.242,16.602,32.227,28.809,14.648,459.961
1532486196.246,17.578,40.039,27.832,28.320,907.715
1532486196.250,20.020,12.207,25.879,24.414,431.152
1532486196.254,15.137,12.207,29.297,6.836,-520.508
1532486196.258,14.648,29.297,27.832,15.137,-874.023
1532486196.262,18.066,33.691,25.879,23.926,-897.461
1532486196.266,21.973,37.598,30.273,20.020,53.711
1532486196.269,24.902,24.902,32.715,39.062,-125.488
1532486196.273,22.949,29.785,29.785,26.367,-744.629
1532486196.277,20.508,33.203,31.738,19.043,-771.484
1532486196.281,21.973,36.133,35.156,28.320,-781.250
1532486196.285,20.020,53.223,33.691,31.738,370.117
1532486196.289,15.625,28.320,34.668,24.414,558.594
1532486196.293,11.719,24.902,34.668,16.113,-657.227
1532486196.297,19.531,41.016,37.109,15.625,-821.777
1532486196.301,25.391,33.691,41.016,36.133,-703.125
1532486196.305,21.973,43.945,39.551,30.762,-121.094
1532486196.308,22.949,40.039,40.527,13.672,-49.805
1532486196.312,24.902,34.668,43.945,38.086,-731.445
1532486196.316,25.391,37.598,40.527,49.316,-597.656
1532486196.320,27.344,35.156,35.156,42.969,-538.574
1532486196.324,20.996,41.016,40.039,27.344,-304.688
1532486196.328,23.926,43.457,45.898,30.762,-68.848
1532486196.332,33.203,48.828,41.504,49.805,282.715
1532486196.336,31.250,44.434,41.992,52.246,527.344
1532486196.340,36.133,37.598,47.363,38.574,-435.547
1532486196.344,37.598,59.570,46.875,29.297,-488.770
1532486196.348,37.598,68.359,48.340,22.461,740.723
1532486196.351,46.875,43.457,54.199,30.762,153.809
1532486196.355,43.457,51.270,54.199,44.922,-650.391
1532486196.359,38.574,64.941,52.246,51.270,-818.359
1532486196.363,47.852,64.453,54.199,44.434,-640.625
1532486196.367,50.293,55.664,56.152,63.477,115.723
1532486196.371,49.316,52.246,57.129,75.195,-318.359
1532486196.375,49.805,59.570,57.129,62.988,-689.941
1532486196.379,53.223,62.500,54.688,53.711,-34.668
1532486196.383,57.617,67.383,57.129,30.762,610.840
1532486196.387,52.246,72.754,60.547,46.875,938.965
1532486196.390,52.246,49.805,59.082,65.918,123.535
1532486196.394,55.664,50.781,61.035,61.035,-788.086
1532486196.398,59.570,57.617,62.988,61.035,-871.582
1532486196.402,58.105,59.082,62.500,56.641,-556.152
1532486196.406,51.758,61.523,60.547,57.129,188.965
1532486196.410,46.387,58.594,59.570,58.594,-427.734
1532486196.414,48.340,67.383,61.523,44.922,-794.922
1532486196.418,51.270,61.035,61.035,58.594,-549.805
1532486196.422,46.387,59.082,60.547,47.363,-591.797
1532486196.426,41.016,87.891,60.059,22.949,543.457
1532486196.430,44.922,65.918,57.617,49.805,625.977
1532486196.433,45.898,53.223,56.641,61.035,-470.215
1532486196.437,39.062,61.523,53.223,57.129,-636.230
1532486196.441,33.203,68.359,50.781,41.504,-765.625
1532486196.445,33.691,82.031,47.363,34.180,44.434
1532486196.449,39.062,58.594,46.875,45.410,49.805
1532486196.453,40.039,53.711,49.805,47.363,-570.801
1532486196.457,41.016,56.641,50.781,41.992,-596.680
1532486196.461,34.180,56.152,45.898,12.207,-781.738
1532486196.465,32.227,65.918,41.992,32.715,-118.652
1532486196.469,31.250,56.641,43.945,73.730,99.121
1532486196.473,26.367,56.152,44.922,45.410,222.168
1532486196.476,23.438,51.270,42.969,17.090,326.172
1532486196.480,30.273,45.410,41.504,24.414,-589.355
1532486196.484,28.809,63.965,41.992,33.203,-135.254
1532486196.488,26.855,65.430,42.969,22.949,856.934
1532486196.492,29.785,40.527,42.969,0.977,-205.566
1532486196.496,26.855,42.480,37.598,23.926,-838.867
1532486196.500,26.855,48.828,34.668,37.598,-688.965
1532486196.504,27.832,55.176,39.551,24.902,-368.652
1532486196.508,27.344,50.781,40.039,22.461,-47.363
1532486196.512,31.250,38.086,36.133,19.531,-617.188
1532486196.515,38.086,43.945,33.203,23.926,-645.996
1532486196.519,35.156,50.293,34.180,25.391,63.965
1532486196.523,27.344,58.594,33.691,29.297,631.836
1532486196.527,28.320,69.824,33.691,32.227,883.789
1532486196.531,37.109,42.480,34.668,34.180,7.324
1532486196.535,39.551,41.504,34.668,42.480,-633.789
1532486196.539,33.203,53.711,34.180,32.227,-754.883
1532486196.543,26.855,42.969,32.715,22.949,-692.383
1532486196.547,31.250,38.086,33.203,20.020,-11.230
1532486196.551,33.691,40.527,35.645,13.184,-361.816
1532486196.555,32.715,44.922,34.668,16.602,-600.098
1532486196.558,34.668,46.875,31.738,21.484,-717.773
1532486196.562,31.738,52.734,33.691,20.996,-701.660
1532486196.566,32.715,54.688,33.691,42.969,484.375
1532486196.570,30.762,42.969,33.203,36.621,721.680
1532486196.574,29.297,37.598,31.250,26.367,-179.688
1532486196.578,36.133,43.457,29.297,33.691,-702.148
1532486196.582,36.133,52.734,31.250,25.391,-605.469
1532486196.586,30.762,65.430,31.250,16.602,619.141
1532486196.590,31.738,33.691,33.203,34.180,555.176
1532486196.594,32.227,31.738,35.156,40.039,-648.438
1532486196.598,36.133,50.293,36.133,37.109,-806.152
1532486196.601,35.156,44.922,35.645,25.879,-564.453
1532486196.605,25.391,47.363,30.762,25.879,218.750
1532486196.609,23.438,43.457,32.715,36.621,-194.824
1532486196.613,29.297,52.734,34.180,27.344,-86.426
1532486196.617,31.250,45.898,29.785,31.250,589.844
1532486196.621,33.203,34.668,28.320,36.133,-344.727
1532486196.625,24.414,61.523,31.250,21.484,86.426
1532486196.629,24.414,45.410,31.738,9.766,810.059
1532486196.633,35.156,32.227,31.738,18.555,-356.445
1532486196.637,33.203,54.688,37.598,39.062,-469.727
1532486196.640,29.297,43.457,39.062,24.902,-584.473
1532486196.644,26.855,50.781,34.180,20.508,-473.633
1532486196.648,30.762,45.898,32.227,38.086,-80.078
1532486196.652,32.715,35.156,32.227,28.809,-533.203
1532486196.656,23.438,44.434,34.668,24.902,-602.539
1532486196.660,17.090,51.270,35.645,20.996,-33.691
1532486196.664,19.531,55.176,31.250,20.020,580.566
1532486196.668,22.949,50.781,28.809,28.809,856.445
1532486196.672,23.438,28.809,31.738,24.902,-97.656
1532486196.676,23.926,39.551,36.133,29.785,-882.812
1532486196.680,30.273,47.852,36.133,35.645,-950.684
1532486196.683,33.203,47.363,31.738,38.086,-589.844
1532486196.687,29.297,40.527,32.715,40.527,-30.273
1532486196.691,25.879,35.156,35.645,21.973,-589.844
1532486196.695,24.902,42.969,33.203,1.465,-829.102
1532486196.699,25.879,40.527,33.203,8.301,-693.359
1532486196.703,26.367,37.598,33.203,41.504,-442.383
1532486196.707,20.996,50.781,31.250,45.898,472.168
1532486196.711,16.602,44.922,31.250,29.297,639.160
1532486196.715,24.414,37.598,29.297,44.434,-34.668
1532486196.719,23.926,39.551,25.879,43.945,-543.945
1532486196.722,15.625,46.875,25.879,27.832,-472.656
1532486196.726,13.184,62.500,28.809,25.391,661.133
1532486196.730,19.043,28.809,32.715,32.715,300.293
1532486196.734,21.484,23.926,30.762,35.156,-604.980
1532486196.738,23.926,35.645,29.297,21.973,-715.332
1532486196.742,21.484,39.062,29.297,31.738,-694.824
1532486196.746,19.531,41.992,29.785,29.297,124.512
1532486196.750,25.391,33.203,31.250,47.363,-229.492
1532486196.754,23.926,44.434,29.297,63.965,17.090
1532486196.758,19.043,41.016,31.250,24.414,563.965
1532486196.762,21.484,31.250,33.203,22.461,-363.281
1532486196.765,18.066,52.246,32.715,33.691,377.930
1532486196.769,19.531,28.809,37.598,42.480,731.934
1532486196.773,25.391,16.113,35.156,49.316,-556.152
1532486196.777,27.832,33.691,29.297,21.484,-922.852
1532486196.781,31.738,41.016,33.203,29.785,-856.934
1532486196.785,30.273,51.270,30.273,44.434,-14.160
1532486196.789,24.414,38.086,25.879,36.133,-65.430
1532486196.793,18.555,35.156,28.320,24.902,-818.359
1532486196.797,18.555,44.434,30.273,37.598,-706.055
1532486196.801,20.508,48.828,28.320,43.945,-27.832
1532486196.805,20.508,55.176,26.855,13.672,745.605
1532486196.808,18.066,42.969,29.785,18.066,805.664
1532486196.812,22.461,28.809,31.738,31.250,-385.742
1532486196.816,25.391,38.574,31.738,24.902,-798.828
1532486196.820,20.020,34.668,32.227,20.020,-720.215
1532486196.824,16.113,41.992,28.320,8.789,-470.215
1532486196.828,20.508,41.504,27.832,16.602,-200.195
1532486196.832,24.902,25.391,30.762,41.016,-645.508
1532486196.836,23.926,28.320,31.738,40.527,-556.641
1532486196.840,21.973,33.691,31.738,22.461,-674.316
1532486196.844,20.996,41.504,30.762,9.277,-559.082
1532486196.847,22.949,48.828,29.785,22.949,511.230
1532486196.851,24.902,42.480,31.738,42.969,739.746
1532486196.855,19.531,31.738,29.785,31.250,297.363
1532486196.859,17.090,29.297,26.855,25.391,-588.379
1532486196.863,20.020,44.434,32.715,15.625,-614.258
1532486196.867,17.578,51.758,32.715,19.043,702.148
1532486196.871,15.137,20.996,29.297,29.785,184.570
1532486196.875,16.602,25.879,30.273,3.418,-784.180
1532486196.879,16.602,37.109,30.762,-8.301,-920.410
1532486196.883,18.555,35.156,31.738,38.086,-563.965
1532486196.887,21.973,36.621,33.203,47.852,216.797
1532486196.890,20.996,42.480,36.133,28.809,-390.625
1532486196.894,18.555,58.105,30.762,30.273,-12.695
1532486196.898,25.391,51.270,32.227,36.621,558.105
1532486196.902,26.367,44.922,38.574,42.969,-98.145
1532486196.906,20.508,63.965,34.668,37.109,637.695
1532486196.910,23.926,38.574,33.691,34.180,377.441
1532486196.914,31.250,35.645,33.203,33.691,-754.883
1532486196.918,44.434,47.363,28.320,46.387,-777.344
1532486196.922,46.875,43.945,35.156,45.898,-651.367
1532486196.926,15.137,47.852,45.410,16.602,101.074
1532486196.930,7.812,34.668,44.922,6.836,-288.574
1532486196.933,21.484,34.180,42.480,12.695,-752.441
1532486196.937,22.461,37.109,43.945,40.527,-510.254
1532486196.941,17.090,42.969,40.527,44.922,1.465
1532486196.945,12.695,60.547,35.156,22.461,806.152
1532486196.949,22.949,37.598,36.133,30.762,696.289
1532486196.953,28.809,20.020,37.109,41.992,-371.582
1532486196.957,21.484,35.645,37.109,12.695,-810.059
1532486196.961,22.461,42.969,37.598,13.184,-953.613
1532486196.965,26.367,52.246,37.109,23.926,-330.078
1532486196.969,23.438,36.133,37.598,26.855,-54.688
1532486196.972,16.113,32.715,40.527,35.645,-659.668
1532486196.976,14.160,43.457,39.551,25.879,-761.230
1532486196.980,15.625,44.434,38.086,13.184,-837.891
1532486196.984,16.113,52.734,40.527,30.762,-267.578
1532486196.988,18.555,48.340,44.434,37.598,729.492
1532486196.992,31.250,40.527,45.898,42.969,673.828
1532486196.996,36.133,42.969,41.016,32.227,-62.500
1532486197.000,22.949,38.086,35.645,32.227,-672.852
1532486197.004,20.020,45.898,33.691,24.902,-293.457
1532486197.008,28.809,58.105,32.715,6.836,757.812
1532486197.012,31.250,38.574,36.621,11.719,-109.863
1532486197.015,35.156,39.551,38.574,32.227,-832.520
1532486197.019,33.691,41.016,38.086,41.016,-714.355
1532486197.023,21.973,41.504,38.086,24.902,-557.129
1532486197.027,19.043,37.598,37.109,20.020,-128.418
1532486197.031,22.949,39.551,39.062,36.133,-581.055
1532486197.035,19.043,51.758,41.504,21.484,55.176
1532486197.039,18.066,38.574,40.527,6.836,490.234
1532486197.043,27.832,43.457,33.691,41.504,-219.238
1532486197.047,31.250,70.312,35.645,59.570,610.840
1532486197.051,13.672,32.227,45.410,38.086,294.922
1532486197.054,3.906,22.461,47.363,30.762,-705.078
1532486197.058,15.137,41.992,45.410,35.156,-654.297
1532486197.062,21.484,42.480,47.363,21.973,-573.242
1532486197.066,26.855,41.992,46.387,35.156,83.496
1532486197.070,30.762,38.574,43.457,55.176,-246.582
1532486197.074,22.949,44.922,42.480,19.531,-802.734
1532486197.078,23.926,48.828,41.992,18.066,-807.129
1532486197.082,31.250,56.641,39.551,52.246,-54.199
1532486197.086,33.203,63.477,40.527,41.992,963.867
1532486197.090,30.273,29.785,43.457,16.113,432.617
1532486197.094,24.414,28.320,42.969,13.184,-717.285
1532486197.097,27.344,49.316,41.016,24.902,-932.617
1532486197.101,27.832,43.457,41.016,47.363,-717.773
1532486197.105,23.438,46.387,41.504,56.641,93.262
1532486197.109,30.273,45.898,44.922,42.969,-270.508
1532486197.113,34.180,49.805,42.480,36.133,-888.672
1532486197.117,34.180,52.246,42.480,33.203,-595.215
1532486197.121,34.668,46.875,45.898,29.297,-631.348
1532486197.125,27.832,62.988,42.969,36.621,-66.406
1532486197.129,29.785,62.500,40.527,42.969,634.766
1532486197.133,36.133,47.363,41.016,41.504,582.031
1532486197.137,33.203,43.457,42.969,58.594,79.102
1532486197.140,32.227,41.992,46.875,56.152,-733.887
1532486197.144,31.250,63.965,43.457,21.484,-268.066
1532486197.148,39.551,63.477,44.922,33.691,807.129
1532486197.152,43.457,35.645,50.781,52.246,-94.727
1532486197.156,30.762,41.016,47.363,38.086,-754.883
1532486197.160,27.832,46.875,44.434,46.387,-900.391
1532486197.164,34.180,55.176,42.480,45.410,-583.496
1532486197.168,34.668,44.922,47.363,33.203,-13.672
1532486197.172,30.762,41.992,47.852,35.645,-500.488
1532486197.176,26.367,65.430,41.016,38.086,17.578
1532486197.179,30.273,62.012,41.992,40.039,450.684
1532486197.183,34.668,50.293,44.922,53.711,-10.742
1532486197.187,31.250,59.570,43.945,42.480,689.941
1532486197.191,32.227,42.480,45.410,23.926,9.766
1532486197.195,37.598,45.410,46.387,38.574,-957.520
1532486197.199,41.016,49.316,47.363,41.016,-887.695
1532486197.203,35.156,42.969,48.828,35.645,-542.969
1532486197.207,28.809,39.551,45.898,41.016,9.766
1532486197.211,37.109,39.551,45.898,35.156,-586.914
1532486197.215,40.527,46.875,41.992,42.969,-813.965
1532486197.219,14.648,46.387,34.668,28.320,-593.262
1532486197.222,4.395,58.594,34.180,10.742,77.148
1532486197.226,9.766,69.824,35.645,3.906,941.406
1532486197.230,9.766,34.180,37.109,20.996,195.801
1532486197.234,8.789,29.297,35.645,26.367,-634.277
1532486197.238,13.672,42.480,40.039,26.855,-779.785
1532486197.242,15.625,50.781,43.457,38.574,-783.203
1532486197.246,20.020,59.082,39.062,13.672,30.273
1532486197.250,26.367,47.852,39.062,15.625,-273.926
1532486197.254,27.344,47.363,40.039,30.273,-658.691
1532486197.258,25.391,47.852,37.109,24.902,-679.688
1532486197.262,30.273,53.711,38.574,11.230,-793.457
1532486197.265,35.156,62.988,40.039,40.527,194.336
1532486197.269,34.180,52.734,40.039,60.547,601.562
1532486197.273,30.273,52.246,38.574,31.250,598.145
1532486197.277,28.809,49.316,39.062,20.508,408.203
1532486197.281,33.203,48.340,42.969,19.043,-577.148
1532486197.285,31.250,71.777,41.992,23.438,186.035
1532486197.289,27.344,50.293,40.039,37.598,823.730
1532486197.293,35.156,35.156,43.457,22.461,-503.906
1532486197.297,44.434,54.199,44.922,15.137,-901.855
1532486197.301,44.434,53.223,46.387,49.316,-749.512
1532486197.304,34.668,54.688,45.410,49.805,-183.594
1532486197.308,31.250,47.363,43.945,35.156,-144.043
1532486197.312,33.691,51.758,42.969,32.715,-792.480
1532486197.316,29.785,54.199,37.109,33.691,78.125
1532486197.320,30.762,41.992,38.086,40.039,434.570
1532486197.324,34.180,51.758,41.992,46.875,90.820
1532486197.328,32.715,57.129,35.645,31.738,728.516
1532486197.332,36.621,39.062,35.156,40.527,-102.539
1532486197.336,37.598,42.480,39.551,57.617,-761.230
1532486197.340,35.156,44.922,40.527,40.039,-794.922
1532486197.344,29.297,49.316,38.086,19.531,-728.516
1532486197.347,31.250,45.898,38.574,25.879,-191.406
1532486197.351,29.297,42.969,41.504,41.504,-449.219
1532486197.355,25.879,45.898,40.527,46.387,-656.738
1532486197.359,25.879,42.480,41.992,29.785,-767.578
1532486197.363,27.832,55.664,39.062,19.043,-5.371
1532486197.367,32.715,61.035,38.574,28.320,927.734
1532486197.371,38.086,30.762,40.039,38.574,76.172
1532486197.375,30.762,33.203,38.086,43.457,-778.320
1532486197.379,21.973,43.945,37.598,40.039,-969.727
1532486197.383,21.484,45.410,37.109,27.832,-655.273
1532486197.386,24.414,41.504,39.062,14.160,160.156
1532486197.390,24.902,41.016,41.016,12.695,-412.109
1532486197.394,22.949,46.387,38.086,22.461,-845.215
1532486197.398,32.227,40.527,35.645,34.668,-732.422
1532486197.402,40.039,43.945,37.109,38.086,-456.055
1532486197.406,36.621,50.293,36.621,18.555,300.781
1532486197.410,25.391,54.199,29.297,6.836,395.020
1532486197.414,25.879,58.594,26.367,27.832,493.164
1532486197.418,25.879,42.969,29.297,24.902,-16.113
1532486197.422,20.996,40.039,32.227,26.855,-572.754
1532486197.426,17.578,67.383,32.715,30.762,530.762
1532486197.429,17.578,43.945,33.691,18.555,612.793
1532486197.433,23.926,30.273,32.227,27.344,-495.117
1532486197.437,24.414,40.039,32.715,32.715,-652.832
1532486197.441,23.438,42.969,36.133,11.230,-758.789
1532486197.445,23.926,56.641,29.297,6.348,-63.965
1532486197.449,29.297,41.504,28.809,29.297,-84.473
1532486197.453,33.691,38.574,34.180,36.621,-594.727
1532486197.457,28.320,50.781,32.715,23.438,178.223
1532486197.461,23.926,47.363,30.762,16.602,372.070
1532486197.465,21.484,56.641,27.832,14.648,325.195
1532486197.469,20.996,45.410,28.320,32.227,782.227
1532486197.472,23.926,25.391,33.691,30.273,-248.535
1532486197.476,24.902,40.527,35.156,15.137,-955.078
1532486197.480,26.855,52.246,31.738,10.742,-703.613
1532486197.484,28.809,53.711,30.762,29.297,-195.312
1532486197.488,29.297,37.598,32.227,38.086,-76.660
1532486197.492,25.879,37.109,30.273,27.344,-687.500
1532486197.496,26.367,47.852,29.297,23.438,-834.473
1532486197.500,29.785,42.969,32.227,23.926,-679.688
1532486197.504,24.414,52.734,33.203,36.133,168.945
1532486197.508,19.531,58.105,35.156,22.461,911.133
1532486197.511,26.855,39.062,36.133,23.926,-154.785
1532486197.515,27.832,44.434,34.668,28.320,-777.832
1532486197.519,28.320,47.363,35.645,16.602,-689.453
1532486197.523,32.227,39.062,29.785,32.227,-550.781
1532486197.527,26.855,40.039,29.297,25.391,-123.047
1532486197.531,27.832,41.992,34.668,35.645,-551.270
1532486197.535,29.297,41.016,35.645,32.715,-593.262
1532486197.539,31.250,41.016,34.668,29.785,-600.098
1532486197.543,29.785,45.898,35.156,46.387,-568.359
1532486197.547,33.691,44.922,38.086,39.551,135.742
1532486197.551,36.133,46.387,37.109,54.199,418.945
1532486197.554,29.297,43.457,36.621,43.457,625.977
1532486197.558,32.715,33.691,37.598,30.273,-100.586
1532486197.562,32.227,45.410,38.574,30.762,-653.809
1532486197.566,27.344,59.570,39.062,16.602,643.066
1532486197.570,28.809,20.996,35.156,30.762,483.887
1532486197.574,23.926,20.020,34.668,39.551,-626.465
1532486197.578,23.438,39.551,37.598,23.926,-884.277
1532486197.582,26.855,45.410,39.551,36.621,-700.195
1532486197.586,22.949,43.457,40.527,41.504,302.246
1532486197.590,20.020,24.902,40.527,24.414,-147.949
1532486197.593,25.879,32.715,35.156,22.461,-801.758
1532486197.597,33.203,46.387,31.738,37.109,79.102
1532486197.601,31.250,42.969,36.621,37.598,480.469
1532486197.605,26.367,57.617,41.992,24.902,731.934
1532486197.609,22.949,39.551,41.016,35.156,625.000
1532486197.613,26.367,21.484,37.598,35.156,-556.152
1532486197.617,34.668,40.039,36.133,38.086,-770.020
1532486197.621,32.227,43.457,39.062,21.484,-694.824
1532486197.625,21.973,47.363,36.133,16.602,-199.707
1532486197.629,25.391,38.574,35.156,30.762,-227.051
1532486197.633,30.762,37.598,34.668,23.926,-687.988
1532486197.636,25.879,41.504,30.273,15.625,-520.508
1532486197.640,28.320,41.016,31.738,28.809,-680.176
1532486197.644,32.227,60.059,32.227,23.926,126.465
1532486197.648,31.738,55.176,32.715,15.625,900.391
1532486197.652,38.574,29.785,37.109,20.020,-126.953
1532486197.656,38.574,38.574,38.574,26.855,-710.449
1532486197.660,30.762,46.875,31.738,28.320,-883.301
1532486197.664,30.762,50.293,30.273,22.949,-618.164
1532486197.668,38.574,45.898,34.668,46.875,-37.109
1532486197.672,35.156,41.992,35.156,50.293,-456.543
1532486197.676,27.832,45.898,34.180,16.602,-720.215
1532486197.679,28.320,53.223,36.133,30.762,-779.297
1532486197.683,34.668,55.176,37.109,58.105,-421.875
1532486197.687,36.133,45.898,38.574,52.246,140.625
1532486197.691,35.645,52.734,39.062,46.387,247.070
1532486197.695,37.109,53.223,35.645,49.316,570.312
1532486197.699,37.109,33.203,39.062,53.223,-48.828
1532486197.703,38.086,47.363,41.992,37.598,-364.258
1532486197.707,34.668,65.430,41.016,30.762,741.699
1532486197.711,40.527,34.668,39.062,39.551,117.676
1532486197.715,40.527,33.691,37.598,37.598,-749.023
1532486197.718,40.039,40.527,40.039,50.293,-680.176
1532486197.722,40.039,46.875,42.969,54.199,-520.020
1532486197.726,33.203,53.711,42.480,40.039,118.164
1532486197.730,36.621,47.852,40.039,27.832,-416.016
1532486197.734,35.645,51.270,39.062,52.734,-632.324
1532486197.738,25.879,46.875,35.156,49.805,145.020
1532486197.742,20.020,48.340,34.668,26.855,464.844
1532486197.746,25.879,66.406,35.645,22.461,860.840
1532486197.750,34.668,39.551,39.062,20.996,481.445
1532486197.754,34.180,34.180,41.992,46.387,-504.883
1532486197.758,34.180,53.711,44.434,44.922,-844.238
1532486197.761,35.156,63.477,45.410,32.227,-908.691
1532486197.765,36.133,73.242,47.363,39.551,-9.766
1532486197.769,41.504,53.223,50.293,62.988,-108.887
1532486197.773,42.969,52.246,49.805,53.223,-714.355
1532486197.777,41.504,59.082,49.316,37.598,-759.277
