timestamps,TP9,AF7,AF8,TP10,Right AUX
1532279577.169,29.297,28.809,26.855,36.133,-57.617
1532279577.173,36.621,28.320,28.809,39.551,232.910
1532279577.177,40.039,30.273,26.855,40.039,136.230
1532279577.181,43.945,30.273,27.344,42.480,-174.316
1532279577.185,43.457,31.738,25.879,43.945,-127.441
1532279577.188,42.480,37.598,16.602,42.969,210.938
1532279577.192,42.480,38.086,16.602,37.109,235.352
1532279577.196,40.527,35.645,20.020,32.715,-91.309
1532279577.200,41.992,34.668,20.020,40.527,-188.477
1532279577.204,47.363,32.227,22.461,45.898,103.027
1532279577.208,41.504,28.320,24.414,39.551,236.816
1532279577.212,42.969,27.832,25.391,36.133,-44.434
1532279577.216,55.664,28.809,26.855,43.945,-219.727
1532279577.220,59.570,32.715,25.879,48.340,21.484
1532279577.224,52.734,33.691,21.973,42.969,272.461
1532279577.228,50.293,34.668,19.531,47.363,88.379
1532279577.231,53.711,36.621,20.020,56.152,-196.777
1532279577.235,48.340,34.180,21.973,57.129,-55.664
1532279577.239,39.551,34.180,19.043,51.270,250.977
1532279577.243,38.574,33.691,21.484,48.828,167.969
1532279577.247,42.480,32.715,25.879,49.316,-125.977
1532279577.251,43.945,36.133,24.902,49.316,-124.512
1532279577.255,45.410,38.574,23.438,46.387,140.137
1532279577.259,48.828,39.551,22.949,42.969,200.195
1532279577.263,48.828,41.504,21.484,34.668,-68.359
1532279577.267,44.922,40.527,20.996,32.715,-155.273
1532279577.270,40.039,39.062,22.949,37.109,128.418
1532279577.274,40.527,39.551,22.949,38.086,275.879
1532279577.278,45.410,40.527,21.973,40.039,14.160
1532279577.282,46.387,41.016,20.996,39.551,-200.684
1532279577.286,48.828,41.504,19.043,42.969,49.316
1532279577.290,53.223,42.480,22.461,46.875,303.223
1532279577.294,54.688,43.945,26.855,43.457,81.543
1532279577.298,52.246,43.945,24.902,41.992,-200.195
1532279577.302,50.781,43.945,21.973,45.898,-83.496
1532279577.306,49.805,44.434,21.484,46.875,236.328
1532279577.310,49.316,43.945,22.949,44.434,200.684
1532279577.313,50.781,43.945,23.438,42.969,-141.113
1532279577.317,49.316,45.898,21.484,46.387,-161.621
1532279577.321,49.805,43.945,20.020,48.828,141.113
1532279577.325,55.176,44.434,22.461,52.246,229.492
1532279577.329,55.664,48.340,23.438,52.734,-63.965
1532279577.333,51.758,48.340,22.461,42.969,-219.238
1532279577.337,52.734,45.898,21.973,45.898,68.848
1532279577.341,53.711,45.410,21.973,54.688,264.160
1532279577.345,55.664,47.363,25.391,53.711,22.461
1532279577.349,54.199,46.387,27.832,51.758,-204.102
1532279577.353,50.781,47.852,28.809,49.316,-13.184
1532279577.356,51.758,47.363,26.855,47.852,270.508
1532279577.360,48.828,42.969,25.879,47.363,125.000
1532279577.364,41.504,41.016,27.832,42.480,-171.387
1532279577.368,39.551,39.551,27.832,42.969,-95.703
1532279577.372,41.016,40.039,31.738,46.875,215.820
1532279577.376,45.898,41.016,35.645,47.363,190.430
1532279577.380,52.734,41.992,33.203,50.781,-145.020
1532279577.384,55.176,45.410,29.785,49.316,-178.223
1532279577.388,50.781,50.781,27.344,46.387,138.184
1532279577.392,47.363,58.105,22.949,31.738,224.121
1532279577.395,41.992,62.500,17.090,19.531,-62.988
1532279577.399,45.410,63.965,14.648,32.715,-209.961
1532279577.403,54.199,58.105,20.508,44.922,74.219
1532279577.407,55.176,57.129,22.461,41.504,281.738
1532279577.411,53.711,62.988,17.578,33.691,40.527
1532279577.415,54.688,66.406,9.766,29.785,-217.285
1532279577.419,54.199,65.430,7.324,36.621,-34.668
1532279577.423,48.340,56.641,18.066,45.410,238.281
1532279577.427,52.734,51.270,23.926,48.340,121.582
1532279577.431,57.617,52.734,19.043,43.945,-158.691
1532279577.435,62.988,52.734,16.602,41.504,-128.906
1532279577.438,68.848,56.641,14.648,44.922,172.363
1532279577.442,66.406,62.988,8.789,42.480,208.008
1532279577.446,64.453,62.500,9.277,41.016,-78.125
1532279577.450,66.406,58.594,10.742,43.457,-163.086
1532279577.454,67.871,59.570,10.254,40.039,102.539
1532279577.458,56.152,60.547,7.812,32.715,262.207
1532279577.462,51.758,60.059,7.812,30.762,-13.672
1532279577.466,53.711,61.523,9.766,31.738,-213.867
1532279577.470,48.828,64.453,9.277,32.227,13.672
1532279577.474,47.852,65.918,12.695,27.344,231.934
1532279577.478,50.293,65.430,14.648,27.344,68.359
1532279577.481,50.781,67.383,11.230,29.785,-194.336
1532279577.485,51.758,70.312,8.789,31.738,-70.801
1532279577.489,54.199,68.359,9.277,35.156,228.027
1532279577.493,43.457,60.547,15.137,28.320,158.691
1532279577.497,36.621,56.152,20.020,23.926,-142.578
1532279577.501,44.434,56.641,15.625,27.344,-137.695
1532279577.505,43.945,55.176,13.184,29.785,191.895
1532279577.509,34.180,48.828,19.043,25.879,261.719
1532279577.513,26.367,39.551,24.414,23.438,-78.125
1532279577.517,28.809,36.621,27.344,27.832,-217.285
1532279577.520,26.855,42.969,24.902,27.832,75.195
1532279577.524,24.902,44.434,22.461,25.879,265.137
1532279577.528,28.809,41.992,24.902,27.344,20.508
1532279577.532,31.250,44.922,23.926,25.391,-192.871
1532279577.536,35.645,46.387,20.508,29.297,11.230
1532279577.540,41.016,43.945,22.461,39.551,260.742
1532279577.544,39.062,45.898,20.996,36.133,108.398
1532279577.548,37.598,49.316,15.625,34.180,-179.199
1532279577.552,36.621,45.410,21.973,39.062,-127.930
1532279577.556,32.715,37.109,31.250,40.527,183.105
1532279577.560,33.203,36.621,28.809,36.621,196.777
1532279577.563,33.691,40.039,25.879,28.809,-127.441
1532279577.567,30.762,35.156,28.320,32.715,-184.570
1532279577.571,35.645,31.738,30.273,41.016,128.418
1532279577.575,35.156,34.668,33.203,34.180,203.613
1532279577.579,25.391,34.180,30.762,27.344,-100.586
1532279577.583,29.785,37.109,24.902,33.203,-205.078
1532279577.587,36.621,37.598,24.902,32.715,57.129
1532279577.591,36.133,33.691,27.832,33.691,237.793
1532279577.595,40.527,36.133,28.320,36.621,30.273
1532279577.599,41.992,36.621,26.855,33.691,-211.914
1532279577.602,44.434,34.668,25.391,41.504,-21.973
1532279577.606,43.945,34.180,30.273,47.852,266.602
1532279577.610,35.645,36.133,34.668,36.621,121.094
1532279577.614,34.180,39.062,34.668,31.738,-180.176
1532279577.618,35.645,38.574,34.180,37.109,-104.492
1532279577.622,31.250,36.133,33.691,36.133,212.402
1532279577.626,30.273,36.621,32.715,32.227,203.613
1532279577.630,33.691,40.527,30.273,34.180,-116.211
1532279577.634,32.227,36.621,33.691,39.062,-176.270
1532279577.638,36.133,29.785,38.574,41.992,151.855
1532279577.642,39.062,25.879,38.086,41.016,279.297
1532279577.645,34.668,28.320,32.715,35.645,-19.043
1532279577.649,33.691,34.180,27.832,34.668,-206.543
1532279577.653,32.227,33.691,30.762,39.551,44.922
1532279577.657,32.227,29.785,35.156,39.551,288.086
1532279577.661,39.062,30.762,32.227,36.133,67.383
1532279577.665,41.992,38.574,26.855,37.109,-179.688
1532279577.669,35.156,39.062,28.320,39.062,-23.438
1532279577.673,22.949,34.668,35.156,26.855,196.777
1532279577.677,20.996,33.203,34.668,20.996,100.586
1532279577.681,29.785,30.273,32.227,29.785,-158.691
1532279577.685,37.598,30.762,32.227,38.086,-131.348
1532279577.688,36.133,34.668,29.297,39.062,195.801
1532279577.692,27.832,33.691,28.320,32.715,225.586
1532279577.696,26.367,29.785,30.762,33.203,-86.914
1532279577.700,28.320,27.832,34.668,41.504,-177.734
1532279577.704,23.438,23.438,37.109,45.410,118.164
1532279577.708,20.996,19.531,40.039,43.945,274.902
1532279577.712,22.949,21.484,41.992,36.621,-5.859
1532279577.716,25.391,25.879,37.598,31.738,-209.961
1532279577.720,29.297,24.902,32.715,39.551,40.039
1532279577.724,27.344,22.461,37.109,39.551,290.039
1532279577.727,21.484,20.996,41.992,35.645,104.980
1532279577.731,24.414,17.578,43.945,41.992,-200.195
1532279577.735,37.598,17.578,45.898,52.246,-64.453
1532279577.739,39.551,23.926,38.086,48.828,252.930
1532279577.743,26.855,27.832,32.715,34.668,169.922
1532279577.747,25.879,26.855,33.203,30.273,-155.762
1532279577.751,35.645,28.809,32.715,31.250,-188.477
1532279577.755,38.086,34.180,30.273,29.297,128.906
1532279577.759,35.156,35.156,30.273,33.203,212.891
1532279577.763,33.691,32.715,33.203,32.715,-78.125
1532279577.767,39.551,29.785,34.180,38.574,-167.480
1532279577.770,39.551,27.344,37.109,47.363,95.703
1532279577.774,28.320,26.367,38.086,38.086,245.605
1532279577.778,30.273,25.879,36.133,33.203,29.785
1532279577.782,39.062,27.832,31.250,41.992,-211.426
1532279577.786,43.945,26.367,32.227,47.363,-4.883
1532279577.790,37.109,23.926,36.621,42.480,279.785
1532279577.794,24.902,22.461,37.598,33.691,122.559
1532279577.798,22.949,20.508,40.527,31.738,-190.430
1532279577.802,27.832,18.066,40.039,38.086,-109.863
1532279577.806,34.668,21.484,36.133,41.504,226.562
1532279577.810,37.598,28.320,30.273,38.574,215.820
1532279577.813,34.668,32.715,27.832,29.785,-129.883
1532279577.817,34.180,29.785,30.762,28.809,-185.547
1532279577.821,28.809,23.926,34.180,37.109,165.039
1532279577.825,30.762,21.484,35.156,40.039,274.902
1532279577.829,40.039,23.926,30.762,38.574,-46.875
1532279577.833,36.133,25.391,30.762,39.062,-220.703
1532279577.837,28.320,23.438,31.250,38.574,33.203
1532279577.841,35.645,23.926,31.250,40.039,246.582
1532279577.845,39.062,22.461,33.691,39.551,40.039
1532279577.849,30.273,20.020,37.109,37.598,-216.309
1532279577.852,30.273,20.020,38.086,40.039,-64.941
1532279577.856,39.062,20.996,37.598,40.527,215.820
1532279577.860,45.410,20.996,34.180,37.598,138.184
1532279577.864,44.434,27.344,31.738,32.227,-149.902
1532279577.868,41.016,32.227,30.762,37.109,-112.793
1532279577.872,37.109,26.855,34.668,39.062,187.988
1532279577.876,25.879,22.461,38.574,28.809,193.848
1532279577.880,23.926,23.438,39.551,28.320,-93.262
1532279577.884,31.738,23.438,37.598,35.645,-176.270
1532279577.888,35.156,22.461,34.668,40.527,109.375
1532279577.892,37.109,20.020,36.621,47.363,226.562
1532279577.895,35.156,19.043,39.062,43.945,-26.367
1532279577.899,34.668,24.902,32.715,33.691,-171.875
1532279577.903,38.574,30.273,26.367,34.668,48.828
1532279577.907,36.621,29.297,27.832,36.133,266.602
1532279577.911,33.691,26.855,35.156,29.785,72.266
1532279577.915,37.109,25.879,37.109,29.297,-192.871
1532279577.919,33.691,22.949,33.691,34.668,-77.148
1532279577.923,36.133,21.973,31.738,38.086,229.980
1532279577.927,41.992,27.344,24.902,35.156,173.828
1532279577.931,39.062,33.203,20.020,32.227,-153.809
1532279577.934,33.203,29.785,23.926,33.691,-159.668
1532279577.938,25.391,23.438,30.762,31.738,141.113
1532279577.942,32.227,24.414,30.762,30.762,185.059
1532279577.946,38.574,25.879,27.832,33.203,-100.586
1532279577.950,37.598,25.391,28.320,37.109,-183.594
1532279577.954,35.645,27.344,25.879,30.762,109.863
1532279577.958,22.949,26.367,22.949,23.926,281.250
1532279577.962,25.391,27.832,22.461,26.855,3.418
1532279577.966,34.180,32.715,20.508,26.367,-218.262
1532279577.970,41.992,31.250,20.020,29.785,-16.113
1532279577.974,43.945,25.391,24.902,30.273,247.559
1532279577.977,37.109,22.461,29.785,24.902,107.422
1532279577.981,37.598,24.414,31.250,25.391,-177.246
1532279577.985,41.504,24.414,30.762,32.227,-70.801
1532279577.989,46.875,21.973,30.273,40.527,208.008
1532279577.993,41.992,27.344,25.879,33.691,148.438
1532279577.997,31.250,33.203,23.926,27.344,-159.180
1532279578.001,24.902,28.320,25.879,34.668,-159.180
1532279578.005,25.879,23.926,27.832,44.434,160.645
1532279578.009,33.691,22.949,32.227,49.316,237.305
1532279578.013,37.109,24.902,31.738,41.504,-55.664
1532279578.017,40.527,30.762,24.902,37.598,-199.707
1532279578.020,46.387,35.156,21.973,46.875,79.590
1532279578.024,46.387,35.156,21.484,48.340,254.395
1532279578.028,45.410,31.738,25.391,45.898,17.578
1532279578.032,46.875,28.809,29.297,44.434,-200.195
1532279578.036,40.527,27.344,27.832,41.992,-23.438
1532279578.040,36.621,26.367,25.879,39.062,247.559
1532279578.044,41.016,27.344,21.973,36.133,134.277
1532279578.048,44.922,31.250,20.508,36.621,-161.133
1532279578.052,40.039,29.785,23.926,25.879,-120.605
1532279578.056,29.297,24.902,27.832,22.949,195.312
1532279578.059,27.344,23.926,28.320,29.785,191.406
1532279578.063,37.598,28.320,25.391,30.762,-122.070
1532279578.067,42.480,30.273,22.949,38.086,-164.551
1532279578.071,41.504,27.832,24.414,37.109,106.934
1532279578.075,33.691,23.926,26.367,28.809,226.562
1532279578.079,29.785,21.973,28.809,30.762,-39.062
1532279578.083,33.691,23.926,22.949,31.738,-241.211
1532279578.087,39.551,27.344,19.531,33.691,28.320
1532279578.091,41.504,30.273,21.484,30.762,240.723
1532279578.095,33.203,29.297,24.902,22.949,9.766
1532279578.099,29.297,24.414,28.320,26.855,-236.816
1532279578.102,27.832,20.996,27.832,31.738,-61.523
1532279578.106,31.738,23.438,28.320,36.133,233.398
1532279578.110,33.203,26.855,26.855,32.227,131.836
1532279578.114,32.715,31.250,21.973,23.926,-176.270
1532279578.118,38.574,34.668,19.531,29.785,-132.324
1532279578.122,32.227,31.250,20.020,31.738,175.781
1532279578.126,25.391,25.879,25.879,28.809,198.242
1532279578.130,29.785,28.320,29.785,26.855,-104.004
1532279578.134,33.203,28.320,28.809,27.344,-215.332
1532279578.138,37.598,25.879,31.738,41.016,86.426
1532279578.141,42.480,27.832,29.785,41.992,275.391
1532279578.145,39.551,31.738,23.438,29.297,3.906
1532279578.149,36.133,33.203,20.996,26.855,-221.680
1532279578.153,27.832,29.297,24.902,30.762,1.465
1532279578.157,21.973,23.926,30.762,34.180,250.488
1532279578.161,27.832,24.414,32.715,36.621,81.543
1532279578.165,33.203,26.855,30.762,34.668,-183.594
1532279578.169,32.715,28.320,26.855,38.086,-56.152
1532279578.173,33.203,30.762,26.367,40.527,200.195
1532279578.177,37.109,26.855,30.273,38.574,134.766
1532279578.181,41.992,23.926,31.738,42.480,-139.160
1532279578.184,41.504,27.832,26.855,41.016,-151.367
1532279578.188,43.457,28.320,24.902,41.016,170.898
1532279578.192,45.410,27.344,24.902,43.945,236.328
1532279578.196,41.016,29.785,22.461,36.621,-51.270
1532279578.200,41.016,30.273,24.414,36.621,-165.527
1532279578.204,46.387,28.809,24.902,46.387,90.820
1532279578.208,44.434,29.297,21.484,41.504,247.559
1532279578.212,39.551,28.320,22.949,28.320,-8.789
1532279578.216,39.062,29.785,25.879,28.809,-211.914
1532279578.220,40.039,30.273,23.926,36.621,12.207
1532279578.224,40.039,26.367,25.391,36.621,263.672
1532279578.227,36.133,26.855,25.879,35.156,109.863
1532279578.231,39.062,25.879,23.926,30.273,-173.340
1532279578.235,40.039,27.832,22.461,23.926,-103.027
1532279578.239,35.156,30.273,23.926,33.203,207.031
1532279578.243,37.109,28.809,26.367,39.551,177.734
1532279578.247,37.598,30.273,26.367,34.180,-127.441
1532279578.251,41.992,30.762,23.926,35.645,-159.180
1532279578.255,44.922,30.762,22.949,38.086,148.438
1532279578.259,38.574,30.762,25.879,33.203,245.117
1532279578.263,35.156,30.762,26.367,29.297,-63.965
1532279578.266,38.574,30.762,25.391,33.691,-211.914
1532279578.270,39.062,25.879,25.879,40.527,28.320
1532279578.274,36.133,22.461,28.320,39.062,217.285
1532279578.278,35.156,24.902,29.785,37.598,46.875
1532279578.282,40.527,28.320,27.344,38.574,-173.828
1532279578.286,44.922,30.273,25.879,45.898,-18.066
1532279578.290,39.062,28.809,26.855,45.898,244.629
1532279578.294,39.551,27.344,28.320,41.992,122.070
1532279578.298,47.852,28.809,26.855,40.527,-166.992
1532279578.302,48.828,29.785,26.367,44.922,-93.750
1532279578.306,46.387,30.273,25.879,50.781,198.730
1532279578.309,40.527,27.344,26.855,46.387,199.219
1532279578.313,42.969,26.855,28.809,47.852,-106.445
1532279578.317,46.875,28.809,29.297,52.734,-162.598
1532279578.321,40.527,29.297,27.344,50.293,126.953
1532279578.325,40.039,30.273,26.855,45.898,244.629
1532279578.329,39.062,28.320,26.855,41.504,-8.789
1532279578.333,39.062,26.855,30.762,37.598,-213.379
1532279578.337,41.504,25.879,28.320,42.480,10.254
1532279578.341,43.457,26.367,21.973,44.922,256.836
1532279578.345,42.480,26.855,23.438,43.945,59.082
1532279578.349,45.410,27.344,26.367,45.898,-190.918
1532279578.352,47.363,26.855,29.785,50.781,-59.082
1532279578.356,43.945,26.367,29.785,51.270,217.285
1532279578.360,44.922,27.344,32.227,51.270,151.367
1532279578.364,44.434,28.809,30.762,49.316,-158.691
1532279578.368,48.828,31.738,25.391,49.805,-130.859
1532279578.372,50.781,33.691,23.926,45.898,157.715
1532279578.376,41.016,33.203,25.391,35.156,179.688
1532279578.380,33.691,29.785,26.855,35.645,-93.262
1532279578.384,33.691,27.832,24.902,37.598,-170.410
1532279578.388,40.039,30.273,21.973,41.504,118.164
1532279578.391,40.527,31.250,20.020,35.156,254.395
1532279578.395,34.668,30.762,23.438,25.391,14.648
1532279578.399,32.227,30.273,25.879,27.344,-176.270
1532279578.403,37.598,28.809,24.902,36.621,19.531
1532279578.407,41.016,28.320,26.855,43.457,263.672
1532279578.411,42.480,27.832,28.809,37.598,87.891
1532279578.415,41.016,27.344,28.809,31.250,-205.078
1532279578.419,42.480,29.785,24.414,33.203,-69.336
1532279578.423,41.016,32.715,21.484,31.738,225.098
1532279578.427,30.273,31.738,22.461,27.344,163.086
1532279578.431,27.832,29.297,22.949,23.926,-145.508
1532279578.434,29.785,27.344,23.926,26.855,-147.461
1532279578.438,32.715,24.414,25.879,31.250,172.363
1532279578.442,30.762,24.414,26.367,26.367,206.543
1532279578.446,30.273,21.973,26.367,23.926,-64.453
1532279578.450,41.504,19.531,27.344,24.902,-175.781
1532279578.454,40.039,21.484,28.809,26.855,74.219
1532279578.458,37.598,24.414,24.414,27.832,245.117
1532279578.462,40.527,23.926,23.438,30.762,-13.184
1532279578.466,39.551,21.484,23.438,39.062,-220.703
1532279578.470,42.969,20.996,22.949,42.969,4.395
1532279578.473,52.734,22.949,23.926,44.434,245.117
1532279578.477,66.895,30.762,15.137,54.688,116.211
1532279578.481,67.871,32.715,8.789,48.828,-139.648
1532279578.485,56.152,29.785,14.160,41.992,-69.336
1532279578.489,42.480,27.832,18.066,49.805,203.125
1532279578.493,45.898,25.391,16.602,41.992,169.922
1532279578.497,51.758,28.809,18.555,37.109,-106.934
1532279578.501,49.316,28.809,20.020,43.945,-153.809
1532279578.505,49.316,27.832,19.043,44.922,117.188
1532279578.509,39.551,29.785,18.555,40.039,227.051
1532279578.513,36.621,32.227,19.531,24.902,-71.289
1532279578.516,44.922,35.156,19.043,17.578,-240.723
1532279578.520,49.805,32.227,18.066,24.902,51.270
1532279578.524,49.316,30.273,19.531,24.414,265.625
1532279578.528,44.922,30.273,19.043,20.996,53.223
1532279578.532,39.062,29.785,18.555,23.926,-172.363
1532279578.536,38.574,29.297,18.066,25.879,5.371
1532279578.540,41.016,26.367,18.066,30.762,253.906
1532279578.544,42.480,27.832,21.484,29.785,132.812
1532279578.548,41.992,29.785,24.902,33.203,-137.207
1532279578.552,42.969,30.273,22.949,34.180,-117.188
1532279578.556,38.574,30.273,18.555,32.715,149.414
1532279578.559,37.109,30.273,18.555,31.738,188.965
1532279578.563,30.273,30.273,20.508,24.902,-72.754
1532279578.567,28.809,28.320,21.484,26.367,-150.879
1532279578.571,36.621,27.832,21.973,29.297,119.629
1532279578.575,35.156,29.297,21.484,26.367,250.977
1532279578.579,41.016,30.762,21.973,24.902,-19.043
1532279578.583,42.969,28.809,21.973,27.832,-200.195
1532279578.587,35.645,27.344,21.973,29.785,1.953
1532279578.591,38.086,27.832,21.973,24.414,218.262
1532279578.595,41.016,30.273,21.973,22.461,79.590
1532279578.598,37.598,26.855,21.484,25.391,-187.500
1532279578.602,36.621,25.879,20.020,31.250,-67.383
1532279578.606,31.738,28.320,19.531,35.645,241.699
1532279578.610,34.180,28.320,21.973,35.645,155.762
1532279578.614,48.340,30.273,20.508,36.621,-158.203
1532279578.618,52.734,31.738,12.695,38.086,-113.770
1532279578.622,45.898,32.227,13.672,39.062,196.289
1532279578.626,40.527,31.738,16.602,37.598,229.980
1532279578.630,39.551,32.715,16.602,38.574,-66.895
1532279578.634,43.945,32.227,19.531,39.062,-148.926
1532279578.638,38.574,28.320,20.996,43.457,117.188
1532279578.641,39.062,26.855,20.996,50.293,262.207
1532279578.645,44.434,25.879,23.438,51.758,25.391
1532279578.649,44.922,24.902,22.949,51.270,-188.477
1532279578.653,44.922,25.391,18.066,47.363,-13.184
1532279578.657,46.875,27.344,19.043,41.992,205.078
1532279578.661,45.898,27.344,20.508,45.410,83.984
1532279578.665,44.434,25.879,20.020,44.922,-160.645
1532279578.669,47.363,24.902,19.531,42.969,-65.430
1532279578.673,48.340,25.391,18.066,40.527,216.309
1532279578.677,45.898,24.902,18.066,41.016,164.551
1532279578.681,45.410,24.414,19.531,42.969,-133.301
1532279578.684,45.410,26.855,20.508,47.852,-125.488
1532279578.688,44.922,26.367,20.996,50.293,160.156
1532279578.692,44.434,24.902,22.461,50.293,226.562
1532279578.696,40.527,25.391,22.461,53.223,-76.172
1532279578.700,40.039,25.391,20.508,47.363,-208.984
1532279578.704,43.945,27.344,20.020,45.410,74.707
1532279578.708,39.551,29.297,22.461,44.922,260.742
1532279578.712,35.156,31.250,24.414,38.574,18.555
1532279578.716,35.645,32.227,24.414,36.133,-178.711
1532279578.720,36.133,30.762,26.855,36.621,24.902
1532279578.723,36.133,29.785,26.367,32.715,231.934
1532279578.727,37.598,31.738,24.902,32.227,99.121
1532279578.731,46.875,32.227,25.879,34.668,-142.090
1532279578.735,48.340,31.738,25.391,29.785,-96.191
1532279578.739,43.457,31.738,23.926,27.832,174.316
1532279578.743,41.504,32.715,24.414,31.250,177.734
1532279578.747,41.504,33.203,24.414,37.598,-105.957
1532279578.751,41.016,32.715,24.414,48.828,-160.156
1532279578.755,40.527,32.227,23.438,58.105,125.000
1532279578.759,41.504,31.250,25.391,59.082,237.793
1532279578.763,34.668,33.691,27.832,49.316,-21.484
1532279578.766,33.203,34.180,28.320,51.270,-164.551
1532279578.770,35.645,30.762,25.879,48.340,58.594
1532279578.774,31.250,31.250,21.973,35.645,232.422
1532279578.778,37.109,35.156,24.902,36.133,39.551
1532279578.782,34.180,35.645,29.785,35.156,-204.102
1532279578.786,27.832,30.273,32.715,38.086,-36.621
1532279578.790,30.762,30.762,31.738,39.062,247.559
1532279578.794,35.156,39.062,27.344,30.273,99.609
1532279578.798,31.738,41.016,25.879,29.297,-186.035
1532279578.802,25.879,38.574,26.855,32.227,-109.375
1532279578.805,24.414,36.621,28.809,35.645,166.016
1532279578.809,23.438,35.645,26.855,34.180,181.641
1532279578.813,26.855,36.133,26.855,32.227,-87.891
1532279578.817,31.250,32.715,29.785,36.133,-143.555
1532279578.821,33.203,30.273,32.227,38.086,119.141
1532279578.825,35.156,29.297,32.715,36.621,237.305
1532279578.829,36.133,29.785,31.250,31.250,7.324
1532279578.833,32.715,28.809,28.809,28.809,-192.871
1532279578.837,28.320,25.391,27.344,33.691,10.254
1532279578.841,32.227,27.344,25.879,36.621,245.605
1532279578.845,37.109,31.250,26.367,33.691,74.219
1532279578.848,42.480,31.738,27.344,34.668,-177.734
1532279578.852,42.480,30.273,27.344,34.180,-80.566
1532279578.856,37.598,28.809,28.809,34.668,163.086
1532279578.860,42.480,27.832,29.297,38.574,132.324
1532279578.864,41.504,26.367,29.785,37.109,-126.465
1532279578.868,38.574,24.414,31.738,41.992,-121.094
1532279578.872,43.945,22.949,31.738,43.457,148.926
1532279578.876,47.363,23.926,29.785,41.016,169.922
1532279578.880,46.387,26.855,28.320,41.016,-86.426
1532279578.884,43.457,25.391,29.297,40.527,-170.410
1532279578.888,41.016,25.879,32.227,40.039,102.539
1532279578.891,43.945,28.809,33.203,35.645,229.492
1532279578.895,42.480,31.738,31.738,25.391,-40.527
1532279578.899,33.691,30.273,30.273,27.344,-186.523
1532279578.903,28.320,29.297,31.250,35.156,6.348
1532279578.907,25.391,29.785,31.250,32.227,227.539
1532279578.911,28.809,31.250,32.715,28.320,104.980
1532279578.915,28.320,30.273,30.273,25.879,-163.574
1532279578.919,25.391,27.832,30.273,29.297,-93.262
1532279578.923,28.809,27.344,34.668,34.180,208.984
1532279578.927,33.203,29.297,37.109,31.738,186.523
1532279578.930,31.738,31.250,39.551,28.320,-121.582
1532279578.934,25.879,31.738,37.598,23.438,-177.246
1532279578.938,27.832,29.785,39.551,26.855,127.441
1532279578.942,34.180,25.879,41.016,32.715,237.793
1532279578.946,32.715,30.273,36.133,28.809,-27.832
1532279578.950,27.832,37.598,32.227,24.902,-167.969
1532279578.954,27.832,39.551,31.250,25.391,58.594
1532279578.958,27.344,40.527,34.180,26.855,249.512
1532279578.962,21.484,40.527,33.203,17.578,44.434
1532279578.966,14.648,38.086,36.133,11.230,-175.781
1532279578.970,14.160,36.621,41.504,10.742,-13.184
1532279578.973,15.137,36.133,41.504,5.371,204.590
1532279578.977,16.113,37.109,42.969,11.719,80.566
1532279578.981,19.531,36.621,45.410,19.531,-175.293
1532279578.985,15.625,34.668,45.898,19.043,-80.566
1532279578.989,20.996,33.203,43.457,18.066,206.055
1532279578.993,32.715,37.598,37.598,16.113,180.664
1532279578.997,28.320,42.480,36.621,18.555,-96.191
1532279579.001,16.602,39.062,39.551,15.137,-158.691
1532279579.005,13.184,36.621,39.551,16.602,119.629
1532279579.009,18.066,31.738,40.527,23.438,245.605
1532279579.012,21.484,29.297,43.457,23.438,-13.672
1532279579.016,25.879,31.250,41.016,32.715,-201.172
1532279579.020,28.809,31.738,37.109,35.156,29.297
1532279579.024,33.691,33.203,37.598,34.180,222.168
1532279579.028,35.645,34.668,35.156,33.203,47.363
1532279579.032,34.180,33.203,33.691,25.391,-190.918
1532279579.036,39.551,32.715,34.668,33.203,-84.473
1532279579.040,42.480,32.227,30.762,39.551,209.473
1532279579.044,40.527,31.738,30.273,33.691,127.930
1532279579.048,45.898,32.715,31.738,41.016,-138.184
1532279579.052,51.758,32.227,29.785,46.387,-103.516
1532279579.055,49.805,28.809,33.691,38.086,179.199
1532279579.059,48.340,29.297,35.645,41.016,200.195
1532279579.063,48.828,30.762,33.203,43.457,-98.633
1532279579.067,45.410,28.320,33.203,41.992,-155.273
1532279579.071,45.898,28.809,31.738,44.922,92.773
1532279579.075,45.410,30.273,30.273,44.434,192.383
1532279579.079,44.922,31.250,33.691,44.922,-17.090
1532279579.083,49.316,31.250,35.645,46.875,-163.574
1532279579.087,47.363,27.832,36.133,42.480,32.227
1532279579.091,41.016,26.855,38.574,45.410,219.238
1532279579.095,37.109,26.367,39.551,45.898,52.246
1532279579.098,44.922,28.809,33.203,42.969,-204.590
1532279579.102,46.387,26.855,34.180,36.621,-94.727
1532279579.106,36.621,23.926,38.086,50.293,213.379
1532279579.110,32.715,23.438,44.434,50.781,160.156
1532279579.114,43.457,27.344,39.062,12.695,-158.691
1532279579.118,53.223,34.180,25.391,28.320,-148.438
1532279579.122,54.688,33.203,25.879,52.734,134.277
1532279579.126,49.805,33.203,25.879,50.293,190.430
1532279579.130,48.828,31.738,27.832,46.387,-48.340
1532279579.134,48.828,28.809,30.273,44.434,-171.387
1532279579.137,40.039,26.367,30.273,43.945,58.105
1532279579.141,34.180,25.879,35.645,37.109,227.051
1532279579.145,35.156,28.809,31.738,31.250,20.020
1532279579.149,41.992,28.809,24.414,42.969,-182.617
1532279579.153,43.457,28.320,25.391,47.852,-10.254
1532279579.157,41.504,28.809,22.949,35.645,221.680
1532279579.161,43.457,30.273,21.973,31.250,97.656
1532279579.165,43.945,30.762,24.902,31.250,-175.293
1532279579.169,38.574,28.320,22.461,34.668,-116.211
1532279579.173,31.738,27.832,19.043,32.715,156.738
1532279579.177,29.297,26.367,20.020,22.461,129.883
1532279579.180,29.297,23.926,19.043,20.020,-135.742
1532279579.184,27.344,24.414,16.113,17.090,-134.277
1532279579.188,28.809,25.391,14.160,17.578,153.320
1532279579.192,32.227,26.367,13.184,22.461,220.215
1532279579.196,33.691,26.367,12.207,17.578,-25.391
1532279579.200,33.691,27.344,10.742,17.090,-144.043
1532279579.204,38.086,28.320,10.742,24.414,65.430
1532279579.208,36.621,24.902,12.695,24.902,234.375
1532279579.212,34.668,19.531,16.113,27.344,19.043
1532279579.216,36.621,21.484,14.160,27.832,-201.660
1532279579.220,35.645,30.273,9.277,28.809,-39.062
1532279579.223,31.738,35.156,5.859,28.809,214.844
1532279579.227,28.320,32.227,4.395,30.762,110.352
1532279579.231,30.762,29.785,7.812,35.645,-179.688
1532279579.235,27.344,28.320,9.766,36.133,-110.352
1532279579.239,25.391,26.855,8.301,37.109,189.453
1532279579.243,25.879,26.367,11.230,40.527,206.543
1532279579.247,32.227,27.344,14.160,44.922,-80.566
1532279579.251,40.527,30.273,8.789,41.504,-155.273
1532279579.255,37.598,31.250,8.301,33.691,106.445
1532279579.259,35.156,30.762,11.719,38.574,218.262
1532279579.262,34.180,31.738,12.207,33.203,-15.137
1532279579.266,31.738,30.762,12.695,27.832,-183.594
1532279579.270,27.832,28.320,11.230,28.809,22.461
1532279579.274,25.879,28.809,10.742,30.273,234.375
1532279579.278,24.414,29.297,10.254,29.785,63.965
1532279579.282,20.508,27.832,9.766,20.020,-167.480
1532279579.286,24.414,25.391,9.766,18.555,-49.316
1532279579.290,22.949,23.926,11.230,25.391,184.082
1532279579.294,21.484,25.391,11.230,23.438,107.910
1532279579.298,30.762,24.902,11.230,18.555,-161.621
1532279579.302,32.227,24.902,10.742,23.926,-125.488
1532279579.305,25.391,27.344,8.301,23.926,164.062
1532279579.309,28.320,27.344,10.254,25.879,202.637
1532279579.313,36.621,29.297,15.625,26.367,-86.426
1532279579.317,29.297,27.344,17.090,28.809,-178.223
1532279579.321,28.809,25.879,15.625,28.320,81.543
1532279579.325,33.203,26.367,16.602,29.785,233.887
1532279579.329,30.273,24.414,20.020,38.086,23.926
1532279579.333,28.320,25.879,20.996,29.785,-169.434
1532279579.337,23.438,28.320,16.602,25.879,29.297
1532279579.341,21.973,28.320,10.742,25.391,265.137
1532279579.344,25.879,30.273,10.742,26.855,100.586
1532279579.348,29.297,29.297,14.160,32.715,-169.922
1532279579.352,35.645,26.855,15.137,39.551,-116.699
1532279579.356,35.645,26.367,16.113,34.668,134.277
1532279579.360,28.809,22.949,17.090,37.598,144.043
1532279579.364,32.715,20.508,18.066,45.410,-115.723
1532279579.368,36.133,20.996,15.625,45.898,-132.324
1532279579.372,36.133,24.902,14.160,44.434,145.508
1532279579.376,39.062,24.902,18.066,42.969,217.285
1532279579.380,34.668,23.438,16.602,37.598,-52.734
1532279579.384,37.109,21.484,16.602,43.457,-171.387
1532279579.387,41.504,18.066,19.531,51.270,60.059
1532279579.391,38.086,20.020,19.531,37.109,213.379
1532279579.395,33.691,20.996,18.555,34.668,15.137
1532279579.399,25.391,17.578,18.555,33.203,-182.129
1532279579.403,29.297,17.090,17.090,39.062,-7.812
1532279579.407,34.668,18.555,18.555,48.340,233.398
1532279579.411,33.691,23.926,20.508,43.457,72.754
1532279579.415,35.645,25.879,20.020,38.574,-226.562
1532279579.419,40.527,23.926,21.484,48.828,-124.023
1532279579.423,36.621,21.973,20.020,48.340,170.410
1532279579.427,31.250,18.066,20.508,44.434,147.461
1532279579.430,34.180,20.020,24.414,47.852,-147.461
1532279579.434,38.086,25.879,23.926,47.852,-168.945
1532279579.438,40.527,28.809,22.949,47.852,118.652
1532279579.442,35.645,27.344,24.902,45.898,229.004
1532279579.446,40.039,30.273,25.879,47.363,-9.277
1532279579.450,38.574,31.738,23.926,46.387,-167.969
1532279579.454,30.273,29.297,23.926,46.387,16.113
1532279579.458,35.645,30.273,25.391,54.199,202.148
1532279579.462,34.180,32.227,22.461,44.434,39.551
1532279579.466,27.344,30.762,20.996,25.391,-191.895
1532279579.469,30.762,31.250,20.996,27.832,-42.480
1532279579.473,41.504,34.668,22.949,36.133,224.121
1532279579.477,41.016,36.133,23.926,38.574,133.789
1532279579.481,35.645,38.086,22.461,44.434,-128.418
1532279579.485,28.809,41.016,23.438,39.551,-86.426
1532279579.489,22.461,42.480,24.902,39.551,177.246
1532279579.493,16.113,40.527,26.367,44.434,155.273
1532279579.497,8.789,41.504,29.297,37.598,-116.699
1532279579.501,16.113,41.016,30.762,42.480,-153.320
1532279579.505,15.137,34.180,33.203,49.316,111.816
1532279579.509,14.648,35.156,36.621,48.828,216.797
1532279579.512,26.855,40.527,34.668,44.434,-44.922
1532279579.516,29.297,41.992,29.297,29.785,-209.473
1532279579.520,24.902,41.992,27.344,30.762,40.527
1532279579.524,26.367,41.016,27.832,39.062,241.211
1532279579.528,27.832,43.457,26.367,40.527,75.195
1532279579.532,22.461,44.922,26.855,29.297,-165.039
1532279579.536,26.855,44.922,28.809,30.273,-78.613
1532279579.540,30.762,44.922,27.344,34.668,203.613
1532279579.544,20.996,43.945,25.391,22.461,151.855
1532279579.548,19.043,45.410,27.344,20.020,-125.488
1532279579.551,28.809,46.387,32.227,34.668,-123.535
1532279579.555,37.598,41.992,35.156,49.316,148.438
1532279579.559,34.668,38.574,33.203,37.109,181.641
1532279579.563,26.855,39.551,31.250,20.020,-57.129
1532279579.567,24.414,42.480,31.738,28.320,-125.488
1532279579.571,25.879,43.457,28.809,25.391,101.562
1532279579.575,24.414,45.410,25.879,21.973,247.559
1532279579.579,34.180,46.875,29.297,34.668,54.688
1532279579.583,36.133,43.457,30.762,33.691,-125.488
1532279579.587,33.691,41.992,27.832,29.785,48.828
1532279579.591,39.062,44.922,24.902,41.016,270.508
1532279579.594,40.039,46.875,23.926,37.598,109.375
1532279579.598,34.668,42.480,26.855,28.809,-130.859
1532279579.602,28.320,41.016,24.902,30.273,-33.203
1532279579.606,32.227,41.992,24.902,32.227,225.098
1532279579.610,32.715,35.156,29.297,40.039,174.316
1532279579.614,33.691,35.156,28.320,44.434,-108.398
1532279579.618,38.574,38.574,28.320,47.363,-108.398
1532279579.622,31.250,36.133,26.855,35.156,168.457
1532279579.626,36.621,39.551,21.973,25.391,237.793
1532279579.630,39.062,39.551,22.461,25.391,-20.020
1532279579.634,30.273,37.598,22.461,25.391,-166.504
1532279579.637,29.785,36.621,22.461,32.227,84.473
1532279579.641,36.133,37.109,23.438,36.133,254.883
1532279579.645,42.969,36.133,29.785,46.875,43.945
1532279579.649,48.828,33.691,34.668,50.293,-146.484
1532279579.653,39.062,32.227,26.855,38.086,6.348
1532279579.657,29.785,29.785,24.414,30.762,252.441
1532279579.661,39.062,32.227,27.344,33.691,143.066
1532279579.665,44.922,33.691,27.344,29.297,-137.695
1532279579.669,41.016,33.203,27.344,35.156,-90.332
1532279579.673,39.551,34.668,25.879,44.922,160.156
1532279579.676,30.273,32.227,21.484,25.391,157.227
1532279579.680,29.785,32.715,22.949,23.438,-91.309
1532279579.684,49.316,34.180,29.785,48.340,-122.559
1532279579.688,40.527,32.227,31.250,45.410,151.855
1532279579.692,14.648,28.809,26.367,19.531,210.938
1532279579.696,21.973,29.785,26.855,16.602,-52.246
1532279579.700,39.551,30.273,28.320,32.715,-166.016
1532279579.704,27.832,26.855,28.320,24.902,54.199
1532279579.708,20.996,26.855,27.344,23.926,275.879
1532279579.712,29.297,29.297,26.367,26.367,68.359
1532279579.716,35.645,27.832,26.855,25.391,-174.805
1532279579.719,35.645,24.902,26.855,38.574,-25.391
1532279579.723,33.203,25.391,26.367,40.039,214.844
1532279579.727,36.621,26.367,31.250,40.039,166.504
1532279579.731,41.504,29.785,34.180,41.504,-134.766
1532279579.735,45.898,32.715,28.320,35.156,-162.109
1532279579.739,44.434,37.109,21.484,40.527,168.457
1532279579.743,45.898,40.527,20.508,39.551,215.820
1532279579.747,44.434,41.504,18.555,36.133,-61.035
1532279579.751,37.598,42.969,16.602,39.551,-152.832
1532279579.755,39.062,43.457,19.531,38.086,79.590
1532279579.759,48.828,43.945,21.484,38.574,233.398
1532279579.762,37.109,37.109,23.438,29.785,16.113
1532279579.766,18.066,32.715,24.902,21.973,-175.781
1532279579.770,27.832,33.691,24.414,24.902,7.812
1532279579.774,39.551,34.180,23.926,35.156,216.309
1532279579.778,33.691,36.621,20.020,35.156,71.289
1532279579.782,29.297,39.551,17.578,20.020,-176.270
1532279579.786,32.227,39.551,18.066,21.973,-69.336
1532279579.790,30.273,34.180,19.043,34.668,204.102
1532279579.794,29.297,27.832,20.508,35.156,155.273
1532279579.798,33.691,28.809,25.391,41.016,-117.188
1532279579.801,25.391,28.320,24.414,33.203,-118.652
1532279579.805,20.996,27.832,20.996,29.785,144.043
1532279579.809,35.645,28.320,21.973,42.480,205.566
1532279579.813,41.016,27.832,22.949,44.434,-62.500
1532279579.817,35.645,26.855,25.391,43.457,-151.855
1532279579.821,24.902,22.461,25.391,36.133,70.312
1532279579.825,17.090,20.996,22.461,35.156,195.801
1532279579.829,27.832,28.809,18.555,40.039,32.715
1532279579.833,34.180,33.203,16.602,29.297,-167.969
1532279579.837,35.645,33.203,19.531,32.227,-27.832
1532279579.841,28.809,30.273,21.973,37.109,231.934
1532279579.844,22.949,28.320,21.484,30.762,109.863
1532279579.848,31.738,28.809,19.531,34.180,-162.109
1532279579.852,39.551,28.320,18.555,43.457,-108.398
1532279579.856,31.250,28.320,17.578,31.250,153.809
1532279579.860,30.762,31.250,18.555,24.902,151.855
1532279579.864,34.668,33.691,18.066,19.531,-113.281
1532279579.868,24.414,29.785,17.090,14.160,-148.926
1532279579.872,21.484,27.344,20.508,23.926,104.492
1532279579.876,35.645,28.320,23.438,28.809,187.012
1532279579.880,36.621,26.855,24.414,31.250,-53.223
1532279579.883,25.391,24.414,24.902,30.273,-179.688
1532279579.887,31.738,25.879,22.461,36.133,42.480
1532279579.891,22.949,27.832,18.066,27.832,242.676
1532279579.895,12.695,29.297,18.555,24.414,57.129
1532279579.899,17.578,26.855,20.508,28.809,-177.246
1532279579.903,10.742,23.926,17.578,16.602,-12.695
1532279579.907,14.160,22.949,18.555,21.484,220.703
1532279579.911,32.715,24.902,20.996,31.250,94.727
1532279579.915,39.062,31.250,14.160,21.484,-138.672
1532279579.919,30.762,33.691,11.719,16.602,-91.797
1532279579.923,20.508,29.297,15.625,16.602,165.527
1532279579.926,26.855,29.785,18.555,18.066,207.520
1532279579.930,32.227,32.227,17.578,20.996,-78.613
1532279579.934,34.668,31.250,19.531,28.809,-145.996
1532279579.938,34.180,31.250,20.996,29.785,113.281
1532279579.942,33.203,31.250,17.578,28.320,233.398
1532279579.946,32.227,30.762,19.043,32.227,-0.488
1532279579.950,21.484,30.762,18.555,20.508,-190.918
1532279579.954,28.320,30.762,20.508,24.902,21.973
1532279579.958,39.062,32.227,20.996,40.039,228.516
1532279579.962,30.273,32.715,18.066,24.414,62.012
1532279579.966,29.785,32.227,19.043,13.184,-152.832
1532279579.969,34.668,32.715,21.484,21.973,-34.180
1532279579.973,28.809,32.715,21.484,21.973,201.660
1532279579.977,34.668,33.691,21.973,24.902,135.742
1532279579.981,33.691,31.738,24.414,31.738,-113.281
1532279579.985,33.203,30.273,27.344,43.457,-99.121
1532279579.989,32.715,31.250,25.879,43.945,170.410
1532279579.993,20.020,25.391,24.414,23.926,194.336
1532279579.997,20.996,25.391,25.391,21.484,-92.773
1532279580.001,36.133,29.785,26.367,43.945,-174.316
1532279580.005,36.133,29.297,22.949,38.086,88.379
1532279580.008,26.855,27.832,21.973,20.996,229.492
1532279580.012,35.156,31.738,25.391,22.949,0.977
1532279580.016,37.109,32.227,24.414,31.250,-183.105
1532279580.020,31.738,27.832,23.926,28.320,6.836
1532279580.024,32.227,26.367,23.926,27.832,219.238
1532279580.028,34.668,25.391,25.391,35.156,81.055
1532279580.032,45.898,28.809,29.297,41.504,-192.383
1532279580.036,48.828,27.344,26.855,36.621,-101.074
1532279580.040,41.992,25.879,23.438,27.832,218.750
1532279580.044,39.062,28.320,25.879,33.203,175.293
1532279580.048,34.180,30.273,24.414,31.738,-103.516
1532279580.051,32.715,32.715,18.066,16.602,-124.512
1532279580.055,36.621,34.180,16.113,16.602,130.371
1532279580.059,39.062,36.133,20.508,27.344,208.496
1532279580.063,31.250,32.715,24.414,21.484,-60.059
1532279580.067,23.926,27.344,25.391,18.066,-190.918
1532279580.071,34.180,27.832,27.344,35.645,52.246
1532279580.075,36.621,25.879,25.879,40.527,215.820
1532279580.079,31.738,25.391,23.926,23.926,4.395
1532279580.083,25.879,26.855,24.414,21.973,-177.734
1532279580.087,30.273,26.855,26.367,34.180,26.855
1532279580.091,38.574,25.879,32.715,47.363,257.812
1532279580.094,21.484,24.414,31.250,35.645,98.633
1532279580.098,25.879,24.414,29.297,27.832,-172.852
1532279580.102,44.922,22.461,32.227,51.270,-74.707
1532279580.106,40.039,24.414,29.785,58.105,197.266
1532279580.110,34.180,29.785,23.926,35.156,174.805
1532279580.114,32.715,32.715,23.438,27.344,-110.840
1532279580.118,35.645,30.762,27.832,34.668,-159.180
1532279580.122,39.551,30.273,26.855,38.574,107.422
1532279580.126,37.598,31.738,22.461,36.133,208.984
1532279580.130,44.922,35.156,22.461,36.621,-27.344
1532279580.133,40.527,34.180,24.902,28.320,-185.547
1532279580.137,29.297,29.785,27.344,27.344,50.293
1532279580.141,33.203,29.297,26.855,33.203,237.305
1532279580.145,38.086,29.297,30.273,39.062,45.410
1532279580.149,43.457,31.250,32.227,47.363,-169.922
1532279580.153,39.551,33.203,27.832,31.738,-47.852
1532279580.157,30.273,32.715,26.855,23.438,208.984
1532279580.161,32.227,32.715,28.320,34.668,152.344
1532279580.165,34.180,29.785,27.832,40.039,-107.422
1532279580.169,31.738,28.320,25.879,32.715,-85.449
1532279580.173,29.785,27.344,21.973,25.391,188.477
1532279580.176,35.156,27.344,24.414,32.227,195.801
1532279580.180,33.691,28.320,29.785,26.855,-94.727
1532279580.184,38.574,29.785,30.273,30.762,-143.555
1532279580.188,39.062,27.344,36.133,41.992,124.023
1532279580.192,35.156,26.855,35.645,35.645,215.820
1532279580.196,38.574,28.320,33.203,19.531,-38.086
1532279580.200,52.246,30.762,34.668,27.832,-174.805
1532279580.204,62.500,34.668,27.344,36.621,42.480
1532279580.208,53.223,35.645,22.461,27.832,239.746
1532279580.212,43.457,32.227,30.762,30.273,57.617
1532279580.215,40.039,29.785,33.691,36.133,-196.777
1532279580.219,37.598,33.203,23.926,28.320,-45.410
1532279580.223,38.574,37.598,18.066,31.250,227.051
1532279580.227,29.297,36.133,23.438,33.691,149.414
1532279580.231,21.973,34.180,28.320,25.879,-140.625
1532279580.235,23.926,33.691,27.832,34.668,-119.629
1532279580.239,21.973,26.367,28.809,42.480,149.414
1532279580.243,30.762,25.391,33.203,52.734,190.918
1532279580.247,43.457,29.297,35.156,52.734,-68.848
1532279580.251,43.457,27.344,34.668,51.270,-170.898
1532279580.255,41.016,27.344,34.180,49.316,59.570
1532279580.258,38.086,29.785,29.785,38.086,220.215
1532279580.262,31.738,32.227,30.273,34.180,6.348
1532279580.266,35.645,32.715,36.133,35.645,-182.617
1532279580.270,35.156,31.738,37.598,45.898,20.020
1532279580.274,36.621,34.180,38.574,55.664,229.980
1532279580.278,42.969,36.133,38.574,53.711,72.266
1532279580.282,44.922,36.133,35.156,43.457,-175.293
1532279580.286,48.828,35.645,32.715,46.387,-84.473
1532279580.290,47.852,38.574,30.762,51.758,202.637
1532279580.294,47.852,40.039,28.320,40.527,146.973
1532279580.298,38.574,36.133,32.227,33.203,-150.879
1532279580.301,25.879,32.227,34.668,31.250,-136.230
1532279580.305,32.227,30.273,35.156,40.527,166.992
1532279580.309,36.621,32.227,37.109,49.805,234.375
1532279580.313,36.133,33.691,33.691,39.062,-44.434
1532279580.317,32.227,30.273,35.156,39.551,-135.254
1532279580.321,25.391,27.832,37.598,36.621,113.281
1532279580.325,20.020,26.367,34.668,30.273,250.488
1532279580.329,24.902,26.367,36.133,36.133,25.391
1532279580.333,27.344,27.832,36.133,35.645,-189.453
1532279580.337,31.738,31.738,32.715,39.551,-44.922
1532279580.340,34.668,32.227,30.273,39.062,204.102
1532279580.344,29.785,30.273,34.180,42.480,103.027
1532279580.348,28.320,30.762,36.621,50.293,-145.020
1532279580.352,32.227,29.785,32.715,46.875,-81.543
1532279580.356,38.574,29.297,31.250,47.363,189.453
1532279580.360,40.527,29.785,33.691,52.246,200.195
1532279580.364,37.598,29.297,35.156,47.363,-94.727
1532279580.368,33.691,27.832,35.645,44.434,-125.488
1532279580.372,36.621,31.250,33.203,46.387,146.484
1532279580.376,43.945,33.203,32.227,54.688,201.660
1532279580.380,53.223,30.273,34.668,68.848,-23.926
1532279580.383,53.711,30.762,32.227,63.477,-156.738
1532279580.387,50.293,28.809,29.297,59.570,65.918
1532279580.391,34.668,26.367,29.297,46.875,238.770
1532279580.395,32.715,25.879,36.133,46.387,61.035
1532279580.399,41.504,25.391,36.133,57.129,-136.719
1532279580.403,37.598,26.367,32.227,46.875,-33.691
1532279580.407,36.133,26.367,36.133,51.270,194.336
1532279580.411,32.227,26.367,37.109,50.781,111.328
1532279580.415,34.180,30.762,33.203,49.805,-140.625
1532279580.419,39.551,33.203,28.809,52.734,-113.281
1532279580.422,41.504,31.738,30.762,49.805,150.391
1532279580.426,40.527,34.668,33.691,44.434,190.430
1532279580.430,39.551,38.574,33.203,45.410,-78.125
1532279580.434,37.109,38.086,34.180,40.527,-189.453
1532279580.438,36.133,34.668,34.180,37.109,62.500
1532279580.442,40.039,32.227,33.691,52.734,199.707
1532279580.446,36.621,30.273,36.133,52.734,-18.066
1532279580.450,38.574,28.809,36.621,50.293,-184.570
1532279580.454,50.781,24.902,39.062,61.035,4.395
1532279580.458,46.387,21.973,39.551,60.547,234.863
1532279580.462,43.457,28.320,32.227,53.711,83.008
1532279580.465,51.758,36.621,26.855,50.293,-158.203
1532279580.469,46.387,36.133,32.227,52.734,-50.781
1532279580.473,28.809,33.691,34.668,41.992,152.832
1532279580.477,25.879,32.227,31.738,30.762,90.332
1532279580.481,36.621,29.785,31.738,40.039,-127.441
1532279580.485,49.805,35.645,24.414,47.363,-107.910
1532279580.489,49.805,40.527,21.973,58.105,183.105
1532279580.493,40.039,35.645,27.832,55.664,225.098
1532279580.497,32.715,35.645,27.344,38.086,-75.684
1532279580.501,36.133,39.551,25.879,42.969,-171.387
1532279580.505,44.434,38.086,29.297,58.594,82.031
1532279580.508,36.133,34.180,30.762,56.152,225.098
1532279580.512,33.691,33.203,32.227,52.246,39.062
1532279580.516,41.016,38.086,33.691,54.688,-148.926
1532279580.520,40.039,39.062,30.273,51.758,17.090
1532279580.524,34.180,37.109,30.762,45.898,245.605
1532279580.528,27.832,35.156,31.738,43.457,112.305
1532279580.532,32.227,35.156,34.180,42.480,-160.156
1532279580.536,30.762,34.668,36.133,46.875,-120.117
1532279580.540,24.902,31.738,32.715,56.152,193.359
1532279580.544,28.809,31.250,32.715,55.176,212.402
1532279580.547,36.133,34.180,33.691,54.199,-80.078
1532279580.551,46.875,38.574,30.762,56.152,-133.301
1532279580.555,43.945,39.551,30.762,56.641,130.371
1532279580.559,30.762,40.039,33.691,50.293,209.473
1532279580.563,18.066,39.551,34.180,35.645,-61.523
1532279580.567,21.973,38.574,32.715,38.574,-188.477
1532279580.571,25.391,34.180,32.715,38.086,44.434
1532279580.575,25.879,31.738,33.203,32.227,242.188
1532279580.579,26.855,31.738,31.738,35.645,56.152
1532279580.583,28.809,35.156,30.273,34.180,-175.781
1532279580.587,36.621,42.480,28.809,32.715,-15.625
1532279580.590,29.297,43.945,27.832,34.180,216.309
1532279580.594,25.391,42.969,28.809,31.250,95.703
1532279580.598,31.738,42.969,32.715,36.133,-180.664
1532279580.602,27.832,39.551,36.133,42.969,-113.770
1532279580.606,23.926,37.598,36.621,43.457,203.613
1532279580.610,32.715,38.086,35.156,53.711,204.590
1532279580.614,34.668,36.133,33.203,52.734,-104.004
1532279580.618,26.855,32.227,33.691,40.527,-129.395
1532279580.622,18.555,26.367,36.133,40.527,130.371
1532279580.626,13.184,26.855,32.715,39.062,214.844
1532279580.630,21.484,34.180,29.785,37.598,-31.250
1532279580.633,22.949,32.715,28.809,32.227,-196.289
1532279580.637,30.273,30.762,28.809,44.434,36.621
1532279580.641,38.086,33.691,30.273,54.199,240.234
1532279580.645,16.602,33.203,27.832,33.691,77.148
1532279580.649,8.301,32.227,26.367,17.578,-165.039
1532279580.653,26.367,33.691,26.855,27.344,-36.133
1532279580.657,41.016,33.203,27.832,46.875,225.098
1532279580.661,33.691,35.645,30.273,39.551,142.578
1532279580.665,21.973,35.645,29.297,28.320,-126.953
1532279580.669,29.785,34.180,26.367,38.574,-97.168
1532279580.672,34.668,35.156,26.367,39.062,141.113
1532279580.676,29.785,36.133,28.809,29.785,178.223
1532279580.680,30.762,35.645,30.273,32.227,-64.453
1532279580.684,43.457,34.668,28.809,40.527,-134.277
1532279580.688,31.738,34.180,23.438,40.039,133.301
1532279580.692,19.531,32.715,21.484,36.133,247.070
1532279580.696,22.949,30.762,23.438,38.574,6.836
1532279580.700,23.926,28.320,23.926,39.062,-163.574
1532279580.704,23.926,27.344,24.414,37.109,18.555
1532279580.708,27.832,26.855,24.902,45.410,214.844
1532279580.712,29.785,26.367,23.926,37.109,46.875
1532279580.715,23.438,24.902,25.879,27.344,-208.984
1532279580.719,17.090,24.414,25.879,35.645,-90.332
1532279580.723,16.602,23.438,22.461,37.598,192.871
1532279580.727,18.066,24.902,20.020,32.715,151.855
1532279580.731,25.391,31.250,20.996,32.715,-137.695
1532279580.735,26.855,31.250,23.438,35.645,-150.391
1532279580.739,18.555,25.391,25.391,37.598,152.832
1532279580.743,8.789,25.391,23.926,31.738,230.957
1532279580.747,8.301,27.832,19.531,20.508,-47.363
1532279580.751,21.484,29.785,19.043,20.508,-190.430
1532279580.754,21.484,30.762,23.438,20.020,20.996
1532279580.758,26.855,29.297,27.832,36.133,202.637
1532279580.762,35.156,28.320,28.809,43.945,24.414
1532279580.766,21.484,26.367,24.902,27.344,-188.477
1532279580.770,20.996,24.414,22.461,29.785,-51.758
1532279580.774,33.203,25.879,20.996,35.645,191.406
1532279580.778,38.574,27.344,25.391,40.039,121.094
1532279580.782,29.297,23.926,30.273,41.992,-127.930
1532279580.786,15.625,19.043,26.367,33.691,-60.059
1532279580.790,17.090,20.508,22.949,35.645,200.195
1532279580.794,26.367,22.461,23.438,43.945,166.992
1532279580.797,30.273,22.949,24.902,39.551,-102.539
1532279580.801,28.809,23.926,26.855,43.945,-144.531
1532279580.805,31.250,21.484,28.809,52.246,139.648
1532279580.809,34.180,21.973,29.297,46.875,236.328
1532279580.813,30.273,20.996,28.320,36.621,-64.941
1532279580.817,31.738,20.020,26.855,39.551,-196.289
1532279580.821,30.762,19.531,27.344,41.016,62.500
1532279580.825,30.762,20.020,26.367,35.156,229.004
1532279580.829,37.109,25.879,24.414,34.668,44.922
1532279580.833,42.480,29.785,26.855,41.992,-185.547
1532279580.837,33.203,28.320,27.832,45.898,-47.852
1532279580.840,29.785,25.879,26.855,37.598,223.633
1532279580.844,33.203,27.344,24.902,29.297,113.281
1532279580.848,41.992,33.203,23.438,40.527,-159.668
1532279580.852,41.504,29.785,25.391,41.992,-106.934
1532279580.856,24.902,23.926,27.344,28.320,161.621
1532279580.860,29.297,24.414,26.855,41.504,204.590
1532279580.864,38.086,21.484,25.879,48.828,-88.379
1532279580.868,26.855,18.066,25.391,41.504,-157.227
1532279580.872,13.184,17.090,26.855,36.133,132.324
1532279580.876,19.043,19.043,25.879,34.668,217.285
1532279580.879,20.020,18.066,27.344,34.180,-15.137
1532279580.883,26.367,18.066,26.367,31.250,-180.176
1532279580.887,34.668,20.996,23.438,31.738,20.996
1532279580.891,26.855,25.391,20.996,30.273,198.730
1532279580.895,16.602,24.902,19.531,21.973,24.414
1532279580.899,16.113,20.508,23.926,23.438,-173.828
1532279580.903,26.367,19.043,25.879,35.156,-51.270
1532279580.907,34.180,19.043,23.438,47.363,205.078
1532279580.911,39.551,24.414,20.020,41.504,134.766
1532279580.915,39.551,28.809,17.090,27.832,-152.344
1532279580.919,40.527,26.855,18.066,34.668,-140.137
1532279580.922,38.574,26.367,20.508,40.039,171.387
1532279580.926,32.715,27.344,22.461,38.574,220.703
1532279580.930,33.203,25.879,21.484,41.504,-65.918
1532279580.934,41.016,26.367,21.973,44.922,-141.113
1532279580.938,45.410,27.344,23.438,42.969,127.930
1532279580.942,39.062,26.855,22.461,40.527,247.559
1532279580.946,32.715,23.926,22.461,33.691,-15.625
1532279580.950,36.621,23.926,24.902,32.227,-213.379
1532279580.954,40.039,25.391,24.414,31.738,-32.715
1532279580.958,32.715,23.438,20.020,23.438,212.891
1532279580.962,39.062,25.391,19.531,32.715,111.816
1532279580.965,44.434,28.809,21.484,42.480,-127.441
1532279580.969,32.227,27.832,20.996,40.527,-56.152
1532279580.973,20.508,20.996,23.438,38.086,171.875
1532279580.977,25.391,18.555,26.367,44.922,148.438
1532279580.981,32.227,25.879,22.949,47.852,-97.656
1532279580.985,37.598,31.738,17.578,49.805,-136.230
1532279580.989,32.715,30.762,20.996,49.316,129.395
1532279580.993,17.090,27.832,24.902,36.621,195.801
1532279580.997,14.648,28.320,20.020,32.227,-91.309
1532279581.001,29.785,28.809,17.090,41.992,-184.082
1532279581.004,33.203,27.344,20.996,47.363,76.172
1532279581.008,35.156,26.855,25.391,51.758,231.934
1532279581.012,41.504,28.320,25.391,45.898,16.602
1532279581.016,39.062,29.785,19.043,35.645,-188.477
1532279581.020,45.410,30.273,19.531,42.480,-11.719
1532279581.024,49.805,29.785,23.438,50.781,250.000
1532279581.028,42.969,29.785,25.879,46.875,139.160
1532279581.032,40.527,31.738,30.273,41.016,-145.020
1532279581.036,39.551,32.715,26.855,38.086,-111.328
1532279581.040,40.039,31.738,21.484,39.551,183.105
1532279581.044,35.645,32.227,24.902,40.527,179.688
1532279581.047,34.180,32.227,28.320,41.992,-104.492
1532279581.051,39.551,31.738,31.250,40.527,-162.598
1532279581.055,40.039,31.250,30.762,43.457,97.168
1532279581.059,37.598,28.320,28.809,43.457,207.031
1532279581.063,34.180,27.832,30.762,39.062,-34.180
1532279581.067,38.086,29.297,30.273,43.457,-167.480
1532279581.071,46.875,33.691,26.855,45.410,34.668
1532279581.075,48.828,37.598,22.949,34.668,205.078
1532279581.079,41.504,36.133,23.438,34.180,66.895
1532279581.083,23.926,31.738,24.902,27.344,-145.508
1532279581.086,22.949,28.320,26.855,25.391,-19.531
1532279581.090,40.039,28.809,29.785,41.992,210.938
1532279581.094,38.574,29.785,27.344,44.434,79.590
1532279581.098,40.039,29.297,25.879,45.898,-164.062
1532279581.102,39.551,27.832,27.344,48.828,-104.492
1532279581.106,31.250,27.344,27.832,46.387,168.457
1532279581.110,36.133,27.344,23.438,39.551,183.594
1532279581.114,50.293,29.297,22.949,45.410,-96.680
1532279581.118,50.293,30.762,24.902,48.828,-147.461
1532279581.122,40.527,31.738,21.484,40.527,109.863
1532279581.126,38.086,29.297,23.926,34.668,221.191
1532279581.129,32.227,29.785,27.832,30.273,1.465
1532279581.133,39.062,29.785,24.902,39.062,-195.801
1532279581.137,43.945,26.855,23.926,44.434,-22.461
1532279581.141,34.180,29.297,24.414,35.156,234.375
1532279581.145,33.691,32.715,25.391,35.156,66.406
1532279581.149,38.574,32.227,27.344,39.551,-195.801
1532279581.153,38.574,33.203,24.414,35.156,-72.754
1532279581.157,43.457,34.180,22.461,40.527,187.012
1532279581.161,50.293,34.180,21.484,43.457,178.223
1532279581.165,36.621,32.715,22.461,34.668,-98.633
1532279581.169,30.273,32.715,24.414,36.621,-131.836
1532279581.172,33.691,32.227,22.461,43.457,140.625
1532279581.176,32.715,28.809,23.438,48.340,202.637
1532279581.180,33.691,27.344,25.391,51.270,-41.992
1532279581.184,40.527,29.785,22.949,55.664,-152.832
1532279581.188,43.945,32.715,20.508,58.594,80.078
1532279581.192,41.504,32.227,24.414,53.711,211.914
1532279581.196,36.133,30.273,28.320,47.363,6.348
1532279581.200,32.715,29.297,25.879,41.504,-155.273
1532279581.204,37.598,31.250,26.367,43.945,25.391
1532279581.208,39.062,32.227,26.367,49.316,244.629
1532279581.211,53.223,36.133,26.367,49.805,77.148
1532279581.215,53.711,41.016,27.344,42.480,-175.293
1532279581.219,37.109,36.621,21.973,44.434,-80.078
1532279581.223,33.203,34.668,23.438,48.828,181.152
1532279581.227,41.504,36.133,26.855,41.504,163.086
1532279581.231,43.945,36.621,25.879,39.062,-135.742
1532279581.235,49.316,37.598,27.832,45.410,-160.645
1532279581.239,49.316,36.621,27.344,52.246,148.438
1532279581.243,47.852,38.086,23.926,53.711,208.008
1532279581.247,51.270,42.480,23.926,49.316,-34.180
1532279581.251,45.410,41.016,24.902,50.781,-164.062
1532279581.254,36.133,36.621,25.391,45.410,11.719
1532279581.258,28.320,36.621,24.414,32.227,209.473
1532279581.262,29.297,36.133,23.438,34.668,68.359
1532279581.266,35.645,35.156,26.367,48.340,-146.484
1532279581.270,38.086,36.621,27.832,55.664,-11.719
1532279581.274,36.621,38.086,30.273,51.270,202.148
1532279581.278,27.344,38.086,31.250,43.457,117.188
1532279581.282,25.879,37.598,28.809,42.969,-135.254
1532279581.286,33.691,41.016,26.367,48.340,-85.449
1532279581.290,42.480,45.410,23.438,51.270,197.266
1532279581.293,47.852,46.875,29.297,57.129,191.406
1532279581.297,46.387,47.852,30.273,58.594,-57.617
1532279581.301,39.551,46.875,24.414,47.852,-109.863
1532279581.305,32.227,42.969,23.926,45.898,141.113
1532279581.309,29.785,42.969,26.367,44.434,244.629
1532279581.313,35.645,43.457,27.832,39.551,-21.484
1532279581.317,41.016,42.969,24.902,41.016,-181.641
1532279581.321,37.598,41.016,26.367,42.480,29.297
1532279581.325,42.480,42.969,26.855,42.969,206.055
1532279581.329,44.434,47.852,26.367,41.992,44.922
1532279581.333,47.363,49.805,25.391,38.086,-173.828
1532279581.336,47.363,43.945,24.902,33.203,-39.551
1532279581.340,34.180,41.504,27.344,33.203,223.633
1532279581.344,38.574,43.945,25.879,31.738,131.836
1532279581.348,47.852,42.969,22.461,36.133,-131.348
1532279581.352,41.504,42.480,19.531,35.156,-126.465
1532279581.356,36.133,42.480,23.926,40.527,145.020
1532279581.360,32.227,41.016,29.297,41.992,204.102
1532279581.364,31.250,38.086,28.809,32.227,-49.316
1532279581.368,38.086,37.109,28.320,40.039,-139.648
1532279581.372,40.039,38.086,28.320,51.270,73.730
1532279581.376,35.645,35.156,30.762,50.293,197.754
1532279581.379,31.738,33.691,33.691,47.363,-2.441
1532279581.383,37.109,33.203,30.273,45.410,-173.340
1532279581.387,47.363,35.645,25.879,53.711,33.691
1532279581.391,42.480,39.062,23.926,52.246,234.375
1532279581.395,36.621,40.039,24.414,38.574,64.453
1532279581.399,41.504,41.016,24.414,40.039,-154.785
1532279581.403,43.945,36.621,23.438,55.664,-57.617
1532279581.407,45.410,31.738,26.855,62.012,207.031
1532279581.411,47.363,33.691,27.832,47.852,172.363
1532279581.415,43.945,36.621,29.297,43.945,-112.305
1532279581.418,40.527,35.645,28.809,50.781,-133.301
1532279581.422,48.340,35.645,26.367,54.688,141.113
1532279581.426,50.293,38.574,25.391,52.246,228.027
1532279581.430,46.875,37.598,23.438,45.898,-39.062
1532279581.434,44.922,33.691,21.973,42.969,-177.734
1532279581.438,46.875,34.180,22.461,41.992,58.105
1532279581.442,47.363,33.691,26.855,43.945,227.539
1532279581.446,45.898,32.715,28.809,45.410,11.230
1532279581.450,51.270,33.691,28.809,41.504,-199.707
1532279581.454,42.969,29.785,28.809,39.551,-14.160
1532279581.458,35.645,27.832,28.320,49.805,195.312
1532279581.461,42.969,30.273,32.227,57.617,42.480
1532279581.465,49.316,32.227,31.738,60.059,-159.180
1532279581.469,55.664,36.621,25.879,59.570,-66.895
1532279581.473,49.805,42.480,26.367,43.457,147.949
1532279581.477,34.668,41.992,22.949,26.855,143.066
1532279581.481,29.785,38.086,25.391,33.691,-115.234
1532279581.485,27.832,34.668,29.785,40.527,-141.602
1532279581.489,26.367,30.762,28.809,44.922,140.625
1532279581.493,33.203,28.320,28.809,45.898,185.547
1532279581.497,37.598,28.320,29.297,44.434,-40.039
1532279581.501,37.109,30.273,27.832,42.969,-161.133
1532279581.504,41.016,32.715,25.879,44.922,39.551
1532279581.508,29.785,32.715,23.926,37.109,222.168
1532279581.512,20.508,31.738,25.391,23.438,13.672
1532279581.516,33.203,30.273,27.832,31.250,-213.379
1532279581.520,36.621,27.344,28.809,45.898,-49.316
1532279581.524,33.203,27.344,29.297,44.434,205.078
1532279581.528,35.645,30.762,31.250,40.039,132.812
1532279581.532,44.434,33.203,26.855,37.109,-92.773
1532279581.536,42.969,32.715,18.555,32.227,-61.523
1532279581.540,30.762,35.156,20.020,30.762,152.344
1532279581.543,26.855,35.645,25.879,31.738,163.086
1532279581.547,29.297,32.715,28.809,33.203,-88.867
1532279581.551,29.297,30.273,26.855,24.902,-173.828
1532279581.555,31.250,30.762,25.879,24.414,68.848
1532279581.559,30.762,29.785,24.902,28.809,204.590
1532279581.563,25.879,28.320,22.461,23.438,-18.066
1532279581.567,36.621,31.250,25.879,37.109,-180.664
1532279581.571,42.480,29.785,29.297,46.875,37.109
1532279581.575,39.062,29.785,28.320,41.504,233.398
1532279581.579,40.039,30.762,27.344,42.480,76.172
1532279581.583,36.133,31.738,23.926,37.109,-159.668
1532279581.586,38.086,30.762,23.438,37.109,-29.785
1532279581.590,39.551,27.832,26.367,41.992,206.543
1532279581.594,28.320,24.902,25.391,35.156,111.328
1532279581.598,26.855,23.438,25.879,32.715,-127.441
1532279581.602,38.574,26.855,24.902,43.945,-123.535
1532279581.606,38.574,28.809,20.508,39.062,161.621
1532279581.610,24.902,28.320,20.996,27.344,222.168
1532279581.614,18.555,32.227,21.973,15.137,-79.102
1532279581.618,30.273,33.203,22.949,21.484,-183.594
1532279581.622,40.527,30.273,24.902,38.574,91.309
1532279581.625,32.715,28.809,28.320,38.574,250.488
1532279581.629,33.203,29.297,28.320,34.668,28.320
1532279581.633,41.016,29.785,23.926,40.527,-183.594
1532279581.637,39.062,29.785,22.461,41.992,-2.441
1532279581.641,30.273,30.273,20.996,29.785,229.980
1532279581.645,34.668,31.738,20.020,27.832,64.941
1532279581.649,36.621,33.691,21.484,36.621,-170.898
1532279581.653,35.645,34.180,23.926,37.109,-105.469
1532279581.657,37.109,29.785,24.902,36.621,152.344
1532279581.661,30.762,26.367,24.414,40.039,150.879
1532279581.665,22.461,27.832,20.020,27.832,-117.188
1532279581.668,32.227,26.367,23.438,34.180,-120.117
1532279581.672,43.457,24.414,27.344,52.246,132.812
1532279581.676,36.621,24.902,23.926,41.016,204.590
1532279581.680,33.691,29.297,25.391,35.645,-43.457
1532279581.684,30.762,31.738,24.414,38.574,-180.176
1532279581.688,33.203,31.250,18.555,41.992,59.082
1532279581.692,39.062,32.715,19.531,39.062,194.824
1532279581.696,36.621,33.203,21.973,25.391,-11.719
1532279581.700,34.668,31.738,21.973,30.762,-177.246
1532279581.704,40.527,30.762,22.461,37.598,-39.062
1532279581.708,45.410,27.344,20.996,32.715,218.750
1532279581.711,47.363,28.320,20.996,27.344,106.934
1532279581.715,44.922,32.715,22.461,33.691,-177.246
1532279581.719,39.551,31.738,23.438,35.156,-90.332
1532279581.723,43.945,32.227,23.438,36.133,182.129
1532279581.727,43.945,34.180,21.973,42.969,169.922
1532279581.731,28.809,31.250,21.973,37.598,-80.078
1532279581.735,28.809,32.227,21.973,38.574,-134.277
1532279581.739,37.598,35.156,23.926,41.504,119.629
1532279581.743,27.344,33.203,25.879,37.109,238.281
1532279581.747,33.691,32.715,25.879,40.527,-21.484
1532279581.750,36.621,33.691,24.414,41.016,-189.941
1532279581.754,32.227,34.668,23.438,45.898,13.672
1532279581.758,34.668,35.156,23.438,49.805,214.355
1532279581.762,26.367,31.738,27.832,38.574,63.477
1532279581.766,22.949,27.344,31.738,36.621,-159.668
1532279581.770,33.203,24.414,28.320,41.992,-62.988
1532279581.774,40.527,26.367,31.250,39.551,178.711
1532279581.778,34.668,30.762,30.273,39.551,118.652
1532279581.782,30.273,34.180,22.461,40.527,-141.602
1532279581.786,35.645,37.598,22.461,46.875,-121.094
1532279581.790,41.016,35.645,24.902,55.664,180.176
1532279581.793,40.527,32.715,25.879,39.062,203.125
1532279581.797,34.180,31.738,26.855,30.762,-81.055
1532279581.801,33.691,27.832,27.344,37.109,-157.715
1532279581.805,36.621,23.926,28.320,47.363,93.262
1532279581.809,27.832,24.902,27.832,47.852,232.910
1532279581.813,29.785,31.250,27.832,39.551,-19.043
1532279581.817,38.574,32.715,29.785,45.898,-188.965
1532279581.821,32.227,28.320,25.879,43.457,15.625
1532279581.825,26.367,29.297,26.855,42.480,228.027
1532279581.829,28.809,27.344,28.809,44.922,71.777
1532279581.833,34.180,26.367,24.902,38.086,-178.711
1532279581.836,35.156,27.832,23.926,33.203,-64.453
1532279581.840,33.691,27.344,28.809,43.457,208.008
1532279581.844,34.668,25.391,29.785,45.410,155.762
1532279581.848,33.691,23.926,27.832,40.527,-118.652
1532279581.852,29.785,23.926,28.809,44.434,-124.023
1532279581.856,41.504,24.902,29.785,56.152,154.785
1532279581.860,49.316,25.391,32.227,53.711,215.332
1532279581.864,34.668,22.949,31.738,33.203,-54.688
1532279581.868,29.785,22.949,29.297,35.156,-148.926
1532279581.872,32.227,23.926,26.855,39.551,85.938
1532279581.875,32.715,24.902,27.832,41.992,213.867
1532279581.879,46.875,28.320,27.832,45.898,-1.465
1532279581.883,50.293,29.297,26.855,42.480,-183.105
1532279581.887,32.227,26.855,23.926,37.109,1.953
1532279581.891,30.762,28.320,21.484,31.738,198.730
1532279581.895,35.156,29.785,23.438,30.762,68.359
1532279581.899,39.551,28.320,28.809,37.598,-149.902
1532279581.903,48.340,26.855,29.297,43.945,-78.125
1532279581.907,46.387,27.832,26.367,44.922,207.031
1532279581.911,38.574,29.785,25.879,38.086,200.684
1532279581.915,40.527,30.273,28.809,35.156,-113.281
1532279581.918,45.410,29.297,28.320,42.969,-147.461
1532279581.922,48.340,31.738,25.391,49.316,127.930
1532279581.926,46.387,32.227,24.902,49.805,232.422
1532279581.930,54.199,31.738,23.438,51.270,-22.949
1532279581.934,60.059,31.738,27.832,49.805,-187.988
1532279581.938,47.363,30.273,26.855,42.480,58.105
1532279581.942,39.551,30.273,20.996,39.551,236.816
1532279581.946,38.574,30.762,22.461,43.457,36.621
1532279581.950,39.551,30.762,24.414,42.969,-180.176
1532279581.954,44.434,29.297,27.344,46.387,-37.598
1532279581.957,51.270,28.320,26.855,48.828,219.727
1532279581.961,53.711,31.250,23.438,49.316,102.539
1532279581.965,50.293,29.785,24.414,47.363,-179.199
1532279581.969,48.340,25.879,23.438,39.062,-103.027
1532279581.973,38.574,25.879,22.461,33.691,168.945
1532279581.977,35.645,25.879,23.438,33.691,170.410
1532279581.981,32.227,24.902,20.508,35.156,-91.309
1532279581.985,27.832,25.879,17.578,25.879,-149.902
1532279581.989,31.250,26.367,19.043,30.273,113.281
1532279581.993,33.203,26.855,23.438,41.504,218.262
1532279581.997,32.227,24.902,25.879,35.156,6.348
1532279582.000,39.551,26.367,22.461,40.527,-124.512
1532279582.004,46.875,28.809,22.461,55.176,79.102
1532279582.008,35.156,25.879,22.949,41.992,233.887
1532279582.012,22.949,23.926,25.879,28.809,40.527
1532279582.016,22.949,21.973,30.762,40.527,-182.617
1532279582.020,30.273,22.461,28.809,48.828,-49.316
1532279582.024,36.621,27.832,26.367,44.434,224.121
1532279582.028,36.133,34.180,29.297,40.527,156.738
1532279582.032,31.250,35.156,29.297,37.598,-127.930
1532279582.036,21.484,30.762,24.902,31.738,-123.535
1532279582.040,20.996,28.809,24.414,34.180,163.574
1532279582.043,22.461,25.879,27.344,39.551,210.938
1532279582.047,28.320,26.367,28.809,45.410,-44.434
1532279582.051,30.762,30.273,27.344,38.574,-153.320
1532279582.055,25.391,28.809,23.926,30.762,83.496
1532279582.059,29.785,29.297,21.484,36.133,207.520
1532279582.063,34.668,29.297,22.461,43.457,-22.461
1532279582.067,28.809,27.832,22.461,36.133,-198.730
1532279582.071,22.949,26.367,21.973,26.855,-2.441
1532279582.075,29.785,25.879,23.926,32.227,209.961
1532279582.079,33.691,25.391,25.879,42.480,76.660
1532279582.082,33.691,26.855,23.438,43.457,-149.902
1532279582.086,35.645,27.344,20.996,40.039,-62.988
1532279582.090,34.180,23.438,24.414,41.016,185.547
1532279582.094,33.691,21.484,26.367,44.922,120.605
1532279582.098,33.203,24.902,22.461,41.992,-142.578
1532279582.102,36.133,28.320,23.926,37.109,-130.859
1532279582.106,36.621,29.297,24.902,39.551,133.301
1532279582.110,32.715,27.344,26.367,45.898,209.473
1532279582.114,34.180,27.832,28.320,43.945,-36.133
1532279582.118,35.645,31.250,27.832,39.551,-150.391
1532279582.122,28.320,30.762,26.367,37.598,101.074
1532279582.125,30.762,28.320,26.367,42.480,274.414
1532279582.129,32.715,28.320,27.344,41.016,51.270
1532279582.133,31.250,28.809,28.809,35.156,-165.527
1532279582.137,39.551,33.203,27.832,38.086,15.625
1532279582.141,33.203,35.156,24.414,37.109,242.676
1532279582.145,29.297,34.180,26.367,39.551,124.512
1532279582.149,39.551,36.133,30.273,47.852,-143.066
1532279582.153,42.480,34.180,33.691,56.641,-88.867
1532279582.157,42.969,32.227,34.180,60.059,177.734
1532279582.161,45.410,34.180,32.227,53.711,150.879
1532279582.164,40.527,38.574,31.250,51.270,-122.559
1532279582.168,40.527,40.039,29.785,51.270,-149.902
1532279582.172,47.852,39.062,29.785,50.293,106.934
1532279582.176,53.223,41.504,33.203,52.734,208.984
1532279582.180,49.316,46.875,33.691,48.340,-22.461
1532279582.184,46.875,52.246,28.809,46.875,-165.039
1532279582.188,46.875,48.340,29.297,49.316,63.965
1532279582.192,35.645,44.434,32.227,37.109,208.984
1532279582.196,36.133,47.852,30.273,39.551,15.137
1532279582.200,51.270,53.711,27.832,56.152,-181.152
1532279582.204,51.758,55.664,23.926,48.340,-52.734
1532279582.207,34.668,52.246,22.949,37.598,220.215
1532279582.211,30.762,48.340,26.855,38.086,110.840
1532279582.215,42.969,46.387,28.809,38.574,-167.480
1532279582.219,42.969,42.480,29.297,42.969,-98.145
1532279582.223,39.551,41.504,28.809,49.805,178.711
1532279582.227,42.480,43.945,26.855,46.387,205.078
1532279582.231,37.109,46.387,26.367,39.551,-68.848
1532279582.235,41.016,42.480,25.391,43.457,-137.207
1532279582.239,37.598,38.574,26.367,41.016,124.023
1532279582.243,33.691,38.574,31.738,44.434,237.793
1532279582.247,39.062,35.645,34.180,55.664,-6.348
1532279582.250,47.852,37.109,29.297,51.758,-167.480
1532279582.254,48.828,45.410,23.438,39.062,38.574
1532279582.258,37.109,43.945,26.855,41.504,245.117
1532279582.262,41.504,41.992,27.832,50.293,75.684
1532279582.266,47.363,48.340,22.949,48.828,-171.875
1532279582.270,38.574,50.781,24.414,43.945,-50.781
1532279582.274,29.297,49.316,24.414,32.227,195.801
1532279582.278,32.715,47.852,26.855,33.691,123.047
1532279582.282,36.133,41.504,30.273,46.875,-130.371
1532279582.286,39.551,35.645,31.738,52.734,-117.676
1532279582.289,32.227,33.691,34.180,41.016,155.273
1532279582.293,22.949,32.715,31.250,31.738,199.707
1532279582.297,33.691,36.621,27.344,41.992,-69.824
1532279582.301,46.387,37.109,28.320,52.246,-165.039
1532279582.305,41.016,34.668,27.344,42.480,69.336
1532279582.309,33.203,36.621,26.855,37.109,213.379
1532279582.313,30.762,34.668,29.297,45.410,-16.113
1532279582.317,32.227,30.273,31.738,48.340,-208.984
1532279582.321,37.598,28.320,35.645,50.293,-16.113
1532279582.325,42.969,29.785,32.227,47.852,211.426
1532279582.329,46.875,32.715,31.738,56.152,66.895
1532279582.332,40.039,31.738,34.180,57.617,-180.176
1532279582.336,41.016,28.809,29.297,49.805,-68.359
1532279582.340,43.457,29.297,27.344,55.664,200.195
1532279582.344,37.109,31.738,29.785,58.594,156.738
1532279582.348,39.062,32.715,29.297,61.035,-111.816
1532279582.352,40.527,32.227,27.344,55.664,-147.461
1532279582.356,33.691,32.227,25.879,47.852,105.957
1532279582.360,31.738,31.250,29.297,56.152,194.824
1532279582.364,30.762,28.809,29.785,51.758,-57.617
1532279582.368,28.320,26.855,29.297,45.410,-186.035
1532279582.372,39.062,30.762,30.273,52.734,56.152
1532279582.375,36.133,28.809,27.832,45.898,241.211
1532279582.379,25.879,23.926,27.832,36.133,52.246
1532279582.383,23.926,25.879,27.344,40.039,-153.320
1532279582.387,31.250,26.855,25.879,54.688,-8.301
1532279582.391,39.062,26.367,25.391,51.270,202.148
1532279582.395,31.738,27.832,25.391,37.109,98.145
1532279582.399,34.180,30.273,24.414,46.387,-130.859
1532279582.403,34.180,28.809,22.949,53.711,-50.293
1532279582.407,25.391,25.391,24.414,45.898,200.684
1532279582.411,26.367,24.414,24.414,45.410,177.246
1532279582.414,25.391,23.438,25.879,44.922,-77.637
1532279582.418,28.320,21.484,27.832,47.363,-132.812
1532279582.422,35.156,23.438,27.832,51.758,110.840
1532279582.426,33.203,26.855,26.367,52.734,224.121
1532279582.430,31.738,30.273,23.926,44.434,-18.066
1532279582.434,29.297,32.715,22.461,40.039,-178.711
1532279582.438,26.367,32.227,21.484,42.969,31.250
1532279582.442,35.645,39.062,29.785,55.176,237.305
1532279582.446,34.668,40.527,34.180,62.988,70.312
1532279582.450,25.879,31.250,27.344,51.758,-151.367
1532279582.454,23.926,27.832,22.461,38.086,-24.414
1532279582.457,24.414,29.297,20.996,38.574,218.750
1532279582.461,29.297,30.273,21.973,42.969,154.785
1532279582.465,33.691,33.203,20.996,41.504,-125.488
1532279582.469,25.391,33.203,21.484,39.062,-126.953
1532279582.473,33.203,28.809,23.438,45.898,142.578
1532279582.477,49.316,32.227,25.391,47.363,166.016
1532279582.481,45.410,36.133,23.926,34.668,-117.676
1532279582.485,35.156,35.156,21.484,24.902,-180.176
1532279582.489,39.551,35.156,23.438,38.086,94.727
1532279582.493,44.434,35.645,24.902,50.293,205.078
1532279582.496,44.922,35.156,23.438,53.711,-35.645
1532279582.500,36.133,32.227,23.438,57.129,-178.223
1532279582.504,28.320,35.645,29.297,64.941,28.809
1532279582.508,33.203,38.086,31.250,73.242,246.582
1532279582.512,29.785,28.809,25.879,57.617,59.082
1532279582.516,20.996,21.973,24.414,50.781,-197.266
1532279582.520,20.020,22.461,20.020,48.828,-51.758
1532279582.524,30.273,27.344,20.508,44.922,229.004
1532279582.528,35.645,28.809,25.391,52.734,171.387
1532279582.532,20.996,30.273,25.391,47.852,-130.371
1532279582.536,28.320,39.062,27.344,41.016,-159.668
1532279582.539,33.203,38.086,25.879,45.898,115.723
1532279582.543,21.973,28.809,20.020,49.316,190.918
1532279582.547,27.832,28.809,23.438,43.945,-51.270
1532279582.551,26.367,31.250,25.879,41.016,-165.527
1532279582.555,21.484,32.227,24.902,47.363,76.660
1532279582.559,33.203,38.086,23.438,46.875,238.770
1532279582.563,34.668,38.574,24.414,49.805,29.785
1532279582.567,25.879,30.273,26.367,46.875,-142.578
1532279582.571,23.926,30.762,27.832,46.387,10.742
1532279582.575,33.203,36.621,26.855,48.340,226.562
1532279582.579,48.828,45.898,31.738,48.828,107.910
1532279582.582,41.016,43.945,32.715,48.340,-159.668
1532279582.586,31.250,34.668,24.902,48.828,-85.449
1532279582.590,26.367,29.785,28.320,50.781,197.266
1532279582.594,20.508,28.809,27.832,33.691,178.711
1532279582.598,41.504,42.480,34.180,46.387,-108.398
1532279582.602,48.340,45.898,38.574,69.336,-139.160
1532279582.606,29.785,31.250,23.926,50.293,144.531
1532279582.610,18.555,28.320,20.996,30.273,204.102
1532279582.614,27.344,33.691,25.879,40.527,-62.988
1532279582.618,37.598,35.156,27.832,50.781,-159.668
1532279582.621,27.832,36.621,28.320,47.363,57.129
1532279582.625,20.020,39.551,28.320,39.062,224.609
1532279582.629,27.832,40.527,28.320,33.691,44.434
1532279582.633,37.109,42.480,28.320,47.852,-169.434
1532279582.637,37.598,42.969,30.273,51.758,-40.527
1532279582.641,33.203,43.457,30.273,47.852,216.309
1532279582.645,32.715,44.922,29.785,55.664,142.090
1532279582.649,32.715,43.457,27.832,47.852,-115.723
1532279582.653,39.062,42.969,24.414,49.316,-68.359
1532279582.657,35.645,41.016,28.320,52.734,194.824
1532279582.661,31.250,38.574,32.227,51.758,186.523
1532279582.664,29.297,36.621,34.180,51.270,-94.238
1532279582.668,24.414,33.691,33.203,48.828,-132.324
1532279582.672,35.156,32.227,32.715,50.781,131.836
1532279582.676,45.410,33.691,32.715,52.734,216.309
1532279582.680,34.668,38.086,32.227,50.781,-26.367
1532279582.684,26.367,39.062,32.227,43.945,-149.414
1532279582.688,32.715,37.598,34.668,55.176,69.824
1532279582.692,44.434,40.527,34.180,60.547,230.469
1532279582.696,42.480,41.016,31.250,54.199,73.242
1532279582.700,34.668,39.062,32.715,50.781,-145.020
1532279582.704,32.715,41.016,30.273,47.363,-56.641
1532279582.707,30.273,39.062,31.738,51.758,211.426
1532279582.711,20.996,38.086,34.180,49.316,125.977
1532279582.715,21.973,38.574,30.762,37.109,-139.160
1532279582.719,33.691,37.598,30.762,39.062,-104.492
1532279582.723,33.691,36.621,34.180,50.781,142.090
1532279582.727,28.809,32.715,36.621,51.270,200.684
1532279582.731,29.297,32.227,32.715,45.898,-48.828
1532279582.735,33.203,35.156,29.785,42.969,-178.711
1532279582.739,36.133,37.109,34.180,45.898,84.473
1532279582.743,32.227,34.180,38.574,54.688,266.113
1532279582.746,25.879,33.203,33.203,45.898,26.855
1532279582.750,29.297,35.645,28.320,34.668,-174.316
1532279582.754,30.273,34.668,30.762,42.480,4.883
1532279582.758,34.180,32.715,33.203,55.176,216.309
1532279582.762,38.086,31.738,30.273,48.828,73.730
1532279582.766,25.391,31.738,26.855,35.156,-157.227
1532279582.770,24.902,32.715,24.414,37.109,-56.641
1532279582.774,25.391,31.738,22.949,30.762,183.594
1532279582.778,21.484,30.273,25.879,29.297,135.742
1532279582.782,36.133,32.227,28.320,51.758,-118.164
1532279582.786,35.156,29.297,29.297,60.059,-124.023
1532279582.789,13.184,26.367,28.320,47.852,109.375
1532279582.793,13.672,26.367,33.203,47.852,175.293
1532279582.797,29.297,23.926,35.156,51.758,-58.594
1532279582.801,33.203,23.926,32.715,55.176,-160.156
1532279582.805,28.320,25.391,29.785,55.176,67.383
1532279582.809,37.109,30.762,30.273,52.734,230.469
1532279582.813,40.527,35.156,33.203,46.875,43.945
1532279582.817,27.344,33.203,28.809,37.598,-162.109
1532279582.821,22.949,30.273,25.391,42.480,-1.465
1532279582.825,24.902,30.762,30.273,47.363,232.422
1532279582.828,28.320,30.762,33.691,44.434,128.418
1532279582.832,40.527,30.273,33.691,45.898,-182.129
1532279582.836,42.969,29.785,34.668,54.199,-127.930
1532279582.840,32.715,28.320,32.227,55.664,172.852
1532279582.844,34.668,31.250,29.297,44.434,158.203
1532279582.848,39.551,35.645,29.297,39.062,-119.629
1532279582.852,35.645,36.621,26.367,36.133,-174.805
1532279582.856,32.715,32.715,29.785,48.828,108.398
1532279582.860,37.109,31.738,36.133,59.082,220.703
1532279582.864,33.203,34.668,37.598,49.316,-35.645
1532279582.868,30.273,35.645,35.645,46.875,-195.312
1532279582.871,33.691,34.668,32.715,40.527,19.043
1532279582.875,30.762,34.668,33.691,42.480,209.961
1532279582.879,33.691,35.156,34.668,57.617,42.969
1532279582.883,29.297,34.180,32.715,57.617,-158.203
1532279582.887,22.461,32.227,33.691,58.105,-30.762
1532279582.891,33.691,31.738,30.273,51.758,204.590
1532279582.895,41.992,35.156,28.809,49.805,121.582
1532279582.899,34.180,39.062,30.273,51.270,-175.293
1532279582.903,22.949,38.574,27.832,39.551,-129.395
1532279582.907,23.926,35.645,29.297,44.434,169.434
1532279582.911,25.879,33.691,32.715,54.688,194.824
1532279582.914,26.367,31.250,32.715,47.363,-110.352
1532279582.918,36.133,28.320,34.668,50.293,-191.406
1532279582.922,39.062,31.738,36.133,61.035,126.953
1532279582.926,32.715,38.086,31.250,48.340,263.184
1532279582.930,34.180,41.016,28.320,38.086,15.137
1532279582.934,33.203,42.969,27.344,38.574,-177.734
1532279582.938,37.109,41.992,23.926,36.133,-1.465
1532279582.942,41.992,40.527,21.973,37.598,214.844
1532279582.946,43.945,44.922,22.949,42.480,70.312
1532279582.950,38.574,45.410,22.949,47.852,-158.691
1532279582.953,39.062,40.039,22.949,52.246,-55.664
1532279582.957,44.922,37.598,25.879,48.340,205.566
1532279582.961,39.551,35.156,25.879,45.898,153.320
1532279582.965,37.109,38.086,22.949,44.434,-109.863
1532279582.969,52.734,41.016,23.438,52.734,-92.773
1532279582.973,44.434,38.086,24.414,55.176,153.320
1532279582.977,36.133,37.598,25.879,45.898,176.758
1532279582.981,51.758,36.133,30.273,54.199,-48.828
1532279582.985,44.434,35.645,26.367,54.688,-144.531
1532279582.989,38.574,39.062,20.508,44.434,110.352
1532279582.993,41.992,42.480,23.926,45.898,256.836
1532279582.996,33.203,41.504,29.297,56.152,6.348
1532279583.000,30.273,38.574,28.320,50.781,-171.875
1532279583.004,22.949,36.621,26.855,49.805,7.812
1532279583.008,26.367,35.645,25.879,56.641,219.727
1532279583.012,38.574,38.574,25.879,39.062,95.215
1532279583.016,28.809,39.551,27.344,32.227,-167.480
1532279583.020,32.227,41.504,25.879,46.387,-82.520
1532279583.024,38.574,42.480,24.414,47.363,196.289
1532279583.028,37.598,40.039,26.855,46.387,180.176
1532279583.032,37.109,34.668,28.809,44.434,-90.820
1532279583.035,36.133,34.668,28.320,54.688,-125.000
1532279583.039,36.133,38.086,29.297,60.059,136.230
1532279583.043,29.785,37.109,27.832,44.434,212.891
1532279583.047,30.762,38.086,26.367,42.480,-49.316
1532279583.051,32.715,37.109,28.809,42.969,-185.059
1532279583.055,34.668,33.691,28.809,43.457,41.992
1532279583.059,36.133,33.203,26.367,48.340,207.031
1532279583.063,32.715,35.645,26.367,45.410,31.250
1532279583.067,23.438,37.598,20.508,30.762,-145.508
1532279583.071,28.809,38.574,22.949,39.551,-8.301
1532279583.075,30.273,36.133,26.367,48.340,228.027
1532279583.078,24.414,36.133,22.949,38.574,140.137
1532279583.082,28.320,36.621,23.438,37.598,-133.789
1532279583.086,37.598,35.645,21.484,44.922,-104.004
1532279583.090,35.645,37.598,21.973,44.922,175.781
1532279583.094,25.391,35.156,23.438,38.086,207.031
1532279583.098,29.785,33.691,25.391,31.738,-70.801
1532279583.102,25.879,33.691,27.344,32.227,-135.254
1532279583.106,19.531,33.203,25.391,45.898,136.230
1532279583.110,23.926,30.762,25.391,45.410,267.090
1532279583.114,23.438,30.762,25.879,37.598,22.461
1532279583.118,27.832,31.738,27.344,46.387,-155.762
1532279583.121,33.203,31.250,26.855,52.734,43.457
1532279583.125,30.762,33.691,24.414,49.805,237.793
1532279583.129,31.250,37.109,26.367,49.316,69.824
1532279583.133,31.738,39.551,25.391,35.645,-144.531
1532279583.137,34.180,37.109,25.391,28.809,-22.461
1532279583.141,25.879,30.762,28.809,35.645,205.566
1532279583.145,20.020,28.320,30.273,45.898,125.000
1532279583.149,32.227,28.809,29.297,45.898,-154.297
1532279583.153,37.109,29.785,26.367,44.434,-141.113
1532279583.157,29.297,28.809,28.320,46.875,152.344
1532279583.160,20.996,26.367,31.738,41.992,186.523
1532279583.164,24.414,27.344,28.809,43.945,-90.820
1532279583.168,23.926,26.367,28.809,40.039,-148.926
1532279583.172,21.973,27.344,28.320,43.457,107.422
1532279583.176,25.391,29.297,28.809,51.758,235.352
1532279583.180,19.531,28.320,31.250,37.598,21.973
1532279583.184,20.020,27.832,31.250,27.832,-149.902
1532279583.188,26.367,25.879,31.250,43.945,44.434
1532279583.192,29.785,26.367,32.227,53.711,220.703
1532279583.196,34.668,29.297,33.203,47.852,47.852
1532279583.200,25.391,32.715,32.227,35.156,-178.223
1532279583.203,18.066,32.715,26.855,25.879,-35.645
1532279583.207,27.344,34.180,27.832,36.621,220.215
1532279583.211,26.855,35.645,27.344,47.852,140.137
1532279583.215,36.621,36.621,25.879,45.898,-106.934
1532279583.219,31.250,33.691,28.320,41.504,-92.773
1532279583.223,17.578,33.203,28.809,37.109,160.645
1532279583.227,31.250,37.109,27.832,39.551,239.746
1532279583.231,33.203,35.645,29.297,45.410,-24.902
1532279583.235,31.250,32.227,30.273,44.922,-169.434
1532279583.239,35.645,31.250,29.785,48.340,94.238
1532279583.243,34.180,30.762,30.762,49.805,252.441
1532279583.246,38.086,32.715,30.273,50.293,34.668
1532279583.250,32.227,32.715,32.715,52.734,-184.082
1532279583.254,19.531,31.250,34.180,33.203,-51.270
1532279583.258,25.391,27.832,33.203,23.438,192.871
1532279583.262,36.133,28.809,30.273,32.227,91.797
1532279583.266,38.574,34.180,30.273,37.598,-122.070
1532279583.270,27.832,34.180,33.203,46.387,-59.570
1532279583.274,25.879,37.109,31.738,41.016,189.941
1532279583.278,36.133,41.016,29.297,26.855,175.293
1532279583.282,34.668,37.598,29.297,27.344,-119.141
1532279583.285,30.762,36.133,30.762,41.992,-145.508
1532279583.289,32.715,32.227,33.691,43.945,143.066
1532279583.293,41.992,31.738,37.598,35.645,219.238
1532279583.297,42.969,35.156,40.527,52.734,-28.320
1532279583.301,39.062,36.133,40.039,66.406,-160.645
1532279583.305,41.504,36.621,36.621,55.176,68.848
1532279583.309,37.598,35.645,34.668,50.781,246.582
1532279583.313,23.438,35.156,37.109,46.387,5.859
1532279583.317,20.996,35.645,36.621,37.109,-206.055
1532279583.321,31.738,36.621,33.691,55.664,-25.879
1532279583.325,36.133,35.645,33.691,65.918,217.773
1532279583.328,37.109,37.109,32.227,46.875,104.980
1532279583.332,35.156,38.574,30.273,32.227,-191.406
1532279583.336,29.785,38.574,31.738,29.785,-129.395
1532279583.340,28.809,36.133,33.203,45.410,187.500
1532279583.344,31.250,34.180,35.645,63.477,174.316
1532279583.348,29.785,31.250,39.551,62.500,-92.773
1532279583.352,39.551,35.156,35.645,41.016,-156.250
1532279583.356,38.574,39.551,29.785,34.180,90.332
1532279583.360,32.227,37.598,31.250,47.363,254.883
1532279583.364,33.203,37.109,31.250,45.898,28.320
1532279583.367,38.086,36.133,29.785,43.457,-163.086
1532279583.371,44.922,35.645,29.785,46.875,20.508
1532279583.375,52.734,35.156,32.227,52.246,195.801
1532279583.379,51.758,34.668,36.621,63.477,42.480
1532279583.383,34.180,32.227,34.180,55.664,-157.227
1532279583.387,36.621,36.133,31.250,44.922,-40.527
1532279583.391,48.340,38.574,31.250,41.992,200.684
1532279583.395,48.828,36.133,34.180,50.781,123.047
1532279583.399,41.992,37.598,35.156,53.711,-145.996
1532279583.403,33.691,38.574,32.227,42.969,-128.418
1532279583.407,22.461,37.109,32.227,36.133,152.344
1532279583.410,23.438,34.668,32.715,34.180,167.480
1532279583.414,31.250,34.668,33.691,45.898,-98.633
1532279583.418,38.574,37.598,30.762,50.781,-160.156
1532279583.422,41.992,40.039,25.879,31.250,75.684
1532279583.426,37.598,40.527,25.879,36.621,226.074
1532279583.430,22.949,37.598,28.809,52.246,45.898
1532279583.434,26.855,34.180,27.832,35.156,-167.969
1532279583.438,35.156,35.645,25.391,27.344,7.324
1532279583.442,27.832,35.645,26.367,45.410,233.398
1532279583.446,32.715,38.086,25.391,47.363,70.801
1532279583.450,35.156,41.992,20.508,41.992,-149.414
1532279583.453,25.879,40.039,19.043,35.645,-78.613
1532279583.457,16.602,38.574,23.926,37.598,192.871
1532279583.461,21.484,37.109,28.809,42.969,150.879
1532279583.465,29.297,38.086,26.367,33.203,-108.398
1532279583.469,31.250,38.574,26.367,42.969,-75.684
1532279583.473,38.574,37.598,29.297,45.898,156.738
1532279583.477,40.039,38.574,27.832,29.297,195.801
1532279583.481,39.551,39.062,27.832,37.598,-35.156
1532279583.485,36.621,36.133,30.273,52.734,-140.625
1532279583.489,30.273,34.668,31.250,58.594,93.262
1532279583.492,33.691,35.645,30.273,37.598,224.609
1532279583.496,32.715,35.645,31.250,29.785,-4.883
1532279583.500,27.344,35.645,32.715,30.273,-183.105
1532279583.504,32.227,37.598,29.785,33.691,1.465
1532279583.508,51.758,36.621,30.762,50.781,232.910
1532279583.512,57.129,39.062,31.250,45.410,88.379
1532279583.516,33.203,38.574,30.762,35.645,-158.203
1532279583.520,38.086,38.574,31.250,40.527,-78.613
1532279583.524,37.598,39.062,31.738,55.664,201.172
1532279583.528,37.109,38.086,35.645,62.500,205.078
1532279583.532,53.223,41.504,36.621,55.664,-108.887
1532279583.535,35.645,39.551,35.156,42.480,-162.598
1532279583.539,23.926,35.645,33.691,51.270,123.535
1532279583.543,33.203,36.621,30.762,45.410,214.844
1532279583.547,36.621,39.551,34.668,27.344,-28.809
1532279583.551,30.273,38.086,35.156,41.992,-175.781
1532279583.555,23.438,34.180,32.715,43.945,16.602
1532279583.559,39.551,34.180,30.273,38.574,206.055
1532279583.563,50.293,39.551,28.320,41.016,43.945
1532279583.567,50.781,38.574,30.273,60.059,-170.410
1532279583.571,49.316,35.156,29.297,50.781,-48.340
1532279583.575,38.086,38.574,30.762,39.551,165.039
1532279583.578,29.297,42.969,31.738,43.457,102.051
1532279583.582,36.621,46.387,26.367,39.062,-149.902
1532279583.586,43.457,47.363,24.414,46.387,-124.512
1532279583.590,50.293,45.410,26.367,41.992,136.719
1532279583.594,44.922,41.992,30.762,38.086,148.438
1532279583.598,33.691,38.574,28.809,41.016,-103.516
1532279583.602,27.344,37.598,28.320,44.434,-165.527
1532279583.606,20.508,36.621,31.250,42.969,98.633
1532279583.610,23.438,35.645,30.273,40.039,210.449
1532279583.614,32.715,36.133,31.738,37.109,-38.086
1532279583.617,31.738,38.086,30.273,41.016,-180.176
1532279583.621,31.738,41.992,27.832,67.383,40.527
1532279583.625,41.016,42.969,26.855,58.594,232.422
1532279583.629,39.551,41.992,25.391,32.227,77.637
1532279583.633,25.879,41.992,22.949,33.203,-148.438
1532279583.637,17.090,38.086,24.902,35.645,-18.555
1532279583.641,22.949,34.180,29.297,48.828,221.680
1532279583.645,31.250,35.156,29.785,66.406,125.488
1532279583.649,34.668,35.645,27.832,49.805,-132.324
1532279583.653,33.691,34.668,26.367,30.273,-107.422
1532279583.657,34.668,36.133,26.367,33.691,145.996
1532279583.660,26.855,34.180,28.320,55.176,188.477
1532279583.664,25.391,32.715,25.879,56.641,-85.449
1532279583.668,40.527,36.621,26.367,58.105,-174.805
1532279583.672,37.598,39.551,27.832,47.363,87.891
1532279583.676,40.039,42.480,24.902,34.668,220.215
1532279583.680,47.852,42.969,20.996,39.551,13.184
1532279583.684,36.621,41.504,23.438,50.781,-173.828
1532279583.688,31.250,39.551,28.320,50.293,24.902
1532279583.692,28.320,38.574,24.414,35.645,225.098
1532279583.696,35.645,39.062,20.508,38.086,62.012
1532279583.699,18.555,36.133,21.484,40.527,-177.734
1532279583.703,9.277,37.598,21.484,41.992,-91.797
1532279583.707,20.020,38.574,20.508,39.551,190.918
1532279583.711,27.832,41.016,20.996,40.527,149.902
1532279583.715,50.781,46.875,18.555,39.062,-127.441
1532279583.719,39.551,43.457,19.043,36.621,-127.441
1532279583.723,19.043,39.062,21.973,41.504,145.508
1532279583.727,23.438,38.574,23.926,52.246,201.660
1532279583.731,29.297,41.504,24.414,49.316,-77.148
1532279583.735,28.809,41.016,24.902,36.621,-188.965
1532279583.739,24.414,37.598,23.926,42.969,62.988
1532279583.742,32.227,41.016,19.531,44.922,229.004
1532279583.746,36.621,42.480,20.020,41.992,19.043
1532279583.750,14.648,35.645,22.461,43.457,-186.523
1532279583.754,12.695,33.203,19.531,36.621,-45.410
1532279583.758,28.320,34.180,20.508,41.992,202.148
1532279583.762,24.902,34.668,20.996,30.762,115.723
1532279583.766,21.484,36.133,18.555,29.785,-163.086
1532279583.770,34.668,34.668,25.391,60.547,-118.652
1532279583.774,54.199,36.621,28.809,67.383,184.082
1532279583.778,47.852,38.574,23.926,50.293,194.824
1532279583.782,29.785,35.156,22.461,31.250,-99.121
1532279583.785,32.715,31.250,25.391,46.387,-132.324
1532279583.789,33.203,29.297,23.438,50.293,144.531
1532279583.793,30.762,28.809,21.973,40.527,201.660
1532279583.797,30.762,27.832,23.926,38.086,-46.875
1532279583.801,27.832,31.250,20.508,47.363,-140.625
1532279583.805,33.203,31.250,21.973,53.223,59.570
1532279583.809,39.062,29.297,25.879,58.105,235.352
1532279583.813,34.668,30.273,24.414,55.664,48.340
1532279583.817,28.320,31.738,20.996,30.762,-199.707
1532279583.821,34.668,32.715,23.438,44.434,-13.184
1532279583.824,41.016,32.715,22.461,60.059,231.445
1532279583.828,38.574,33.691,22.461,66.406,134.277
1532279583.832,40.527,32.715,24.414,63.477,-112.305
1532279583.836,40.527,28.320,23.926,50.293,-112.793
1532279583.840,40.039,26.855,21.484,53.223,175.781
1532279583.844,34.180,30.273,20.508,57.129,223.633
1532279583.848,27.344,30.273,21.973,50.293,-71.289
1532279583.852,33.203,26.855,20.020,40.039,-179.688
1532279583.856,47.363,28.809,20.996,47.852,72.754
1532279583.860,46.387,33.203,19.043,42.480,219.727
1532279583.864,41.504,35.156,16.602,45.898,-26.367
1532279583.867,35.645,35.156,19.043,62.012,-188.965
1532279583.871,24.414,32.715,19.043,49.805,4.395
1532279583.875,28.809,32.715,18.066,42.480,219.727
1532279583.879,36.621,33.203,19.043,43.457,99.609
1532279583.883,30.273,30.762,20.020,47.363,-141.113
1532279583.887,40.527,30.273,20.020,53.223,-47.852
1532279583.891,42.969,28.320,21.484,56.641,212.891
1532279583.895,42.480,28.809,23.438,58.594,124.023
1532279583.899,45.898,31.250,19.043,55.176,-142.578
1532279583.903,36.621,34.180,16.602,46.875,-106.445
1532279583.906,49.316,36.133,18.555,51.270,141.113
1532279583.910,55.176,35.156,21.484,62.012,174.316
1532279583.914,50.293,33.203,23.438,54.688,-77.637
1532279583.918,41.504,34.180,23.438,43.457,-176.270
1532279583.922,32.227,33.203,26.367,51.270,84.473
1532279583.926,39.551,31.738,27.832,54.688,240.723
1532279583.930,54.199,30.273,24.902,44.922,11.230
1532279583.934,54.199,28.809,24.902,41.504,-182.617
1532279583.938,34.180,26.855,28.809,52.734,-1.465
1532279583.942,25.879,29.785,27.832,56.641,236.328
1532279583.946,41.016,35.156,20.020,44.922,85.938
1532279583.949,51.270,33.691,17.578,40.039,-158.203
1532279583.953,46.387,29.785,20.508,40.527,-84.961
1532279583.957,30.762,25.391,26.367,61.523,172.363
1532279583.961,25.879,21.973,29.297,63.965,156.738
1532279583.965,32.227,23.438,23.926,39.551,-114.746
1532279583.969,36.621,22.949,22.461,34.668,-123.535
1532279583.973,41.016,25.879,25.391,37.598,125.000
1532279583.977,40.039,28.320,28.320,48.340,207.031
1532279583.981,44.434,28.809,29.785,58.105,-27.832
1532279583.985,50.781,30.762,26.855,41.504,-146.973
1532279583.989,56.152,30.273,24.902,43.945,55.664
1532279583.992,39.551,26.367,25.879,55.176,213.867
1532279583.996,36.133,28.320,24.414,50.293,47.363
1532279584.000,55.176,36.133,24.414,50.781,-155.273
1532279584.004,45.898,34.668,24.414,48.828,-23.438
1532279584.008,45.410,32.227,23.926,48.828,199.707
1532279584.012,40.527,31.738,28.809,50.781,80.566
1532279584.016,38.086,32.715,24.414,46.875,-179.199
1532279584.020,52.246,34.668,20.996,54.199,-114.258
1532279584.024,49.316,36.621,24.414,50.293,156.738
1532279584.028,39.551,38.086,25.391,43.457,172.363
1532279584.031,35.645,34.668,25.879,40.039,-103.516
1532279584.035,39.062,34.668,26.367,36.133,-161.621
1532279584.039,37.109,34.180,26.367,39.062,103.516
1532279584.043,35.645,32.227,26.367,36.621,227.539
1532279584.047,35.156,33.691,26.855,41.992,11.719
1532279584.051,32.715,34.180,27.832,40.039,-146.973
1532279584.055,32.227,30.762,25.879,26.367,50.781
1532279584.059,26.855,28.809,23.926,40.527,227.539
1532279584.063,29.297,29.297,28.809,51.758,49.805
1532279584.067,32.715,26.855,28.809,35.645,-154.785
1532279584.071,26.855,20.508,26.855,38.086,-33.691
1532279584.074,29.785,20.020,27.832,38.574,199.219
1532279584.078,31.250,24.414,27.344,22.461,115.234
1532279584.082,32.227,23.926,26.367,29.297,-141.113
1532279584.086,33.691,22.949,28.320,38.574,-104.492
1532279584.090,40.039,21.973,30.762,44.922,169.922
1532279584.094,39.062,23.438,25.879,37.109,186.523
1532279584.098,39.062,24.902,25.879,37.109,-117.676
1532279584.102,49.805,27.344,27.344,37.109,-168.945
1532279584.106,45.410,28.320,27.832,28.320,103.516
1532279584.110,36.621,26.855,29.297,38.086,243.652
1532279584.114,41.504,26.367,26.367,47.363,17.578
1532279584.117,47.852,26.367,24.902,35.645,-167.480
1532279584.121,40.527,26.367,29.297,29.785,36.621
1532279584.125,42.480,26.855,28.809,26.855,238.770
1532279584.129,50.293,26.367,25.391,22.461,69.824
1532279584.133,53.223,26.855,25.879,20.508,-159.668
1532279584.137,61.523,30.762,27.832,24.414,-62.500
1532279584.141,62.500,31.738,25.391,34.180,222.168
1532279584.145,63.477,32.715,32.227,58.105,190.918
1532279584.149,64.941,34.668,42.969,67.383,-99.121
1532279584.153,44.922,30.762,30.762,41.992,-132.812
1532279584.156,35.645,26.367,20.508,47.852,136.230
1532279584.160,39.062,21.484,23.438,48.828,219.727
1532279584.164,32.715,18.555,23.926,37.109,-43.945
1532279584.168,27.344,18.555,27.344,37.109,-153.320
1532279584.172,26.367,17.578,29.785,36.133,59.570
1532279584.176,25.879,19.043,31.738,41.504,193.848
1532279584.180,41.992,26.367,30.762,38.086,0.488
1532279584.184,42.969,28.320,25.879,37.598,-179.199
1532279584.188,26.367,25.879,22.949,21.484,9.277
1532279584.192,25.879,27.344,25.391,14.648,233.887
1532279584.196,29.785,24.414,27.344,31.250,104.492
1532279584.199,36.133,20.508,23.438,35.156,-150.391
1532279584.203,27.832,20.020,20.020,34.180,-75.195
1532279584.207,20.020,21.484,17.578,26.855,189.941
1532279584.211,27.832,29.297,16.113,22.461,153.809
1532279584.215,28.809,29.785,16.602,40.039,-113.770
1532279584.219,25.391,24.902,15.137,27.832,-126.953
1532279584.223,30.273,27.832,10.742,5.859,137.207
1532279584.227,32.715,28.320,9.766,20.508,218.262
1532279584.231,28.809,23.438,10.742,12.695,-9.766
1532279584.235,25.879,22.949,12.695,15.137,-148.926
1532279584.238,29.785,23.926,16.113,27.832,52.246
1532279584.242,35.156,22.949,15.625,31.250,244.629
1532279584.246,32.227,21.973,16.602,38.574,76.172
1532279584.250,26.367,21.484,19.531,30.273,-153.809
1532279584.254,23.926,19.043,20.508,36.621,-16.602
1532279584.258,25.879,22.949,22.461,48.340,229.980
1532279584.262,37.598,29.785,20.508,27.832,136.719
1532279584.266,37.598,30.762,18.066,10.742,-130.859
1532279584.270,23.438,28.809,19.043,30.273,-92.773
1532279584.274,23.926,26.855,18.555,26.367,162.109
1532279584.278,24.902,27.832,20.508,10.742,188.477
1532279584.281,22.461,28.320,24.414,19.531,-42.480
1532279584.285,30.273,29.785,22.461,31.250,-122.070
1532279584.289,25.391,33.203,18.066,22.949,116.211
1532279584.293,9.277,30.273,18.555,7.324,229.004
1532279584.297,5.859,31.738,20.996,9.766,-7.324
1532279584.301,8.789,33.203,22.949,13.672,-181.641
1532279584.305,12.207,35.156,17.578,20.996,21.484
1532279584.309,23.438,39.551,12.207,20.020,209.473
1532279584.313,16.602,36.621,16.113,3.906,41.016
1532279584.317,10.254,35.645,23.438,2.930,-175.293
1532279584.321,16.602,36.133,23.926,11.230,-60.547
1532279584.324,10.254,35.156,20.508,14.160,205.078
1532279584.328,9.766,35.645,20.996,12.695,152.344
1532279584.332,29.297,39.062,20.996,5.371,-123.047
1532279584.336,33.691,42.480,18.066,14.160,-127.930
1532279584.340,18.066,39.551,17.578,23.438,152.832
1532279584.344,13.184,38.574,21.484,12.207,215.332
1532279584.348,21.484,40.039,20.020,8.301,-53.223
1532279584.352,25.879,37.109,18.555,17.578,-150.879
1532279584.356,19.531,34.668,20.020,20.508,110.840
1532279584.360,17.578,35.156,16.602,11.719,229.980
1532279584.363,19.043,37.109,15.625,5.859,-6.836
1532279584.367,21.484,37.109,15.625,1.465,-170.898
1532279584.371,25.391,36.621,17.090,3.418,17.578
1532279584.375,29.297,37.109,18.555,-0.488,221.680
1532279584.379,30.273,35.156,18.066,-4.883,63.965
1532279584.383,26.367,34.180,15.625,7.324,-167.969
1532279584.387,26.855,36.133,13.672,8.789,-65.430
1532279584.391,12.695,34.180,16.113,10.742,192.871
1532279584.395,4.883,34.180,13.184,3.418,155.762
1532279584.399,17.090,33.691,15.137,6.836,-106.445
1532279584.403,19.531,31.738,16.113,14.648,-123.535
1532279584.406,21.973,34.180,6.836,15.625,148.926
1532279584.410,26.367,35.156,6.348,10.254,214.355
1532279584.414,20.996,37.109,11.719,-6.348,-63.477
1532279584.418,18.066,34.180,13.184,2.930,-175.781
1532279584.422,23.438,31.738,11.230,23.438,99.609
1532279584.426,24.902,35.645,6.348,23.438,263.184
1532279584.430,18.555,36.621,7.812,7.812,18.066
1532279584.434,20.508,37.598,12.207,11.230,-217.773
1532279584.438,16.113,40.039,12.207,15.137,-58.105
1532279584.442,5.859,40.039,10.254,5.859,212.891
1532279584.446,15.137,39.551,14.160,5.371,93.750
1532279584.449,21.484,41.992,16.113,6.836,-166.504
1532279584.453,15.625,41.992,17.090,11.230,-99.609
1532279584.457,20.020,40.039,20.020,19.531,139.648
1532279584.461,25.391,42.480,20.020,24.414,152.344
1532279584.465,23.926,42.969,19.531,26.855,-106.934
1532279584.469,22.461,41.016,20.996,22.949,-123.535
1532279584.473,23.926,39.551,20.508,24.414,120.117
1532279584.477,21.484,38.574,23.438,27.344,190.430
1532279584.481,5.371,37.598,25.879,18.066,-28.809
1532279584.485,8.301,35.645,25.391,21.484,-180.664
1532279584.488,17.578,35.645,28.320,19.531,33.203
1532279584.492,19.531,40.039,28.809,19.531,229.004
1532279584.496,34.180,42.480,29.785,28.320,39.062
1532279584.500,29.297,42.480,27.832,25.391,-192.383
1532279584.504,18.555,43.457,23.438,25.879,-50.293
1532279584.508,26.855,45.898,23.438,35.156,209.473
1532279584.512,28.320,43.945,26.367,29.297,118.164
1532279584.516,27.832,42.969,27.344,22.461,-162.598
1532279584.520,25.879,44.922,25.391,33.203,-130.859
1532279584.524,25.879,44.922,25.879,44.434,170.410
1532279584.528,25.391,44.434,24.902,34.180,212.402
1532279584.531,22.949,42.969,23.438,22.949,-105.957
1532279584.535,32.227,43.457,25.879,32.227,-188.477
1532279584.539,33.203,43.457,28.809,37.109,103.027
1532279584.543,34.180,43.945,25.879,29.785,246.582
1532279584.547,33.691,44.922,21.484,25.391,3.418
1532279584.551,28.809,43.457,21.973,25.879,-194.336
1532279584.555,34.668,43.457,26.855,30.273,-24.902
1532279584.559,30.762,41.504,26.367,39.062,212.891
1532279584.563,24.902,39.551,26.855,36.621,65.918
1532279584.567,29.297,40.039,29.297,37.598,-191.895
1532279584.570,30.273,43.945,26.367,43.457,-55.176
1532279584.574,26.367,46.387,25.879,47.852,196.289
1532279584.578,22.949,44.434,29.297,50.293,142.090
1532279584.582,24.902,42.480,29.297,35.156,-126.465
1532279584.586,41.016,41.992,29.785,35.645,-127.930
1532279584.590,45.898,41.016,32.227,56.641,148.926
1532279584.594,33.691,41.992,28.809,49.805,193.359
1532279584.598,33.203,45.898,25.879,33.203,-74.707
1532279584.602,41.504,47.363,28.320,40.527,-180.664
1532279584.606,40.527,44.434,30.273,47.852,70.312
1532279584.610,30.762,43.945,27.832,41.016,226.074
1532279584.613,23.926,43.945,26.855,31.738,-16.113
1532279584.617,23.438,42.480,29.785,29.785,-220.215
1532279584.621,23.926,39.062,32.227,35.645,-9.766
1532279584.625,24.414,35.156,32.715,35.156,233.398
1532279584.629,25.391,33.691,31.250,41.016,112.793
1532279584.633,24.414,37.109,27.344,38.574,-170.410
1532279584.637,18.555,38.574,22.461,32.715,-110.840
1532279584.641,21.484,38.574,19.043,33.691,187.012
1532279584.645,29.297,40.527,22.949,38.086,166.992
1532279584.649,24.414,38.574,27.344,38.086,-109.375
1532279584.653,23.438,35.645,30.762,38.086,-164.551
1532279584.656,22.461,32.715,31.250,36.621,107.422
1532279584.660,21.973,32.715,26.367,32.227,214.355
1532279584.664,32.227,36.133,24.902,36.621,-41.504
1532279584.668,29.297,37.109,22.949,42.480,-161.621
1532279584.672,22.461,33.203,20.996,43.945,67.871
1532279584.676,29.785,31.250,22.949,36.621,240.234
1532279584.680,35.156,32.715,22.949,40.039,30.273
1532279584.684,27.344,31.738,20.996,43.457,-189.453
1532279584.688,26.367,32.227,25.879,44.434,-17.090
1532279584.692,34.180,32.227,28.809,49.805,226.562
1532279584.695,42.480,33.203,24.902,44.922,97.168
1532279584.699,36.621,29.297,26.367,47.363,-168.457
1532279584.703,20.508,27.344,28.809,54.199,-108.887
1532279584.707,27.832,31.738,27.344,59.082,200.684
1532279584.711,36.133,33.691,24.414,52.734,218.262
1532279584.715,31.738,32.715,25.879,45.898,-89.844
1532279584.719,31.250,31.738,25.391,37.109,-163.086
1532279584.723,27.344,29.785,24.902,28.809,126.465
1532279584.727,32.715,30.273,26.855,30.273,261.719
1532279584.731,32.715,32.227,26.855,31.250,-17.090
1532279584.735,25.879,29.297,27.344,32.715,-212.402
1532279584.738,24.414,27.832,28.809,43.457,44.434
1532279584.742,24.414,27.344,31.250,33.691,296.875
1532279584.746,27.344,27.832,30.273,32.715,112.793
1532279584.750,28.320,29.785,26.855,42.969,-149.902
1532279584.754,27.832,33.691,26.855,37.109,-31.738
1532279584.758,22.949,35.645,26.367,29.297,245.117
1532279584.762,21.484,34.180,27.832,24.902,157.715
1532279584.766,29.297,36.621,26.855,25.391,-125.488
1532279584.770,30.762,38.574,25.391,32.227,-98.633
1532279584.774,29.785,37.109,28.809,39.062,164.551
1532279584.777,26.855,33.691,31.250,35.645,194.824
1532279584.781,26.855,32.715,30.273,26.855,-83.496
1532279584.785,30.273,31.738,30.762,33.691,-182.129
1532279584.789,30.273,28.809,32.227,43.945,98.145
1532279584.793,31.250,30.273,31.738,39.062,212.891
1532279584.797,41.504,32.227,30.762,38.086,-22.461
1532279584.801,40.039,29.297,29.785,41.504,-185.547
1532279584.805,30.762,26.855,26.367,36.133,25.391
1532279584.809,28.809,25.879,25.879,33.691,261.719
1532279584.813,38.086,25.879,29.297,41.504,89.355
1532279584.817,38.574,25.879,26.855,39.551,-165.527
1532279584.820,35.156,24.902,23.438,41.992,-37.109
1532279584.824,37.598,23.926,25.391,47.363,235.840
1532279584.828,29.297,21.973,28.320,45.410,172.363
1532279584.832,31.738,20.996,31.250,41.992,-131.348
1532279584.836,38.086,19.043,29.785,49.316,-171.387
1532279584.840,40.527,19.043,24.902,55.176,145.020
1532279584.844,44.434,23.926,22.461,47.852,236.816
1532279584.848,41.504,25.391,22.949,42.969,-33.203
1532279584.852,35.645,22.949,25.391,41.992,-181.152
1532279584.856,35.645,21.973,25.879,41.504,76.172
1532279584.860,34.668,22.949,24.414,40.527,272.949
1532279584.863,34.180,22.461,25.879,35.645,36.133
1532279584.867,34.668,22.461,28.809,33.691,-176.270
1532279584.871,30.762,22.461,28.809,34.668,18.555
1532279584.875,27.344,22.461,27.832,30.273,240.723
1532279584.879,24.902,22.461,29.297,26.855,105.469
1532279584.883,24.414,21.484,31.738,33.203,-142.578
1532279584.887,27.832,23.926,32.227,40.527,-73.730
1532279584.891,26.855,25.391,28.320,37.109,182.129
1532279584.895,25.879,29.297,29.297,30.273,148.438
1532279584.899,29.785,29.297,34.668,32.227,-125.488
1532279584.902,29.297,22.461,34.180,41.504,-132.812
1532279584.906,27.344,21.973,30.273,39.062,112.793
1532279584.910,29.297,24.902,29.297,33.691,167.969
1532279584.914,30.273,26.367,29.785,33.203,-76.660
1532279584.918,28.809,29.297,28.809,33.691,-199.219
1532279584.922,31.250,28.809,23.438,34.668,57.129
1532279584.926,31.738,27.832,24.902,32.227,239.746
1532279584.930,35.645,29.297,28.320,30.273,32.227
1532279584.934,32.227,28.320,25.879,26.855,-211.914
1532279584.938,22.461,25.391,25.391,30.273,-57.617
1532279584.942,34.180,24.414,29.785,43.945,242.676
1532279584.945,41.992,25.879,32.715,46.387,128.418
1532279584.949,40.527,26.367,30.762,38.574,-189.453
1532279584.953,38.574,28.320,27.344,40.039,-136.230
1532279584.957,35.645,32.715,22.461,47.363,166.016
1532279584.961,32.227,33.203,20.508,37.109,184.082
1532279584.965,27.832,31.250,22.461,30.273,-96.191
1532279584.969,28.809,31.738,21.973,31.250,-169.922
1532279584.973,32.227,31.250,20.020,33.203,105.469
1532279584.977,36.621,29.297,19.531,31.250,208.984
1532279584.981,38.086,33.203,17.090,29.297,-37.598
1532279584.985,37.109,36.621,17.578,31.250,-188.477
1532279584.988,38.086,33.691,19.531,28.320,32.227
1532279584.992,41.504,32.715,20.020,29.297,216.309
1532279584.996,49.316,33.691,19.043,30.762,14.160
1532279585.000,53.223,36.133,14.648,30.762,-187.500
1532279585.004,52.734,36.133,14.648,36.621,-61.523
1532279585.008,55.176,31.738,17.578,37.598,187.500
1532279585.012,47.852,29.785,18.555,35.645,121.582
1532279585.016,37.109,33.203,17.578,36.133,-175.293
1532279585.020,40.039,31.738,17.090,37.598,-141.113
1532279585.024,38.574,30.273,20.508,34.668,175.781
1532279585.027,29.785,31.738,19.043,33.203,219.727
1532279585.031,28.809,30.273,16.602,36.133,-56.152
1532279585.035,29.297,29.297,18.555,30.273,-218.262
1532279585.039,26.855,29.785,21.484,36.621,50.293
1532279585.043,25.879,28.809,19.043,43.457,264.648
1532279585.047,31.250,26.367,16.113,36.133,37.598
1532279585.051,33.203,28.320,17.578,30.762,-175.293
1532279585.055,30.273,27.832,18.555,37.109,13.672
1532279585.059,31.250,24.902,19.531,39.551,252.930
1532279585.063,40.039,26.367,21.973,33.203,106.934
1532279585.067,37.109,29.785,20.508,41.992,-149.414
1532279585.070,35.645,31.250,15.137,46.387,-72.266
1532279585.074,35.645,29.297,18.555,38.086,206.543
1532279585.078,38.574,27.832,20.508,39.551,174.316
1532279585.082,38.574,30.762,17.578,42.969,-126.465
1532279585.086,25.879,31.250,14.160,32.227,-140.137
1532279585.090,30.762,30.273,15.625,30.273,157.715
1532279585.094,38.086,30.762,20.996,40.527,233.887
1532279585.098,36.621,33.203,20.508,41.504,-21.484
1532279585.102,39.062,34.668,20.996,33.691,-127.441
1532279585.106,42.480,35.645,23.926,36.133,102.539
1532279585.109,35.645,34.180,20.020,40.039,248.047
1532279585.113,32.715,33.691,15.625,30.273,10.742
1532279585.117,39.551,35.645,19.043,27.832,-198.730
1532279585.121,34.668,35.645,20.996,32.715,-17.578
1532279585.125,31.250,36.133,19.043,29.785,229.004
1532279585.129,33.691,37.598,21.973,26.367,115.723
1532279585.133,32.227,39.062,23.926,20.508,-167.480
1532279585.137,29.297,38.086,22.949,19.043,-116.699
1532279585.141,27.832,37.598,21.973,27.344,208.984
1532279585.145,30.273,36.133,20.996,28.809,218.262
1532279585.149,25.879,35.156,21.973,21.973,-88.379
1532279585.152,19.043,34.180,26.367,20.020,-165.527
1532279585.156,20.996,31.250,30.762,29.785,86.426
1532279585.160,22.949,29.297,30.762,33.691,216.309
1532279585.164,29.297,31.738,31.738,30.762,-40.527
1532279585.168,32.715,35.645,30.273,29.785,-206.055
1532279585.172,28.809,38.574,22.461,24.414,33.203
1532279585.176,21.973,37.598,19.531,18.555,237.793
1532279585.180,13.672,33.691,24.902,19.043,53.223
1532279585.184,20.508,32.715,30.762,22.461,-178.223
1532279585.188,32.227,36.621,25.879,25.391,-24.414
1532279585.192,31.250,37.598,23.926,24.902,218.262
1532279585.195,26.367,37.109,29.297,18.066,125.488
1532279585.199,26.367,38.574,29.297,19.531,-141.602
1532279585.203,23.438,32.227,29.785,25.391,-105.957
1532279585.207,26.367,27.832,31.250,27.344,198.242
1532279585.211,28.809,31.738,32.715,31.250,223.145
1532279585.215,22.461,33.691,28.809,18.555,-94.727
1532279585.219,21.484,34.668,26.855,12.695,-167.480
1532279585.223,29.785,33.203,30.273,23.926,126.465
1532279585.227,26.367,29.297,35.156,21.484,255.371
1532279585.231,21.484,26.855,37.109,24.902,-10.742
1532279585.234,25.879,28.320,34.180,29.785,-185.547
1532279585.238,22.461,31.738,30.273,28.320,50.781
1532279585.242,21.484,32.227,27.344,32.227,275.879
1532279585.246,15.625,32.715,23.926,27.832,85.449
1532279585.250,23.438,34.180,22.949,21.973,-184.570
1532279585.254,28.809,37.109,21.484,25.879,-80.566
1532279585.258,20.508,35.156,17.578,22.461,199.707
1532279585.262,27.832,36.621,18.555,27.832,163.574
1532279585.266,30.762,39.062,17.090,35.156,-139.160
1532279585.270,26.855,37.598,18.066,32.715,-125.977
1532279585.274,29.297,37.598,19.531,33.691,153.809
1532279585.277,30.762,36.621,18.555,29.297,219.727
1532279585.281,27.344,33.691,17.090,28.809,-29.297
1532279585.285,28.809,31.250,18.555,34.668,-153.809
1532279585.289,36.621,30.273,21.973,44.434,83.984
1532279585.293,35.645,30.273,22.461,48.828,237.793
1532279585.297,33.691,33.691,22.461,44.434,-3.418
1532279585.301,37.109,37.109,24.902,46.875,-202.148
1532279585.305,37.109,36.621,22.949,37.598,3.418
1532279585.309,25.879,36.133,19.531,31.250,254.395
1532279585.313,11.230,35.645,22.949,26.855,97.168
1532279585.316,10.742,36.133,23.926,17.578,-191.406
1532279585.320,17.578,34.668,25.391,30.273,-87.891
1532279585.324,17.090,36.133,24.414,32.715,222.656
1532279585.328,19.531,41.992,20.508,28.320,186.035
1532279585.332,18.066,40.527,21.973,25.391,-155.762
1532279585.336,11.719,36.621,24.414,23.438,-188.477
1532279585.340,15.625,39.062,24.414,32.715,129.883
1532279585.344,20.020,39.551,21.973,33.691,222.168
1532279585.348,21.973,37.598,20.996,32.715,-56.152
1532279585.352,29.297,41.016,20.508,34.180,-200.684
1532279585.356,27.832,43.945,17.578,30.762,35.645
1532279585.359,23.438,41.992,18.066,30.762,236.328
1532279585.363,22.461,39.551,22.949,29.785,27.832
1532279585.367,18.066,35.156,21.973,28.320,-198.730
1532279585.371,21.484,34.180,20.508,36.621,-25.879
1532279585.375,27.832,39.551,19.531,36.133,251.465
1532279585.379,26.367,43.457,14.648,27.832,132.812
1532279585.383,34.668,42.969,16.602,39.551,-174.316
1532279585.387,36.133,40.527,20.020,44.922,-96.680
1532279585.391,25.391,38.574,18.555,37.598,210.449
1532279585.395,33.691,39.062,17.090,39.551,181.152
1532279585.399,34.180,39.062,24.902,44.434,-121.582
1532279585.402,24.902,34.668,29.297,42.480,-158.691
1532279585.406,25.879,29.297,26.855,47.363,145.508
1532279585.410,27.344,33.203,25.391,48.828,272.461
1532279585.414,23.926,38.086,22.949,36.621,0.000
1532279585.418,21.973,36.621,20.996,29.297,-169.434
1532279585.422,20.508,36.133,21.484,33.203,62.500
1532279585.426,17.090,38.574,23.926,30.762,262.695
1532279585.430,20.020,40.527,23.438,29.785,59.570
1532279585.434,25.391,41.992,22.461,36.621,-193.359
1532279585.438,20.996,41.504,24.902,36.133,-40.527
1532279585.441,22.949,35.645,27.344,38.086,240.723
1532279585.445,32.227,35.645,26.855,34.180,139.160
1532279585.449,35.156,40.039,21.484,33.203,-161.133
1532279585.453,41.504,41.992,19.531,30.762,-128.418
1532279585.457,35.645,41.504,23.926,23.438,176.270
1532279585.461,25.391,40.527,25.879,27.832,221.680
1532279585.465,32.227,40.039,22.461,31.250,-74.219
1532279585.469,35.156,35.645,23.926,39.551,-174.316
1532279585.473,35.645,33.203,28.320,40.039,91.797
1532279585.477,41.016,37.109,21.973,36.133,251.465
1532279585.481,34.668,39.062,20.508,33.691,12.695
1532279585.484,28.320,35.645,24.902,26.855,-201.660
1532279585.488,30.273,32.715,25.879,31.250,16.602
1532279585.492,38.086,32.715,26.855,34.180,244.141
1532279585.496,43.457,37.109,25.391,28.320,69.824
1532279585.500,40.527,40.527,22.949,29.297,-176.758
1532279585.504,28.809,41.016,21.973,30.762,-24.902
1532279585.508,23.438,37.598,24.902,28.320,276.367
1532279585.512,25.879,35.645,29.785,28.320,167.480
1532279585.516,27.832,38.086,27.344,27.832,-131.348
1532279585.520,37.109,37.109,23.926,32.227,-114.258
1532279585.524,33.691,35.645,23.926,33.691,180.664
1532279585.527,25.879,38.574,23.438,19.043,253.418
1532279585.531,28.320,39.062,23.926,16.113,-51.270
1532279585.535,33.691,37.598,27.344,24.902,-202.148
1532279585.539,29.297,34.180,28.320,29.297,81.055
1532279585.543,26.855,31.250,28.809,26.855,270.508
1532279585.547,30.762,31.738,29.785,29.297,35.156
1532279585.551,35.156,29.785,28.320,31.738,-195.801
1532279585.555,35.645,27.344,26.855,30.762,6.836
1532279585.559,31.738,23.926,27.344,36.133,294.922
1532279585.563,33.691,26.855,24.902,33.203,154.297
1532279585.566,39.551,35.156,19.043,31.738,-130.371
1532279585.570,44.922,37.109,17.578,31.250,-46.387
1532279585.574,41.504,35.156,20.020,32.227,214.355
1532279585.578,37.598,33.203,20.996,40.039,186.035
1532279585.582,39.551,32.715,20.996,40.039,-105.469
1532279585.586,39.062,29.785,23.438,40.039,-138.672
1532279585.590,41.992,27.832,26.367,41.504,153.320
1532279585.594,52.246,29.785,27.832,44.922,213.379
1532279585.598,45.410,32.715,21.973,38.086,-62.500
1532279585.602,33.691,36.621,15.625,28.320,-190.918
1532279585.606,38.574,38.574,15.625,30.762,60.547
1532279585.609,34.180,37.109,20.508,32.227,234.863
1532279585.613,27.344,35.645,25.391,29.785,28.809
1532279585.617,24.902,34.668,26.367,31.250,-188.965
1532279585.621,31.250,33.203,29.297,35.156,-52.734
1532279585.625,41.504,34.180,26.855,38.086,219.238
1532279585.629,39.551,34.668,26.367,39.062,140.625
1532279585.633,35.645,34.668,32.715,32.227,-190.918
1532279585.637,38.086,33.203,34.668,30.762,-153.809
1532279585.641,35.645,32.227,33.691,43.945,188.477
1532279585.645,32.715,34.180,32.227,47.363,208.496
1532279585.648,36.621,35.645,31.250,40.527,-84.961
1532279585.652,37.598,36.621,26.855,35.156,-161.621
1532279585.656,35.645,37.109,22.461,37.109,128.418
1532279585.660,41.016,36.621,23.926,39.062,264.160
1532279585.664,36.621,34.668,26.367,33.203,-1.953
1532279585.668,38.086,31.250,25.391,30.762,-202.637
1532279585.672,45.410,28.320,25.879,33.691,26.367
1532279585.676,37.109,26.367,28.809,36.621,250.488
1532279585.680,33.203,27.344,29.297,34.180,77.637
1532279585.684,34.668,28.320,24.902,26.855,-203.125
1532279585.688,37.598,28.809,22.461,35.645,-93.262
1532279585.691,34.668,29.785,26.367,33.691,217.773
1532279585.695,27.832,28.809,27.832,21.484,142.578
1532279585.699,28.320,27.832,25.391,20.996,-161.133
1532279585.703,30.762,27.832,24.902,28.320,-124.512
1532279585.707,25.879,26.855,27.832,31.250,178.223
1532279585.711,27.344,25.879,27.344,28.809,207.031
1532279585.715,31.250,27.832,27.832,28.809,-97.656
1532279585.719,31.738,27.832,28.320,36.621,-199.707
1532279585.723,27.832,25.879,27.832,38.086,97.168
1532279585.727,23.438,30.762,27.832,30.762,253.418
1532279585.731,27.832,32.227,24.902,25.391,-12.695
1532279585.734,24.414,28.320,24.414,23.438,-224.121
1532279585.738,29.297,27.344,27.344,28.809,8.301
1532279585.742,32.227,25.391,30.762,30.762,258.789
1532279585.746,28.320,25.391,31.738,28.320,83.496
1532279585.750,36.133,25.879,24.414,31.738,-187.500
1532279585.754,43.457,29.785,19.531,29.297,-92.773
1532279585.758,37.109,33.691,21.484,22.461,214.355
1532279585.762,31.250,32.227,25.879,23.438,199.707
1532279585.766,36.133,29.785,30.762,29.785,-142.090
1532279585.770,32.715,27.832,28.809,33.203,-161.133
1532279585.773,34.668,27.344,25.879,34.180,124.512
1532279585.777,41.992,26.855,27.832,37.598,199.219
1532279585.781,36.621,26.367,31.738,37.109,-39.551
1532279585.785,33.203,26.855,30.273,37.598,-179.688
1532279585.789,32.715,23.926,30.273,43.457,83.984
1532279585.793,32.715,21.973,31.250,49.316,270.020
1532279585.797,34.668,25.391,30.762,45.898,29.297
1532279585.801,34.668,27.344,32.227,38.574,-192.871
1532279585.805,26.855,24.902,32.227,36.621,-13.672
1532279585.809,24.902,24.414,32.227,36.621,232.910
1532279585.813,28.320,26.855,33.203,30.273,95.703
1532279585.816,30.273,25.391,31.738,23.438,-190.918
1532279585.820,33.691,25.879,32.715,28.320,-84.961
1532279585.824,33.691,24.902,34.668,28.809,248.047
1532279585.828,38.086,20.508,32.227,26.855,211.914
1532279585.832,44.922,23.438,36.621,24.902,-138.184
1532279585.836,42.480,25.391,38.574,28.809,-177.246
1532279585.840,34.180,20.996,36.133,39.062,154.785
1532279585.844,44.434,20.996,36.133,45.898,237.793
1532279585.848,50.293,23.926,34.668,42.969,-45.410
1532279585.852,31.738,22.461,35.645,37.598,-194.336
1532279585.856,19.043,16.602,38.086,40.039,44.922
1532279585.859,22.949,15.625,38.574,43.945,242.188
1532279585.863,31.738,17.090,39.062,45.898,28.320
1532279585.867,29.785,17.090,38.086,47.852,-222.168
1532279585.871,32.227,17.090,37.598,53.711,-41.504
1532279585.875,32.715,14.160,38.574,55.176,230.469
1532279585.879,30.762,11.719,39.551,55.176,122.070
1532279585.883,43.457,17.090,39.551,58.105,-177.734
1532279585.887,47.852,23.438,37.109,56.152,-132.324
1532279585.891,41.992,23.926,35.156,46.387,207.520
1532279585.895,39.551,20.508,36.133,39.062,213.867
1532279585.898,24.902,19.043,38.086,37.598,-104.004
1532279585.902,17.090,20.996,37.109,41.992,-161.133
1532279585.906,39.551,20.996,33.691,49.805,142.090
1532279585.910,43.945,20.020,32.227,43.457,272.949
1532279585.914,41.016,21.484,35.156,28.320,-20.508
1532279585.918,34.668,23.926,33.203,31.738,-217.285
1532279585.922,8.789,24.414,33.691,45.898,32.715
1532279585.926,20.508,23.438,36.621,45.410,256.348
1532279585.930,31.738,21.973,35.645,40.527,60.059
1532279585.934,30.762,23.926,33.691,45.410,-206.543
1532279585.938,54.688,23.926,33.691,46.875,-64.941
1532279585.941,42.969,17.578,36.621,41.992,224.121
1532279585.945,38.574,18.066,34.668,40.527,164.551
1532279585.949,36.133,20.508,35.156,43.457,-126.465
1532279585.953,33.203,20.508,39.062,49.805,-131.348
1532279585.957,33.203,22.461,36.621,43.945,175.293
1532279585.961,30.273,22.461,33.203,37.598,240.723
1532279585.965,32.227,22.461,34.668,43.457,-62.012
1532279585.969,48.828,27.344,35.645,46.387,-163.086
1532279585.973,52.246,25.391,33.691,44.434,81.543
1532279585.977,37.109,21.484,30.273,37.598,192.383
1532279585.980,36.621,20.996,29.785,38.574,-20.508
1532279585.984,47.852,23.926,28.320,39.551,-205.078
1532279585.988,50.293,25.879,25.391,36.621,13.672
1532279585.992,38.574,24.414,28.809,36.621,272.461
1532279585.996,30.273,23.926,31.738,35.645,89.355
1532279586.000,32.715,21.973,30.273,33.203,-212.891
1532279586.004,30.273,21.484,30.273,35.156,-134.766
1532279586.008,29.297,21.973,33.691,41.992,189.941
1532279586.012,53.223,22.461,36.133,44.922,186.523
1532279586.016,42.480,19.531,36.621,44.434,-134.766
1532279586.020,28.320,13.672,35.645,45.898,-184.570
1532279586.023,51.270,11.230,35.645,48.340,109.375
1532279586.027,46.387,10.742,37.598,53.711,217.773
1532279586.031,44.922,12.695,40.039,53.223,-63.477
1532279586.035,40.039,12.695,45.410,49.316,-201.660
1532279586.039,42.480,10.254,43.945,50.293,98.633
1532279586.043,37.109,16.602,36.621,47.852,260.254
1532279586.047,24.902,24.414,31.738,39.551,7.812
1532279586.051,41.504,22.949,33.691,23.926,-212.402
1532279586.055,30.762,20.508,33.691,20.508,-37.598
1532279586.059,40.039,23.926,32.227,34.180,229.980
1532279586.063,51.270,25.391,35.645,40.039,120.117
1532279586.066,31.738,23.438,36.621,38.086,-167.969
1532279586.070,41.992,23.926,35.156,40.527,-94.727
1532279586.074,52.734,25.879,32.715,37.598,219.727
1532279586.078,25.879,23.438,33.203,38.086,202.148
1532279586.082,37.598,20.996,36.621,40.039,-108.398
1532279586.086,44.922,18.555,36.133,39.062,-177.734
1532279586.090,29.297,18.555,36.133,30.762,120.117
1532279586.094,14.648,20.508,37.109,27.344,238.770
1532279586.098,5.859,21.973,35.156,35.645,-58.105
1532279586.102,31.250,21.484,34.668,36.133,-212.402
1532279586.105,32.227,19.043,38.574,32.227,62.988
1532279586.109,30.273,18.555,44.434,40.527,260.742
1532279586.113,37.598,22.949,42.969,44.434,29.785
1532279586.117,33.691,30.273,32.715,41.504,-206.543
1532279586.121,29.297,31.738,32.227,44.434,-37.109
1532279586.125,22.461,29.785,35.156,37.598,237.305
1532279586.129,22.461,31.738,35.645,30.273,132.324
1532279586.133,30.762,33.691,34.668,31.738,-196.777
1532279586.137,27.344,31.738,31.250,30.273,-159.180
1532279586.141,23.438,29.297,29.785,21.484,175.293
1532279586.145,13.672,27.832,28.809,20.508,204.102
1532279586.148,14.648,27.832,29.785,25.391,-110.840
1532279586.152,29.297,25.879,33.691,28.320,-209.961
1532279586.156,30.762,22.461,33.691,33.203,74.707
