timestamps,TP9,AF7,AF8,TP10,Right AUX
1532402911.794,30.762,43.457,42.969,63.965,32.715
1532402911.797,20.508,25.879,38.086,56.641,34.180
1532402911.801,18.555,18.555,35.645,56.641,26.855
1532402911.805,22.461,26.855,35.156,55.664,25.879
1532402911.809,23.926,31.738,36.621,59.570,34.180
1532402911.813,25.879,25.391,39.062,64.453,28.809
1532402911.817,30.273,25.391,41.016,65.430,0.977
1532402911.821,28.809,30.762,36.621,70.312,0.977
1532402911.825,25.391,21.973,32.227,78.613,6.348
1532402911.829,22.949,19.043,30.762,80.078,-14.160
1532402911.833,24.902,27.832,30.273,85.938,-4.883
1532402911.836,32.227,39.551,36.133,97.168,-10.742
1532402911.840,32.227,37.109,38.086,101.074,10.742
1532402911.844,30.762,37.109,35.645,104.492,32.227
1532402911.848,27.832,34.668,34.180,100.098,12.695
1532402911.852,28.809,23.926,33.203,96.680,25.391
1532402911.856,31.738,20.020,33.203,96.191,10.742
1532402911.860,33.203,24.902,31.738,96.191,14.648
1532402911.864,34.668,30.762,31.738,98.145,20.508
1532402911.868,38.086,35.156,33.691,98.633,28.809
1532402911.872,38.574,43.457,33.691,101.074,30.273
1532402911.876,36.621,48.828,36.133,102.539,-2.441
1532402911.879,33.203,41.016,35.156,96.191,9.766
1532402911.883,28.320,29.297,30.273,92.773,22.461
1532402911.887,28.809,18.555,32.227,96.680,12.207
1532402911.891,36.133,15.625,38.086,104.004,2.930
1532402911.895,35.645,23.926,37.109,97.656,-5.371
1532402911.899,24.902,34.180,28.809,81.055,23.438
1532402911.903,26.367,39.551,29.297,83.008,29.297
1532402911.907,33.203,55.176,34.180,85.938,0.488
1532402911.911,29.297,48.828,34.668,73.242,-1.465
1532402911.915,19.531,21.484,29.785,68.848,18.555
1532402911.919,13.184,17.578,23.926,67.383,35.645
1532402911.922,20.996,26.367,25.879,70.801,52.734
1532402911.926,28.809,37.598,32.715,78.613,38.086
1532402911.930,23.926,29.785,30.762,79.102,45.898
1532402911.934,29.297,31.738,35.156,88.379,38.574
1532402911.938,31.738,50.293,33.691,91.309,14.648
1532402911.942,20.996,28.320,28.320,83.496,15.137
1532402911.946,22.949,16.113,37.598,87.402,43.945
1532402911.950,25.391,24.414,41.992,89.844,63.965
1532402911.954,25.391,26.367,42.969,92.285,42.969
1532402911.958,24.902,26.367,38.086,93.750,7.812
1532402911.961,20.020,28.809,37.109,89.844,28.320
1532402911.965,19.531,33.203,39.551,86.914,46.875
1532402911.969,24.902,33.691,39.062,81.055,30.762
1532402911.973,23.438,35.645,36.133,74.219,23.438
1532402911.977,20.996,28.809,35.645,78.613,20.996
1532402911.981,19.043,14.160,36.133,81.055,39.551
1532402911.985,20.996,17.578,35.156,81.055,29.785
1532402911.989,24.414,23.926,35.645,82.031,29.785
1532402911.993,18.555,20.996,36.133,76.660,29.785
1532402911.997,17.090,17.578,37.598,70.801,14.648
1532402912.001,21.484,24.902,38.086,72.266,20.020
1532402912.004,24.414,31.738,36.621,73.242,28.809
1532402912.008,27.344,31.738,32.715,68.848,9.277
1532402912.012,22.949,25.391,28.809,68.848,3.906
1532402912.016,18.555,13.184,32.227,73.730,20.508
1532402912.020,18.066,9.277,37.109,73.730,17.090
1532402912.024,18.555,18.066,38.086,74.219,41.016
1532402912.028,18.555,18.555,38.574,71.777,30.273
1532402912.032,21.973,22.461,45.898,72.266,25.391
1532402912.036,24.902,33.691,42.480,77.148,48.828
1532402912.040,27.832,34.668,38.086,76.660,26.367
1532402912.044,25.879,24.414,38.574,73.242,16.113
1532402912.047,22.461,15.137,34.668,69.336,15.625
1532402912.051,24.902,17.578,39.551,67.871,34.180
1532402912.055,20.508,25.391,40.039,64.941,28.320
1532402912.059,15.625,18.555,34.180,61.523,3.418
1532402912.063,24.902,21.973,37.598,66.406,34.668
1532402912.067,29.297,33.203,40.039,62.988,39.551
1532402912.071,23.926,24.902,37.109,55.176,28.809
1532402912.075,25.879,17.578,35.645,59.570,42.969
1532402912.079,27.832,20.508,38.574,61.035,42.480
1532402912.083,29.785,25.879,36.133,60.059,26.367
1532402912.086,28.320,25.879,37.598,53.223,12.695
1532402912.090,24.414,20.020,38.086,51.270,5.859
1532402912.094,27.344,23.438,35.645,61.035,17.578
1532402912.098,27.344,29.785,39.062,66.406,55.664
1532402912.102,26.855,30.273,39.551,69.824,61.035
1532402912.106,26.367,29.785,41.016,66.895,6.348
1532402912.110,21.973,22.949,48.828,63.965,15.625
1532402912.114,20.996,18.066,44.434,70.312,22.461
1532402912.118,25.391,25.391,42.480,74.707,23.926
1532402912.122,20.020,18.066,44.434,70.801,56.641
1532402912.126,14.160,14.160,42.480,68.359,18.066
1532402912.129,18.066,21.973,41.504,70.801,-1.465
1532402912.133,20.020,25.879,39.551,72.266,26.367
1532402912.137,14.160,24.902,40.527,67.383,31.250
1532402912.141,16.602,18.066,43.945,65.918,37.109
1532402912.145,20.508,21.973,45.898,71.289,56.152
1532402912.149,22.461,26.367,46.875,67.871,38.086
1532402912.153,26.855,23.438,52.246,70.312,0.977
1532402912.157,28.320,30.762,48.340,77.148,35.156
1532402912.161,22.461,27.832,40.039,74.219,68.848
1532402912.165,17.090,14.648,40.527,69.824,46.875
1532402912.169,17.578,9.766,39.062,66.895,29.297
1532402912.172,20.508,13.672,39.062,63.965,45.898
1532402912.176,14.160,16.113,40.039,61.035,28.320
1532402912.180,15.625,22.461,41.992,67.383,-3.906
1532402912.184,18.066,20.996,44.434,64.941,13.184
1532402912.188,12.695,19.043,39.551,57.617,4.395
1532402912.192,20.020,37.109,42.480,62.500,0.488
1532402912.196,20.996,29.297,41.016,61.523,25.879
1532402912.200,15.137,5.859,34.668,56.641,17.578
1532402912.204,19.531,12.207,43.457,62.988,2.441
1532402912.208,20.996,20.508,47.363,60.547,-12.695
1532402912.212,22.461,23.438,40.039,58.105,5.371
1532402912.215,21.484,24.414,35.156,63.477,52.734
1532402912.219,15.625,17.090,38.574,59.082,38.086
1532402912.223,18.066,25.391,44.922,63.965,20.020
1532402912.227,15.625,36.621,41.504,60.059,23.438
1532402912.231,11.230,17.578,34.180,49.316,30.273
1532402912.235,11.719,6.836,36.133,51.270,23.438
1532402912.239,10.742,11.230,37.109,52.734,40.039
1532402912.243,15.625,15.137,38.086,54.688,52.246
1532402912.247,20.508,19.043,42.969,51.758,18.066
1532402912.251,19.531,25.391,39.062,46.875,6.348
1532402912.254,19.043,27.344,33.203,54.688,20.020
1532402912.258,22.461,19.043,37.109,60.547,20.996
1532402912.262,22.949,24.902,41.016,63.965,23.438
1532402912.266,17.578,28.809,40.527,59.570,18.555
1532402912.270,16.602,13.184,31.250,49.805,9.277
1532402912.274,19.531,9.766,28.320,51.270,28.809
1532402912.278,23.438,20.508,35.156,57.617,36.621
1532402912.282,24.902,25.879,41.016,62.500,30.762
1532402912.286,24.902,23.926,39.551,57.617,4.395
1532402912.290,26.367,26.855,32.227,52.246,-17.578
1532402912.294,24.902,21.484,30.762,47.852,19.043
1532402912.297,30.273,19.531,39.551,52.734,49.316
1532402912.301,33.203,21.484,37.598,53.223,50.781
1532402912.305,32.227,14.160,29.785,48.340,42.480
1532402912.309,37.109,21.973,32.715,49.805,30.762
1532402912.313,39.551,25.879,32.715,47.363,52.246
1532402912.317,48.828,23.438,36.133,51.270,62.012
1532402912.321,54.688,29.297,32.715,55.664,45.898
1532402912.325,43.945,22.949,26.367,55.176,38.086
1532402912.329,33.691,13.184,24.902,57.129,-0.977
1532402912.333,28.320,18.066,31.250,62.988,-5.371
1532402912.337,25.391,19.531,38.574,62.988,-0.488
1532402912.340,29.297,24.414,41.016,67.383,8.789
1532402912.344,26.367,27.832,38.574,65.918,68.848
1532402912.348,20.996,17.578,38.574,54.199,22.461
1532402912.352,20.996,17.090,39.062,54.199,-3.906
1532402912.356,20.508,11.719,31.250,55.664,44.434
1532402912.360,27.344,15.625,35.156,58.105,62.012
1532402912.364,28.809,19.043,32.715,58.594,62.988
1532402912.368,27.344,23.926,28.809,58.105,56.641
1532402912.372,26.855,25.391,34.180,56.641,37.109
1532402912.376,20.020,9.277,36.621,50.293,8.789
1532402912.379,19.043,13.672,35.645,44.922,25.879
1532402912.383,20.020,16.113,30.762,42.480,60.547
1532402912.387,19.043,7.812,30.762,40.039,37.109
1532402912.391,19.531,12.207,31.250,34.180,-13.184
1532402912.395,20.996,12.207,32.715,41.992,6.836
1532402912.399,26.855,16.113,36.133,52.734,40.039
1532402912.403,28.809,26.367,30.273,48.828,39.551
1532402912.407,23.926,17.578,28.809,41.504,22.461
1532402912.411,26.855,19.043,32.227,44.434,31.250
1532402912.415,31.250,29.297,31.250,48.340,35.645
1532402912.419,24.902,16.113,26.855,41.992,27.344
1532402912.422,22.949,12.695,32.227,40.039,58.594
1532402912.426,23.438,19.043,34.668,39.551,48.340
1532402912.430,22.461,14.160,27.832,36.133,2.441
1532402912.434,21.973,18.555,32.715,43.457,7.812
1532402912.438,18.555,20.020,31.738,42.969,19.043
1532402912.442,23.438,18.555,29.297,41.504,37.598
1532402912.446,29.297,27.344,33.203,43.945,47.363
1532402912.450,31.250,33.691,31.738,46.387,17.578
1532402912.454,31.250,26.855,32.715,48.828,15.625
1532402912.458,34.180,21.973,29.785,51.270,25.391
1532402912.462,36.621,22.461,25.879,52.246,13.184
1532402912.465,35.645,21.484,26.855,51.758,-3.418
1532402912.469,33.691,21.973,27.832,49.316,-2.930
1532402912.473,30.762,19.531,29.785,41.992,6.836
1532402912.477,30.273,17.090,29.785,41.016,7.812
1532402912.481,32.227,18.555,27.832,42.969,11.719
1532402912.485,37.109,31.738,30.273,44.434,13.184
1532402912.489,33.203,32.715,26.855,41.504,-2.930
1532402912.493,33.691,28.320,23.438,45.410,20.508
1532402912.497,33.203,21.484,26.367,48.340,42.969
1532402912.501,28.809,9.277,27.344,48.828,47.363
1532402912.504,32.227,14.648,27.832,54.688,55.664
1532402912.508,29.297,16.602,27.344,47.363,-6.348
1532402912.512,25.391,15.137,27.344,45.410,-31.250
1532402912.516,32.227,21.973,33.691,56.152,12.207
1532402912.520,37.598,27.832,39.551,60.547,14.648
1532402912.524,33.691,21.973,33.691,56.641,31.738
1532402912.528,35.156,13.672,26.855,46.387,21.484
1532402912.532,39.551,14.648,26.367,47.852,5.859
1532402912.536,37.598,17.090,26.367,52.734,30.762
1532402912.540,38.086,20.996,30.762,55.176,44.434
1532402912.544,39.551,26.855,35.645,57.129,54.688
1532402912.547,35.156,21.973,35.645,47.363,21.484
1532402912.551,35.645,17.578,40.039,52.246,16.602
1532402912.555,32.715,20.020,31.738,54.199,41.016
1532402912.559,26.367,12.695,30.762,47.363,38.086
1532402912.563,25.391,13.184,34.668,48.340,36.621
1532402912.567,21.973,19.043,25.879,42.969,46.387
1532402912.571,22.461,24.902,25.879,41.992,52.246
1532402912.575,23.438,24.414,30.273,49.805,65.918
1532402912.579,19.043,13.672,30.273,52.246,62.012
1532402912.583,19.043,13.672,28.809,54.688,66.895
1532402912.587,18.066,15.625,27.832,50.293,43.457
1532402912.590,15.625,13.184,29.785,46.875,3.906
1532402912.594,18.555,20.996,30.273,52.734,37.598
1532402912.598,12.695,19.043,25.391,48.828,62.500
1532402912.602,12.207,13.184,27.832,48.828,33.691
1532402912.606,20.020,21.973,35.645,53.223,-2.930
1532402912.610,19.531,19.531,38.086,51.758,11.230
1532402912.614,21.484,16.113,37.109,56.152,43.457
1532402912.618,21.973,21.484,34.668,56.641,61.035
1532402912.622,17.578,13.672,33.203,49.805,58.105
1532402912.626,14.648,8.301,31.250,42.969,45.410
1532402912.629,18.555,21.973,30.273,39.551,18.555
1532402912.633,20.020,24.902,29.297,38.086,0.000
1532402912.637,17.090,16.113,28.320,35.645,9.277
1532402912.641,19.043,15.137,30.762,37.109,35.156
1532402912.645,17.578,18.555,31.250,39.062,18.555
1532402912.649,19.043,23.438,33.203,43.457,20.508
1532402912.653,24.902,25.879,36.133,50.781,32.227
1532402912.657,24.414,24.414,31.250,54.199,37.598
1532402912.661,25.391,27.832,32.227,57.617,41.992
1532402912.665,26.855,33.691,33.203,59.082,51.270
1532402912.669,21.973,17.090,24.902,43.945,36.621
1532402912.672,25.879,7.324,24.414,42.480,27.344
1532402912.676,29.785,12.695,31.250,55.176,43.945
1532402912.680,29.297,14.648,31.738,54.199,57.617
1532402912.684,37.598,32.715,34.668,61.035,54.688
1532402912.688,35.156,38.086,35.156,58.594,43.457
1532402912.692,23.926,18.555,33.203,46.875,43.945
1532402912.696,21.484,9.766,25.391,45.410,63.965
1532402912.700,23.438,6.836,21.973,46.875,62.988
1532402912.704,27.832,13.184,27.344,49.316,25.879
1532402912.708,27.832,22.949,29.297,45.898,6.348
1532402912.712,27.344,23.438,29.297,44.434,9.766
1532402912.715,27.344,20.508,32.715,46.387,64.453
1532402912.719,28.320,24.414,35.156,47.852,64.453
1532402912.723,31.250,32.715,32.227,48.828,41.016
1532402912.727,34.180,30.762,29.785,44.922,27.832
1532402912.731,33.203,23.926,24.902,42.969,25.391
1532402912.735,29.297,14.160,22.461,40.527,52.734
1532402912.739,30.273,21.484,22.949,46.387,47.852
1532402912.743,30.273,29.785,21.484,45.898,41.016
1532402912.747,29.297,21.973,24.902,41.992,35.156
1532402912.751,28.809,23.438,26.367,44.434,29.297
1532402912.755,29.785,24.902,26.855,44.434,30.273
1532402912.758,31.250,22.949,30.762,42.969,41.016
1532402912.762,32.715,27.832,30.762,43.945,29.297
1532402912.766,23.926,23.926,22.461,40.039,12.695
1532402912.770,21.484,20.020,19.531,37.109,8.789
1532402912.774,25.879,25.879,20.508,39.551,21.973
1532402912.778,28.809,29.297,20.020,43.945,47.852
1532402912.782,27.832,29.297,20.996,47.852,39.062
1532402912.786,25.391,20.020,20.020,46.875,19.043
1532402912.790,27.832,19.043,21.484,46.875,12.207
1532402912.794,29.297,30.273,28.809,49.316,24.414
1532402912.797,25.391,29.297,28.320,49.805,14.160
1532402912.801,19.531,16.602,23.926,46.387,16.113
1532402912.805,23.438,22.949,28.320,46.875,14.160
1532402912.809,25.879,33.203,29.297,42.480,-8.301
1532402912.813,17.090,19.043,20.996,39.062,35.645
1532402912.817,9.766,10.254,21.973,37.109,52.246
1532402912.821,17.578,23.926,29.297,47.852,34.668
1532402912.825,25.879,32.715,32.227,52.246,38.574
1532402912.829,20.996,22.461,29.297,44.434,21.973
1532402912.833,20.996,18.555,26.855,54.199,24.414
1532402912.837,21.484,26.855,24.902,55.664,30.762
1532402912.840,21.484,23.438,20.508,52.246,20.508
1532402912.844,22.949,17.578,21.484,55.176,8.301
1532402912.848,23.926,19.043,21.484,47.363,-10.254
1532402912.852,23.926,23.926,21.973,44.922,-2.441
1532402912.856,31.250,34.668,31.738,56.641,38.086
1532402912.860,35.645,38.086,30.762,57.129,31.738
1532402912.864,28.320,32.227,19.531,50.781,47.363
1532402912.868,22.949,29.785,12.695,43.945,51.270
1532402912.872,24.414,21.973,11.719,40.527,30.762
1532402912.876,29.785,22.949,20.996,44.922,16.602
1532402912.880,26.367,20.996,23.438,41.504,5.859
1532402912.883,29.297,22.949,22.949,45.410,23.926
1532402912.887,25.391,26.855,17.578,42.969,39.062
1532402912.891,24.414,23.438,18.555,41.016,36.133
1532402912.895,30.273,30.762,22.949,47.363,23.926
1532402912.899,21.484,22.949,15.137,41.016,8.301
1532402912.903,18.066,14.160,14.648,37.109,26.855
1532402912.907,23.926,17.090,18.555,37.109,23.438
1532402912.911,23.438,20.508,24.902,40.039,-1.953
1532402912.915,30.273,33.691,27.832,47.363,20.996
1532402912.919,34.180,41.016,22.949,45.410,35.156
1532402912.922,24.902,16.113,14.648,35.156,28.320
1532402912.926,28.320,11.230,11.230,34.668,40.039
1532402912.930,28.320,23.438,9.766,36.133,35.156
1532402912.934,23.926,16.113,14.648,35.645,36.621
1532402912.938,33.203,22.949,18.555,38.086,60.059
1532402912.942,40.527,30.273,20.020,36.133,37.109
1532402912.946,42.480,25.391,23.438,30.762,9.277
1532402912.950,49.316,37.598,23.926,29.297,20.508
1532402912.954,46.387,40.039,22.461,36.621,26.855
1532402912.958,34.180,20.996,20.508,42.480,15.625
1532402912.962,29.297,20.508,18.555,47.852,18.555
1532402912.965,20.996,18.555,17.578,47.363,33.691
1532402912.969,20.996,18.555,21.973,47.363,15.625
1532402912.973,25.391,30.762,26.855,51.758,28.320
1532402912.977,23.438,34.668,30.273,56.152,38.086
1532402912.981,23.438,36.621,27.832,53.711,36.133
1532402912.985,18.555,24.414,17.578,45.410,30.273
1532402912.989,13.672,6.836,18.555,36.133,21.484
1532402912.993,16.602,8.789,24.414,35.645,30.762
1532402912.997,21.973,20.020,26.855,44.434,29.297
1532402913.001,24.902,30.273,28.809,47.363,35.645
1532402913.005,22.461,27.344,26.855,39.551,19.531
1532402913.008,26.367,32.227,30.762,41.016,6.348
1532402913.012,24.414,36.621,31.250,43.945,7.324
1532402913.016,15.625,23.926,23.926,37.109,15.137
1532402913.020,12.695,14.160,20.508,33.203,5.859
1532402913.024,12.695,13.672,26.855,35.156,15.137
1532402913.028,21.484,25.391,32.715,43.945,34.668
1532402913.032,29.785,20.508,29.785,48.828,22.949
1532402913.036,30.762,25.391,28.320,41.016,24.902
1532402913.040,27.344,37.598,27.344,30.762,31.250
1532402913.044,27.832,26.367,21.484,34.180,38.574
1532402913.047,27.832,24.414,21.973,34.180,29.785
1532402913.051,21.973,20.996,20.020,28.809,24.902
1532402913.055,18.066,20.996,20.996,28.320,18.555
1532402913.059,22.949,27.344,24.902,35.645,20.508
1532402913.063,25.879,26.855,24.902,39.062,36.621
1532402913.067,29.297,36.133,27.832,38.574,27.344
1532402913.071,28.809,35.645,24.414,33.203,35.156
1532402913.075,26.367,23.438,22.461,30.762,41.016
1532402913.079,29.297,23.438,25.879,33.691,18.066
1532402913.083,27.832,25.391,25.391,33.691,8.789
1532402913.087,27.832,28.320,22.949,25.391,5.859
1532402913.090,29.785,26.855,25.391,16.113,-5.371
1532402913.094,29.297,27.344,24.902,20.508,5.859
1532402913.098,25.391,25.879,21.484,22.949,5.371
1532402913.102,28.809,29.297,26.855,25.879,8.789
1532402913.106,30.273,31.738,28.809,22.949,19.043
1532402913.110,26.367,28.320,29.297,18.555,32.715
1532402913.114,25.879,19.531,28.320,21.484,37.598
1532402913.118,29.785,21.484,29.785,26.367,31.250
1532402913.122,31.738,29.785,30.273,28.320,41.504
1532402913.126,30.762,24.902,26.855,26.367,28.320
1532402913.130,31.738,22.461,28.320,26.855,23.926
1532402913.133,36.133,31.250,31.738,35.645,18.555
1532402913.137,31.738,17.090,28.809,34.180,3.906
1532402913.141,29.785,3.906,27.832,33.691,21.973
1532402913.145,36.133,20.508,32.715,40.527,30.762
1532402913.149,40.039,24.414,36.621,38.086,2.930
1532402913.153,35.156,8.789,32.715,33.691,37.598
1532402913.157,30.762,7.324,29.785,32.715,47.363
1532402913.161,37.598,14.648,30.273,35.645,3.418
1532402913.165,42.480,23.926,35.645,46.387,8.301
1532402913.169,37.598,20.508,32.227,45.410,19.043
1532402913.172,35.156,6.836,29.297,41.992,43.945
1532402913.176,39.062,7.324,37.109,46.875,55.664
1532402913.180,42.480,13.672,36.621,48.828,37.109
1532402913.184,41.016,13.184,31.738,45.410,31.250
1532402913.188,37.598,6.348,32.715,36.133,1.465
1532402913.192,35.645,10.254,33.203,34.180,-8.789
1532402913.196,35.156,18.555,34.668,41.016,8.301
1532402913.200,29.297,13.184,31.738,38.086,23.438
1532402913.204,29.297,7.324,27.344,39.062,41.504
1532402913.208,35.156,9.766,35.156,47.363,6.836
1532402913.212,32.715,13.672,36.621,47.852,18.066
1532402913.215,32.227,14.648,32.227,51.758,58.594
1532402913.219,35.156,14.648,30.762,53.711,32.715
1532402913.223,30.273,14.648,30.762,48.828,28.320
1532402913.227,27.344,8.301,30.273,46.875,10.742
1532402913.231,35.645,20.020,34.180,52.734,13.184
1532402913.235,32.715,23.926,37.109,55.664,51.270
1532402913.239,25.879,3.906,34.180,49.316,58.105
1532402913.243,29.785,0.977,39.062,50.781,58.594
1532402913.247,25.879,7.812,37.109,51.270,27.832
1532402913.251,26.855,18.066,35.156,53.223,51.270
1532402913.255,29.785,24.902,39.551,59.082,60.059
1532402913.258,23.926,13.672,34.180,51.758,20.020
1532402913.262,28.809,17.578,32.227,52.246,49.316
1532402913.266,31.738,29.297,28.809,51.270,29.297
1532402913.270,25.391,12.695,24.902,37.109,-11.719
1532402913.274,23.926,6.836,24.902,41.016,25.391
1532402913.278,24.902,14.648,23.926,47.852,28.809
1532402913.282,30.762,27.832,32.227,52.246,32.715
1532402913.286,31.738,28.320,34.668,50.293,43.945
1532402913.290,28.809,15.625,30.273,48.828,38.086
1532402913.294,34.668,20.508,33.203,56.152,22.461
1532402913.298,41.504,32.227,32.227,57.129,31.250
1532402913.301,41.504,23.926,28.809,52.734,23.926
1532402913.305,45.410,18.555,31.738,56.152,-4.395
1532402913.309,47.363,21.973,28.809,56.152,2.930
1532402913.313,46.875,22.461,24.414,54.199,11.719
1532402913.317,48.340,25.391,29.785,55.176,5.371
1532402913.321,45.898,20.996,30.762,51.270,-3.418
1532402913.325,48.828,32.227,36.133,55.176,-1.465
1532402913.329,46.387,35.156,35.645,49.805,-5.859
1532402913.333,45.410,16.602,34.668,43.945,13.184
1532402913.337,45.410,14.648,34.668,49.316,28.320
1532402913.340,38.574,15.137,29.785,48.828,-1.953
1532402913.344,39.062,15.625,34.180,51.270,6.836
1532402913.348,40.039,17.578,37.109,51.270,36.621
1532402913.352,41.016,18.555,34.180,50.293,34.668
1532402913.356,43.945,25.879,36.621,52.246,11.230
1532402913.360,41.992,27.344,37.598,50.781,26.367
1532402913.364,41.504,15.137,39.551,52.734,37.109
1532402913.368,41.992,16.602,39.551,50.781,2.930
1532402913.372,41.016,16.602,30.762,46.387,-4.395
1532402913.376,41.992,15.625,29.297,52.734,8.789
1532402913.380,47.363,28.320,39.062,57.129,33.691
1532402913.383,49.805,32.227,38.086,57.617,57.129
1532402913.387,43.457,30.762,32.715,52.734,32.715
1532402913.391,38.086,24.414,30.762,47.852,31.738
1532402913.395,43.457,13.672,30.762,52.246,53.711
1532402913.399,45.410,20.508,36.133,56.641,65.430
1532402913.403,39.551,21.973,30.762,52.246,47.363
1532402913.407,42.969,21.973,28.320,55.176,-1.465
1532402913.411,43.457,34.180,37.109,57.617,-1.465
1532402913.415,38.086,37.598,35.156,53.223,5.371
1532402913.419,36.133,28.320,25.879,48.828,50.293
1532402913.423,32.227,20.996,27.344,49.805,89.844
1532402913.426,31.738,29.297,35.156,50.293,39.551
1532402913.430,32.715,34.180,33.691,46.875,27.832
1532402913.434,31.738,24.414,32.227,49.805,64.941
1532402913.438,29.785,33.691,37.109,49.805,59.082
1532402913.442,22.461,26.855,29.297,46.387,41.504
1532402913.446,20.508,14.160,24.902,44.434,30.762
1532402913.450,22.949,24.414,29.297,43.945,37.109
1532402913.454,27.344,31.738,32.227,48.340,36.621
1532402913.458,27.832,35.645,32.715,48.340,20.020
1532402913.462,29.785,41.504,40.039,56.152,40.527
1532402913.465,26.855,40.039,40.039,54.199,28.809
1532402913.469,20.508,22.949,31.738,43.945,-3.418
1532402913.473,20.508,15.625,33.203,48.340,42.480
1532402913.477,23.926,31.250,34.668,58.105,50.781
1532402913.481,25.391,36.621,29.785,62.500,33.203
1532402913.485,22.949,28.809,34.180,60.059,35.156
1532402913.489,23.438,31.738,42.480,58.594,22.949
1532402913.493,20.508,29.785,36.621,56.152,21.973
1532402913.497,17.090,16.113,30.762,52.734,47.852
1532402913.501,21.484,18.555,32.227,56.641,40.527
1532402913.505,24.414,24.902,32.715,58.105,-15.625
1532402913.508,22.949,27.344,33.691,54.688,-5.859
1532402913.512,18.555,25.391,34.180,56.152,15.625
1532402913.516,22.949,36.133,40.039,66.895,44.922
1532402913.520,26.367,45.898,36.133,66.895,53.711
1532402913.524,16.602,19.531,25.391,55.664,31.738
1532402913.528,15.625,8.789,29.785,56.641,40.527
1532402913.532,20.996,20.020,32.715,60.547,66.895
1532402913.536,19.531,25.879,31.250,58.105,53.223
1532402913.540,18.066,29.297,32.227,55.664,26.367
1532402913.544,19.043,25.879,29.785,55.176,35.156
1532402913.548,19.531,31.250,30.273,54.199,45.410
1532402913.551,12.207,31.250,24.902,48.340,37.598
1532402913.555,8.301,14.160,25.879,43.945,59.082
1532402913.559,13.184,12.207,34.180,51.270,50.781
1532402913.563,17.578,24.414,35.156,62.012,43.457
1532402913.567,18.066,28.320,31.250,59.570,65.918
1532402913.571,20.020,22.949,27.832,53.223,31.738
1532402913.575,29.785,31.250,32.715,68.359,6.836
1532402913.579,30.762,34.668,35.156,68.359,41.504
1532402913.583,27.344,25.879,27.832,61.035,30.762
1532402913.587,31.738,22.461,21.973,61.035,23.926
1532402913.590,37.109,28.320,21.484,58.594,72.754
1532402913.594,41.992,40.039,25.391,66.406,37.598
1532402913.598,33.203,29.297,25.879,71.289,25.879
1532402913.602,21.484,15.625,27.832,74.219,39.551
1532402913.606,18.555,23.926,24.902,78.613,6.348
1532402913.610,20.508,31.250,31.250,83.496,-17.090
1532402913.614,17.578,27.344,32.715,86.426,1.465
1532402913.618,15.137,21.484,25.391,83.496,41.016
1532402913.622,17.578,26.367,27.832,85.938,49.316
1532402913.626,17.090,33.691,32.227,87.402,46.387
1532402913.630,12.695,23.438,30.762,82.520,34.180
1532402913.633,16.113,23.926,29.785,82.031,29.297
1532402913.637,24.902,43.945,35.645,87.402,36.621
1532402913.641,20.996,35.645,38.574,86.426,33.203
1532402913.645,11.719,14.160,29.297,75.195,23.438
1532402913.649,12.207,16.602,26.855,72.266,3.418
1532402913.653,16.113,25.879,30.762,78.613,-9.277
1532402913.657,20.508,30.273,30.273,81.543,3.418
1532402913.661,21.973,26.855,29.297,79.102,48.828
1532402913.665,26.855,35.645,32.227,83.496,56.641
1532402913.669,28.320,38.574,32.227,82.520,16.602
1532402913.673,22.461,20.996,30.273,76.660,23.926
1532402913.676,20.020,17.578,29.297,72.266,28.809
1532402913.680,19.531,24.414,25.391,68.359,33.691
1532402913.684,18.555,25.879,30.762,70.312,55.664
1532402913.688,20.020,26.855,34.180,67.871,12.207
1532402913.692,17.578,25.391,29.785,64.453,12.207
1532402913.696,17.578,29.785,31.738,66.895,54.199
1532402913.700,22.461,32.715,34.668,72.754,44.922
1532402913.704,21.484,16.602,30.762,72.266,29.785
1532402913.708,18.066,14.160,35.156,64.941,-9.277
1532402913.712,23.438,26.855,40.527,68.359,-22.461
1532402913.715,21.484,22.949,32.715,68.848,13.184
1532402913.719,25.879,35.645,36.621,73.242,46.387
1532402913.723,26.855,48.828,34.668,74.707,41.992
1532402913.727,14.160,17.578,25.391,62.012,9.277
1532402913.731,15.137,7.812,28.809,60.547,7.812
1532402913.735,19.531,16.602,31.738,65.918,17.090
1532402913.739,25.879,21.484,32.715,67.871,20.508
1532402913.743,32.227,26.855,35.645,68.359,53.223
1532402913.747,29.785,27.832,36.133,67.383,56.641
1532402913.751,28.809,33.203,31.738,64.453,21.973
1532402913.755,29.297,36.621,30.762,66.406,17.090
1532402913.758,29.297,40.039,30.762,67.383,20.508
1532402913.762,31.250,40.527,28.809,69.336,24.414
1532402913.766,28.809,24.414,29.297,67.383,18.066
1532402913.770,26.855,17.578,30.762,63.477,-9.277
1532402913.774,29.297,25.391,38.086,67.383,0.488
1532402913.778,33.203,39.551,42.969,73.730,25.391
1532402913.782,31.250,46.387,36.133,73.242,24.902
1532402913.786,23.926,28.320,30.762,63.965,13.672
1532402913.790,21.973,18.066,31.250,58.105,19.531
1532402913.794,21.484,27.344,29.297,61.035,56.152
1532402913.798,25.391,33.691,30.762,63.965,46.387
1532402913.801,22.461,30.273,33.203,60.059,36.133
1532402913.805,26.855,39.551,38.574,63.477,14.160
1532402913.809,31.738,45.898,40.527,63.477,23.438
1532402913.813,23.438,32.227,29.785,55.664,58.594
1532402913.817,19.043,24.414,27.344,49.805,35.156
1532402913.821,19.043,24.414,29.785,51.758,21.973
1532402913.825,21.484,31.250,30.762,54.688,10.254
1532402913.829,21.484,37.598,34.180,52.246,-11.230
1532402913.833,19.531,35.645,33.691,50.293,13.184
1532402913.837,16.113,29.297,31.250,48.828,30.273
1532402913.841,15.137,27.344,31.738,53.223,15.625
1532402913.844,17.090,34.668,35.156,62.012,34.180
1532402913.848,13.184,31.250,36.621,56.641,20.020
1532402913.852,12.207,29.785,37.598,60.059,-10.742
1532402913.856,16.602,34.180,40.039,71.289,26.855
1532402913.860,11.230,17.578,32.227,64.453,39.551
1532402913.864,12.207,13.672,32.715,66.406,33.203
1532402913.868,20.020,32.715,39.551,70.312,17.578
1532402913.872,18.066,30.762,35.156,67.871,7.324
1532402913.876,14.648,20.508,33.691,68.359,0.977
1532402913.880,19.531,29.297,35.645,71.289,-17.578
1532402913.883,25.879,42.969,40.527,76.172,23.926
1532402913.887,20.508,37.109,43.945,66.895,20.996
1532402913.891,11.230,18.555,37.598,51.270,5.371
1532402913.895,12.207,22.461,31.738,54.199,17.090
1532402913.899,17.090,29.297,37.109,61.035,56.641
1532402913.903,17.578,26.367,42.969,60.547,48.340
1532402913.907,18.555,25.879,38.574,58.105,9.766
1532402913.911,18.555,32.227,35.156,58.105,35.156
1532402913.915,18.066,35.156,37.109,59.082,40.527
1532402913.919,17.090,21.484,37.598,57.129,38.574
1532402913.923,20.996,15.625,38.574,60.059,5.859
1532402913.926,26.855,22.949,40.527,61.523,-29.297
1532402913.930,30.273,27.832,42.969,61.523,-37.109
1532402913.934,32.715,24.902,37.109,64.941,20.996
1532402913.938,44.922,36.621,41.016,70.801,55.664
1532402913.942,49.316,37.109,41.992,68.359,18.066
1532402913.946,44.922,18.066,36.133,65.430,17.090
1532402913.950,48.828,14.648,34.180,67.383,54.199
1532402913.954,52.246,23.926,31.738,67.871,52.246
1532402913.958,54.199,34.668,40.527,69.336,-0.977
1532402913.962,50.781,28.320,41.016,65.918,16.602
1532402913.966,54.199,25.391,36.133,63.477,34.668
1532402913.969,57.617,33.203,36.133,60.547,27.344
1532402913.973,53.223,32.715,36.133,57.617,52.734
1532402913.977,54.688,25.879,33.691,58.594,39.062
1532402913.981,54.688,20.996,30.273,58.594,6.348
1532402913.985,56.641,27.344,31.738,58.105,-3.418
1532402913.989,59.082,30.762,34.668,55.664,-12.207
1532402913.993,59.082,29.785,37.598,59.570,18.066
1532402913.997,67.871,39.062,40.527,71.289,45.410
1532402914.001,69.336,41.992,38.086,67.871,43.457
1532402914.005,62.500,30.762,30.273,57.617,18.555
1532402914.008,62.500,26.367,30.762,59.570,7.812
1532402914.012,63.965,28.320,34.668,64.453,13.184
1532402914.016,61.035,35.645,36.133,63.477,18.066
1532402914.020,57.617,39.062,36.133,61.035,26.855
1532402914.024,57.129,24.414,32.715,60.059,25.879
1532402914.028,64.453,33.691,40.039,58.594,8.301
1532402914.032,61.523,44.922,42.969,52.246,6.836
1532402914.036,50.293,27.344,39.062,49.805,15.625
1532402914.040,46.875,22.949,36.621,54.688,11.230
1532402914.044,44.922,32.715,35.156,54.199,48.828
1532402914.048,39.551,31.738,34.668,52.246,38.086
1532402914.051,41.992,29.297,37.109,56.152,10.254
1532402914.055,42.969,33.691,37.598,55.176,30.273
1532402914.059,35.156,23.438,35.156,48.340,25.391
1532402914.063,41.992,23.926,38.574,54.688,16.602
1532402914.067,45.410,29.785,39.062,50.293,24.902
1532402914.071,41.504,26.855,35.645,42.969,15.625
1532402914.075,45.898,32.227,37.109,52.246,37.598
1532402914.079,48.340,32.227,35.645,56.152,32.227
1532402914.083,46.387,30.762,32.227,53.711,20.996
1532402914.087,40.527,25.879,29.785,48.340,19.531
1532402914.091,39.062,18.555,30.273,46.875,6.836
1532402914.094,41.016,26.367,30.762,52.734,40.527
1532402914.098,39.551,30.762,32.715,51.758,61.523
1532402914.102,41.504,33.203,37.109,53.223,69.824
1532402914.106,39.551,33.691,29.297,54.199,40.527
1532402914.110,39.062,31.738,29.785,52.246,4.395
1532402914.114,40.527,31.738,34.180,55.664,29.297
1532402914.118,34.668,23.926,29.785,53.711,59.082
1532402914.122,33.203,21.973,30.273,55.176,29.785
1532402914.126,35.645,23.438,34.180,52.734,-2.441
1532402914.130,37.109,22.949,34.668,43.945,23.438
1532402914.133,35.156,26.855,37.598,47.852,22.461
1532402914.137,40.527,29.297,38.574,56.152,20.508
1532402914.141,44.434,29.785,34.180,58.594,42.969
1532402914.145,37.109,32.715,30.273,54.199,28.809
1532402914.149,34.180,24.414,26.855,47.363,38.086
1532402914.153,39.551,26.855,30.762,52.734,40.527
1532402914.157,34.180,28.320,31.738,51.758,15.625
1532402914.161,29.785,16.602,28.809,50.293,21.973
1532402914.165,34.180,20.020,30.762,56.152,16.602
1532402914.169,36.133,26.367,36.133,50.781,23.926
1532402914.173,37.598,24.902,33.691,55.176,51.270
1532402914.176,38.574,26.367,27.832,58.594,48.828
1532402914.180,39.551,34.668,30.762,56.152,41.504
1532402914.184,42.480,30.273,32.715,57.129,39.062
1532402914.188,44.922,27.832,32.227,54.688,30.762
1532402914.192,40.039,24.414,28.320,51.758,7.812
1532402914.196,39.551,17.090,31.250,54.199,29.297
1532402914.200,43.457,26.367,37.598,56.641,45.898
1532402914.204,42.969,32.227,36.621,55.176,13.672
1532402914.208,37.109,29.785,37.598,43.945,8.789
1532402914.212,39.062,33.203,40.527,41.504,14.160
1532402914.216,41.992,40.039,35.645,42.480,5.371
1532402914.219,40.039,25.879,27.344,35.156,10.254
1532402914.223,48.828,28.320,30.762,39.551,14.648
1532402914.227,53.711,35.645,36.133,41.016,29.785
1532402914.231,51.758,24.414,38.086,43.945,48.828
1532402914.235,44.434,23.926,32.715,45.898,45.410
1532402914.239,41.016,29.785,32.227,52.734,19.043
1532402914.243,34.668,30.273,35.156,56.152,2.441
1532402914.247,22.949,23.926,34.668,54.199,45.898
1532402914.251,21.973,20.996,35.156,57.129,66.406
1532402914.255,22.949,29.785,37.598,58.105,58.594
1532402914.258,20.020,37.598,38.574,55.664,39.551
1532402914.262,17.578,27.344,39.062,56.641,44.434
1532402914.266,19.531,31.738,44.922,56.641,34.180
1532402914.270,19.531,41.504,42.480,44.434,2.441
1532402914.274,15.625,28.809,35.645,39.551,36.621
1532402914.278,15.625,21.484,34.180,41.016,33.203
1532402914.282,21.484,21.484,33.691,41.504,23.926
1532402914.286,26.367,33.691,38.086,43.945,13.672
1532402914.290,25.391,34.180,41.992,43.457,4.883
1532402914.294,26.367,20.020,41.504,42.480,40.527
1532402914.298,32.227,25.391,41.992,47.363,23.926
1532402914.301,34.668,35.156,42.480,53.711,7.324
1532402914.305,33.691,24.902,35.156,46.875,0.488
1532402914.309,34.180,24.414,30.762,42.480,-2.441
1532402914.313,30.762,34.668,30.762,45.898,15.137
1532402914.317,30.273,34.180,32.715,48.340,40.039
1532402914.321,28.809,26.367,33.691,47.363,37.109
1532402914.325,30.273,30.762,35.645,47.852,0.977
1532402914.329,36.621,40.527,42.480,51.270,16.602
1532402914.333,32.227,37.109,40.527,46.875,47.852
1532402914.337,26.367,31.250,37.598,44.922,28.320
1532402914.341,21.973,18.555,37.109,45.410,19.043
1532402914.344,20.996,11.230,34.180,45.410,23.926
1532402914.348,22.461,19.043,35.156,42.969,6.348
1532402914.352,23.926,28.320,37.598,47.852,3.418
1532402914.356,29.785,32.715,38.086,59.082,15.137
1532402914.360,34.180,37.598,34.180,56.641,39.062
1532402914.364,30.273,36.133,35.645,50.293,43.945
1532402914.368,28.809,30.762,37.109,49.316,36.133
1532402914.372,24.902,18.555,31.738,47.852,43.945
1532402914.376,28.809,18.066,36.133,56.641,56.152
1532402914.380,28.809,21.484,34.668,59.082,50.781
1532402914.384,25.879,24.414,36.133,56.641,45.410
1532402914.387,27.832,25.391,33.691,54.199,39.062
1532402914.391,27.344,23.926,29.785,47.852,19.043
1532402914.395,31.250,34.180,35.156,53.223,45.898
1532402914.399,29.785,32.715,36.133,55.176,67.871
1532402914.403,27.832,18.555,36.621,54.688,41.504
1532402914.407,30.273,17.578,38.086,54.688,9.277
1532402914.411,32.715,19.531,34.668,55.176,2.930
1532402914.415,35.156,21.973,29.785,57.129,41.016
1532402914.419,40.527,30.273,34.668,61.035,55.664
1532402914.423,42.480,40.527,39.551,64.941,43.457
1532402914.426,33.203,25.391,32.715,52.734,40.039
1532402914.430,31.250,14.160,27.832,47.852,48.828
1532402914.434,33.203,18.066,29.297,52.246,62.988
1532402914.438,33.691,20.020,32.715,50.781,37.109
1532402914.442,33.203,22.949,33.691,48.828,1.465
1532402914.446,32.227,28.809,36.133,49.316,31.250
1532402914.450,31.250,30.762,33.203,43.457,34.180
1532402914.454,29.297,38.086,37.109,51.270,20.996
1532402914.458,20.508,30.273,32.715,53.711,48.828
1532402914.462,13.184,10.254,24.414,44.922,21.973
1532402914.466,11.230,16.113,32.227,47.363,5.371
1532402914.469,17.090,20.508,38.086,56.641,28.809
1532402914.473,15.625,26.367,36.133,49.805,20.996
1532402914.477,4.395,43.457,32.715,39.062,18.066
1532402914.481,-1.465,33.691,28.809,43.457,8.789
1532402914.485,-6.836,18.066,27.832,43.457,11.719
1532402914.489,-7.812,18.066,26.367,38.086,2.441
1532402914.493,-8.301,21.973,28.809,39.551,-0.977
1532402914.497,-1.953,26.367,30.273,49.805,22.949
1532402914.501,2.930,25.391,27.832,51.758,37.598
1532402914.505,2.441,22.949,28.320,47.852,49.805
1532402914.509,10.254,34.180,29.785,50.293,20.996
1532402914.512,8.789,40.527,28.809,50.293,25.879
1532402914.516,1.465,25.391,21.484,47.363,70.312
1532402914.520,2.441,20.996,23.438,46.875,71.777
1532402914.524,2.930,19.531,28.809,48.828,44.922
1532402914.528,3.906,20.996,30.273,50.293,48.828
1532402914.532,4.883,21.973,32.715,47.363,48.828
1532402914.536,6.348,28.320,33.203,50.293,37.598
1532402914.540,10.254,42.969,27.832,54.688,30.273
1532402914.544,8.789,28.320,23.438,51.758,37.109
1532402914.548,6.836,16.113,26.367,47.363,27.832
1532402914.551,7.812,23.926,30.273,46.387,5.371
1532402914.555,8.301,17.090,25.391,45.898,13.672
1532402914.559,13.184,22.461,30.762,51.270,31.250
1532402914.563,15.625,26.855,34.180,54.688,32.715
1532402914.567,19.043,23.926,33.691,54.199,49.316
1532402914.571,26.367,39.062,34.668,59.082,25.879
1532402914.575,22.461,24.902,26.855,55.664,22.461
1532402914.579,18.066,10.742,28.809,55.176,21.484
1532402914.583,16.113,16.602,35.156,60.059,26.367
1532402914.587,20.020,18.555,36.133,58.594,25.879
1532402914.591,22.949,22.949,33.691,52.734,9.766
1532402914.594,21.973,36.621,36.621,60.547,8.789
1532402914.598,11.719,28.320,34.668,61.523,-7.324
1532402914.602,4.883,13.184,27.344,53.711,23.438
1532402914.606,4.883,7.324,27.344,52.246,31.738
1532402914.610,8.789,7.324,31.250,53.711,19.043
1532402914.614,14.160,21.973,38.574,61.035,19.531
1532402914.618,19.043,30.762,41.504,64.453,11.230
1532402914.622,24.902,31.250,35.645,64.941,38.086
1532402914.626,26.855,32.227,37.598,67.383,7.812
1532402914.630,20.996,22.949,32.715,56.641,-25.879
1532402914.634,16.113,12.207,24.902,55.176,-4.395
1532402914.637,18.066,13.672,25.879,58.594,-6.348
1532402914.641,22.949,24.414,30.273,62.012,-18.555
1532402914.645,19.531,25.879,28.320,61.523,-18.555
1532402914.649,12.695,16.602,25.879,57.617,16.113
1532402914.653,21.973,28.809,40.039,67.871,17.578
1532402914.657,23.926,38.086,38.574,69.336,-18.066
1532402914.661,14.160,18.066,22.949,61.523,5.859
1532402914.665,14.648,14.648,25.391,63.477,31.738
1532402914.669,22.949,28.320,30.762,69.336,7.812
1532402914.673,25.879,30.273,31.738,70.312,13.184
1532402914.676,22.461,27.344,28.809,68.359,24.414
1532402914.680,23.438,34.668,29.785,70.312,-9.277
1532402914.684,24.414,43.457,30.762,67.871,7.812
1532402914.688,21.484,37.109,28.320,58.594,22.461
1532402914.692,17.578,19.043,22.949,46.387,-4.883
1532402914.696,18.066,13.672,16.113,47.363,-2.441
1532402914.700,21.484,23.926,20.508,51.270,9.277
1532402914.704,24.414,27.344,26.367,54.199,26.367
1532402914.708,31.738,34.668,29.785,61.035,11.719
1532402914.712,31.738,43.457,35.156,61.523,-0.977
1532402914.716,22.949,28.809,33.203,58.105,16.602
1532402914.719,19.043,14.160,23.438,55.176,34.668
1532402914.723,19.043,15.625,22.949,57.617,38.574
1532402914.727,17.578,20.996,23.926,52.734,12.207
1532402914.731,12.695,26.367,23.926,46.875,16.113
1532402914.735,12.207,22.461,25.879,52.246,44.922
1532402914.739,19.043,31.250,25.391,58.594,42.969
1532402914.743,22.461,44.434,24.902,59.082,41.992
1532402914.747,17.090,26.367,25.879,49.805,13.184
1532402914.751,17.090,14.648,23.926,50.781,3.418
1532402914.755,21.484,20.996,22.949,54.688,17.578
1532402914.759,18.066,18.555,19.531,51.758,9.277
1532402914.762,18.066,17.090,21.973,53.711,28.320
1532402914.766,27.344,42.969,30.762,55.176,23.438
1532402914.770,21.973,38.086,30.273,43.945,15.625
1532402914.774,10.254,5.859,24.902,37.109,46.387
1532402914.778,11.230,11.719,23.926,37.598,22.461
1532402914.782,16.602,20.020,23.926,40.527,9.766
1532402914.786,21.973,22.949,27.344,45.410,39.551
1532402914.790,24.414,28.809,26.367,47.363,26.367
1532402914.794,21.484,28.809,21.484,47.363,28.809
1532402914.798,22.949,32.715,25.391,48.340,31.738
1532402914.802,17.578,18.555,24.414,43.945,23.438
1532402914.805,16.113,13.672,27.344,44.434,17.578
1532402914.809,17.578,20.020,25.879,44.434,18.066
1532402914.813,14.648,19.531,25.391,43.945,17.578
1532402914.817,17.578,17.090,26.855,44.922,12.695
1532402914.821,28.320,33.203,28.809,53.223,13.672
1532402914.825,26.855,38.574,28.809,51.758,30.273
1532402914.829,18.555,15.137,26.855,36.621,26.855
1532402914.833,17.090,9.766,24.902,34.668,16.113
1532402914.837,14.160,12.695,20.020,36.133,27.344
1532402914.841,15.137,17.578,20.020,34.668,11.719
1532402914.844,20.996,27.344,25.391,35.156,18.066
1532402914.848,19.531,22.461,29.297,32.227,54.688
1532402914.852,25.391,28.320,32.227,38.574,37.598
1532402914.856,36.621,46.387,31.250,43.945,29.297
1532402914.860,30.273,24.414,19.043,29.785,33.691
1532402914.864,30.273,7.812,17.090,25.391,16.113
1532402914.868,40.039,18.066,22.461,24.902,13.184
1532402914.872,41.992,29.297,25.879,28.320,-5.371
1532402914.876,30.762,31.250,26.855,42.969,13.672
1532402914.880,22.461,24.902,28.320,50.293,51.758
1532402914.884,20.020,31.738,31.738,58.105,55.664
1532402914.887,12.207,25.391,28.809,59.570,37.598
1532402914.891,7.812,10.742,25.879,56.641,19.531
1532402914.895,5.859,9.277,22.949,50.781,-11.230
1532402914.899,7.812,16.113,25.879,50.781,15.625
1532402914.903,9.766,25.391,28.320,53.223,36.621
1532402914.907,10.254,27.344,27.344,51.758,4.395
1532402914.911,13.672,34.180,29.785,54.688,-2.441
1532402914.915,17.578,36.133,33.691,52.734,38.086
1532402914.919,11.230,20.020,31.250,43.945,42.480
1532402914.923,6.348,8.789,23.926,38.086,26.367
1532402914.927,10.254,11.719,24.414,40.527,38.574
1532402914.930,7.812,20.020,21.973,39.551,44.434
1532402914.934,11.230,29.297,23.438,41.504,62.012
1532402914.938,17.090,37.598,28.320,41.504,54.688
1532402914.942,12.207,18.555,23.926,35.156,46.387
1532402914.946,15.137,12.207,21.973,39.551,42.969
1532402914.950,13.184,17.090,22.461,35.645,-0.488
1532402914.954,11.230,14.160,25.879,35.645,-5.371
1532402914.958,11.230,14.648,22.461,39.062,33.203
1532402914.962,17.090,31.738,26.367,49.316,43.945
1532402914.966,21.973,36.621,29.785,50.293,32.227
1532402914.969,14.648,5.859,21.484,34.668,2.441
1532402914.973,9.766,-1.953,19.531,33.203,16.113
1532402914.977,15.137,14.160,19.043,42.480,28.809
1532402914.981,16.602,18.066,18.066,43.457,38.574
1532402914.985,28.809,32.715,27.344,51.758,45.898
1532402914.989,36.621,52.734,30.762,60.547,30.762
1532402914.993,26.855,28.809,21.973,49.805,36.621
1532402914.997,26.367,6.348,20.020,43.945,47.852
1532402915.001,29.297,12.207,18.555,42.969,46.387
1532402915.005,34.180,21.484,18.555,43.457,26.367
1532402915.009,38.086,27.832,21.484,44.922,0.977
1532402915.012,37.109,29.297,23.926,44.922,11.230
1532402915.016,39.062,37.109,25.879,46.875,24.902
1532402915.020,46.387,56.152,25.391,51.270,28.809
1532402915.024,39.551,38.574,21.973,43.945,26.855
1532402915.028,27.832,9.766,23.926,30.762,26.855
1532402915.032,27.344,13.672,20.508,31.738,46.387
1532402915.036,22.949,24.902,19.531,34.668,45.898
1532402915.040,14.160,30.273,24.414,29.785,19.043
1532402915.044,16.602,28.320,29.785,34.668,-3.418
1532402915.048,20.996,37.598,29.785,32.227,-18.555
1532402915.052,15.625,41.016,23.438,20.508,-9.766
1532402915.055,13.672,33.203,23.926,17.578,4.395
1532402915.059,14.648,39.551,26.855,17.578,6.836
1532402915.063,3.418,34.180,24.902,16.113,17.090
1532402915.067,0.000,18.555,23.926,14.648,25.391
1532402915.071,6.348,22.461,28.320,19.531,7.812
1532402915.075,5.859,30.762,30.273,26.367,16.602
1532402915.079,3.418,21.484,26.855,25.879,32.715
1532402915.083,6.836,21.484,27.832,32.227,23.438
1532402915.087,11.230,36.133,29.785,37.109,10.254
1532402915.091,8.789,31.250,24.414,29.785,20.020
1532402915.094,16.602,25.879,23.926,32.715,41.016
1532402915.098,24.902,31.738,25.391,43.457,49.316
1532402915.102,18.066,20.996,18.555,40.039,39.062
1532402915.106,24.902,26.367,16.602,40.039,13.184
1532402915.110,36.621,38.574,20.020,43.457,-3.906
1532402915.114,28.320,27.832,14.648,41.016,13.672
1532402915.118,21.973,15.625,14.648,41.504,15.137
1532402915.122,18.555,13.184,16.113,40.527,23.438
1532402915.126,23.926,22.949,17.578,41.992,32.715
1532402915.130,30.762,31.738,20.996,45.898,48.340
1532402915.134,30.762,22.461,18.555,43.945,53.223
1532402915.137,35.645,20.508,19.531,43.945,30.762
1532402915.141,36.621,15.137,19.531,48.828,29.785
1532402915.145,41.016,27.832,18.066,54.199,34.668
1532402915.149,39.062,33.203,15.625,50.293,30.273
1532402915.153,33.203,15.137,12.207,47.363,25.879
1532402915.157,34.668,16.113,13.672,52.734,37.598
1532402915.161,33.203,14.648,16.602,56.641,48.340
1532402915.165,31.250,11.230,16.113,57.129,51.758
1532402915.169,34.668,13.184,18.555,62.500,42.480
1532402915.173,37.598,16.113,17.578,66.895,36.133
1532402915.177,32.227,9.766,10.254,61.523,41.016
1532402915.180,30.762,7.324,15.137,63.965,46.875
1532402915.184,36.133,23.926,20.508,64.941,55.176
1532402915.188,31.250,27.344,15.625,55.664,53.711
1532402915.192,25.879,11.230,15.137,47.363,49.316
1532402915.196,26.367,5.859,15.137,44.434,39.062
1532402915.200,27.832,15.625,13.184,50.781,50.781
1532402915.204,32.227,19.043,16.602,68.848,50.293
1532402915.208,37.598,24.414,17.090,80.078,22.461
1532402915.212,36.621,25.391,13.672,83.008,24.902
1532402915.216,31.738,8.789,9.277,84.961,48.828
1532402915.219,32.715,7.812,11.230,86.426,55.664
1532402915.223,36.133,14.648,15.625,88.867,73.730
1532402915.227,33.203,11.719,18.066,79.590,88.867
1532402915.231,29.785,16.113,16.113,77.148,69.824
1532402915.235,32.227,32.715,21.484,84.961,34.668
1532402915.239,28.320,22.461,22.949,79.102,35.645
1532402915.243,21.973,7.324,15.625,69.336,71.777
1532402915.247,18.066,4.883,11.230,64.453,71.289
1532402915.251,18.066,2.441,15.625,62.988,41.504
1532402915.255,20.508,3.418,19.531,65.918,25.391
1532402915.259,22.949,10.254,15.137,65.918,30.273
1532402915.262,33.203,29.785,19.531,72.266,50.781
1532402915.266,35.645,33.691,22.461,75.195,34.180
1532402915.270,28.809,17.090,16.602,65.430,22.461
1532402915.274,20.996,7.812,11.230,57.129,14.160
1532402915.278,24.414,11.230,14.648,57.617,20.020
1532402915.282,29.297,18.555,19.531,65.430,37.598
1532402915.286,27.832,20.996,19.043,63.477,19.043
1532402915.290,26.367,14.160,16.113,53.711,-25.391
1532402915.294,26.855,9.766,16.602,55.664,-8.301
1532402915.298,33.691,13.672,17.578,63.477,43.945
1532402915.302,34.668,14.648,21.973,65.430,53.711
1532402915.305,32.715,20.508,24.902,67.871,30.273
1532402915.309,36.133,17.090,21.484,67.383,14.160
1532402915.313,40.039,8.301,18.555,71.777,21.973
1532402915.317,36.133,20.996,19.531,69.824,31.250
1532402915.321,28.320,15.625,18.555,59.570,50.293
1532402915.325,30.273,4.395,19.531,62.500,43.945
1532402915.329,32.715,19.531,22.949,63.965,14.160
1532402915.333,27.832,14.160,21.484,58.594,29.297
1532402915.337,33.203,17.578,28.320,60.547,41.504
1532402915.341,31.250,19.531,26.367,53.223,29.785
1532402915.345,31.738,14.648,27.832,51.270,35.156
1532402915.348,38.574,25.879,33.203,47.852,-1.953
1532402915.352,38.086,26.367,26.855,39.062,-22.461
1532402915.356,34.668,11.230,22.461,39.551,21.484
1532402915.360,37.109,6.348,22.461,41.992,37.109
1532402915.364,41.504,23.438,24.414,44.434,64.453
1532402915.368,36.133,21.973,21.973,39.062,59.570
1532402915.372,36.133,12.207,21.973,38.086,29.297
1532402915.376,40.527,20.508,24.902,39.551,8.789
1532402915.380,39.551,23.438,24.902,40.039,20.996
1532402915.384,43.457,32.715,29.785,49.316,44.922
1532402915.387,36.621,33.203,26.855,41.016,16.602
1532402915.391,30.762,27.832,24.902,32.227,1.953
1532402915.395,24.414,24.902,22.949,34.668,24.414
1532402915.399,17.578,24.902,22.949,34.668,41.016
1532402915.403,13.672,31.738,29.785,33.203,49.805
1532402915.407,7.324,30.273,29.785,24.414,15.625
1532402915.411,5.859,26.855,23.438,17.578,36.621
1532402915.415,7.324,24.414,24.902,17.090,51.758
1532402915.419,14.160,36.133,31.250,19.043,23.438
1532402915.423,20.020,40.527,33.203,18.555,21.973
1532402915.427,13.184,40.527,32.715,9.277,8.301
1532402915.430,-0.977,32.227,28.809,-10.254,1.465
1532402915.434,0.000,28.809,27.832,-12.207,8.789
1532402915.438,0.977,36.621,27.344,-8.789,37.109
1532402915.442,-3.906,41.992,34.180,-7.812,30.762
1532402915.446,-6.348,46.875,32.227,-12.695,-0.977
1532402915.450,-5.371,46.875,28.809,-11.230,17.090
1532402915.454,-9.277,47.363,40.527,-9.277,35.645
1532402915.458,-12.207,36.621,40.527,-14.160,4.395
1532402915.462,-7.812,32.715,36.621,-11.230,-1.465
1532402915.466,-3.418,36.621,37.598,-7.812,28.809
1532402915.470,0.000,36.621,39.062,-6.348,27.344
1532402915.473,3.906,31.738,39.551,-5.371,25.391
1532402915.477,13.672,32.715,37.109,1.465,28.320
1532402915.481,20.508,36.133,34.668,6.836,9.766
1532402915.485,24.414,34.180,32.715,5.371,6.836
1532402915.489,31.250,32.227,29.785,-3.418,-31.250
1532402915.493,40.527,45.410,29.785,4.395,-19.043
1532402915.497,39.551,41.504,26.367,14.160,21.484
1532402915.501,44.922,19.531,24.414,16.113,33.691
1532402915.505,61.523,27.344,28.809,20.996,15.625
1532402915.509,63.965,36.133,30.762,18.555,-11.719
1532402915.512,63.965,29.785,30.273,20.996,13.184
1532402915.516,69.824,25.391,26.855,28.809,17.090
1532402915.520,65.430,20.020,25.879,26.855,16.113
1532402915.524,62.500,21.973,27.832,30.273,13.184
1532402915.528,59.082,21.484,25.391,25.879,-8.789
1532402915.532,52.246,21.484,25.391,21.973,-17.090
1532402915.536,51.270,24.902,22.949,28.809,2.930
1532402915.540,58.594,34.668,28.320,42.969,31.250
1532402915.544,67.871,50.781,37.598,53.711,41.016
1532402915.548,51.758,32.715,28.320,37.109,28.809
1532402915.552,40.039,16.602,22.949,25.879,6.836
1532402915.555,35.156,21.973,23.438,23.438,-1.465
1532402915.559,16.113,24.414,22.949,13.184,8.301
1532402915.563,10.742,32.227,26.855,13.672,7.812
1532402915.567,8.301,41.992,33.203,11.719,-4.395
1532402915.571,-5.859,47.363,39.551,4.395,-0.488
1532402915.575,-15.625,43.457,40.527,0.000,10.742
1532402915.579,-21.973,40.039,41.992,-12.207,-0.488
1532402915.583,-28.320,49.316,46.875,-17.090,41.504
1532402915.587,-28.320,51.758,48.340,-20.020,37.598
1532402915.591,-30.273,42.480,44.434,-26.855,-3.906
1532402915.595,-34.668,43.457,43.457,-28.809,3.418
1532402915.598,-36.133,47.852,46.387,-29.297,11.230
1532402915.602,-42.480,44.922,49.316,-32.715,20.020
1532402915.606,-40.527,53.223,47.852,-32.715,18.066
1532402915.610,-31.250,50.293,49.316,-29.297,-18.555
1532402915.614,-31.250,42.969,48.340,-28.320,-11.719
1532402915.618,-28.320,61.035,55.664,-19.531,25.391
1532402915.622,-26.855,59.570,56.152,-20.508,18.066
1532402915.626,-33.691,36.621,46.875,-29.785,26.855
1532402915.630,-39.062,39.551,48.340,-38.086,-16.602
1532402915.634,-34.668,41.504,50.293,-33.203,-3.418
1532402915.637,-25.391,40.527,53.711,-18.555,36.133
1532402915.641,-21.973,46.387,50.293,-11.230,16.602
1532402915.645,-23.926,37.109,47.852,-7.324,6.348
1532402915.649,-19.531,34.668,50.293,-4.395,27.344
1532402915.653,-4.395,44.434,52.734,6.836,49.805
1532402915.657,4.883,45.410,48.340,13.672,24.902
1532402915.661,6.836,32.715,40.527,14.160,25.879
1532402915.665,12.207,22.461,37.109,19.043,33.691
1532402915.669,20.996,23.438,35.156,20.996,6.836
1532402915.673,20.996,25.879,36.133,19.043,13.672
1532402915.677,26.367,29.297,35.156,23.438,45.898
1532402915.680,36.133,37.598,29.785,27.344,32.715
1532402915.684,35.645,27.344,21.973,23.438,31.738
1532402915.688,39.551,18.066,20.508,25.391,25.391
1532402915.692,43.945,14.160,21.484,32.227,18.555
1532402915.696,42.480,2.441,14.160,33.691,47.852
1532402915.700,51.758,4.883,13.672,43.457,35.645
1532402915.704,60.547,9.766,15.625,54.688,15.137
1532402915.708,60.547,8.301,16.602,57.617,16.113
1532402915.712,63.477,13.184,20.020,64.453,33.203
1532402915.716,64.941,14.648,15.625,65.430,53.711
1532402915.720,62.012,1.465,7.324,57.617,28.320
1532402915.723,63.477,9.766,10.254,62.988,22.461
1532402915.727,65.918,20.996,13.184,64.453,12.207
1532402915.731,60.547,2.441,6.836,58.105,18.066
1532402915.735,59.570,-2.930,3.906,62.988,47.852
1532402915.739,67.871,3.418,5.859,69.824,26.855
1532402915.743,70.312,2.441,5.859,74.707,15.625
1532402915.747,70.801,7.324,10.254,76.660,20.996
1532402915.751,76.172,16.602,16.602,71.289,22.949
1532402915.755,71.777,13.184,12.695,58.594,37.109
1532402915.759,66.406,5.859,9.766,50.293,40.039
1532402915.762,69.336,9.766,11.719,56.152,50.293
1532402915.766,67.871,11.719,7.812,51.270,36.621
1532402915.770,65.918,12.207,7.324,40.527,-10.742
1532402915.774,65.430,11.230,9.766,41.016,41.504
1532402915.778,63.477,7.812,6.348,43.945,54.688
1532402915.782,60.059,14.160,3.906,43.457,33.203
1532402915.786,57.129,13.184,3.418,38.574,28.809
1532402915.790,62.500,12.207,6.348,42.480,23.438
1532402915.794,66.895,17.090,8.301,49.805,44.434
1532402915.798,60.059,8.301,7.324,47.363,40.039
1532402915.802,61.035,16.113,13.672,51.758,21.973
1532402915.805,59.082,23.438,13.184,51.758,34.180
1532402915.809,50.781,2.441,6.836,43.945,-3.906
1532402915.813,54.688,-0.977,5.859,51.270,-2.930
1532402915.817,55.664,6.348,7.812,61.523,47.852
1532402915.821,54.688,6.836,8.789,62.988,41.992
1532402915.825,58.105,14.160,9.277,66.406,17.090
1532402915.829,57.617,16.602,8.789,69.336,10.742
1532402915.833,56.641,12.695,10.254,64.453,42.969
1532402915.837,58.105,12.207,12.695,61.035,37.598
1532402915.841,56.641,13.672,10.254,61.523,18.066
1532402915.845,54.688,16.602,9.766,58.594,13.184
1532402915.848,56.152,12.207,9.766,50.293,3.906
1532402915.852,55.664,9.766,14.160,50.293,-11.230
1532402915.856,57.129,13.672,20.020,56.152,-2.930
1532402915.860,62.012,28.320,18.066,56.641,32.715
1532402915.864,55.664,19.531,15.137,55.176,39.551
1532402915.868,53.223,4.395,18.555,54.199,22.461
1532402915.872,58.105,8.301,17.090,55.664,56.152
1532402915.876,58.594,10.742,12.695,57.617,63.965
1532402915.880,56.152,20.508,19.043,60.059,27.832
1532402915.884,56.152,25.391,23.438,64.453,29.297
1532402915.888,53.223,19.531,22.949,59.570,44.922
1532402915.891,51.270,18.555,22.461,54.688,34.668
1532402915.895,54.199,26.855,24.414,60.547,-12.695
1532402915.899,50.293,25.879,20.996,54.688,-6.348
1532402915.903,40.039,15.625,15.625,44.434,34.668
1532402915.907,38.574,15.137,19.043,40.039,20.996
1532402915.911,40.039,14.160,20.996,33.203,8.301
1532402915.915,41.016,17.578,19.531,38.574,19.043
1532402915.919,42.480,23.438,22.949,44.922,21.484
1532402915.923,45.898,30.273,25.391,46.387,40.527
1532402915.927,45.410,26.855,23.438,41.992,14.160
1532402915.930,45.410,20.996,23.438,41.016,8.301
1532402915.934,44.434,20.020,27.344,42.480,44.434
1532402915.938,41.504,16.602,23.438,39.551,32.227
1532402915.942,43.457,14.160,23.438,40.527,27.344
1532402915.946,41.504,16.113,30.273,40.527,30.273
1532402915.950,37.109,16.113,28.320,34.180,13.672
1532402915.954,38.574,20.508,26.855,40.039,8.301
1532402915.958,43.457,34.668,30.762,48.828,38.086
1532402915.962,44.922,29.785,35.156,45.410,36.133
1532402915.966,39.062,21.484,32.715,38.086,15.625
1532402915.970,37.598,26.855,29.785,32.715,30.762
1532402915.973,38.574,27.832,28.809,32.227,9.766
1532402915.977,39.062,27.832,31.250,33.691,4.395
1532402915.981,36.621,30.762,30.273,33.691,28.320
1532402915.985,30.762,20.508,23.926,29.785,14.648
1532402915.989,32.715,20.020,32.227,25.391,-27.344
1532402915.993,34.180,24.414,35.156,30.762,1.953
1532402915.997,31.250,20.020,28.809,39.551,39.062
1532402916.001,32.227,22.949,29.297,40.039,62.988
1532402916.005,30.762,25.879,33.203,38.086,62.988
1532402916.009,32.227,21.973,27.832,37.109,-4.883
1532402916.013,36.621,25.879,29.785,42.480,31.250
1532402916.016,31.250,24.902,26.855,39.551,71.289
1532402916.020,30.273,17.578,28.320,39.551,31.250
1532402916.024,35.156,28.809,35.156,46.875,11.230
1532402916.028,30.762,26.367,27.344,41.016,7.812
1532402916.032,27.344,15.625,22.461,38.574,13.672
1532402916.036,26.367,8.789,27.344,41.504,31.738
1532402916.040,28.809,10.742,32.227,37.598,21.973
1532402916.044,35.645,27.344,31.250,41.016,7.812
1532402916.048,30.273,24.414,29.297,43.945,24.414
1532402916.052,22.949,14.648,27.832,37.598,50.781
1532402916.055,22.949,16.602,24.414,32.715,14.648
1532402916.059,20.508,19.043,28.320,27.832,-1.953
1532402916.063,18.555,20.996,28.809,29.297,19.531
1532402916.067,20.508,29.785,31.738,30.762,14.648
1532402916.071,25.391,35.156,32.715,29.297,-6.836
1532402916.075,27.344,29.785,28.320,36.621,-10.254
1532402916.079,26.367,26.855,29.297,39.551,23.438
1532402916.083,25.879,20.996,31.738,45.898,30.273
1532402916.087,25.879,20.508,31.738,42.480,-16.113
1532402916.091,26.367,25.879,26.855,30.762,-6.836
1532402916.095,32.715,30.273,27.344,42.480,32.715
1532402916.098,39.551,36.621,32.715,53.711,34.180
1532402916.102,25.391,31.250,33.203,41.992,28.320
1532402916.106,17.578,18.066,31.738,27.832,-2.930
1532402916.110,26.855,18.066,31.250,32.227,4.395
1532402916.114,31.250,30.273,32.715,34.668,40.039
1532402916.118,30.273,35.156,30.762,30.273,38.574
1532402916.122,27.832,25.879,28.320,31.738,25.391
1532402916.126,30.273,21.484,28.320,30.273,11.719
1532402916.130,34.180,31.738,32.227,27.832,12.695
1532402916.134,27.344,25.879,31.738,23.926,46.387
1532402916.138,24.414,18.066,28.320,24.414,25.391
1532402916.141,29.297,20.508,26.367,24.414,10.254
1532402916.145,34.668,18.555,24.902,27.344,31.738
1532402916.149,45.898,32.715,28.320,34.180,32.227
1532402916.153,54.199,46.875,27.344,27.832,27.344
1532402916.157,52.246,25.879,23.926,27.344,37.109
1532402916.161,54.688,19.043,26.367,47.852,33.691
1532402916.165,51.758,30.273,29.297,66.406,35.645
1532402916.169,47.363,32.715,31.738,90.332,30.762
1532402916.173,40.039,22.949,28.809,92.773,12.695
1532402916.177,32.227,19.531,29.785,73.730,13.672
1532402916.180,30.273,26.367,32.715,67.871,23.438
1532402916.184,31.738,36.133,32.715,66.406,45.410
1532402916.188,26.367,41.504,28.320,54.199,35.645
1532402916.192,21.973,29.297,21.484,47.363,20.020
1532402916.196,18.555,19.531,23.438,44.922,15.137
1532402916.200,19.043,19.531,25.879,40.039,12.695
1532402916.204,27.832,20.508,22.461,43.945,13.184
1532402916.208,32.715,26.855,20.996,45.898,-3.906
1532402916.212,31.250,27.344,21.484,41.016,16.602
1532402916.216,39.551,38.086,25.879,41.504,41.504
1532402916.220,44.922,53.223,26.367,42.969,28.809
1532402916.223,32.715,30.762,18.555,33.691,23.926
1532402916.227,32.715,19.043,17.090,30.762,33.691
1532402916.231,32.227,28.809,17.578,31.250,34.180
1532402916.235,27.832,26.367,15.137,31.738,40.527
1532402916.239,33.203,25.879,16.113,31.738,37.109
1532402916.243,33.691,32.715,15.137,32.715,31.250
1532402916.247,31.738,35.156,14.160,33.203,15.137
1532402916.251,34.180,33.203,13.672,29.785,15.137
1532402916.255,41.016,42.969,13.184,37.109,41.504
1532402916.259,44.434,52.246,15.625,40.039,30.762
1532402916.263,34.668,31.250,8.301,29.785,18.555
1532402916.266,29.785,17.090,5.859,24.902,-5.371
1532402916.270,31.738,30.273,7.324,27.344,5.859
1532402916.274,33.203,31.738,2.441,32.227,11.719
1532402916.278,35.156,27.344,6.348,31.738,28.809
1532402916.282,40.039,43.457,13.672,31.250,60.059
1532402916.286,34.180,40.039,5.859,27.344,52.734
1532402916.290,27.832,26.855,6.348,26.855,16.602
1532402916.294,28.320,28.809,13.184,32.715,33.203
1532402916.298,27.832,31.738,9.277,31.738,56.152
1532402916.302,28.320,35.156,7.812,31.738,33.203
1532402916.305,26.855,33.691,4.883,31.250,45.898
1532402916.309,26.367,29.297,3.906,30.762,22.949
1532402916.313,33.203,34.668,10.254,37.109,28.320
1532402916.317,31.738,30.273,6.836,34.668,42.480
1532402916.321,29.785,23.438,4.395,34.668,18.066
1532402916.325,32.715,29.297,4.395,38.574,9.766
1532402916.329,35.156,33.691,6.348,33.203,22.949
1532402916.333,35.156,34.668,9.277,30.762,11.719
1532402916.337,32.227,34.180,10.254,32.715,15.625
1532402916.341,28.809,25.879,5.859,29.785,17.578
1532402916.345,24.414,19.531,5.859,28.809,13.672
1532402916.348,23.438,22.949,9.766,30.273,15.137
1532402916.352,21.484,24.902,7.812,26.367,17.090
1532402916.356,20.020,25.391,8.301,23.438,30.273
1532402916.360,17.578,25.391,6.348,19.531,16.113
1532402916.364,14.160,24.414,1.465,19.043,20.508
1532402916.368,13.672,32.227,4.395,15.625,14.160
1532402916.372,14.160,36.133,9.277,13.672,2.930
1532402916.376,9.277,27.344,7.812,18.555,22.461
1532402916.380,9.277,26.855,4.883,16.602,48.340
1532402916.384,17.090,40.039,6.836,17.578,62.012
1532402916.388,18.555,43.457,8.789,19.043,31.738
1532402916.391,17.090,39.551,4.883,18.066,32.227
1532402916.395,11.719,24.414,0.977,13.672,31.738
1532402916.399,7.812,17.090,0.000,13.184,35.156
1532402916.403,9.766,20.020,-0.977,16.113,30.273
1532402916.407,15.625,21.484,4.883,17.090,2.441
1532402916.411,22.461,36.133,13.184,17.578,18.555
1532402916.415,22.949,19.043,11.230,21.973,42.969
1532402916.419,27.344,7.324,5.859,25.879,28.320
1532402916.423,20.996,23.438,-2.441,14.648,40.527
1532402916.427,20.508,28.320,-5.371,14.648,58.594
1532402916.431,21.973,27.832,1.465,22.461,50.293
1532402916.434,20.996,29.297,3.418,24.902,32.227
1532402916.438,25.391,28.809,0.488,29.785,17.578
1532402916.442,21.973,33.691,0.000,27.832,27.832
1532402916.446,20.508,33.691,3.418,27.832,19.531
1532402916.450,22.461,22.461,3.418,27.832,16.113
1532402916.454,24.414,22.461,-2.930,27.344,20.508
1532402916.458,20.508,17.578,-4.395,27.832,13.672
1532402916.462,24.902,20.020,-4.395,31.738,1.953
1532402916.466,34.668,32.227,-2.441,36.133,23.438
1532402916.470,34.668,29.785,0.488,32.715,10.254
1532402916.473,37.598,42.480,2.930,34.668,12.207
1532402916.477,33.203,36.133,-1.465,32.227,49.316
1532402916.481,30.273,16.113,-3.418,28.809,35.156
1532402916.485,35.156,24.414,-2.930,31.738,29.297
1532402916.489,25.391,21.973,-5.859,25.879,38.086
1532402916.493,24.414,20.020,-2.441,28.809,39.551
1532402916.497,27.344,25.391,-1.465,33.203,40.039
1532402916.501,26.367,29.297,-0.488,34.668,48.340
1532402916.505,27.832,24.902,2.441,35.156,32.227
1532402916.509,32.715,34.668,7.324,32.227,8.789
1532402916.513,28.809,33.691,7.324,31.738,15.625
1532402916.516,26.367,14.648,0.488,38.574,51.758
1532402916.520,29.785,12.207,-5.859,38.574,49.805
1532402916.524,26.367,10.254,-9.277,33.691,27.344
1532402916.528,28.320,12.207,-4.883,36.133,29.785
1532402916.532,29.785,21.484,4.395,41.504,34.180
1532402916.536,29.785,27.344,4.395,40.527,17.578
1532402916.540,32.227,31.250,0.977,36.621,10.254
1532402916.544,22.949,16.113,-2.930,27.832,34.668
1532402916.548,18.555,0.977,-4.395,27.832,41.992
1532402916.552,26.855,13.672,3.906,37.109,38.086
1532402916.556,31.738,18.555,4.395,39.551,24.414
1532402916.559,30.762,20.508,1.953,35.645,28.809
1532402916.563,30.762,20.020,2.930,36.621,44.922
1532402916.567,34.668,24.414,2.930,38.574,13.672
1532402916.571,36.621,36.133,4.395,36.133,-2.930
1532402916.575,32.715,26.855,2.930,36.621,10.254
1532402916.579,28.320,6.836,2.930,36.133,15.137
1532402916.583,28.320,9.277,3.418,37.109,20.508
1532402916.587,29.785,17.090,3.906,37.598,13.672
1532402916.591,31.738,27.344,2.930,41.504,33.203
1532402916.595,35.645,28.809,3.906,43.945,36.621
1532402916.598,40.039,29.297,4.395,45.410,33.691
1532402916.602,37.598,30.762,5.859,45.410,36.621
1532402916.606,30.273,14.648,1.953,39.062,9.277
1532402916.610,31.250,8.789,-2.441,33.691,-7.812
1532402916.614,33.203,11.719,-2.441,32.227,3.418
1532402916.618,33.203,19.043,-0.488,35.156,20.996
1532402916.622,37.109,24.902,1.953,39.062,44.922
1532402916.626,39.062,25.879,2.441,40.527,23.926
1532402916.630,35.156,30.762,2.441,40.527,28.809
1532402916.634,38.574,36.621,10.254,44.922,66.895
1532402916.638,36.621,30.273,7.812,40.527,34.180
1532402916.641,30.762,19.043,5.371,35.645,-0.488
1532402916.645,38.086,22.461,8.789,38.574,17.578
1532402916.649,38.574,20.996,5.371,30.762,11.719
1532402916.653,36.133,19.531,6.348,30.273,12.207
1532402916.657,37.598,22.461,3.906,35.645,29.785
1532402916.661,36.133,22.949,2.930,35.156,22.949
1532402916.665,35.156,22.949,2.930,35.645,35.645
1532402916.669,34.180,28.320,4.395,34.668,20.020
1532402916.673,30.762,21.973,6.348,29.297,12.695
1532402916.677,32.227,19.043,0.977,31.250,23.926
1532402916.681,29.785,25.391,0.488,37.109,28.809
1532402916.684,27.832,22.461,7.324,41.016,30.273
1532402916.688,32.227,32.227,11.230,42.969,14.648
1532402916.692,28.809,31.738,6.348,42.969,12.207
1532402916.696,24.414,9.766,4.395,41.504,38.086
1532402916.700,27.344,10.254,8.301,41.992,45.898
1532402916.704,23.438,19.531,10.742,41.992,39.551
1532402916.708,22.461,17.578,5.371,35.645,19.531
1532402916.712,32.715,30.762,9.277,41.992,-6.348
1532402916.716,30.273,36.621,7.812,44.434,15.625
1532402916.720,19.531,17.090,1.953,34.668,37.109
1532402916.723,18.066,6.836,4.883,33.691,20.020
1532402916.727,24.414,16.602,6.836,39.062,6.836
1532402916.731,26.367,27.832,5.859,40.527,21.973
1532402916.735,24.902,21.973,5.859,38.574,20.020
1532402916.739,28.320,23.438,11.719,40.039,15.137
1532402916.743,26.367,27.832,10.254,41.504,34.180
1532402916.747,26.855,18.555,6.836,41.504,18.555
1532402916.751,28.809,27.832,10.254,41.016,11.719
1532402916.755,28.320,29.785,9.766,40.527,48.340
1532402916.759,29.785,25.391,9.277,43.945,55.176
1532402916.763,26.855,23.438,11.230,42.480,57.617
1532402916.766,26.855,22.461,7.812,39.551,39.551
1532402916.770,28.809,31.250,6.348,38.574,44.922
1532402916.774,25.391,31.250,9.277,36.133,43.457
1532402916.778,22.949,21.484,7.812,33.691,25.391
1532402916.782,22.949,11.719,4.883,33.203,39.551
1532402916.786,23.438,16.602,8.301,31.250,26.855
1532402916.790,31.250,23.926,15.137,30.273,10.254
1532402916.794,38.574,30.273,15.625,37.598,34.180
1532402916.798,38.086,29.785,10.742,41.504,35.645
1532402916.802,40.527,28.809,12.207,43.457,55.664
1532402916.806,43.945,33.203,13.672,40.527,54.199
1532402916.809,42.969,21.973,12.207,34.180,34.180
1532402916.813,43.945,13.184,8.789,34.668,37.109
1532402916.817,46.387,18.555,11.230,34.668,41.016
1532402916.821,49.316,31.738,13.672,39.062,52.246
1532402916.825,45.410,33.203,12.207,47.363,29.785
1532402916.829,41.504,35.645,18.066,49.316,10.254
1532402916.833,36.133,27.344,15.625,49.316,24.902
1532402916.837,28.809,13.184,12.207,51.270,49.316
1532402916.841,25.879,24.902,16.113,52.246,57.129
1532402916.845,20.996,19.531,11.230,47.363,40.527
1532402916.848,18.066,17.578,13.184,47.363,20.996
1532402916.852,17.578,34.668,18.555,52.246,13.184
1532402916.856,14.648,26.855,11.230,43.457,23.438
1532402916.860,19.531,12.695,9.277,38.086,31.250
1532402916.864,23.926,15.625,13.672,41.504,14.160
1532402916.868,26.367,20.508,17.090,38.086,9.277
1532402916.872,25.879,19.531,13.672,32.715,4.883
1532402916.876,29.297,20.508,11.719,37.598,25.879
1532402916.880,33.691,26.855,17.578,38.574,40.527
1532402916.884,29.785,25.879,15.137,31.738,44.434
1532402916.888,33.691,37.109,15.137,33.691,20.508
1532402916.891,31.738,37.598,16.602,26.855,-0.488
1532402916.895,22.461,8.301,5.371,15.137,30.762
1532402916.899,27.832,6.348,9.277,19.531,46.875
1532402916.903,28.809,12.207,11.230,20.508,46.387
1532402916.907,36.133,20.020,19.043,21.973,31.738
1532402916.911,39.551,21.484,20.020,18.555,27.344
1532402916.915,35.645,20.020,15.625,15.625,29.785
1532402916.919,36.621,28.320,14.160,18.555,31.738
1532402916.923,32.227,17.090,11.719,17.090,23.926
1532402916.927,29.785,13.184,13.672,16.113,28.809
1532402916.931,30.273,25.391,13.672,16.113,7.324
1532402916.934,26.367,26.367,13.184,18.066,20.020
1532402916.938,20.996,19.043,14.160,20.508,66.895
1532402916.942,25.879,28.809,17.090,23.926,70.312
1532402916.946,27.344,35.645,18.555,25.391,50.293
1532402916.950,19.531,25.391,13.184,19.531,56.641
1532402916.954,13.184,16.113,8.789,17.090,58.594
1532402916.958,18.555,21.973,13.184,23.926,16.113
1532402916.962,22.461,23.438,13.184,26.367,25.879
1532402916.966,20.508,20.508,13.184,23.926,25.391
1532402916.970,23.438,25.879,20.996,27.344,14.648
1532402916.974,27.832,32.227,25.391,29.297,31.250
1532402916.977,25.879,35.156,21.484,21.973,36.621
1532402916.981,20.020,23.926,15.625,17.090,30.762
1532402916.985,17.090,20.508,17.578,18.066,30.762
1532402916.989,17.090,29.297,14.648,10.742,-7.812
1532402916.993,16.602,25.391,9.277,8.789,-12.695
1532402916.997,20.996,26.855,18.066,19.043,40.527
1532402917.001,22.949,30.762,19.043,21.973,58.105
1532402917.005,23.926,32.227,13.672,23.926,44.922
1532402917.009,28.320,46.875,20.020,27.344,33.691
1532402917.013,22.949,38.086,16.113,24.414,22.461
1532402917.016,17.090,23.438,12.207,21.484,45.898
1532402917.020,18.555,25.879,14.160,19.531,48.340
1532402917.024,20.996,26.855,15.625,20.996,42.969
1532402917.028,20.020,31.250,15.625,19.531,13.184
1532402917.032,21.484,37.109,19.043,23.438,3.418
1532402917.036,25.879,42.969,23.926,33.203,59.082
1532402917.040,22.461,35.156,21.484,27.832,48.340
1532402917.044,18.555,28.809,19.043,23.926,33.203
1532402917.048,19.043,32.227,17.090,24.414,12.695
1532402917.052,21.484,32.715,17.090,25.391,4.883
1532402917.056,23.438,33.203,17.090,26.855,36.621
1532402917.059,28.320,35.645,19.043,30.762,33.203
1532402917.063,32.227,43.945,20.508,33.691,25.879
1532402917.067,31.738,44.922,22.461,30.762,8.301
1532402917.071,30.273,40.039,21.973,24.902,-2.441
1532402917.075,29.785,39.551,19.043,26.855,26.855
1532402917.079,31.738,38.086,24.902,33.203,30.273
1532402917.083,26.855,26.367,23.926,31.738,43.457
1532402917.087,27.832,23.926,21.484,30.273,26.367
1532402917.091,30.762,35.156,25.879,34.668,16.113
1532402917.095,29.785,40.527,26.367,35.645,38.574
1532402917.099,29.297,39.551,22.461,36.621,40.039
1532402917.102,31.738,46.875,24.902,38.574,57.129
1532402917.106,31.738,40.039,23.438,30.273,51.270
1532402917.110,30.762,29.785,25.391,28.320,23.438
1532402917.114,33.203,32.715,24.902,32.715,34.180
1532402917.118,32.715,30.762,20.996,29.297,59.082
1532402917.122,29.785,23.926,20.996,28.809,50.781
1532402917.126,30.762,28.320,20.996,32.715,12.695
1532402917.130,32.715,40.527,24.414,33.691,-6.348
1532402917.134,33.691,43.945,29.297,39.062,27.344
1532402917.138,29.785,38.086,29.297,43.457,27.832
1532402917.141,22.949,28.809,20.020,39.551,24.414
1532402917.145,26.367,31.738,22.949,40.527,32.715
1532402917.149,27.344,37.109,31.738,41.992,31.738
1532402917.153,23.926,26.367,28.320,38.086,43.945
1532402917.157,25.879,27.344,25.391,38.086,28.809
1532402917.161,22.461,28.320,22.949,32.715,14.648
1532402917.165,23.926,27.344,26.367,35.156,25.879
1532402917.169,27.344,28.320,34.180,35.645,9.277
1532402917.173,25.391,33.691,32.227,32.715,2.930
1532402917.177,27.344,35.156,24.414,36.621,17.578
1532402917.181,25.879,30.762,24.902,35.645,42.480
1532402917.184,26.855,35.645,24.902,38.086,72.266
1532402917.188,29.785,30.273,27.344,41.992,43.457
1532402917.192,27.344,26.367,29.297,39.062,22.949
1532402917.196,26.367,22.461,25.391,37.598,54.199
1532402917.200,28.809,23.926,28.320,41.504,63.965
1532402917.204,32.715,33.691,35.645,49.316,35.156
1532402917.208,39.551,36.133,39.062,47.363,2.930
1532402917.212,34.180,33.691,32.715,40.039,10.742
1532402917.216,28.320,32.227,24.414,41.016,75.195
1532402917.220,33.691,38.086,26.367,42.969,64.453
1532402917.224,28.809,33.691,23.438,39.062,38.086
1532402917.227,24.902,19.531,20.996,34.180,47.363
1532402917.231,26.367,25.879,28.320,37.598,46.387
1532402917.235,25.879,30.762,31.250,41.504,52.734
1532402917.239,27.832,29.785,30.273,42.480,41.992
1532402917.243,25.879,30.273,29.297,38.086,44.922
1532402917.247,23.438,30.762,23.438,32.227,44.922
1532402917.251,28.320,47.363,26.855,39.551,32.715
1532402917.255,28.320,41.992,33.203,41.016,42.480
1532402917.259,26.367,22.949,24.902,35.156,12.695
1532402917.263,29.297,30.762,17.578,36.621,23.438
1532402917.266,36.621,41.992,25.879,37.598,24.902
1532402917.270,37.598,38.086,26.855,30.762,-8.301
1532402917.274,35.156,32.227,21.973,32.227,8.301
1532402917.278,35.156,33.691,24.902,36.133,27.832
1532402917.282,35.156,40.039,27.344,35.645,55.664
1532402917.286,36.621,44.922,30.762,37.109,16.113
1532402917.290,38.574,43.945,29.785,37.109,-3.418
1532402917.294,38.086,40.527,25.391,36.133,43.945
1532402917.298,37.598,33.691,27.832,40.039,36.621
1532402917.302,37.598,34.180,29.297,41.504,7.812
1532402917.306,38.574,41.992,30.273,39.551,8.301
1532402917.309,35.156,37.598,31.738,34.180,-12.207
1532402917.313,31.738,22.461,33.691,33.691,20.508
1532402917.317,34.668,23.926,34.668,39.551,54.199
1532402917.321,38.086,38.086,31.250,42.480,32.715
1532402917.325,38.574,46.387,36.133,45.898,29.297
1532402917.329,34.668,36.621,38.574,46.875,21.973
1532402917.333,37.598,35.645,37.109,48.340,4.883
1532402917.337,34.668,34.668,37.109,46.387,-1.953
1532402917.341,34.180,37.109,39.551,44.434,1.953
1532402917.345,31.250,39.062,34.668,42.480,-11.230
1532402917.349,36.621,37.598,37.109,44.434,2.930
1532402917.352,59.570,40.527,38.574,45.410,24.414
1532402917.356,62.988,35.156,34.180,37.598,21.484
1532402917.360,56.641,38.086,36.133,38.086,2.441
1532402917.364,50.781,38.086,36.621,42.480,20.508
1532402917.368,40.527,25.879,33.691,35.156,30.762
1532402917.372,42.969,35.156,36.621,36.621,-3.418
1532402917.376,44.434,41.992,35.156,41.504,18.066
1532402917.380,37.598,22.461,30.273,39.062,23.926
1532402917.384,37.109,18.555,25.391,38.574,42.969
1532402917.388,39.551,34.180,22.949,40.039,37.109
1532402917.391,37.598,33.691,29.785,37.598,17.090
1532402917.395,35.645,31.738,30.762,35.156,43.457
1532402917.399,37.109,41.504,27.832,37.598,24.414
1532402917.403,34.668,39.551,25.391,32.227,9.766
1532402917.407,39.062,41.992,29.785,33.203,24.414
1532402917.411,41.992,42.480,33.203,37.109,32.715
1532402917.415,32.715,29.297,26.367,30.273,21.973
1532402917.419,30.762,25.879,26.367,24.902,35.645
1532402917.423,34.180,33.203,27.832,25.879,40.527
1532402917.427,36.133,39.551,23.926,22.461,6.836
1532402917.431,39.551,39.062,25.879,20.020,2.930
1532402917.434,41.504,34.668,23.926,28.320,29.785
1532402917.438,42.969,35.156,23.926,26.855,26.855
1532402917.442,47.363,44.922,28.809,28.809,37.109
1532402917.446,49.316,42.969,28.320,29.785,48.340
1532402917.450,49.316,24.902,26.367,16.113,-4.395
1532402917.454,58.594,30.273,28.320,15.625,-22.461
1532402917.458,66.895,43.457,29.785,21.484,16.602
1532402917.462,72.266,41.992,29.297,25.879,28.320
1532402917.466,70.312,41.016,32.227,33.203,19.531
1532402917.470,62.500,45.410,38.574,39.062,32.227
1532402917.474,53.711,39.551,34.668,45.410,36.133
1532402917.477,41.992,29.297,27.832,44.434,44.922
1532402917.481,36.621,23.438,26.855,42.969,42.480
1532402917.485,38.574,25.879,31.250,44.922,39.062
1532402917.489,35.645,29.297,34.668,40.527,21.973
1532402917.493,34.180,32.227,33.691,39.062,0.488
1532402917.497,34.180,30.273,32.227,39.551,27.344
1532402917.501,36.621,32.715,33.203,40.527,41.016
1532402917.505,40.039,37.109,33.203,38.086,30.762
1532402917.509,40.039,29.785,29.297,37.109,32.227
1532402917.513,38.086,23.926,32.227,38.086,32.227
1532402917.517,37.598,33.691,37.598,39.062,46.387
1532402917.520,32.715,37.109,31.250,34.668,30.762
1532402917.524,26.855,24.902,24.414,26.367,-4.395
1532402917.528,34.180,31.738,30.273,30.762,16.602
1532402917.532,38.086,41.504,31.250,34.668,40.527
1532402917.536,33.203,26.367,26.855,33.691,19.043
1532402917.540,38.086,26.855,30.273,38.086,22.949
1532402917.544,39.062,30.273,30.762,37.598,20.020
1532402917.548,38.086,28.809,29.785,29.297,-14.160
1532402917.552,39.062,30.273,30.273,27.344,-4.395
1532402917.556,38.086,28.809,29.785,30.273,4.883
1532402917.559,34.668,25.391,26.855,28.809,1.465
1532402917.563,39.551,36.133,30.762,37.109,16.602
1532402917.567,38.086,31.738,32.715,32.715,24.414
1532402917.571,37.109,20.508,30.762,29.785,30.762
1532402917.575,42.480,32.715,32.715,36.621,30.762
1532402917.579,43.457,32.227,36.133,35.156,16.602
1532402917.583,38.574,20.020,31.738,32.227,30.273
1532402917.587,38.574,21.484,33.691,32.227,21.973
1532402917.591,36.621,19.043,34.668,27.832,7.812
1532402917.595,32.227,6.348,26.855,25.879,22.949
1532402917.599,33.691,12.207,31.250,34.180,27.832
1532402917.602,33.691,18.066,36.133,36.133,36.133
1532402917.606,36.133,23.438,33.691,34.668,12.695
1532402917.610,35.645,22.949,33.203,34.180,22.949
1532402917.614,36.621,25.879,37.109,35.645,52.246
1532402917.618,35.156,28.809,35.156,32.715,35.156
1532402917.622,28.320,18.066,29.785,24.902,38.574
1532402917.626,30.273,13.184,29.785,22.461,31.738
1532402917.630,35.645,16.602,31.738,25.879,13.672
1532402917.634,32.715,24.414,31.250,27.344,10.742
1532402917.638,34.180,20.508,31.250,28.809,32.227
1532402917.642,43.457,23.438,33.203,35.645,43.945
1532402917.645,44.922,32.715,35.156,35.645,20.508
1532402917.649,42.480,23.926,35.156,30.762,26.367
1532402917.653,40.039,19.043,30.273,28.809,45.898
1532402917.657,34.180,10.254,24.414,24.414,23.438
1532402917.661,36.621,11.230,28.320,28.809,6.836
1532402917.665,39.062,26.367,33.203,32.227,7.324
1532402917.669,39.551,25.879,29.785,29.785,44.922
1532402917.673,41.016,23.926,26.855,28.320,54.688
1532402917.677,38.574,24.902,32.227,25.879,44.434
1532402917.681,36.621,30.762,31.738,25.391,55.664
1532402917.684,34.180,27.344,27.832,26.367,41.504
1532402917.688,38.086,23.926,31.250,21.973,16.602
1532402917.692,42.969,31.250,32.227,23.438,26.855
1532402917.696,41.992,37.109,32.227,31.250,48.828
1532402917.700,41.504,39.062,34.180,27.344,38.086
1532402917.704,38.086,34.668,26.367,21.484,47.852
1532402917.708,36.621,38.086,30.762,21.973,62.012
1532402917.712,32.715,38.574,30.762,18.555,61.035
1532402917.716,24.902,23.438,23.926,16.602,35.645
1532402917.720,25.391,20.996,26.855,19.043,13.672
1532402917.724,26.855,26.855,29.785,23.438,40.039
1532402917.727,33.691,35.645,35.645,25.391,39.062
1532402917.731,34.668,39.062,35.156,20.996,22.949
1532402917.735,27.344,30.273,31.738,21.484,44.922
1532402917.739,30.762,29.297,33.691,23.926,41.016
1532402917.743,34.180,30.273,38.574,27.344,25.391
1532402917.747,36.133,39.551,42.480,29.785,28.320
1532402917.751,32.227,34.180,31.738,29.785,26.855
1532402917.755,22.949,28.320,31.250,27.832,13.184
1532402917.759,21.484,32.715,38.574,27.832,11.230
1532402917.763,26.367,31.738,36.133,31.738,29.297
1532402917.767,23.926,29.297,35.645,28.320,21.484
1532402917.770,19.531,21.973,35.645,20.508,12.207
1532402917.774,20.020,21.484,34.180,21.484,32.227
1532402917.778,24.902,37.109,34.668,28.320,29.297
1532402917.782,25.879,39.551,32.715,29.785,15.625
1532402917.786,25.391,28.320,33.691,31.250,23.438
1532402917.790,29.785,30.273,36.133,34.180,30.273
1532402917.794,32.715,36.133,31.738,36.621,25.879
1532402917.798,31.250,34.180,30.762,33.203,29.785
1532402917.802,30.273,20.996,26.855,27.344,40.527
1532402917.806,33.203,20.508,27.344,31.250,50.781
1532402917.809,36.133,37.598,36.621,37.598,11.719
1532402917.813,34.180,42.480,35.156,37.109,1.465
1532402917.817,32.715,33.691,30.762,34.180,23.438
1532402917.821,35.645,36.133,36.133,37.109,45.410
1532402917.825,29.785,31.738,31.738,36.621,82.031
1532402917.829,33.203,33.691,35.645,32.715,34.180
1532402917.833,30.762,31.250,35.156,27.832,1.465
1532402917.837,26.367,23.926,31.738,34.180,34.180
1532402917.841,31.250,35.645,31.738,38.086,36.133
1532402917.845,29.785,36.621,30.762,35.156,42.480
1532402917.849,27.832,30.273,30.762,35.645,49.316
1532402917.852,28.809,36.133,31.738,39.062,36.621
1532402917.856,27.832,35.645,30.273,36.621,30.273
1532402917.860,28.809,32.227,31.250,33.691,32.715
1532402917.864,33.203,36.621,30.273,34.180,43.945
1532402917.868,35.645,37.598,30.762,29.785,21.484
1532402917.872,36.133,32.715,35.645,24.902,-0.488
1532402917.876,41.016,41.016,35.156,34.180,14.648
1532402917.880,41.504,43.945,28.809,35.645,26.855
1532402917.884,37.598,39.551,24.902,33.203,34.668
1532402917.888,36.133,31.738,23.926,31.250,33.691
1532402917.892,35.645,20.020,24.902,25.879,41.504
1532402917.895,36.133,25.879,23.926,29.297,43.945
1532402917.899,34.668,31.250,22.949,31.738,42.969
1532402917.903,38.086,41.016,29.785,32.715,51.270
1532402917.907,41.504,39.551,32.227,27.344,25.391
1532402917.911,41.992,33.691,30.762,25.879,6.836
1532402917.915,45.410,46.387,32.227,34.180,33.203
1532402917.919,37.109,32.227,25.879,23.926,36.133
1532402917.923,34.668,14.648,20.508,20.508,25.391
1532402917.927,41.016,23.926,27.344,24.902,20.996
1532402917.931,37.598,33.691,31.250,24.902,6.836
1532402917.934,43.945,41.016,37.109,36.133,21.484
1532402917.938,46.387,38.574,37.598,34.668,9.766
1532402917.942,43.945,31.250,35.645,29.297,5.859
1532402917.946,51.270,34.668,36.621,30.273,40.527
1532402917.950,47.363,29.785,32.227,26.367,53.223
1532402917.954,45.898,27.832,31.738,30.762,51.270
1532402917.958,44.434,36.133,29.785,30.273,31.738
1532402917.962,42.480,38.574,29.785,28.809,-1.465
1532402917.966,44.922,45.898,35.156,37.598,20.508
1532402917.970,38.574,40.527,33.203,31.250,12.207
1532402917.974,33.203,19.043,28.320,21.973,15.625
1532402917.977,38.086,21.484,27.344,31.250,40.039
1532402917.981,41.504,31.250,32.227,36.133,12.695
1532402917.985,41.016,35.645,37.598,35.645,20.508
1532402917.989,39.062,34.668,33.203,35.156,47.852
1532402917.993,42.969,41.992,31.250,40.039,28.320
1532402917.997,43.945,49.316,30.273,40.039,36.133
1532402918.001,37.109,31.738,25.391,32.227,55.176
1532402918.005,34.668,17.090,26.367,38.086,33.691
1532402918.009,36.133,23.438,27.832,34.180,23.926
1532402918.013,39.551,32.227,33.203,31.250,26.367
1532402918.017,41.992,38.574,37.109,43.945,22.949
1532402918.020,42.480,42.969,38.086,45.898,13.184
1532402918.024,42.969,48.340,39.551,44.434,36.133
1532402918.028,38.086,30.762,34.668,38.086,52.246
1532402918.032,33.203,10.742,32.715,31.738,44.922
1532402918.036,35.156,20.996,31.738,36.133,36.133
1532402918.040,39.551,34.180,27.832,38.086,29.297
1532402918.044,43.457,41.992,28.809,37.109,32.715
1532402918.048,41.992,42.480,27.344,34.668,23.438
1532402918.052,40.039,42.480,29.785,36.621,7.812
1532402918.056,37.598,32.715,33.203,37.598,22.461
1532402918.060,36.133,26.855,30.273,36.621,32.227
1532402918.063,36.133,27.832,28.320,36.621,29.785
1532402918.067,34.668,22.949,26.855,32.715,31.250
1532402918.071,38.574,30.273,30.762,32.227,-1.953
1532402918.075,43.457,32.715,34.180,36.621,2.930
1532402918.079,46.875,49.316,34.668,44.434,31.738
1532402918.083,39.062,48.340,31.250,40.039,41.992
1532402918.087,26.855,17.578,26.367,27.344,20.996
1532402918.091,29.785,15.137,28.320,27.344,7.324
1532402918.095,36.621,30.273,29.297,30.273,29.785
1532402918.099,35.156,36.133,29.785,26.855,52.734
1532402918.102,37.598,36.621,29.785,25.391,55.664
1532402918.106,45.898,47.852,31.250,24.414,28.320
1532402918.110,45.410,37.598,28.809,16.602,-21.973
1532402918.114,42.480,19.043,27.344,17.090,5.371
1532402918.118,41.504,20.996,26.367,25.879,46.387
1532402918.122,36.133,27.344,30.762,36.133,41.016
1532402918.126,31.738,33.203,35.156,41.016,41.992
1532402918.130,26.367,37.109,28.809,41.016,51.270
1532402918.134,21.973,37.598,25.391,41.016,50.293
1532402918.138,17.578,30.762,28.809,39.062,41.016
1532402918.142,21.973,40.527,34.180,47.363,60.547
1532402918.145,24.414,49.805,34.668,50.293,34.668
1532402918.149,16.113,26.855,32.227,35.156,11.230
1532402918.153,15.137,19.531,28.809,31.738,21.484
1532402918.157,18.066,19.531,24.414,34.180,3.906
1532402918.161,25.391,19.531,35.645,42.480,41.504
1532402918.165,30.273,29.785,35.156,42.480,45.410
1532402918.169,25.391,40.039,22.461,23.438,18.555
1532402918.173,24.414,40.527,21.973,20.020,42.480
1532402918.177,27.344,42.969,26.855,24.902,20.508
1532402918.181,22.461,39.062,26.367,20.020,10.254
1532402918.185,20.020,24.902,22.949,15.625,18.555
1532402918.188,20.020,28.809,28.809,14.160,14.160
1532402918.192,24.414,38.086,33.203,20.996,22.461
1532402918.196,26.855,39.062,33.691,24.902,9.277
1532402918.200,22.949,28.320,28.809,22.949,10.254
1532402918.204,25.879,32.227,26.367,24.414,29.297
1532402918.208,28.809,35.645,29.785,23.438,4.395
1532402918.212,33.203,36.621,31.738,27.344,-31.738
1532402918.216,29.785,33.203,24.902,25.879,-3.418
1532402918.220,26.855,25.879,26.855,27.832,29.785
1532402918.224,32.227,37.109,28.809,33.691,19.531
1532402918.227,30.762,40.039,27.832,28.809,21.973
1532402918.231,22.461,33.691,29.785,27.344,34.668
1532402918.235,20.996,37.109,39.551,33.691,45.410
1532402918.239,19.531,48.340,39.551,32.227,17.578
1532402918.243,12.695,37.109,27.344,25.391,20.020
1532402918.247,8.301,18.066,24.902,19.043,4.395
1532402918.251,17.090,26.367,34.668,23.926,-10.254
1532402918.255,21.484,31.738,35.156,28.320,16.602
1532402918.259,17.090,22.461,28.809,22.949,12.207
1532402918.263,25.879,39.551,33.691,28.809,28.809
1532402918.267,33.691,57.617,41.016,33.203,27.832
1532402918.270,25.391,36.621,33.691,22.949,10.742
1532402918.274,19.043,16.113,18.066,15.137,21.973
1532402918.278,24.414,22.949,23.926,18.066,20.996
1532402918.282,26.855,31.250,33.203,20.020,11.230
1532402918.286,28.809,31.738,31.738,20.508,19.531
1532402918.290,30.273,34.668,30.273,24.414,3.418
1532402918.294,32.715,40.039,35.156,30.273,-6.836
1532402918.298,36.133,42.480,36.133,30.273,15.625
1532402918.302,32.715,39.062,26.855,24.414,14.648
1532402918.306,27.344,23.926,22.949,16.602,-9.277
1532402918.310,33.203,26.855,31.738,13.184,-30.762
1532402918.313,36.621,34.180,29.297,15.137,-26.367
1532402918.317,35.645,25.879,20.020,22.461,9.766
1532402918.321,40.039,33.203,24.902,27.344,44.922
1532402918.325,39.062,37.109,29.297,26.855,42.480
1532402918.329,42.969,35.645,31.250,26.367,30.762
1532402918.333,47.363,42.969,32.227,28.809,41.016
1532402918.337,38.086,28.809,28.809,21.973,43.457
1532402918.341,36.133,17.090,28.809,18.555,26.367
1532402918.345,40.527,29.785,33.691,21.973,18.066
1532402918.349,42.969,33.691,36.133,17.578,4.395
1532402918.352,42.480,31.738,31.250,15.137,-24.414
1532402918.356,46.875,35.645,27.344,20.996,-11.719
1532402918.360,48.828,32.715,28.320,24.414,-8.789
1532402918.364,50.781,31.738,34.180,26.855,10.742
1532402918.368,51.270,29.785,33.691,24.414,35.156
1532402918.372,44.922,24.414,29.297,20.020,2.930
1532402918.376,44.922,26.367,33.691,22.461,0.488
1532402918.380,44.434,32.227,34.668,23.926,14.160
1532402918.384,40.527,34.180,31.250,22.461,30.273
1532402918.388,38.574,32.715,30.273,23.438,27.344
1532402918.392,35.156,28.809,28.320,22.461,7.324
1532402918.395,35.645,29.297,33.691,26.367,26.367
1532402918.399,32.715,31.250,33.691,28.809,30.273
1532402918.403,33.203,25.879,31.738,26.855,32.715
1532402918.407,36.133,31.738,37.598,24.902,21.973
1532402918.411,35.645,35.156,35.156,22.461,4.883
1532402918.415,35.156,31.250,33.203,21.973,25.391
1532402918.419,34.668,35.645,36.133,23.438,65.430
1532402918.423,31.738,24.902,31.738,20.996,32.227
1532402918.427,35.156,25.879,31.250,17.090,0.977
1532402918.431,34.180,28.320,29.785,10.254,22.461
1532402918.435,31.738,22.949,29.297,11.230,22.461
1532402918.438,37.598,29.297,30.762,12.695,28.809
1532402918.442,40.527,26.855,32.715,13.184,31.738
1532402918.446,41.504,35.156,34.668,20.508,27.832
1532402918.450,41.992,25.391,28.320,20.508,46.387
1532402918.454,44.434,17.090,30.762,23.926,56.641
1532402918.458,42.480,25.879,32.715,28.320,47.363
1532402918.462,39.551,22.949,31.250,27.344,37.109
1532402918.466,44.434,34.668,35.156,26.855,29.297
1532402918.470,45.410,31.738,31.738,20.508,25.879
1532402918.474,47.363,19.531,24.902,20.020,40.039
1532402918.477,52.246,36.133,30.273,27.832,41.016
1532402918.481,52.734,40.039,33.691,27.832,29.785
1532402918.485,51.270,21.973,25.391,24.414,37.109
1532402918.489,43.945,17.578,22.461,20.020,17.578
1532402918.493,38.086,24.414,25.879,17.090,18.066
1532402918.497,42.969,37.598,35.645,24.414,58.105
1532402918.501,40.039,40.527,37.598,25.879,63.477
1532402918.505,35.645,33.203,32.715,21.973,54.199
1532402918.509,37.109,28.809,35.645,23.438,59.082
1532402918.513,35.645,16.602,34.180,20.996,42.480
1532402918.517,37.109,15.625,36.133,20.020,21.973
1532402918.520,38.574,20.020,38.574,22.461,21.973
1532402918.524,41.016,30.273,38.086,25.879,32.715
1532402918.528,41.992,38.086,40.039,25.391,31.738
1532402918.532,36.133,32.715,35.645,23.438,18.066
1532402918.536,30.273,26.367,31.738,18.066,32.715
1532402918.540,33.691,28.320,33.691,17.578,45.410
1532402918.544,37.598,32.715,35.156,22.949,59.082
1532402918.548,36.133,25.391,38.086,23.438,37.109
1532402918.552,36.133,25.391,39.551,20.020,-14.160
1532402918.556,38.086,33.691,42.969,23.438,-7.812
1532402918.560,36.621,30.273,41.992,26.367,12.695
1532402918.563,34.668,17.578,39.551,24.902,25.879
1532402918.567,34.668,20.020,40.039,21.973,10.742
1532402918.571,33.203,25.391,39.062,19.043,11.230
1532402918.575,30.273,23.438,38.574,21.973,34.180
1532402918.579,30.762,24.902,38.574,21.973,20.996
1532402918.583,39.062,34.180,42.480,25.879,15.137
1532402918.587,43.945,42.480,45.898,22.949,11.230
1532402918.591,41.016,28.809,40.527,14.160,7.324
1532402918.595,40.527,21.973,35.645,14.648,19.043
1532402918.599,40.527,33.691,32.715,13.672,36.621
1532402918.603,36.133,30.273,34.668,12.207,38.574
1532402918.606,30.762,18.555,33.691,8.789,32.715
1532402918.610,27.344,22.949,32.227,6.836,14.160
1532402918.614,24.414,28.809,33.691,5.859,31.250
1532402918.618,20.996,29.297,39.062,4.395,30.762
1532402918.622,24.414,40.039,44.434,11.719,18.555
1532402918.626,26.855,43.945,43.457,17.578,9.766
1532402918.630,30.762,33.203,45.898,23.438,-19.043
1532402918.634,34.668,24.414,47.363,28.809,25.879
1532402918.638,22.461,27.832,34.668,15.625,39.062
1532402918.642,19.531,29.785,31.250,9.766,10.742
1532402918.645,28.809,24.902,36.621,16.602,17.578
1532402918.649,34.180,29.297,40.039,19.531,23.926
1532402918.653,35.156,32.227,35.645,15.625,37.109
1532402918.657,36.133,35.156,28.320,11.230,19.531
1532402918.661,43.945,46.875,27.832,21.973,41.504
1532402918.665,39.551,35.645,30.762,29.297,65.918
1532402918.669,31.738,25.391,34.180,20.996,16.602
1532402918.673,31.738,27.832,33.203,18.066,16.113
1532402918.677,40.039,30.762,36.133,28.809,38.086
1532402918.681,44.434,31.250,38.574,36.133,50.781
1532402918.685,43.945,29.297,36.133,37.598,45.898
1532402918.688,43.457,35.645,34.668,33.691,30.273
1532402918.692,45.898,39.551,35.645,35.156,31.250
1532402918.696,43.945,37.598,35.645,33.203,32.227
1532402918.700,33.691,25.391,30.273,23.438,43.945
1532402918.704,37.598,23.438,32.715,28.320,26.855
1532402918.708,39.551,28.809,36.621,29.785,15.137
1532402918.712,37.109,31.738,37.109,25.391,40.039
1532402918.716,40.039,29.785,34.668,24.902,29.297
1532402918.720,42.480,25.879,33.691,26.367,16.602
1532402918.724,42.969,27.344,38.086,32.227,37.598
1532402918.728,42.969,31.738,35.156,25.879,25.879
1532402918.731,38.086,26.855,29.785,14.648,-1.465
1532402918.735,41.992,28.320,35.645,22.949,12.207
1532402918.739,50.293,38.574,36.621,25.879,38.086
1532402918.743,45.410,25.879,31.250,16.113,39.062
1532402918.747,49.805,16.113,30.762,11.719,11.719
1532402918.751,65.918,33.691,36.621,18.066,24.902
1532402918.755,72.266,36.621,37.109,20.020,54.688
1532402918.759,71.777,25.391,34.668,19.531,36.133
1532402918.763,70.801,31.738,35.156,24.414,11.230
1532402918.767,66.895,31.250,37.109,27.344,17.090
1532402918.770,60.059,29.785,40.039,26.855,20.020
1532402918.774,49.316,31.250,34.180,27.832,16.113
1532402918.778,41.016,26.367,32.227,30.762,14.160
1532402918.782,41.504,37.598,41.016,36.133,27.344
1532402918.786,40.527,40.039,47.363,36.133,28.320
1532402918.790,32.715,19.043,38.574,28.809,37.109
1532402918.794,29.785,13.672,34.180,27.832,48.340
1532402918.798,32.227,22.461,37.598,28.809,20.996
1532402918.802,40.039,32.715,45.898,33.691,16.602
1532402918.806,41.992,31.738,47.852,29.297,35.156
1532402918.810,40.039,24.902,37.598,17.090,16.113
1532402918.813,39.551,22.461,33.691,17.578,23.926
1532402918.817,44.922,30.273,42.480,25.879,16.602
1532402918.821,49.316,41.992,44.434,23.926,28.320
1532402918.825,43.945,26.855,36.133,17.090,49.316
1532402918.829,47.852,27.344,43.457,20.020,36.133
1532402918.833,48.828,31.738,43.457,22.461,44.922
1532402918.837,43.457,18.066,35.156,16.113,30.762
1532402918.841,43.457,19.043,37.109,16.113,4.883
1532402918.845,43.945,25.391,34.180,21.484,16.113
1532402918.849,43.457,26.855,35.156,23.926,17.578
1532402918.853,43.457,25.879,43.945,29.297,7.812
1532402918.856,49.316,18.555,41.016,36.133,35.156
1532402918.860,47.363,20.996,40.039,26.367,43.945
1532402918.864,43.457,34.668,40.039,17.578,36.621
1532402918.868,47.852,36.133,35.156,20.020,23.438
1532402918.872,53.711,25.391,31.250,26.367,29.785
1532402918.876,61.523,27.832,30.762,32.715,31.250
1532402918.880,63.477,35.156,32.227,34.668,23.926
1532402918.884,63.965,33.203,29.785,37.109,31.250
1532402918.888,67.383,31.250,28.809,39.551,19.531
1532402918.892,71.777,21.973,30.762,45.898,31.250
1532402918.895,66.895,14.160,25.391,42.480,35.156
1532402918.899,63.965,21.484,25.391,37.598,28.320
1532402918.903,66.406,30.273,30.762,42.969,37.598
1532402918.907,64.453,30.762,27.344,39.062,20.508
1532402918.911,65.918,36.621,26.855,34.668,12.207
1532402918.915,67.383,36.621,28.809,40.527,14.648
1532402918.919,64.941,22.461,25.391,38.574,44.922
1532402918.923,63.965,20.508,25.879,38.574,47.363
1532402918.927,66.895,29.297,29.785,43.457,25.879
1532402918.931,63.477,32.715,31.738,41.992,53.711
1532402918.935,57.129,26.367,30.762,40.527,44.434
1532402918.938,59.570,32.715,31.738,41.016,6.836
1532402918.942,60.059,42.480,31.250,41.992,2.441
1532402918.946,51.270,27.832,30.273,38.574,5.859
1532402918.950,49.805,17.090,29.785,30.762,-3.418
1532402918.954,51.758,23.926,29.785,32.715,3.418
1532402918.958,51.270,27.832,32.227,42.969,-13.672
1532402918.962,51.270,28.320,30.273,40.527,14.648
1532402918.966,47.363,26.367,30.273,33.691,32.715
1532402918.970,55.176,37.109,36.621,40.039,46.875
1532402918.974,57.617,45.410,26.855,35.156,43.457
1532402918.978,47.852,25.391,18.066,24.902,13.184
1532402918.981,46.875,18.555,22.949,28.320,8.789
1532402918.985,51.270,32.227,22.949,33.691,17.090
1532402918.989,56.641,37.109,25.391,36.133,4.883
1532402918.993,57.129,37.109,27.832,34.180,4.395
1532402918.997,54.688,32.227,27.832,34.180,38.574
1532402919.001,59.570,38.574,31.250,39.551,57.129
1532402919.005,63.477,47.852,33.691,41.504,46.387
1532402919.009,55.176,37.598,27.832,31.738,19.043
1532402919.013,49.805,24.902,23.438,27.832,26.855
1532402919.017,52.734,26.855,25.879,34.180,27.832
1532402919.020,51.270,32.715,24.902,35.156,7.324
1532402919.024,48.828,31.738,25.879,32.715,-1.953
1532402919.028,50.781,38.086,31.738,36.621,16.602
1532402919.032,45.898,33.691,34.180,36.133,18.555
1532402919.036,43.457,27.832,33.203,36.621,23.926
1532402919.040,47.852,46.387,35.156,42.480,36.133
1532402919.044,42.480,41.992,34.668,38.086,36.621
1532402919.048,37.109,18.066,32.227,27.832,18.555
1532402919.052,35.645,19.043,34.180,24.902,4.883
1532402919.056,32.227,28.320,37.109,30.273,20.996
1532402919.060,36.133,28.809,37.598,33.203,6.348
1532402919.063,42.480,23.926,36.133,39.062,37.109
1532402919.067,49.805,30.273,37.109,33.691,20.996
1532402919.071,43.457,59.082,35.645,14.648,1.953
1532402919.075,38.086,42.969,26.855,10.742,34.180
1532402919.079,44.922,24.414,23.926,14.160,20.996
1532402919.083,41.016,37.598,25.879,9.277,40.039
1532402919.087,45.410,34.180,27.344,12.695,43.945
1532402919.091,45.898,33.203,24.902,13.672,24.902
1532402919.095,39.062,34.180,26.855,12.695,35.645
1532402919.099,41.992,31.738,34.668,18.066,9.277
1532402919.103,41.992,35.156,33.691,19.043,18.066
1532402919.106,45.898,47.852,37.598,21.973,14.648
1532402919.110,48.340,45.898,37.109,19.531,17.090
1532402919.114,49.805,38.086,36.621,16.602,29.785
1532402919.118,43.457,32.227,32.227,12.695,41.504
1532402919.122,40.039,26.855,27.344,11.719,35.156
1532402919.126,48.828,30.762,33.203,18.066,-2.441
1532402919.130,51.758,33.691,34.180,16.113,-11.230
1532402919.134,52.246,39.062,35.156,18.555,11.230
1532402919.138,52.246,37.109,37.598,25.879,40.039
1532402919.142,55.664,36.133,45.410,31.738,22.949
1532402919.146,51.758,36.621,39.551,27.832,30.762
1532402919.149,46.387,27.832,31.738,24.902,10.742
1532402919.153,49.316,29.297,38.086,28.809,2.930
1532402919.157,51.270,43.945,39.062,35.156,40.039
1532402919.161,43.457,38.086,38.574,35.156,27.832
1532402919.165,40.039,29.785,38.086,35.156,28.809
1532402919.169,45.410,32.227,38.086,35.156,24.902
1532402919.173,43.457,26.855,43.457,32.715,15.625
1532402919.177,40.039,25.391,39.551,31.250,13.184
1532402919.181,43.457,41.504,36.621,33.691,9.277
1532402919.185,40.527,41.504,37.598,34.180,44.434
1532402919.188,39.551,24.414,36.621,24.414,19.531
1532402919.192,42.480,31.250,37.109,18.066,-2.441
1532402919.196,41.504,36.621,38.086,20.020,33.203
1532402919.200,40.527,32.715,42.480,22.461,37.598
1532402919.204,37.109,33.203,39.062,17.578,41.016
1532402919.208,40.527,33.203,37.598,15.625,32.715
1532402919.212,41.016,31.738,38.574,19.531,23.438
1532402919.216,37.109,35.156,38.086,19.043,15.137
1532402919.220,38.574,41.016,39.551,21.484,19.043
1532402919.224,34.180,34.668,38.574,23.926,41.992
1532402919.228,31.738,30.273,39.551,19.043,35.156
1532402919.231,33.691,30.273,42.969,15.625,4.395
1532402919.235,29.297,28.320,39.062,18.066,23.926
1532402919.239,26.367,27.832,33.691,14.160,42.969
1532402919.243,34.668,36.621,37.598,16.113,27.344
1532402919.247,31.250,35.645,36.621,17.578,39.062
1532402919.251,27.832,29.297,39.551,19.043,53.711
1532402919.255,33.203,41.016,43.945,22.949,43.945
1532402919.259,26.855,32.715,39.062,15.137,42.480
1532402919.263,22.949,20.996,38.086,15.137,7.812
1532402919.267,25.391,30.762,36.621,16.113,3.906
1532402919.271,30.273,33.203,39.551,13.672,22.949
1532402919.274,31.250,36.621,40.039,17.578,24.902
1532402919.278,26.367,39.062,38.574,16.113,-6.836
1532402919.282,25.879,33.203,44.922,14.648,-8.789
1532402919.286,24.902,29.297,41.016,17.578,13.184
1532402919.290,21.484,20.508,34.668,15.137,6.348
1532402919.294,22.461,20.020,36.621,11.719,20.996
1532402919.298,27.344,26.367,38.574,17.090,41.992
1532402919.302,30.762,31.738,36.133,22.949,34.668
1532402919.306,31.250,26.855,32.715,20.020,26.855
1532402919.310,34.668,28.809,38.086,21.973,38.574
1532402919.313,37.598,37.598,41.992,27.832,7.324
1532402919.317,35.156,39.062,41.504,25.391,0.000
1532402919.321,31.738,33.203,37.598,21.973,20.508
1532402919.325,27.344,20.996,37.109,23.926,40.039
1532402919.329,28.809,26.855,38.574,20.508,11.719
1532402919.333,28.809,26.855,39.062,16.602,-5.371
1532402919.337,28.809,20.020,42.480,21.484,41.016
1532402919.341,35.156,30.762,41.016,27.344,62.012
1532402919.345,35.645,38.086,39.551,24.414,32.227
1532402919.349,29.297,27.832,37.598,18.066,41.016
1532402919.353,30.762,33.203,38.574,17.090,36.133
1532402919.356,31.738,34.180,35.645,14.160,17.578
1532402919.360,30.273,22.949,34.668,9.277,26.855
1532402919.364,34.180,28.809,35.645,14.648,28.809
1532402919.368,37.109,31.738,34.180,14.648,5.859
1532402919.372,35.645,27.344,35.156,11.719,-20.996
1532402919.376,38.086,36.621,39.551,22.949,6.348
1532402919.380,35.645,38.574,38.086,24.414,26.367
1532402919.384,33.691,30.273,41.992,20.020,56.152
1532402919.388,35.156,22.461,40.527,19.531,70.801
1532402919.392,37.598,22.949,32.227,17.090,47.363
1532402919.396,40.527,25.391,31.250,12.207,25.879
1532402919.399,43.945,17.578,31.250,9.277,9.766
1532402919.403,53.711,29.785,34.180,14.160,22.949
1532402919.407,57.617,35.645,38.574,19.043,24.902
1532402919.411,54.199,26.367,38.086,23.438,23.926
1532402919.415,47.852,29.297,37.109,32.227,38.574
1532402919.419,37.598,28.320,38.086,31.738,20.020
1532402919.423,25.391,17.578,33.203,22.949,13.672
1532402919.427,19.531,9.766,34.668,19.043,15.625
1532402919.431,18.555,14.648,37.109,18.555,12.695
1532402919.435,23.926,31.250,43.945,24.902,41.016
1532402919.438,25.391,30.762,42.480,24.414,52.734
1532402919.442,23.438,18.555,32.227,18.066,48.828
1532402919.446,28.320,22.949,36.621,20.508,56.641
1532402919.450,37.109,31.738,41.016,28.320,40.039
1532402919.454,39.062,28.809,35.645,26.855,23.926
1532402919.458,33.691,16.602,34.180,20.996,21.484
1532402919.462,37.109,15.137,40.527,22.949,13.184
1532402919.466,42.480,20.020,42.480,24.902,33.691
1532402919.470,47.852,31.738,40.527,19.531,0.977
1532402919.474,51.758,34.180,35.645,11.719,-12.207
1532402919.478,72.754,30.762,26.855,33.203,26.367
1532402919.481,86.914,24.902,34.180,58.594,52.734
1532402919.485,51.270,19.043,54.199,34.180,74.219
1532402919.489,35.645,34.668,52.734,15.625,48.828
1532402919.493,26.855,29.297,43.457,3.418,39.551
1532402919.497,8.301,12.207,46.387,-14.160,43.457
1532402919.501,8.789,16.602,53.711,-12.695,58.105
1532402919.505,-1.465,24.414,53.711,-21.973,45.410
1532402919.509,-18.066,24.902,49.805,-40.527,4.395
1532402919.513,-19.043,18.066,55.176,-41.992,10.742
1532402919.517,-13.672,21.484,61.523,-34.180,33.691
1532402919.521,-20.508,28.809,57.129,-37.598,17.090
1532402919.524,-28.320,18.066,53.711,-40.039,40.527
1532402919.528,-20.020,18.066,62.500,-33.203,22.949
1532402919.532,-19.531,15.625,59.570,-30.762,14.648
1532402919.536,-20.020,20.020,60.059,-27.832,56.641
1532402919.540,-15.625,24.902,60.059,-25.391,27.344
1532402919.544,-6.348,14.160,55.664,-18.555,-2.441
1532402919.548,1.465,12.695,56.641,-12.695,-2.441
1532402919.552,5.371,18.066,54.199,-3.906,7.812
1532402919.556,9.766,21.973,50.781,1.953,35.156
1532402919.560,12.695,13.184,47.852,1.953,48.340
1532402919.563,18.066,8.789,44.922,2.930,20.508
1532402919.567,18.555,8.301,44.434,2.930,2.441
1532402919.571,22.461,17.578,50.781,7.812,-1.465
1532402919.575,27.344,25.879,55.176,17.090,21.973
1532402919.579,32.715,20.996,49.316,23.438,43.457
1532402919.583,36.621,20.020,48.340,22.949,45.410
1532402919.587,39.062,22.949,49.316,19.531,22.949
1532402919.591,41.504,19.531,40.527,19.043,-0.488
1532402919.595,43.945,19.043,41.992,25.879,3.418
1532402919.599,45.898,25.391,47.852,30.273,-2.441
1532402919.603,46.875,29.297,44.922,35.156,19.043
1532402919.606,43.457,23.438,39.551,34.668,16.113
1532402919.610,41.016,10.742,39.062,26.367,-23.438
1532402919.614,44.922,9.766,43.457,32.715,22.949
1532402919.618,45.898,18.555,44.434,39.062,54.199
1532402919.622,43.945,21.973,43.457,35.645,30.273
1532402919.626,40.039,20.996,43.457,30.762,33.203
1532402919.630,38.574,20.020,42.969,30.273,40.527
1532402919.634,39.062,20.020,40.527,33.203,53.711
1532402919.638,41.992,28.320,40.039,37.598,45.898
1532402919.642,46.387,32.227,42.969,39.551,13.672
1532402919.646,45.410,24.414,45.898,38.574,25.391
1532402919.649,45.898,28.320,46.875,32.715,28.320
1532402919.653,41.016,24.902,42.480,23.438,27.344
1532402919.657,41.016,18.555,43.945,28.809,33.691
1532402919.661,41.016,23.926,48.340,34.180,26.855
1532402919.665,38.086,23.926,39.551,32.227,47.852
1532402919.669,40.527,24.902,37.598,35.645,40.039
1532402919.673,38.086,26.367,41.504,36.621,23.926
1532402919.677,36.621,24.414,38.574,33.691,23.438
1532402919.681,37.598,24.902,39.062,32.227,29.297
1532402919.685,39.062,31.738,46.387,35.645,12.207
1532402919.689,35.156,28.320,49.316,33.203,20.996
1532402919.692,33.203,30.762,44.434,31.250,21.484
1532402919.696,34.180,31.250,36.621,32.715,24.902
1532402919.700,34.180,20.996,41.016,34.668,40.039
1532402919.704,38.574,31.738,46.387,40.039,29.297
1532402919.708,38.574,31.738,40.039,36.133,31.738
1532402919.712,34.668,20.508,42.480,30.273,-2.930
1532402919.716,34.668,20.996,42.969,30.762,-8.789
1532402919.720,38.574,28.320,41.504,37.109,27.344
1532402919.724,35.156,36.133,44.922,33.691,32.715
1532402919.728,27.832,31.738,41.016,24.902,32.715
1532402919.731,29.297,27.344,37.598,25.391,37.109
1532402919.735,37.598,39.062,44.434,31.738,39.062
1532402919.739,36.621,34.180,46.875,29.297,16.602
1532402919.743,30.273,16.113,39.062,25.879,30.762
1532402919.747,38.086,23.926,41.992,28.320,3.906
1532402919.751,41.992,29.297,41.016,24.902,-11.230
1532402919.755,37.109,22.461,34.180,27.832,31.250
1532402919.759,37.598,20.508,40.039,30.762,38.574
1532402919.763,36.621,19.531,43.945,30.273,38.574
1532402919.767,39.062,27.344,41.016,32.715,17.090
1532402919.771,41.016,38.086,42.480,32.227,7.812
1532402919.774,35.156,21.484,41.992,26.855,16.113
1532402919.778,34.668,10.254,37.109,27.344,6.348
1532402919.782,37.598,21.484,35.645,31.250,-7.324
1532402919.786,36.133,25.391,38.086,29.297,-6.836
1532402919.790,36.621,26.367,38.086,22.461,-10.742
1532402919.794,38.574,26.855,41.504,26.855,-8.789
1532402919.798,36.133,23.926,43.457,32.715,34.180
1532402919.802,35.156,23.438,41.504,31.250,49.805
1532402919.806,34.668,21.484,38.574,29.297,25.391
1532402919.810,39.551,28.809,40.527,29.785,8.789
1532402919.814,43.457,39.551,41.992,30.762,22.461
1532402919.817,35.645,29.785,38.086,25.391,41.016
1532402919.821,33.691,20.996,37.109,25.879,54.688
1532402919.825,34.180,23.438,33.691,26.367,29.785
1532402919.829,36.133,35.645,36.133,26.367,5.371
1532402919.833,37.109,31.250,37.598,24.902,6.348
1532402919.837,47.363,31.738,27.344,31.250,39.551
1532402919.841,51.758,35.156,26.855,41.504,43.945
1532402919.845,29.785,20.508,40.527,34.668,29.297
1532402919.849,26.855,22.949,43.945,32.227,14.160
1532402919.853,30.762,32.227,45.898,34.180,24.902
1532402919.856,26.367,21.973,47.363,33.691,20.508
1532402919.860,30.273,13.184,44.922,32.715,10.254
1532402919.864,32.715,18.066,44.922,29.297,25.879
1532402919.868,37.598,20.996,41.016,34.180,26.855
1532402919.872,41.992,21.973,40.039,37.598,25.391
1532402919.876,40.527,25.391,41.992,38.574,34.180
1532402919.880,42.480,31.250,41.016,41.016,46.387
1532402919.884,41.016,27.344,39.551,36.133,69.824
1532402919.888,38.086,15.625,44.922,34.180,35.156
1532402919.892,43.457,26.855,48.340,36.621,2.930
1532402919.896,45.410,35.156,40.527,33.203,36.621
1532402919.899,41.016,20.996,43.945,29.297,62.500
1532402919.903,38.574,15.137,48.340,32.227,63.477
1532402919.907,36.621,16.113,39.551,23.438,37.109
1532402919.911,33.691,19.531,32.227,13.184,15.625
1532402919.915,32.227,20.996,36.133,21.484,26.855
1532402919.919,33.203,22.949,43.457,27.344,47.852
1532402919.923,28.320,19.043,35.645,22.461,43.457
1532402919.927,36.621,26.367,36.133,24.414,16.602
1532402919.931,44.922,36.133,42.969,24.902,1.953
1532402919.935,36.133,22.461,37.598,20.020,35.156
1532402919.939,35.645,26.367,38.086,25.391,27.832
1532402919.942,37.109,31.250,38.086,25.879,31.738
1532402919.946,33.203,18.555,32.227,21.484,31.250
1532402919.950,34.180,23.926,31.738,25.391,15.137
1532402919.954,34.668,23.926,31.738,26.367,28.809
1532402919.958,35.156,20.020,32.227,24.902,40.039
1532402919.962,38.574,26.855,36.133,27.832,65.918
1532402919.966,37.598,24.902,38.574,26.367,58.105
1532402919.970,33.691,21.973,39.062,24.902,34.668
1532402919.974,36.621,28.320,44.434,36.133,26.855
1532402919.978,49.316,17.578,41.504,48.828,23.438
1532402919.981,49.316,20.508,35.156,33.691,15.625
1532402919.985,41.504,40.039,31.738,14.648,11.230
1532402919.989,42.969,41.016,23.926,11.230,-11.719
1532402919.993,47.852,37.598,23.438,15.625,3.418
1532402919.997,53.223,36.621,25.879,22.461,39.062
1532402920.001,51.758,42.480,18.555,19.043,32.715
1532402920.005,52.246,43.457,10.742,18.555,43.945
1532402920.009,53.223,44.922,7.812,17.090,32.227
1532402920.013,55.664,36.621,3.418,17.578,48.828
1532402920.017,59.082,31.738,-2.930,16.602,44.434
1532402920.021,50.293,41.016,-7.324,11.230,20.020
1532402920.024,58.105,46.875,0.488,21.484,36.133
1532402920.028,62.500,45.410,0.977,23.438,15.137
1532402920.032,62.500,47.852,0.977,21.973,6.836
1532402920.036,61.035,44.434,0.000,22.461,52.734
1532402920.040,59.570,36.133,3.418,16.113,64.453
1532402920.044,62.012,35.156,2.441,12.207,70.801
1532402920.048,67.871,36.133,0.977,17.578,75.195
1532402920.052,66.895,42.480,7.812,21.973,59.082
1532402920.056,57.617,40.039,7.812,28.320,30.273
1532402920.060,50.293,35.156,10.254,33.203,23.438
1532402920.064,48.340,37.109,15.137,42.480,31.250
1532402920.067,49.805,42.969,18.555,46.875,10.254
1532402920.071,43.945,43.945,18.555,38.086,-5.859
1532402920.075,37.109,37.598,20.996,38.086,13.672
1532402920.079,42.480,41.504,27.344,44.922,32.227
1532402920.083,37.598,33.691,20.020,42.969,29.297
1532402920.087,29.297,22.461,13.672,37.598,13.672
1532402920.091,32.227,29.785,15.137,38.086,0.000
1532402920.095,37.109,35.645,21.973,39.062,37.109
1532402920.099,37.109,35.645,25.391,34.180,46.387
1532402920.103,36.621,34.180,19.531,31.738,38.086
1532402920.106,40.039,36.621,20.020,33.203,26.855
1532402920.110,41.016,39.062,23.926,33.203,-2.441
1532402920.114,46.387,42.480,23.926,35.156,20.996
1532402920.118,44.434,39.062,21.484,34.668,48.340
1532402920.122,39.551,25.391,17.578,35.156,26.855
1532402920.126,45.898,21.484,21.484,41.992,-5.859
1532402920.130,47.363,29.297,27.832,40.039,-21.484
1532402920.134,44.434,37.109,26.855,32.715,7.812
1532402920.138,45.898,37.598,25.391,34.668,41.504
1532402920.142,44.922,37.109,25.879,36.621,50.293
1532402920.146,35.645,31.250,20.508,27.832,24.414
1532402920.149,36.133,31.738,26.855,28.320,22.461
1532402920.153,41.504,30.762,30.762,34.668,61.523
1532402920.157,37.598,17.090,22.949,32.715,58.594
1532402920.161,37.598,24.414,24.902,32.715,15.137
1532402920.165,43.945,42.480,30.762,37.598,25.879
1532402920.169,43.945,39.062,32.227,38.086,7.324
1532402920.173,36.621,25.391,32.715,32.227,1.465
1532402920.177,39.551,25.391,32.227,34.180,55.664
1532402920.181,42.480,30.762,33.203,38.086,59.082
1532402920.185,38.574,31.738,30.762,37.598,54.199
1532402920.189,37.598,30.273,27.832,32.715,24.414
1532402920.192,38.086,33.691,33.691,33.203,25.391
1532402920.196,36.621,24.902,35.645,33.691,74.219
1532402920.200,35.645,14.160,37.598,31.250,58.105
1532402920.204,39.062,22.949,37.109,31.738,11.230
1532402920.208,42.480,25.391,34.668,28.809,8.789
1532402920.212,39.551,21.973,33.203,29.297,15.625
1532402920.216,41.504,25.391,36.133,34.668,3.418
1532402920.220,39.551,26.855,37.109,35.645,8.301
1532402920.224,35.645,21.973,37.598,39.551,26.855
1532402920.228,37.598,23.926,37.598,39.062,20.020
1532402920.232,38.574,35.156,39.062,35.645,27.832
1532402920.235,36.621,32.227,40.527,35.156,16.113
1532402920.239,34.180,23.926,37.109,32.715,7.812
1532402920.243,30.273,25.879,35.645,30.273,22.461
1532402920.247,28.809,24.902,41.992,29.297,20.508
1532402920.251,27.344,25.391,42.480,27.344,14.648
1532402920.255,20.508,26.855,39.062,23.438,27.832
1532402920.259,19.043,21.484,38.086,18.066,21.484
1532402920.263,18.555,20.508,41.992,18.555,2.930
1532402920.267,20.020,27.344,42.969,23.438,2.441
1532402920.271,22.461,32.715,44.434,20.020,3.418
1532402920.274,28.320,38.086,52.246,26.855,11.230
1532402920.278,28.809,38.086,52.734,30.273,21.484
1532402920.282,19.043,24.414,43.945,15.625,23.438
1532402920.286,17.090,28.809,41.992,10.254,16.113
1532402920.290,12.207,36.621,45.410,6.836,9.766
1532402920.294,1.465,34.180,47.363,-4.883,7.812
1532402920.298,3.418,43.457,49.316,-11.230,9.766
1532402920.302,13.672,51.270,40.039,-9.277,29.297
1532402920.306,19.531,49.316,37.598,-1.465,30.762
1532402920.310,3.418,47.852,57.129,-9.766,6.348
1532402920.314,-13.672,47.363,63.477,-25.391,19.043
1532402920.317,-7.812,51.270,64.453,-20.508,52.734
1532402920.321,-8.301,45.410,62.500,-20.508,31.738
1532402920.325,-15.625,28.320,57.617,-18.555,10.742
1532402920.329,-15.625,26.367,61.035,-8.789,47.852
1532402920.333,-14.648,29.297,59.570,-5.371,55.176
1532402920.337,-9.766,27.832,62.500,3.418,11.719
1532402920.341,-6.348,28.320,68.848,13.672,25.879
1532402920.345,-7.324,19.043,65.918,15.137,49.316
1532402920.349,-6.348,9.766,60.547,7.812,3.418
1532402920.353,-3.418,18.555,64.941,9.766,-21.973
1532402920.357,-2.930,19.043,58.105,14.648,26.855
1532402920.360,2.441,7.324,48.828,19.531,40.527
1532402920.364,6.348,6.836,54.688,26.367,34.180
1532402920.368,11.230,8.301,55.664,27.832,37.598
1532402920.372,17.578,9.766,47.852,37.598,42.480
1532402920.376,16.113,5.859,43.945,39.062,34.668
1532402920.380,22.949,8.789,50.293,43.457,36.621
1532402920.384,26.367,20.020,50.781,50.781,54.199
1532402920.388,20.996,13.184,46.387,45.410,71.289
1532402920.392,21.484,2.441,46.387,43.945,44.434
1532402920.396,29.297,14.648,47.852,49.805,19.043
1532402920.399,30.762,15.625,39.551,46.875,31.738
1532402920.403,29.297,5.371,35.156,46.875,60.547
1532402920.407,33.203,8.789,39.551,48.340,59.570
1532402920.411,40.039,15.137,42.480,47.852,20.996
1532402920.415,46.875,17.578,41.504,56.152,16.113
1532402920.419,51.270,20.020,48.828,63.477,18.066
1532402920.423,49.316,20.020,47.852,65.430,29.297
1532402920.427,45.898,14.648,40.527,63.965,27.344
1532402920.431,40.527,15.137,44.434,64.941,20.508
1532402920.435,41.016,19.531,45.898,65.430,34.668
1532402920.439,43.457,20.020,46.387,62.012,27.344
1532402920.442,42.480,20.020,47.852,62.012,2.441
1532402920.446,41.992,20.508,44.922,61.523,14.648
1532402920.450,46.875,23.926,40.039,60.059,12.207
1532402920.454,46.875,21.973,42.969,65.430,-0.977
1532402920.458,44.434,10.742,44.434,63.477,19.043
1532402920.462,46.875,6.836,42.480,61.523,15.625
1532402920.466,46.387,11.230,44.922,67.383,18.555
1532402920.470,45.898,12.695,48.340,69.336,32.715
1532402920.474,52.246,23.438,48.828,74.707,19.531
1532402920.478,51.758,27.832,44.434,74.219,-20.508
1532402920.482,51.758,26.855,44.434,70.801,0.977
1532402920.485,52.246,28.320,45.410,68.359,31.250
1532402920.489,43.457,19.043,39.551,54.199,12.695
1532402920.493,42.969,20.996,45.898,53.711,24.902
1532402920.497,42.969,23.926,45.410,61.035,51.270
1532402920.501,42.480,26.855,35.156,57.617,44.434
1532402920.505,44.434,28.809,34.668,56.641,50.781
1532402920.509,44.922,20.020,38.086,58.594,30.273
1532402920.513,46.875,25.879,39.551,60.547,17.578
1532402920.517,46.387,29.297,38.574,58.105,33.691
1532402920.521,49.316,26.855,40.527,61.523,48.828
1532402920.524,55.176,38.086,44.434,66.895,50.293
1532402920.528,48.828,33.691,41.016,60.547,20.996
1532402920.532,45.410,24.902,37.598,57.617,27.832
1532402920.536,47.852,30.762,37.109,60.059,56.152
1532402920.540,46.387,31.250,37.598,55.176,39.062
1532402920.544,41.016,22.949,41.504,48.340,38.086
1532402920.548,36.133,21.973,42.480,43.945,30.273
1532402920.552,37.598,28.320,37.598,42.969,27.344
1532402920.556,40.039,30.273,38.086,53.223,39.551
1532402920.560,41.504,33.203,39.062,59.082,22.949
1532402920.564,45.898,44.922,42.969,65.918,34.180
1532402920.567,43.945,41.504,44.434,64.453,23.926
1532402920.571,36.621,27.832,39.551,57.129,17.578
1532402920.575,39.062,24.902,40.527,62.012,33.691
1532402920.579,44.922,23.438,45.410,64.941,22.949
1532402920.583,43.457,26.367,41.992,62.500,26.367
1532402920.587,40.527,26.855,38.086,59.570,18.555
1532402920.591,38.086,30.273,45.410,57.617,19.531
1532402920.595,36.621,33.203,46.387,62.012,37.109
1532402920.599,37.598,36.133,41.016,64.453,28.809
1532402920.603,35.156,35.645,43.945,64.941,46.875
1532402920.607,33.203,26.367,43.457,61.035,46.875
1532402920.610,36.621,30.762,37.598,59.570,9.766
1532402920.614,36.621,38.086,40.039,64.941,23.926
1532402920.618,30.762,29.785,43.457,66.406,10.742
1532402920.622,39.062,21.973,47.363,78.613,-14.648
1532402920.626,51.270,34.668,48.340,84.473,10.742
1532402920.630,37.598,40.039,36.621,58.105,-7.812
1532402920.634,28.809,22.461,31.250,50.781,10.254
1532402920.638,41.504,29.297,32.715,65.918,57.129
1532402920.642,40.039,35.645,33.203,60.547,26.367
1532402920.646,35.645,29.785,38.086,55.664,24.902
1532402920.649,41.504,32.715,42.480,63.477,52.246
1532402920.653,42.480,35.156,40.039,65.430,46.387
1532402920.657,41.992,36.133,35.156,61.035,33.203
1532402920.661,46.875,30.273,39.551,62.012,23.926
1532402920.665,49.805,31.738,45.410,61.035,34.668
1532402920.669,47.363,31.738,33.691,53.223,55.176
1532402920.673,49.805,25.391,27.832,53.711,22.461
1532402920.677,54.199,31.738,38.086,55.664,6.836
1532402920.681,60.547,34.180,41.016,52.734,28.320
1532402920.685,63.965,24.414,38.574,50.781,29.785
1532402920.689,68.848,28.320,38.086,44.434,31.738
1532402920.692,70.312,36.133,40.527,44.434,33.203
1532402920.696,63.477,37.598,43.457,54.688,24.414
1532402920.700,51.270,30.273,39.551,55.176,27.344
1532402920.704,43.945,22.461,37.598,58.594,37.598
1532402920.708,45.410,29.297,41.016,63.965,18.066
1532402920.712,39.551,29.785,41.016,62.012,26.855
1532402920.716,37.109,27.344,45.410,65.918,37.109
1532402920.720,40.039,34.180,47.363,65.430,16.602
1532402920.724,34.180,29.297,42.969,63.477,38.086
1532402920.728,31.738,18.555,38.574,61.035,5.371
1532402920.732,40.527,23.926,36.621,62.988,-25.879
1532402920.735,45.410,34.668,39.551,70.312,9.277
1532402920.739,45.898,32.715,41.992,69.824,26.367
1532402920.743,46.387,26.855,41.016,68.359,51.270
1532402920.747,45.898,26.855,38.574,63.965,47.363
1532402920.751,49.316,29.785,41.992,62.012,12.695
1532402920.755,51.270,32.227,47.852,62.988,17.578
1532402920.759,45.410,34.180,44.922,56.152,20.996
1532402920.763,41.016,34.180,39.551,48.828,14.160
1532402920.767,35.156,27.344,37.598,43.945,16.113
1532402920.771,33.203,21.484,38.086,40.527,4.883
1532402920.775,37.109,27.344,42.969,44.922,20.020
1532402920.778,35.156,20.996,42.969,43.945,51.758
1532402920.782,33.203,8.789,38.574,41.992,41.016
1532402920.786,38.574,15.137,45.898,50.293,29.297
1532402920.790,38.574,16.113,43.457,49.805,20.508
1532402920.794,33.203,10.254,38.086,50.781,10.742
1532402920.798,29.785,12.207,37.109,52.246,23.438
1532402920.802,32.715,15.625,36.621,51.758,13.184
1532402920.806,38.574,20.020,40.527,50.781,11.230
1532402920.810,39.062,23.438,39.551,44.922,17.578
1532402920.814,41.992,20.508,39.062,48.340,-11.230
1532402920.817,47.363,21.484,43.945,56.641,10.742
1532402920.821,39.551,15.625,41.016,51.270,60.547
1532402920.825,33.691,11.719,35.156,49.316,55.176
1532402920.829,41.016,22.461,37.109,42.480,9.766
1532402920.833,40.039,19.043,37.109,35.645,-6.836
1532402920.837,35.156,9.766,32.715,41.992,22.461
1532402920.841,38.086,10.254,35.156,40.527,31.250
1532402920.845,37.598,13.184,36.133,39.551,36.621
1532402920.849,37.109,16.602,35.156,41.504,22.949
1532402920.853,44.922,26.367,40.039,44.922,20.996
1532402920.857,46.387,23.438,36.133,43.457,40.527
1532402920.860,41.992,13.672,31.250,43.457,51.270
1532402920.864,41.992,16.113,33.203,48.340,63.965
1532402920.868,43.945,17.090,34.180,43.945,37.109
1532402920.872,43.457,17.578,36.133,41.504,16.113
1532402920.876,40.527,20.020,35.645,46.387,42.969
1532402920.880,42.969,22.949,35.645,44.922,28.809
1532402920.884,46.387,24.414,40.527,46.875,26.367
1532402920.888,49.316,35.645,39.062,49.805,35.156
1532402920.892,44.434,31.738,33.691,45.410,39.551
1532402920.896,35.645,11.230,32.715,40.039,40.527
1532402920.900,35.645,15.625,34.668,44.434,61.523
1532402920.903,47.363,19.531,40.039,57.129,42.480
1532402920.907,48.340,15.137,36.621,42.969,14.648
1532402920.911,34.668,25.391,28.809,18.555,15.625
1532402920.915,41.504,32.715,27.344,32.227,26.367
1532402920.919,47.363,32.715,25.879,35.645,19.043
1532402920.923,41.016,28.809,26.855,25.879,28.320
1532402920.927,42.480,33.203,29.297,29.297,26.367
1532402920.931,42.480,37.598,25.879,30.273,23.926
1532402920.935,39.551,24.414,21.973,30.273,54.199
1532402920.939,40.039,22.949,23.438,33.691,59.570
1532402920.942,41.992,28.809,31.738,36.621,56.641
1532402920.946,42.480,30.762,34.180,34.668,41.016
1532402920.950,40.527,31.250,27.832,33.691,26.855
1532402920.954,38.086,25.391,23.926,38.574,31.250
1532402920.958,40.039,24.902,31.250,41.504,9.766
1532402920.962,42.969,27.344,32.715,42.969,12.695
1532402920.966,43.457,28.320,30.762,46.875,24.902
1532402920.970,41.992,33.203,33.203,41.992,0.488
1532402920.974,38.086,28.320,29.785,40.527,9.766
1532402920.978,35.645,20.020,29.785,46.875,21.484
1532402920.982,35.645,21.973,30.762,46.387,50.293
1532402920.985,39.551,31.250,32.715,50.293,47.852
1532402920.989,41.504,31.250,35.156,54.199,8.789
1532402920.993,43.457,28.320,36.133,49.805,25.879
1532402920.997,42.969,26.367,36.621,44.434,39.062
1532402921.001,42.969,25.879,36.133,47.363,28.809
1532402921.005,48.828,38.086,35.645,50.781,29.297
1532402921.009,51.758,45.410,38.574,48.340,13.184
