timestamps,TP9,AF7,AF8,TP10,Right AUX
1532403073.616,53.711,34.180,41.016,62.012,24.902
1532403073.620,52.734,33.691,32.227,62.988,48.828
1532403073.624,63.477,35.156,32.227,64.453,26.367
1532403073.627,68.359,29.297,37.598,63.965,29.785
1532403073.631,64.453,24.902,44.434,66.895,23.926
1532403073.635,64.941,26.367,48.340,69.336,14.160
1532403073.639,65.430,34.180,49.805,73.242,9.277
1532403073.643,68.359,29.785,47.852,77.637,8.301
1532403073.647,64.453,21.973,40.527,76.172,11.230
1532403073.651,65.918,27.344,38.086,73.730,2.930
1532403073.655,67.871,30.273,41.016,72.754,12.695
1532403073.659,63.965,25.879,48.828,74.219,24.902
1532403073.663,60.547,23.438,48.828,70.312,39.551
1532403073.666,62.500,27.832,43.945,72.754,47.363
1532403073.670,60.059,29.785,42.969,71.777,40.527
1532403073.674,58.105,26.367,43.945,66.895,28.320
1532403073.678,60.059,32.227,48.828,71.777,31.250
1532403073.682,64.941,36.133,46.875,69.336,39.062
1532403073.686,64.941,28.809,36.133,62.012,67.871
1532403073.690,59.570,26.855,37.598,58.105,40.039
1532403073.694,63.965,32.715,48.340,61.035,1.465
1532403073.698,71.777,34.180,49.316,66.406,32.227
1532403073.702,75.684,36.133,44.434,64.941,35.156
1532403073.706,75.195,36.133,42.480,68.359,42.480
1532403073.709,74.707,36.133,42.480,73.730,51.270
1532403073.713,77.148,39.551,45.898,76.172,40.527
1532403073.717,74.707,38.086,51.270,81.543,34.668
1532403073.721,68.848,36.133,47.363,83.984,34.180
1532403073.725,68.848,39.551,44.434,74.707,42.480
1532403073.729,79.590,41.992,37.109,73.730,41.992
1532403073.733,77.637,39.062,41.992,77.637,13.184
1532403073.737,57.617,30.762,58.105,80.078,10.742
1532403073.741,48.828,27.832,59.570,76.660,38.574
1532403073.745,40.527,27.832,49.316,69.824,45.410
1532403073.749,40.527,25.391,48.340,75.195,12.207
1532403073.752,40.527,21.973,59.570,76.660,-3.906
1532403073.756,34.180,26.367,62.012,70.312,39.551
1532403073.760,36.133,23.926,56.641,60.059,54.199
1532403073.764,42.969,17.578,47.852,56.641,57.129
1532403073.768,48.340,17.578,48.340,62.500,38.574
1532403073.772,44.922,18.555,51.270,65.918,14.648
1532403073.776,46.875,16.113,52.734,66.406,6.836
1532403073.780,51.758,17.578,51.270,66.406,21.973
1532403073.784,58.594,22.949,48.828,63.477,42.969
1532403073.788,66.895,23.438,44.434,61.035,58.594
1532403073.791,69.824,23.926,43.945,63.477,38.086
1532403073.795,67.383,23.926,47.852,63.477,6.348
1532403073.799,66.406,23.926,44.922,67.871,29.785
1532403073.803,68.359,26.855,41.504,66.895,29.297
1532403073.807,69.336,25.879,45.898,67.871,34.668
1532403073.811,69.336,33.203,49.805,68.359,52.734
1532403073.815,70.801,38.086,47.852,63.965,39.551
1532403073.819,69.336,30.273,42.480,60.547,20.996
1532403073.823,67.383,29.297,39.062,58.105,18.066
1532403073.827,66.406,35.645,41.504,61.035,24.414
1532403073.831,67.383,33.203,45.898,59.082,19.531
1532403073.834,66.895,30.273,39.062,51.270,9.766
1532403073.838,65.918,33.691,36.133,52.246,33.691
1532403073.842,73.242,38.086,41.992,58.594,44.434
1532403073.846,71.289,41.016,41.992,57.129,42.969
1532403073.850,68.848,34.668,36.621,42.480,27.832
1532403073.854,78.125,32.227,34.668,41.016,4.883
1532403073.858,76.660,34.668,34.180,52.734,19.531
1532403073.862,67.871,39.551,34.180,60.059,11.719
1532403073.866,58.105,38.574,33.203,62.500,-2.930
1532403073.870,55.176,34.180,34.668,57.129,-30.762
1532403073.874,57.129,38.574,40.039,53.223,-18.555
1532403073.877,54.199,37.109,40.527,59.082,27.832
1532403073.881,52.246,31.738,40.527,66.406,36.133
1532403073.885,51.270,30.762,37.598,71.777,34.668
1532403073.889,50.293,31.250,36.621,66.406,18.066
1532403073.893,48.828,33.203,37.598,57.129,28.809
1532403073.897,49.805,35.156,40.039,66.406,63.477
1532403073.901,52.734,36.621,36.621,73.242,69.824
1532403073.905,52.246,37.109,30.762,69.336,64.453
1532403073.909,52.246,34.668,35.156,69.336,53.711
1532403073.913,54.688,35.156,39.551,68.359,45.898
1532403073.916,52.734,34.668,38.086,66.895,33.203
1532403073.920,48.340,31.250,36.621,64.941,20.020
1532403073.924,45.898,28.809,30.762,57.617,32.715
1532403073.928,53.711,30.762,25.391,52.734,32.715
1532403073.932,55.664,35.156,30.273,50.781,13.672
1532403073.936,50.293,38.086,31.738,57.617,43.457
1532403073.940,46.875,32.715,32.227,54.199,54.199
1532403073.944,40.039,27.344,32.715,44.434,29.785
1532403073.948,38.086,35.156,33.203,50.293,17.578
1532403073.952,36.133,39.062,30.762,47.363,2.441
1532403073.956,30.762,32.715,32.715,44.922,20.020
1532403073.959,27.832,30.273,32.715,49.316,29.297
1532403073.963,24.414,31.250,29.297,42.480,13.184
1532403073.967,28.809,28.809,33.203,42.969,-1.953
1532403073.971,30.762,28.320,31.250,44.434,1.465
1532403073.975,23.926,28.809,24.414,38.574,14.160
1532403073.979,30.273,31.738,26.855,46.387,36.621
1532403073.983,36.621,35.156,25.391,52.246,65.918
1532403073.987,38.086,32.715,24.414,51.758,57.129
1532403073.991,40.527,35.156,30.762,54.688,29.785
1532403073.995,36.621,37.109,30.762,55.176,45.898
1532403073.999,35.645,33.691,28.809,55.176,59.570
1532403074.002,35.645,32.227,28.320,54.688,42.480
1532403074.006,34.180,31.250,27.344,49.805,19.531
1532403074.010,38.086,33.203,29.785,48.828,35.645
1532403074.014,38.086,40.039,32.227,53.223,11.719
1532403074.018,33.691,40.039,30.762,54.199,-11.719
1532403074.022,37.109,37.598,29.785,53.223,45.898
1532403074.026,37.109,35.156,31.250,55.664,66.895
1532403074.030,31.250,28.320,31.250,49.805,34.180
1532403074.034,41.992,33.691,32.715,44.434,-7.324
1532403074.038,44.434,39.062,34.180,47.363,-25.879
1532403074.041,38.086,29.297,30.762,51.270,-6.348
1532403074.045,41.504,25.879,28.320,55.664,30.762
1532403074.049,42.480,28.320,27.832,57.617,37.598
1532403074.053,49.316,28.809,29.785,60.547,28.320
1532403074.057,52.246,27.832,30.762,60.547,27.344
1532403074.061,50.781,30.762,27.832,59.570,38.086
1532403074.065,57.617,39.551,26.367,62.500,27.832
1532403074.069,61.035,33.691,26.855,62.500,16.602
1532403074.073,63.965,27.832,28.809,56.641,-2.930
1532403074.077,69.336,32.715,31.250,61.035,-0.488
1532403074.081,67.383,36.621,27.344,64.453,19.043
1532403074.084,67.383,41.504,25.879,59.082,33.691
1532403074.088,72.754,45.410,27.344,59.570,47.852
1532403074.092,66.406,37.109,27.832,59.570,22.949
1532403074.096,62.012,31.738,30.762,60.547,44.922
1532403074.100,56.641,38.574,31.250,59.082,58.105
1532403074.104,46.387,31.738,29.785,50.781,35.645
1532403074.108,45.410,27.832,21.484,50.293,36.621
1532403074.112,47.852,35.156,19.531,45.898,14.648
1532403074.116,46.875,30.762,30.762,43.457,0.000
1532403074.120,46.387,27.832,32.715,46.387,31.738
1532403074.124,42.969,31.250,30.273,45.410,62.988
1532403074.127,39.062,32.227,29.297,44.434,51.758
1532403074.131,35.156,27.344,27.832,40.039,40.527
1532403074.135,35.156,26.367,27.832,39.062,45.410
1532403074.139,45.410,37.598,29.297,46.387,39.062
1532403074.143,40.527,35.645,29.297,45.898,47.852
1532403074.147,36.133,21.484,27.344,36.621,42.969
1532403074.151,40.039,20.508,27.344,34.668,29.785
1532403074.155,37.598,30.273,25.391,37.598,45.898
1532403074.159,36.133,32.715,22.949,38.574,56.152
1532403074.163,39.551,33.203,24.414,39.551,56.641
1532403074.167,42.969,36.621,24.414,40.039,46.387
1532403074.170,34.180,32.715,21.973,26.855,3.418
1532403074.174,33.203,28.809,23.438,23.926,3.906
1532403074.178,32.715,29.785,26.855,34.668,38.086
1532403074.182,25.391,25.391,25.879,30.762,37.109
1532403074.186,31.738,24.902,28.320,30.273,4.395
1532403074.190,38.086,30.762,31.738,35.645,-10.254
1532403074.194,38.086,30.273,27.832,36.133,-1.465
1532403074.198,45.898,32.715,28.320,43.457,3.418
1532403074.202,53.711,34.668,35.156,53.711,14.648
1532403074.206,52.246,35.645,30.273,55.176,29.297
1532403074.209,51.270,33.203,22.949,41.992,17.090
1532403074.213,50.781,23.926,26.855,39.062,6.836
1532403074.217,46.387,21.484,27.832,48.828,14.648
1532403074.221,43.945,20.996,27.832,48.340,48.340
1532403074.225,40.527,24.902,31.250,48.340,67.383
1532403074.229,37.598,26.367,31.250,49.316,40.527
1532403074.233,36.621,28.809,30.273,46.387,39.551
1532403074.237,32.715,25.879,29.785,42.480,57.617
1532403074.241,35.645,18.066,29.785,41.992,70.312
1532403074.245,36.133,20.020,24.414,48.340,45.410
1532403074.249,33.203,22.949,22.949,46.387,20.508
1532403074.252,40.039,27.344,29.785,41.992,4.395
1532403074.256,45.410,29.785,32.715,46.387,21.973
1532403074.260,40.527,20.996,33.691,42.969,50.781
1532403074.264,33.203,19.043,34.668,41.016,38.574
1532403074.268,33.691,23.438,34.668,45.410,24.414
1532403074.272,34.668,22.461,32.715,48.828,2.441
1532403074.276,36.621,24.414,30.762,50.293,23.926
1532403074.280,40.527,24.414,30.762,54.688,43.457
1532403074.284,38.574,22.461,33.691,58.105,21.973
1532403074.288,30.762,21.973,33.203,54.199,10.742
1532403074.292,35.156,20.508,33.691,53.711,7.812
1532403074.295,41.016,25.879,34.180,58.105,17.578
1532403074.299,41.992,30.762,31.250,60.059,27.832
1532403074.303,45.898,23.926,28.320,53.223,28.809
1532403074.307,43.945,20.020,29.785,49.316,19.531
1532403074.311,42.480,23.926,33.203,49.316,0.977
1532403074.315,46.875,25.879,31.250,48.340,25.879
1532403074.319,47.852,26.855,27.832,53.223,60.547
1532403074.323,51.758,26.367,26.855,50.781,38.086
1532403074.327,53.711,26.855,31.250,51.270,37.598
1532403074.331,54.688,28.809,32.715,49.805,13.672
1532403074.334,53.711,28.809,29.785,47.363,-7.324
1532403074.338,52.246,28.809,33.691,59.082,8.301
1532403074.342,48.828,26.367,40.039,65.430,30.762
1532403074.346,49.316,22.461,34.180,62.012,38.574
1532403074.350,52.734,26.367,28.809,58.105,31.250
1532403074.354,51.758,32.227,30.273,63.477,43.945
1532403074.358,52.734,25.879,30.762,68.848,35.645
1532403074.362,55.664,22.949,29.297,63.477,9.277
1532403074.366,55.664,26.855,30.273,62.500,16.113
1532403074.370,58.594,25.391,34.668,68.359,31.250
1532403074.374,61.035,26.367,39.062,72.266,37.598
1532403074.377,56.152,30.762,34.668,74.219,34.668
1532403074.381,56.152,35.156,29.785,71.289,25.391
1532403074.385,55.176,33.691,30.273,66.895,39.551
1532403074.389,44.922,30.762,33.691,62.012,11.719
1532403074.393,42.969,30.762,34.180,62.500,-21.484
1532403074.397,45.898,29.297,29.785,64.453,13.184
1532403074.401,46.387,32.715,32.227,60.547,19.531
1532403074.405,45.410,33.691,30.273,60.059,23.926
1532403074.409,45.410,30.273,28.320,67.871,31.738
1532403074.413,50.781,30.762,31.738,63.477,34.180
1532403074.417,44.434,25.391,30.762,59.082,28.320
1532403074.420,39.551,22.949,26.855,57.617,23.438
1532403074.424,38.574,26.855,32.715,55.176,31.738
1532403074.428,45.410,22.461,39.551,64.453,48.340
1532403074.432,62.012,25.391,40.039,73.242,34.180
1532403074.436,56.152,36.621,33.691,60.059,14.648
1532403074.440,43.457,34.180,29.297,46.387,29.785
1532403074.444,46.875,32.227,36.133,51.758,36.133
1532403074.448,46.387,41.016,40.527,60.547,51.758
1532403074.452,45.410,45.898,31.250,49.316,49.805
1532403074.456,45.898,35.156,31.250,38.086,41.992
1532403074.459,36.133,30.273,33.691,43.457,42.480
1532403074.463,31.738,32.715,27.344,49.316,20.020
1532403074.467,37.109,34.668,29.785,56.641,14.160
1532403074.471,37.598,37.109,30.273,54.199,-18.555
1532403074.475,41.504,36.133,27.344,51.758,-18.066
1532403074.479,52.246,41.504,32.227,61.523,27.344
1532403074.483,50.781,40.039,34.180,59.082,28.809
1532403074.487,49.316,34.180,31.250,48.828,30.273
1532403074.491,54.199,39.551,30.273,42.969,30.762
1532403074.495,54.199,37.598,30.762,41.992,30.273
1532403074.499,60.547,36.621,32.715,46.875,64.453
1532403074.502,68.359,40.039,32.715,47.363,44.922
1532403074.506,65.430,36.621,31.250,45.410,32.715
1532403074.510,58.594,36.621,33.203,51.270,29.297
1532403074.514,51.270,38.086,38.574,51.758,17.578
1532403074.518,42.969,36.133,40.039,52.734,33.691
1532403074.522,37.109,30.762,36.133,52.734,45.898
1532403074.526,37.598,27.344,34.668,60.059,40.527
1532403074.530,38.086,32.227,39.062,70.801,32.227
1532403074.534,36.621,37.109,46.387,70.312,11.719
1532403074.538,34.180,34.180,43.945,63.965,36.133
1532403074.542,37.109,36.133,39.551,61.523,46.387
1532403074.545,41.504,34.668,40.039,63.477,32.715
1532403074.549,45.410,39.551,37.598,59.570,16.113
1532403074.553,43.457,46.875,34.180,57.617,21.973
1532403074.557,41.992,35.645,33.691,52.246,30.273
1532403074.561,40.527,30.762,35.156,48.340,26.855
1532403074.565,42.480,38.086,36.621,45.410,26.855
1532403074.569,46.875,39.062,41.016,44.434,3.418
1532403074.573,47.363,31.250,41.504,45.410,-14.160
1532403074.577,46.387,31.250,40.039,40.039,37.109
1532403074.581,47.363,35.156,40.527,46.875,85.938
1532403074.584,51.758,39.062,42.969,52.246,59.570
1532403074.588,50.293,37.109,40.039,39.551,24.902
1532403074.592,45.898,31.738,36.621,38.086,38.086
1532403074.596,45.410,34.668,33.203,45.898,74.219
1532403074.600,47.363,36.133,31.738,39.551,63.965
1532403074.604,45.898,35.645,35.645,39.551,37.109
1532403074.608,41.992,38.086,37.598,44.434,27.344
1532403074.612,38.574,35.645,38.574,43.457,20.508
1532403074.616,45.898,35.156,38.574,44.922,46.387
1532403074.620,48.828,38.086,37.109,54.199,36.133
1532403074.624,39.551,38.086,37.109,58.594,28.809
1532403074.627,37.109,39.062,36.621,53.711,40.039
1532403074.631,38.574,33.203,35.156,41.016,38.574
1532403074.635,40.039,29.785,36.133,41.016,45.410
1532403074.639,40.039,28.320,35.645,50.781,50.781
1532403074.643,41.504,30.762,37.598,47.363,36.133
1532403074.647,41.504,27.832,36.621,43.945,42.480
1532403074.651,37.598,33.691,34.668,40.039,33.203
1532403074.655,30.762,36.621,36.133,35.156,37.109
1532403074.659,36.133,24.414,39.551,37.598,56.152
1532403074.663,38.086,29.297,38.574,42.969,29.785
1532403074.667,34.180,29.297,30.762,50.293,0.488
1532403074.670,38.086,25.391,35.156,47.852,-9.766
1532403074.674,41.504,32.227,42.969,41.504,-1.465
1532403074.678,35.156,34.180,41.504,44.434,31.738
1532403074.682,39.062,32.715,41.992,49.805,85.938
1532403074.686,45.410,34.668,39.062,49.316,72.266
1532403074.690,36.621,30.762,35.645,45.410,34.668
1532403074.694,41.016,32.227,36.621,41.504,49.805
1532403074.698,45.898,40.527,39.551,38.574,44.922
1532403074.702,38.574,39.062,42.969,41.992,37.109
1532403074.706,40.527,40.527,42.969,43.457,45.410
1532403074.710,43.945,37.109,38.574,48.828,36.133
1532403074.713,34.668,28.320,37.598,40.527,29.785
1532403074.717,35.645,30.762,36.621,29.785,45.898
1532403074.721,45.410,29.297,35.156,36.621,37.598
1532403074.725,48.828,32.227,36.621,40.527,28.809
1532403074.729,51.758,36.133,36.621,39.551,15.137
1532403074.733,49.316,39.062,36.621,31.738,10.254
1532403074.737,46.387,38.574,37.598,37.109,20.996
1532403074.741,44.922,38.086,35.645,43.945,40.527
1532403074.745,42.480,40.527,31.250,49.316,68.848
1532403074.749,45.898,38.086,35.645,53.223,48.828
1532403074.752,48.340,41.504,37.598,50.293,32.715
1532403074.756,44.922,39.062,30.273,49.805,36.621
1532403074.760,42.480,30.273,32.227,52.734,25.391
1532403074.764,46.875,34.668,34.180,54.199,14.160
1532403074.768,53.711,43.457,33.691,51.270,2.441
1532403074.772,43.945,38.574,27.832,52.734,-0.977
1532403074.776,27.344,27.344,31.738,53.711,31.738
1532403074.780,27.832,33.203,44.434,59.082,40.039
1532403074.784,30.273,32.715,40.527,55.664,30.762
1532403074.788,37.598,24.902,36.621,47.363,18.555
1532403074.792,41.504,25.391,33.691,51.270,29.297
1532403074.795,39.551,26.855,32.715,58.105,54.688
1532403074.799,44.434,29.785,36.621,56.152,35.645
1532403074.803,41.992,28.320,38.086,55.664,51.270
1532403074.807,44.434,34.668,38.086,62.500,52.246
1532403074.811,47.363,39.062,36.621,55.176,14.648
1532403074.815,40.039,29.297,40.039,53.223,7.812
1532403074.819,37.109,21.973,39.551,61.035,21.973
1532403074.823,42.969,24.902,35.645,66.895,36.621
1532403074.827,46.387,29.785,38.086,67.383,34.668
1532403074.831,39.551,34.668,41.016,64.453,38.086
1532403074.835,35.156,26.367,35.645,65.430,41.992
1532403074.838,36.621,30.273,35.645,65.918,37.598
1532403074.842,36.133,36.133,37.598,62.012,20.996
1532403074.846,38.574,25.391,29.785,57.129,24.902
1532403074.850,41.992,24.902,30.762,57.129,22.461
1532403074.854,44.434,26.367,35.156,59.570,3.906
1532403074.858,48.828,30.762,32.715,57.617,31.738
1532403074.862,48.828,33.203,34.180,54.688,57.617
1532403074.866,51.270,32.227,38.086,55.664,25.391
1532403074.870,50.293,32.715,35.156,53.223,12.207
1532403074.874,48.340,29.785,33.691,45.898,14.648
1532403074.877,48.828,33.691,36.133,42.969,34.668
1532403074.881,50.293,42.480,31.250,46.875,57.617
1532403074.885,52.246,32.227,30.762,53.223,69.336
1532403074.889,53.711,34.668,42.969,58.594,40.527
1532403074.893,46.875,38.086,41.504,57.129,32.715
1532403074.897,39.551,24.902,31.250,55.664,53.711
1532403074.901,39.551,24.902,33.203,58.105,41.016
1532403074.905,38.574,26.367,39.062,65.430,28.809
1532403074.909,36.621,28.809,44.434,73.242,28.809
1532403074.913,35.645,38.086,46.387,72.754,33.203
1532403074.917,30.762,34.668,43.945,79.590,18.066
1532403074.920,26.855,20.508,43.457,75.684,14.648
1532403074.924,31.250,23.438,43.457,74.219,25.391
1532403074.928,34.180,31.250,42.969,79.590,20.996
1532403074.932,37.598,35.645,44.922,79.102,27.832
1532403074.936,40.039,33.203,43.457,82.520,45.410
1532403074.940,43.457,25.879,41.016,81.055,37.109
1532403074.944,45.898,24.414,44.434,79.102,31.738
1532403074.948,45.410,29.297,44.922,76.660,25.879
1532403074.952,51.758,32.715,41.504,69.824,1.953
1532403074.956,52.246,29.785,38.086,67.383,5.859
1532403074.960,48.340,33.203,37.109,72.754,43.945
1532403074.963,49.316,40.039,41.016,75.195,52.734
1532403074.967,47.363,30.273,40.527,73.730,36.133
1532403074.971,44.922,23.926,40.039,72.754,21.484
1532403074.975,41.504,29.297,39.551,76.172,29.297
1532403074.979,38.574,31.250,40.039,78.125,48.340
1532403074.983,31.738,25.879,43.945,82.520,54.199
1532403074.987,28.320,25.879,43.457,73.730,30.273
1532403074.991,30.273,32.715,40.039,65.430,20.020
1532403074.995,29.297,28.320,39.551,71.777,44.434
1532403074.999,24.414,24.902,38.086,72.266,37.598
1532403075.002,21.973,29.297,33.691,71.289,41.992
1532403075.006,22.461,29.297,36.133,76.172,51.270
1532403075.010,27.832,34.180,39.551,76.660,14.648
1532403075.014,34.180,42.480,36.133,65.430,-7.324
1532403075.018,34.180,38.086,34.668,62.012,-12.207
1532403075.022,36.621,29.297,31.250,59.570,-1.953
1532403075.026,38.086,25.391,27.344,65.430,15.137
1532403075.030,41.016,26.855,28.320,61.523,2.930
1532403075.034,44.922,33.691,32.227,46.387,-17.090
1532403075.038,43.945,34.180,34.668,49.805,-2.441
1532403075.042,41.992,27.832,32.227,57.129,5.371
1532403075.045,41.992,28.320,35.156,50.781,36.133
1532403075.049,39.551,26.367,38.574,26.855,23.438
1532403075.053,43.945,34.180,37.109,18.066,-29.297
1532403075.057,49.805,45.410,37.109,37.598,9.277
1532403075.061,37.109,32.227,35.156,40.527,47.852
1532403075.065,32.715,20.996,33.203,40.527,38.086
1532403075.069,39.551,23.926,32.715,48.340,24.902
1532403075.073,43.945,28.320,34.668,54.199,7.812
1532403075.077,41.504,31.250,33.203,57.617,13.184
1532403075.081,35.645,28.809,32.227,59.570,13.672
1532403075.085,31.738,29.297,33.691,61.035,-1.465
1532403075.088,27.832,29.785,30.762,52.734,0.977
1532403075.092,33.691,37.109,31.250,36.621,-17.578
1532403075.096,34.180,40.039,30.273,27.832,-5.371
1532403075.100,30.273,29.785,27.832,42.480,22.461
1532403075.104,27.344,20.508,26.367,45.410,10.742
1532403075.108,29.297,19.531,32.715,43.457,3.906
1532403075.112,44.434,29.297,39.551,58.594,40.527
1532403075.116,39.062,33.691,32.715,46.387,43.457
1532403075.120,23.926,31.250,28.809,35.645,20.508
1532403075.124,23.926,27.832,31.738,42.480,37.109
1532403075.128,20.020,22.949,34.668,43.945,33.203
1532403075.131,28.320,22.949,31.738,52.734,16.602
1532403075.135,41.992,30.762,32.715,68.848,36.621
1532403075.139,31.738,38.086,38.086,57.617,40.527
1532403075.143,16.113,35.645,33.691,30.273,22.949
1532403075.147,13.672,22.949,25.391,26.367,52.246
1532403075.151,29.297,19.531,28.809,31.738,44.922
1532403075.155,38.574,29.785,30.762,28.320,15.625
1532403075.159,39.062,31.738,29.297,33.691,38.086
1532403075.163,42.480,23.926,34.180,48.340,63.965
1532403075.167,52.246,27.344,38.086,60.547,71.289
1532403075.170,58.594,34.180,36.133,60.059,57.617
1532403075.174,44.434,34.668,27.344,54.688,39.551
1532403075.178,27.344,29.785,28.320,60.059,34.180
1532403075.182,22.461,27.832,31.250,51.758,22.461
1532403075.186,33.691,40.039,29.785,49.316,26.367
1532403075.190,20.996,36.621,30.273,45.898,13.184
1532403075.194,-5.371,23.926,31.738,28.320,5.859
1532403075.198,-6.836,23.926,34.180,32.715,26.367
1532403075.202,10.742,27.832,35.156,46.387,16.113
1532403075.206,10.254,27.344,35.156,45.898,22.461
1532403075.210,2.441,23.438,34.668,44.434,45.410
1532403075.213,7.812,26.855,33.203,39.551,40.039
1532403075.217,12.207,34.180,33.691,41.992,42.969
1532403075.221,17.090,31.250,33.203,51.270,37.109
1532403075.225,14.160,19.531,26.855,48.828,29.297
1532403075.229,9.766,18.066,27.344,37.598,18.066
1532403075.233,22.949,22.949,33.691,36.133,9.277
1532403075.237,36.621,25.879,32.715,42.969,18.066
1532403075.241,24.902,26.367,33.691,44.922,0.488
1532403075.245,27.832,28.809,34.668,49.805,3.906
1532403075.249,38.086,32.715,30.762,43.945,14.160
1532403075.253,36.621,36.621,28.320,39.551,4.395
1532403075.256,34.668,32.227,27.344,47.852,1.465
1532403075.260,31.250,25.391,31.250,51.270,20.996
1532403075.264,28.320,25.879,34.668,51.758,32.715
1532403075.268,30.273,23.926,29.297,55.176,28.320
1532403075.272,28.320,22.949,33.203,56.152,12.207
1532403075.276,19.043,25.879,36.133,45.898,30.762
1532403075.280,19.531,31.738,28.809,26.855,47.852
1532403075.284,24.414,34.180,33.691,-28.809,40.527
1532403075.288,9.277,31.738,38.574,-119.141,41.992
1532403075.292,-1.465,27.832,38.574,-181.152,17.578
1532403075.295,2.930,24.414,38.086,-216.797,30.273
1532403075.299,8.301,21.484,33.203,-249.023,43.945
1532403075.303,3.418,25.391,31.250,-265.625,28.809
1532403075.307,-0.977,29.297,29.297,-268.066,52.246
1532403075.311,5.859,31.738,31.250,-215.820,49.316
1532403075.315,9.277,37.109,30.273,-151.367,30.273
1532403075.319,13.184,37.109,23.438,-146.484,8.789
1532403075.323,14.648,27.832,26.367,-163.574,20.996
1532403075.327,10.254,22.461,35.645,-166.992,44.922
1532403075.331,11.719,27.832,34.180,-181.641,26.367
1532403075.335,13.184,29.297,29.297,-179.199,-3.418
1532403075.338,15.625,27.344,32.227,-145.020,10.254
1532403075.342,34.180,33.691,33.691,-125.977,58.105
1532403075.346,35.156,31.738,31.738,-120.117,80.078
1532403075.350,20.996,30.273,26.855,-137.207,62.988
1532403075.354,30.762,31.738,29.297,-135.742,53.711
1532403075.358,35.156,26.367,38.086,-103.027,52.246
1532403075.362,20.508,24.902,40.039,-80.078,52.734
1532403075.366,25.391,29.785,34.668,-51.758,66.895
1532403075.370,36.621,34.180,36.621,-20.508,48.828
1532403075.374,32.227,36.621,35.645,-18.066,17.578
1532403075.378,37.598,39.062,31.738,-5.859,32.227
1532403075.381,45.898,42.480,29.297,9.277,53.711
1532403075.385,32.227,38.086,26.367,-2.930,48.340
1532403075.389,19.043,27.832,26.855,-38.574,34.668
1532403075.393,31.738,26.367,32.715,-49.316,33.691
1532403075.397,40.527,24.414,39.062,-45.410,36.621
1532403075.401,38.574,21.484,38.086,-50.781,44.434
1532403075.405,45.410,28.320,33.203,-53.223,40.527
1532403075.409,47.852,32.227,30.273,-52.246,16.113
1532403075.413,44.434,35.156,32.227,-0.977,18.066
1532403075.417,48.340,34.668,37.109,54.199,55.664
1532403075.420,51.758,29.785,37.109,75.195,47.363
1532403075.424,52.246,30.762,37.598,99.609,38.574
1532403075.428,52.734,31.738,37.109,118.164,48.828
1532403075.432,54.199,30.273,34.668,120.117,-7.812
1532403075.436,61.523,31.738,38.086,121.094,12.207
1532403075.440,63.965,36.133,42.480,129.395,72.754
1532403075.444,65.918,34.668,41.016,143.555,56.152
1532403075.448,70.312,31.738,40.039,151.367,39.062
1532403075.452,76.172,37.109,39.551,148.926,24.414
1532403075.456,77.637,40.527,40.527,141.602,24.902
1532403075.460,75.684,36.621,35.156,145.020,36.621
1532403075.463,78.613,38.574,32.715,150.391,34.668
1532403075.467,81.543,37.109,41.016,151.367,36.621
1532403075.471,77.148,30.762,41.504,145.020,28.809
1532403075.475,70.312,27.832,37.598,138.672,17.578
1532403075.479,70.801,27.832,33.203,146.484,50.781
1532403075.483,72.266,29.297,32.715,152.832,74.219
1532403075.487,78.125,28.809,41.992,157.227,36.621
1532403075.491,85.449,33.203,45.898,153.809,26.855
1532403075.495,81.543,39.062,44.922,159.180,47.852
1532403075.499,74.707,35.156,43.945,157.227,26.367
1532403075.503,77.637,28.809,44.922,154.785,32.227
1532403075.506,78.613,27.344,43.457,154.297,44.922
1532403075.510,79.590,26.367,40.527,148.926,40.039
1532403075.514,84.961,27.344,39.062,147.461,15.625
1532403075.518,86.914,28.809,37.109,148.438,18.555
1532403075.522,86.426,32.715,38.574,143.555,36.621
1532403075.526,85.449,31.738,38.086,137.207,37.109
1532403075.530,84.961,31.738,36.133,134.766,22.949
1532403075.534,83.008,33.691,35.156,128.418,12.207
1532403075.538,81.055,30.762,36.621,128.418,37.598
1532403075.542,73.242,31.738,41.016,131.348,34.180
1532403075.545,64.941,28.809,35.156,129.883,43.945
1532403075.549,62.988,26.855,30.762,126.465,30.762
1532403075.553,65.430,26.367,36.621,123.535,6.836
1532403075.557,63.477,26.367,39.062,122.070,4.883
1532403075.561,67.871,31.738,38.574,120.605,18.066
1532403075.565,68.359,32.227,37.598,125.977,28.320
1532403075.569,64.941,32.715,38.086,121.582,9.766
1532403075.573,69.336,31.738,41.016,125.000,-3.906
1532403075.577,67.871,28.320,38.574,130.371,27.832
1532403075.581,72.266,33.203,35.156,118.652,29.297
1532403075.585,76.660,34.180,35.645,118.652,18.066
1532403075.588,72.754,31.250,37.598,115.723,52.246
1532403075.592,72.266,33.691,37.109,113.281,49.316
1532403075.596,68.848,34.180,37.598,112.305,41.504
1532403075.600,75.684,35.645,39.062,107.910,40.039
1532403075.604,77.637,33.203,39.551,110.352,27.832
1532403075.608,66.406,28.809,41.992,110.840,24.414
1532403075.612,67.383,28.320,41.504,102.539,-3.418
1532403075.616,75.195,31.250,41.504,102.051,16.113
1532403075.620,76.660,30.762,38.574,109.863,47.852
1532403075.624,70.312,24.902,38.574,109.375,59.082
1532403075.628,71.289,28.320,42.480,104.492,46.387
1532403075.631,73.730,28.809,40.039,98.633,7.812
1532403075.635,67.871,26.367,37.109,91.797,20.020
1532403075.639,63.477,27.832,37.598,88.867,51.758
1532403075.643,65.430,30.273,32.227,90.332,31.738
1532403075.647,65.430,31.738,31.738,88.379,29.785
1532403075.651,62.988,30.762,38.086,83.984,33.203
1532403075.655,64.453,32.227,35.645,83.984,17.578
1532403075.659,62.500,29.785,36.133,87.402,31.738
1532403075.663,65.430,21.484,40.039,80.566,48.340
1532403075.667,63.965,20.996,38.574,81.055,41.992
1532403075.671,62.012,23.438,37.598,89.355,0.000
1532403075.674,66.895,22.461,34.180,89.844,-18.066
1532403075.678,63.965,25.879,37.598,95.703,7.812
1532403075.682,68.359,31.250,43.945,95.703,16.602
1532403075.686,65.918,32.227,39.551,94.238,21.973
1532403075.690,56.152,29.297,33.203,90.820,21.973
1532403075.694,51.270,26.367,32.715,87.402,20.996
1532403075.698,50.293,26.855,35.645,88.867,7.812
1532403075.702,57.129,28.809,36.133,87.402,29.785
1532403075.706,59.570,29.297,38.086,86.426,34.180
1532403075.710,57.129,30.762,37.598,90.332,-4.395
1532403075.713,57.617,32.715,36.133,87.891,5.859
1532403075.717,55.664,31.250,38.086,88.867,22.949
1532403075.721,59.570,31.738,36.133,94.727,17.090
1532403075.725,62.500,34.180,29.297,91.797,27.344
1532403075.729,60.059,32.227,25.391,86.914,37.109
1532403075.733,64.941,33.691,28.809,83.984,36.133
1532403075.737,60.547,30.273,29.785,81.055,53.223
1532403075.741,48.340,28.320,27.344,79.590,50.781
1532403075.745,42.480,30.762,30.762,76.660,42.969
1532403075.749,43.945,28.809,30.762,67.383,33.691
1532403075.753,49.316,28.320,30.762,62.500,-10.254
1532403075.756,47.852,28.320,30.273,66.406,17.090
1532403075.760,48.828,28.320,29.297,59.570,56.152
1532403075.764,54.199,28.320,28.809,60.059,49.316
1532403075.768,56.641,25.391,25.879,67.383,28.320
1532403075.772,54.688,24.414,25.879,66.895,35.645
1532403075.776,55.176,29.785,26.855,67.871,52.734
1532403075.780,60.059,28.320,31.738,69.824,50.781
1532403075.784,57.129,25.391,33.691,68.359,9.766
1532403075.788,56.152,31.738,27.832,67.871,1.953
1532403075.792,47.852,29.297,22.461,52.734,13.184
1532403075.796,48.340,21.484,25.879,50.293,-15.625
1532403075.799,62.500,23.438,23.926,59.570,19.043
1532403075.803,53.711,28.320,22.461,49.805,38.086
1532403075.807,50.781,31.738,25.391,46.875,14.648
1532403075.811,54.688,33.203,24.414,49.805,38.574
1532403075.815,59.082,34.180,25.391,51.758,45.898
1532403075.819,62.500,42.969,26.855,52.734,24.902
1532403075.823,54.199,32.715,26.855,51.270,48.828
1532403075.827,61.035,17.578,21.973,50.781,47.852
1532403075.831,76.660,20.996,20.020,51.758,37.109
1532403075.835,74.707,25.391,20.996,58.594,52.246
1532403075.838,64.453,26.367,19.531,59.570,48.340
1532403075.842,60.059,27.344,20.996,58.105,48.340
1532403075.846,63.477,34.180,24.414,66.406,38.086
1532403075.850,53.711,34.668,20.508,64.941,4.883
1532403075.854,42.480,24.414,19.043,56.641,-0.977
1532403075.858,44.922,21.484,28.809,60.059,12.207
1532403075.862,43.457,28.809,34.668,60.547,16.113
1532403075.866,37.109,26.367,27.344,56.641,29.785
1532403075.870,35.645,20.020,27.344,52.734,19.531
1532403075.874,41.016,20.020,33.203,55.176,11.230
1532403075.878,43.457,24.414,36.133,57.129,20.020
1532403075.881,45.410,28.320,35.156,54.688,5.859
1532403075.885,49.316,26.367,31.250,60.059,-8.301
1532403075.889,55.176,26.855,32.227,60.059,2.930
1532403075.893,53.711,23.926,33.203,58.105,16.113
1532403075.897,52.246,24.414,28.320,60.059,41.016
1532403075.901,60.059,26.855,24.902,62.500,35.645
1532403075.905,64.941,32.715,30.762,73.730,42.480
1532403075.909,55.664,40.527,31.250,70.801,28.809
1532403075.913,45.410,31.250,26.367,57.129,14.648
1532403075.917,40.039,19.043,30.273,54.688,26.367
1532403075.921,40.527,19.043,36.133,52.734,21.484
1532403075.924,40.527,24.902,37.109,46.875,44.434
1532403075.928,42.480,29.297,36.133,43.457,40.039
1532403075.932,39.062,24.414,32.715,40.527,-9.766
1532403075.936,36.133,20.020,29.297,41.504,28.809
1532403075.940,38.574,25.391,31.250,52.734,35.156
1532403075.944,40.527,28.809,32.227,55.664,42.480
1532403075.948,43.945,24.414,30.762,55.664,40.039
1532403075.952,50.293,23.926,32.715,53.223,-13.672
1532403075.956,49.805,26.855,33.203,56.152,21.484
1532403075.960,42.969,25.391,32.715,62.500,60.547
1532403075.963,43.457,33.691,38.574,65.918,29.297
1532403075.967,47.852,37.109,33.203,67.871,5.371
1532403075.971,47.852,23.438,25.879,56.152,16.602
1532403075.975,42.969,19.043,30.273,55.664,24.902
1532403075.979,49.316,22.949,33.203,60.059,20.508
1532403075.983,50.781,25.391,29.297,53.711,22.461
1532403075.987,46.387,28.809,27.832,54.688,10.742
1532403075.991,53.711,25.879,30.762,52.734,-2.441
1532403075.995,50.293,25.391,32.715,58.105,29.785
1532403075.999,52.246,32.227,32.227,70.801,46.875
1532403076.003,57.617,30.273,31.738,70.312,43.457
1532403076.006,50.781,25.391,30.762,64.453,34.668
1532403076.010,50.781,24.902,31.738,66.406,40.527
1532403076.014,57.129,25.879,28.809,72.266,45.410
1532403076.018,57.129,26.855,24.414,72.754,36.621
1532403076.022,55.176,29.785,27.832,71.777,30.762
1532403076.026,52.246,31.738,29.297,73.730,38.574
1532403076.030,48.828,31.738,25.391,75.684,42.969
1532403076.034,42.969,23.926,23.926,64.453,31.738
1532403076.038,42.480,22.949,28.320,69.824,36.133
1532403076.042,43.457,28.809,28.320,80.078,46.875
1532403076.046,44.922,24.414,24.902,74.707,54.688
1532403076.049,44.922,26.367,31.738,78.613,34.180
1532403076.053,41.504,28.320,35.645,79.590,19.531
1532403076.057,41.504,22.461,29.297,79.590,41.504
1532403076.061,37.109,24.414,29.785,82.520,47.363
1532403076.065,38.086,25.391,33.691,81.055,9.766
1532403076.069,40.039,25.391,30.273,80.078,-2.930
1532403076.073,35.645,24.414,25.391,81.055,-4.883
1532403076.077,39.551,23.926,30.273,83.008,25.391
1532403076.081,41.504,34.668,33.691,79.102,33.691
1532403076.085,30.762,32.715,30.762,74.219,-1.953
1532403076.088,21.973,20.996,26.855,68.848,12.695
1532403076.092,19.043,23.438,25.391,56.641,-5.371
1532403076.096,18.066,23.926,25.879,63.965,12.695
1532403076.100,22.949,20.508,24.414,72.754,34.180
1532403076.104,28.320,20.996,21.484,69.336,27.344
1532403076.108,29.297,23.926,20.020,75.195,26.367
1532403076.112,29.785,26.367,26.367,71.777,25.879
1532403076.116,28.809,27.344,28.320,65.918,34.180
1532403076.120,34.180,29.785,24.414,66.895,14.648
1532403076.124,33.691,26.367,21.484,67.871,20.996
1532403076.128,34.668,23.926,19.531,68.848,25.391
1532403076.131,39.551,27.832,21.973,63.965,8.789
1532403076.135,38.086,29.297,24.414,61.523,40.039
1532403076.139,38.574,32.227,20.508,66.406,70.312
1532403076.143,40.039,34.668,19.531,69.336,50.781
1532403076.147,40.039,33.203,20.996,72.754,33.203
1532403076.151,43.457,35.156,20.996,68.848,13.672
1532403076.155,44.922,32.227,20.996,66.406,6.836
1532403076.159,38.086,20.996,17.578,70.801,27.832
1532403076.163,40.039,23.438,13.672,65.918,41.016
1532403076.167,46.387,29.785,12.695,70.801,23.438
1532403076.171,46.387,28.809,11.230,66.406,0.000
1532403076.174,43.457,23.438,10.742,49.805,17.578
1532403076.178,45.410,23.438,7.324,56.152,21.973
1532403076.182,50.293,25.879,12.207,68.848,11.719
1532403076.186,48.828,22.949,16.602,68.848,9.766
1532403076.190,46.875,21.973,6.836,62.988,34.668
1532403076.194,45.410,26.367,8.301,67.383,50.293
1532403076.198,51.758,26.367,12.207,67.383,23.438
1532403076.202,46.387,21.973,11.230,65.918,28.809
1532403076.206,40.527,23.926,6.348,63.965,46.387
1532403076.210,38.086,22.461,2.441,56.641,37.109
1532403076.214,36.133,22.461,6.348,60.059,41.016
1532403076.217,37.109,26.367,9.766,62.988,32.715
1532403076.221,34.668,24.414,5.371,56.641,41.504
1532403076.225,39.062,25.879,0.977,59.570,60.547
1532403076.229,39.062,26.855,2.441,61.523,13.672
1532403076.233,39.551,20.996,1.953,55.664,5.859
1532403076.237,44.434,22.461,0.977,62.500,27.344
1532403076.241,41.992,20.996,2.441,68.848,41.504
1532403076.245,47.852,18.066,4.883,75.195,51.758
1532403076.249,51.270,19.531,7.324,78.125,29.297
1532403076.253,44.922,19.531,5.859,77.148,20.508
1532403076.256,46.875,19.043,2.930,78.125,29.297
1532403076.260,49.316,14.160,5.859,77.637,31.250
1532403076.264,45.410,14.160,7.324,75.684,38.574
1532403076.268,43.945,20.020,5.371,70.312,23.926
1532403076.272,42.969,20.508,4.395,59.570,-18.066
1532403076.276,41.504,18.066,3.418,55.664,6.836
1532403076.280,41.504,19.531,3.418,64.941,41.992
1532403076.284,39.062,16.113,-1.953,63.477,40.039
1532403076.288,35.645,15.137,-8.301,57.617,59.082
1532403076.292,35.645,20.020,-3.906,62.500,66.406
1532403076.296,41.992,24.414,-3.418,69.824,53.223
1532403076.299,41.992,22.949,-3.906,68.848,41.992
1532403076.303,44.922,19.531,-4.883,66.895,36.133
1532403076.307,47.852,15.625,-6.836,69.824,27.832
1532403076.311,53.223,15.137,-3.418,68.848,27.344
1532403076.315,50.293,16.113,0.000,61.523,14.160
1532403076.319,42.480,12.695,-2.441,60.059,6.348
1532403076.323,45.410,10.254,-4.395,63.477,40.039
1532403076.327,47.852,12.207,-1.953,66.406,40.527
1532403076.331,45.410,16.602,-4.883,59.570,28.320
1532403076.335,40.527,20.996,-9.277,51.270,35.156
1532403076.339,40.527,21.484,-9.277,55.664,48.340
1532403076.342,43.945,21.484,-10.742,62.500,40.039
1532403076.346,42.969,22.949,-13.672,61.523,39.551
1532403076.350,37.109,18.555,-14.160,57.617,39.062
1532403076.354,44.434,14.648,-14.160,64.941,40.039
1532403076.358,49.316,9.277,-14.160,80.566,43.945
1532403076.362,35.645,10.254,-11.719,70.801,35.156
1532403076.366,34.180,13.184,-10.742,56.641,44.434
1532403076.370,41.504,16.113,-10.254,54.688,24.902
1532403076.374,39.062,22.461,-10.254,44.922,1.953
1532403076.378,34.668,23.438,-11.719,45.898,7.812
1532403076.381,39.062,27.344,-4.883,52.246,4.395
1532403076.385,37.109,28.809,-6.836,50.293,28.809
1532403076.389,31.250,24.414,-12.695,42.480,17.578
1532403076.393,37.109,22.949,-15.137,48.340,5.859
1532403076.397,41.992,22.949,-11.230,59.570,49.316
1532403076.401,41.992,21.973,-5.371,61.035,37.598
1532403076.405,42.969,25.391,-7.324,62.500,15.625
1532403076.409,40.527,25.391,-10.254,56.152,51.270
1532403076.413,36.621,23.926,-9.766,49.805,40.527
1532403076.417,34.180,24.414,-3.906,56.152,21.973
1532403076.421,33.691,13.672,-10.254,54.688,33.203
1532403076.424,38.086,10.254,-14.648,54.688,27.832
1532403076.428,37.598,18.555,-11.719,59.082,28.809
1532403076.432,39.551,24.902,-11.230,62.988,38.574
1532403076.436,40.039,22.949,-12.207,66.895,37.109
1532403076.440,37.598,23.438,-8.301,68.359,29.785
1532403076.444,35.156,24.902,-8.301,64.941,47.363
1532403076.448,31.250,17.090,-11.230,60.059,66.895
1532403076.452,29.785,15.625,-11.230,54.688,24.902
1532403076.456,30.273,19.043,-10.254,54.199,22.949
1532403076.460,28.809,21.973,-9.277,60.059,69.336
1532403076.464,30.762,24.414,-12.207,63.965,72.754
1532403076.467,34.668,19.531,-13.672,65.918,52.734
1532403076.471,38.574,17.578,-9.277,68.848,80.566
1532403076.475,42.969,25.391,-8.301,73.242,76.660
1532403076.479,41.016,23.438,-8.789,73.242,38.574
1532403076.483,43.945,12.695,-4.883,74.219,36.621
1532403076.487,40.527,12.695,-4.395,74.219,27.832
1532403076.491,37.109,18.555,-5.371,70.312,30.762
1532403076.495,43.945,18.555,-4.883,68.359,41.016
1532403076.499,43.457,17.090,-5.859,62.988,12.695
1532403076.503,41.992,17.578,-5.371,57.129,28.809
1532403076.506,49.316,18.066,-8.789,57.617,52.246
1532403076.510,50.781,25.391,-12.207,52.734,7.812
1532403076.514,48.340,23.926,-9.766,46.875,0.000
1532403076.518,48.828,15.137,-11.719,53.711,23.926
1532403076.522,44.922,14.160,-12.695,59.082,39.062
1532403076.526,39.551,16.602,-6.836,71.289,42.969
1532403076.530,37.598,20.020,-2.441,85.938,41.016
1532403076.534,33.691,19.531,-4.395,81.543,59.082
1532403076.538,29.785,18.555,-3.906,83.984,60.059
1532403076.542,29.785,26.855,0.977,96.191,34.180
1532403076.546,29.297,26.855,-0.977,97.168,37.109
1532403076.549,32.227,18.555,-1.953,95.703,40.039
1532403076.553,36.621,15.625,-1.953,86.914,18.555
1532403076.557,35.156,18.066,-4.883,66.406,32.227
1532403076.561,33.203,22.949,-5.371,38.574,48.340
1532403076.565,35.645,20.020,-2.441,25.879,44.922
1532403076.569,37.109,22.949,-2.930,11.719,49.316
1532403076.573,30.762,23.926,-2.441,-2.930,48.828
1532403076.577,32.227,25.879,1.953,5.371,45.410
1532403076.581,36.621,27.832,4.883,10.254,69.336
1532403076.585,33.691,19.531,-2.441,-0.488,45.410
1532403076.589,34.668,12.207,-11.230,2.930,-3.418
1532403076.592,33.691,15.137,-5.859,5.859,6.348
1532403076.596,31.738,18.555,2.930,0.488,46.387
1532403076.600,36.133,19.043,0.488,5.859,53.711
1532403076.604,40.039,24.902,-1.953,16.113,37.109
1532403076.608,42.480,30.273,-4.883,19.043,52.734
1532403076.612,36.621,25.879,-1.465,18.555,22.461
1532403076.616,38.574,20.996,6.348,20.508,20.996
1532403076.620,44.922,20.508,5.371,24.414,50.293
1532403076.624,36.621,16.602,1.465,34.180,42.480
1532403076.628,33.691,14.648,-1.953,28.809,47.852
1532403076.632,27.832,17.090,-3.906,19.531,43.945
1532403076.635,26.855,20.020,-7.324,24.414,27.832
1532403076.639,27.344,20.508,-9.766,20.996,21.484
1532403076.643,25.879,18.555,-5.371,20.020,44.922
1532403076.647,26.855,17.578,-1.465,22.949,54.199
1532403076.651,33.203,17.090,4.883,20.508,12.207
1532403076.655,38.086,24.414,5.371,18.555,4.883
1532403076.659,30.273,22.949,-2.441,20.996,38.086
1532403076.663,24.414,16.602,0.000,27.344,44.434
1532403076.667,31.738,20.996,1.953,36.133,53.711
1532403076.671,37.109,22.949,3.906,42.480,38.086
1532403076.674,40.039,24.902,1.465,44.922,23.926
1532403076.678,42.969,30.762,-2.930,48.828,35.645
1532403076.682,44.434,28.809,-0.977,57.129,48.828
1532403076.686,45.898,27.344,2.441,60.547,20.996
1532403076.690,41.504,28.809,-1.953,52.246,-7.812
1532403076.694,42.969,26.855,-4.883,46.387,9.277
1532403076.698,39.551,26.855,-1.465,51.758,28.320
1532403076.702,35.645,31.250,1.465,54.199,60.547
1532403076.706,38.574,28.320,4.395,57.129,56.641
1532403076.710,39.062,23.438,7.812,60.059,18.066
1532403076.714,37.109,28.809,8.301,57.129,44.434
1532403076.717,32.715,28.320,3.906,55.176,47.363
1532403076.721,30.762,20.508,1.465,52.734,38.086
1532403076.725,36.621,19.531,2.930,55.664,47.363
1532403076.729,38.574,20.508,4.395,56.152,10.254
1532403076.733,34.668,24.902,3.418,45.410,-4.395
1532403076.737,33.691,26.855,1.953,46.875,22.461
1532403076.741,33.691,25.391,2.930,53.711,24.902
1532403076.745,35.156,27.344,3.906,63.965,33.203
1532403076.749,41.016,26.855,3.418,72.266,42.969
1532403076.753,38.574,18.555,5.859,67.383,12.207
1532403076.757,37.598,18.066,7.812,67.871,-3.418
1532403076.760,41.016,15.625,14.648,83.984,0.000
1532403076.764,38.086,14.160,16.113,89.844,19.531
1532403076.768,34.668,23.438,10.254,71.777,34.180
1532403076.772,33.203,29.785,4.883,56.641,8.789
1532403076.776,32.227,36.133,0.977,49.316,1.953
1532403076.780,39.062,38.086,0.488,58.594,32.227
1532403076.784,45.410,36.621,0.488,62.500,33.203
1532403076.788,46.387,35.645,-4.883,52.246,16.113
1532403076.792,47.363,37.109,-5.371,47.363,-20.020
1532403076.796,46.387,36.133,-1.465,49.316,-6.348
1532403076.799,44.434,34.668,-0.488,54.688,26.367
1532403076.803,40.527,32.715,2.441,59.082,28.809
1532403076.807,35.645,26.367,1.465,53.711,15.625
1532403076.811,37.598,31.738,0.488,49.316,-5.371
1532403076.815,41.504,39.551,5.371,59.570,24.414
1532403076.819,40.527,37.598,4.395,65.918,33.691
1532403076.823,43.945,36.133,2.441,65.918,32.715
1532403076.827,44.434,35.645,2.441,69.336,36.621
1532403076.831,43.945,32.715,3.906,61.523,30.762
1532403076.835,45.410,31.250,7.812,59.082,28.320
1532403076.839,45.898,34.180,5.859,65.430,51.270
1532403076.842,43.945,32.715,4.395,63.965,43.945
1532403076.846,42.969,27.832,6.836,60.547,21.973
1532403076.850,42.969,30.762,7.324,57.129,-1.465
1532403076.854,38.574,30.273,9.277,57.129,16.602
1532403076.858,40.039,26.367,10.254,58.594,26.855
1532403076.862,39.551,27.344,8.301,54.688,17.578
1532403076.866,40.039,31.738,8.789,52.734,26.367
1532403076.870,44.434,34.180,8.789,55.176,24.414
1532403076.874,46.387,32.227,7.812,56.152,0.000
1532403076.878,50.293,34.668,8.789,61.523,19.043
1532403076.882,49.805,29.785,6.836,62.988,41.016
1532403076.885,50.781,22.461,5.371,61.035,25.391
1532403076.889,49.805,24.902,6.836,58.105,-10.254
1532403076.893,49.805,31.738,11.719,57.617,6.348
1532403076.897,51.270,35.156,11.230,57.129,31.738
1532403076.901,44.434,25.879,10.254,59.082,15.625
1532403076.905,46.387,25.879,12.207,64.941,25.391
1532403076.909,49.316,30.762,14.648,64.941,-0.488
1532403076.913,46.875,28.320,16.602,66.406,-6.348
1532403076.917,43.945,26.367,14.648,66.406,28.809
1532403076.921,49.805,23.438,15.137,65.430,27.344
1532403076.924,50.293,27.344,14.648,68.848,10.742
1532403076.928,44.434,30.762,16.602,65.918,25.879
1532403076.932,46.875,29.785,17.578,59.570,13.672
1532403076.936,49.805,32.227,16.602,60.547,4.883
1532403076.940,50.293,29.785,16.113,63.965,24.414
1532403076.944,46.387,22.949,18.555,63.477,41.504
1532403076.948,47.852,25.879,17.578,65.918,38.086
1532403076.952,47.363,27.832,16.602,66.895,10.742
1532403076.956,44.434,26.855,15.625,62.988,23.438
1532403076.960,44.434,27.344,15.137,65.430,56.152
1532403076.964,41.016,25.391,18.555,66.895,56.641
1532403076.967,42.480,27.344,18.555,67.871,42.969
1532403076.971,41.016,27.832,16.113,60.059,15.137
1532403076.975,40.527,23.926,18.066,57.617,-15.625
1532403076.979,47.363,32.227,19.531,70.801,15.625
1532403076.983,42.480,32.227,15.137,79.102,35.156
1532403076.987,41.992,24.902,16.113,72.754,47.363
1532403076.991,45.410,25.879,20.508,70.312,27.832
1532403076.995,50.781,28.320,21.484,83.496,13.672
1532403076.999,49.805,31.250,23.438,82.520,30.762
1532403077.003,43.457,30.762,23.926,76.172,30.273
1532403077.007,48.340,30.273,24.414,78.125,30.273
1532403077.010,51.270,32.715,25.879,78.125,33.691
1532403077.014,49.805,38.086,27.344,81.055,21.484
1532403077.018,46.875,33.691,25.391,82.520,5.371
1532403077.022,50.781,23.438,22.461,80.078,2.930
1532403077.026,49.805,26.367,20.996,76.660,37.109
1532403077.030,49.316,35.645,19.043,70.312,21.973
1532403077.034,47.852,34.180,22.461,66.895,-21.973
1532403077.038,45.898,32.227,23.926,77.148,26.367
1532403077.042,52.734,38.574,24.414,84.961,58.594
1532403077.046,49.805,37.109,24.414,79.590,46.387
1532403077.049,47.363,30.762,24.902,79.590,57.129
1532403077.053,49.316,32.227,25.391,74.219,41.504
1532403077.057,43.945,35.156,24.414,67.871,28.809
1532403077.061,42.969,34.668,29.297,70.312,18.555
1532403077.065,46.387,33.691,33.691,69.336,25.391
1532403077.069,43.457,32.227,29.297,75.195,22.461
1532403077.073,41.992,31.250,26.855,76.660,-14.160
1532403077.077,44.434,35.156,29.785,71.289,7.812
1532403077.081,46.387,35.645,27.832,62.988,18.555
1532403077.085,43.945,32.715,25.391,59.570,8.301
1532403077.089,43.457,32.227,30.273,58.594,20.020
1532403077.092,45.898,28.809,28.320,55.176,-14.648
1532403077.096,51.270,27.832,27.832,57.617,6.836
1532403077.100,58.105,35.645,33.203,61.035,51.758
1532403077.104,54.688,35.645,30.762,64.941,40.039
1532403077.108,51.270,28.809,25.879,64.453,21.484
1532403077.112,53.223,35.645,26.855,55.664,7.812
1532403077.116,54.199,39.551,27.344,62.012,41.504
1532403077.120,53.711,37.109,26.855,68.359,52.246
1532403077.124,49.316,36.133,27.832,66.406,28.320
1532403077.128,44.922,31.250,28.809,65.918,12.207
1532403077.132,49.805,27.832,30.273,67.871,16.602
1532403077.135,54.199,30.762,29.785,69.336,27.344
1532403077.139,46.875,30.762,24.902,66.406,29.785
1532403077.143,45.410,29.297,26.367,69.824,42.480
1532403077.147,51.270,27.832,27.832,71.289,36.621
1532403077.151,55.664,35.645,32.715,65.918,17.090
1532403077.155,50.293,42.969,35.645,63.965,11.230
1532403077.159,48.828,35.156,32.715,68.848,16.113
1532403077.163,53.711,33.691,33.691,70.801,39.062
1532403077.167,58.594,37.598,31.738,73.242,44.434
1532403077.171,61.035,39.551,34.668,81.543,16.113
1532403077.175,61.035,40.527,35.645,81.543,20.508
1532403077.178,65.918,39.551,33.691,78.125,41.504
1532403077.182,73.730,47.363,35.645,78.613,47.363
1532403077.186,74.707,50.781,38.086,79.102,31.250
1532403077.190,76.660,44.922,37.598,75.195,40.039
1532403077.194,77.637,45.410,31.250,67.383,22.949
1532403077.198,80.566,44.922,29.297,72.266,31.738
1532403077.202,78.613,47.363,36.621,78.125,42.480
1532403077.206,64.453,44.434,41.992,80.566,22.949
1532403077.210,56.152,32.715,41.016,83.008,28.809
1532403077.214,52.734,32.715,40.527,83.008,10.254
1532403077.217,50.781,37.109,42.969,91.797,37.109
1532403077.221,52.734,42.969,41.504,98.633,38.086
1532403077.225,54.199,42.969,41.016,91.309,20.020
1532403077.229,50.293,35.645,39.062,82.031,20.508
1532403077.233,39.551,34.180,33.203,80.566,44.922
1532403077.237,36.133,35.156,32.227,78.125,74.219
1532403077.241,41.504,32.715,35.645,74.707,52.246
1532403077.245,40.527,32.227,39.062,82.520,36.133
1532403077.249,39.551,36.133,39.062,75.684,19.531
1532403077.253,43.945,34.668,36.133,59.570,-16.602
1532403077.257,47.852,35.645,33.691,69.336,4.883
1532403077.260,48.340,42.480,37.109,76.660,24.414
1532403077.264,54.199,44.922,40.039,77.148,10.254
1532403077.268,53.223,33.203,40.039,79.102,13.184
1532403077.272,47.363,22.461,39.062,74.707,16.602
1532403077.276,45.410,29.297,33.203,75.684,14.160
1532403077.280,45.410,32.227,31.738,76.172,33.691
1532403077.284,49.316,32.227,36.133,75.195,51.758
1532403077.288,47.363,32.227,36.133,77.148,30.273
1532403077.292,43.457,29.297,36.133,75.195,5.859
1532403077.296,39.062,29.297,33.203,66.895,29.297
1532403077.300,42.969,29.785,30.762,64.453,52.734
1532403077.303,47.852,27.832,37.598,68.359,44.434
1532403077.307,42.969,29.785,40.039,66.406,57.129
1532403077.311,42.480,32.227,39.062,59.082,46.387
1532403077.315,42.969,34.180,38.574,59.570,40.039
1532403077.319,44.434,38.574,35.645,66.406,58.594
1532403077.323,49.316,30.762,31.250,61.035,57.617
1532403077.327,49.805,22.949,28.320,58.594,55.176
1532403077.331,40.527,26.367,28.320,62.012,49.316
1532403077.335,48.340,29.297,32.715,71.289,41.992
1532403077.339,61.523,26.367,40.527,83.496,68.848
1532403077.342,62.500,29.297,41.016,76.660,64.453
1532403077.346,52.246,38.086,33.203,59.082,46.387
1532403077.350,42.969,39.062,31.250,42.480,18.555
1532403077.354,47.363,40.527,33.691,39.062,20.020
1532403077.358,48.828,41.016,32.227,44.434,69.824
1532403077.362,44.434,38.574,26.367,48.828,48.340
1532403077.366,43.945,32.715,28.320,54.688,39.551
1532403077.370,46.875,35.645,35.156,58.594,44.434
1532403077.374,47.363,36.621,34.180,58.105,24.414
1532403077.378,41.992,30.273,31.250,54.199,46.875
1532403077.382,40.527,33.203,27.344,60.059,52.734
1532403077.385,48.340,32.715,26.367,66.406,19.531
1532403077.389,53.711,30.273,29.297,65.918,-24.902
1532403077.393,49.316,34.668,29.785,65.918,-42.969
1532403077.397,45.410,37.598,26.367,67.383,16.602
1532403077.401,47.363,40.527,29.297,64.941,36.133
1532403077.405,48.340,42.480,34.180,61.035,37.109
1532403077.409,53.711,42.480,32.227,53.223,42.480
1532403077.413,54.688,44.434,29.785,47.363,51.758
1532403077.417,48.340,36.133,27.344,52.734,53.711
1532403077.421,47.852,28.809,29.785,56.641,23.926
1532403077.425,45.410,34.668,32.227,55.664,52.734
1532403077.428,46.875,36.133,30.762,51.270,51.758
1532403077.432,45.898,31.738,32.715,50.781,1.465
1532403077.436,40.039,33.691,29.297,53.711,7.812
1532403077.440,40.039,34.180,25.391,62.500,12.695
1532403077.444,40.039,32.227,27.344,64.453,15.137
1532403077.448,37.598,30.762,33.203,62.988,24.902
1532403077.452,40.527,31.250,33.691,60.547,3.418
1532403077.456,40.527,35.645,28.809,57.617,1.465
1532403077.460,45.410,34.180,28.320,68.848,29.785
1532403077.464,54.688,38.086,35.645,74.707,30.762
1532403077.467,51.270,36.621,36.621,70.312,8.789
1532403077.471,49.805,25.879,33.691,64.453,11.719
1532403077.475,57.617,27.832,34.668,57.129,26.367
1532403077.479,52.246,35.645,34.668,57.617,5.371
1532403077.483,48.340,37.109,34.180,58.105,6.348
1532403077.487,51.270,32.227,35.156,55.664,8.789
1532403077.491,46.875,31.738,35.645,55.664,-11.719
1532403077.495,46.387,30.762,32.715,59.082,16.602
1532403077.499,47.363,24.902,32.227,63.477,20.020
1532403077.503,49.805,28.320,32.715,71.777,-13.672
1532403077.507,46.875,33.691,39.062,81.543,-3.906
1532403077.510,40.527,36.621,41.504,79.102,9.766
1532403077.514,41.016,34.668,34.668,75.684,7.324
1532403077.518,41.016,24.902,27.344,77.637,22.949
1532403077.522,39.062,28.320,30.273,74.707,19.043
1532403077.526,40.039,33.203,34.668,65.430,13.672
1532403077.530,40.527,29.297,34.180,62.988,9.766
1532403077.534,42.969,30.762,34.180,63.965,0.488
1532403077.538,41.992,31.250,32.227,59.082,13.184
1532403077.542,45.898,30.273,30.762,54.688,30.273
1532403077.546,50.293,36.133,34.180,60.059,22.461
1532403077.550,44.434,39.062,34.180,59.082,-13.672
1532403077.553,43.945,37.598,31.250,54.199,18.555
1532403077.557,48.828,33.203,31.738,53.711,44.922
1532403077.561,47.363,37.598,33.691,55.664,17.578
1532403077.565,37.109,38.086,35.645,54.688,38.574
1532403077.569,35.645,26.855,36.133,46.387,46.875
1532403077.573,40.039,27.344,31.738,43.457,11.719
1532403077.577,43.945,31.738,33.203,51.758,8.301
1532403077.581,41.992,31.738,33.203,53.711,20.508
1532403077.585,38.086,31.738,31.250,54.688,9.766
1532403077.589,42.969,34.668,32.715,53.711,23.926
1532403077.592,39.062,34.180,32.227,52.246,29.785
1532403077.596,35.156,31.250,33.691,59.082,37.109
1532403077.600,37.598,33.203,30.273,49.805,24.414
1532403077.604,36.133,36.133,33.691,46.875,3.418
1532403077.608,39.551,37.109,37.109,57.129,14.160
1532403077.612,45.898,38.086,35.645,55.664,14.160
1532403077.616,45.898,36.621,35.645,50.293,17.578
1532403077.620,46.875,34.668,29.297,51.270,19.531
1532403077.624,45.898,38.574,30.273,53.711,-0.977
1532403077.628,41.992,42.480,34.180,53.223,-1.953
1532403077.632,39.062,36.621,32.715,44.434,-2.441
1532403077.635,42.480,33.203,34.668,44.922,8.789
1532403077.639,42.969,37.598,32.715,51.270,30.273
1532403077.643,42.480,39.062,33.691,49.805,20.996
1532403077.647,42.480,36.621,36.621,52.734,47.852
1532403077.651,43.945,35.645,36.621,49.805,45.410
1532403077.655,41.992,34.180,38.086,47.852,9.766
1532403077.659,39.551,38.086,37.109,47.852,12.695
1532403077.663,38.574,41.016,31.738,54.199,33.691
1532403077.667,37.598,41.016,31.250,57.617,37.109
1532403077.671,43.945,44.434,36.621,52.734,6.348
1532403077.675,48.828,42.480,34.180,53.223,7.812
1532403077.678,47.852,41.504,24.414,57.129,34.668
1532403077.682,50.781,38.574,29.785,56.641,27.832
1532403077.686,49.316,32.715,40.039,54.199,33.691
1532403077.690,45.898,34.668,41.504,48.340,17.578
1532403077.694,41.016,40.527,39.062,46.387,18.555
1532403077.698,38.574,39.062,37.598,53.711,41.016
1532403077.702,39.551,38.086,37.109,55.176,30.273
1532403077.706,38.574,41.016,34.668,59.570,29.785
1532403077.710,39.551,37.598,35.645,64.941,36.133
1532403077.714,43.457,37.109,36.133,61.523,42.480
1532403077.718,48.828,36.133,37.109,64.941,40.039
1532403077.721,48.340,31.738,37.598,69.336,20.996
1532403077.725,44.922,39.551,35.156,74.219,33.203
1532403077.729,45.410,44.922,34.180,73.730,35.156
1532403077.733,45.410,39.062,37.598,69.336,13.184
1532403077.737,51.758,36.133,39.551,76.660,12.207
1532403077.741,49.316,37.109,41.016,76.172,20.996
1532403077.745,43.945,36.621,40.527,79.590,50.293
1532403077.749,45.410,33.691,37.109,79.590,43.945
1532403077.753,44.434,32.715,40.039,78.125,26.367
1532403077.757,47.363,34.180,42.480,86.426,40.039
1532403077.760,47.363,36.133,38.574,86.426,0.488
1532403077.764,45.410,34.668,36.133,79.590,-20.996
1532403077.768,42.480,32.715,34.668,76.172,14.648
1532403077.772,43.457,37.598,35.156,75.195,-6.348
1532403077.776,42.480,41.016,34.180,75.684,-24.414
1532403077.780,44.434,37.598,37.109,75.195,17.578
1532403077.784,40.527,31.250,38.086,75.195,20.508
1532403077.788,32.227,35.156,31.738,77.637,7.812
1532403077.792,40.039,47.363,27.344,74.707,22.949
1532403077.796,43.945,41.504,25.391,80.566,20.508
1532403077.800,34.668,26.367,37.109,87.402,21.973
1532403077.803,22.461,20.996,42.969,75.195,14.648
1532403077.807,19.043,23.926,39.062,63.965,-5.371
1532403077.811,22.949,30.273,43.945,60.547,15.137
1532403077.815,25.391,35.645,45.410,59.082,23.438
1532403077.819,31.250,35.156,41.504,67.383,31.738
1532403077.823,40.039,32.227,40.039,77.637,54.688
1532403077.827,42.969,33.203,37.598,74.707,52.246
1532403077.831,40.527,29.785,41.016,72.754,41.016
1532403077.835,34.668,30.273,42.969,71.289,33.691
1532403077.839,35.156,35.156,40.039,69.336,27.832
1532403077.843,41.504,35.645,41.504,73.242,41.504
1532403077.846,41.992,31.738,41.992,73.730,56.152
1532403077.850,36.133,26.855,37.109,62.500,56.641
1532403077.854,33.203,28.320,34.180,55.664,45.410
1532403077.858,36.621,31.738,40.039,59.570,47.363
1532403077.862,44.434,29.297,41.016,66.406,50.293
1532403077.866,53.711,29.785,39.551,69.824,47.852
1532403077.870,55.664,30.273,43.945,59.570,10.742
1532403077.874,58.594,32.715,42.969,53.223,-15.137
1532403077.878,58.105,32.227,41.504,55.176,19.531
1532403077.882,56.641,31.738,45.410,68.359,40.039
1532403077.885,57.617,37.598,46.387,86.426,34.668
1532403077.889,50.781,34.180,41.504,83.496,18.555
1532403077.893,45.410,27.344,38.574,78.125,27.344
1532403077.897,43.945,29.785,42.969,87.891,30.273
1532403077.901,43.457,33.203,44.434,89.355,30.762
1532403077.905,40.527,32.227,45.410,88.867,61.035
1532403077.909,34.668,35.645,45.410,83.008,42.969
1532403077.913,30.762,37.109,38.574,72.266,33.203
1532403077.917,32.715,35.156,37.598,75.195,36.133
1532403077.921,31.250,34.668,39.551,70.801,29.297
1532403077.925,28.320,32.227,41.016,62.988,30.273
1532403077.928,30.762,33.691,46.875,64.453,43.457
1532403077.932,35.645,35.156,43.945,61.523,32.227
1532403077.936,45.410,34.668,36.133,58.105,18.066
1532403077.940,46.387,33.691,38.086,60.547,38.086
1532403077.944,40.527,30.762,42.480,65.430,55.176
1532403077.948,41.504,32.227,44.922,67.383,47.363
1532403077.952,49.316,33.691,44.922,53.711,32.715
1532403077.956,48.828,29.785,43.457,48.340,12.695
1532403077.960,48.340,29.297,47.363,61.523,18.555
1532403077.964,44.434,37.109,48.828,69.336,27.344
1532403077.968,47.363,38.086,44.434,55.664,37.109
1532403077.971,50.781,30.762,45.898,52.246,46.875
1532403077.975,38.574,28.809,48.828,58.105,27.832
1532403077.979,35.645,29.297,48.340,53.711,20.996
1532403077.983,35.156,30.273,47.852,52.734,30.762
1532403077.987,35.645,29.297,47.852,55.664,35.156
1532403077.991,33.691,31.250,49.316,50.293,4.883
1532403077.995,31.738,40.527,41.504,43.457,0.000
1532403077.999,56.152,46.875,33.203,68.848,37.109
1532403078.003,79.102,34.180,50.781,98.145,49.805
1532403078.007,42.969,27.832,69.824,63.965,57.617
1532403078.010,11.719,33.691,66.406,25.391,12.207
1532403078.014,6.836,32.227,69.824,18.555,11.230
1532403078.018,-18.066,26.855,74.219,19.043,62.500
1532403078.022,-34.180,23.926,79.590,9.766,44.434
1532403078.026,-36.621,23.926,86.914,0.000,50.781
1532403078.030,-39.062,23.438,89.355,8.301,50.781
1532403078.034,-52.246,24.902,92.773,-6.348,28.809
1532403078.038,-64.453,25.879,99.121,-23.438,38.574
1532403078.042,-63.965,25.391,105.469,-13.184,30.273
1532403078.046,-62.988,20.508,106.445,-1.953,43.945
1532403078.050,-62.012,20.020,108.398,-4.395,53.711
1532403078.053,-55.176,20.996,106.445,-13.672,26.855
1532403078.057,-74.219,16.113,102.539,-25.391,45.898
1532403078.061,-78.125,13.184,103.516,-29.297,36.621
1532403078.065,-66.406,9.766,104.004,-17.578,32.715
1532403078.069,-55.664,3.418,104.492,-9.766,38.086
1532403078.073,-51.270,0.977,105.469,-6.836,2.441
1532403078.077,-44.434,0.977,102.051,0.977,17.578
1532403078.081,-29.785,1.465,103.027,15.137,40.039
1532403078.085,-26.855,0.000,102.539,25.879,55.664
1532403078.089,-20.996,-3.418,99.121,30.273,27.832
1532403078.093,-25.391,-1.465,98.633,22.949,-12.207
1532403078.096,-24.414,-4.395,95.703,27.832,16.602
1532403078.100,-21.484,-7.324,89.355,35.156,48.828
1532403078.104,-18.066,-4.395,88.379,38.086,54.688
1532403078.108,-15.625,-2.930,91.309,36.621,27.832
1532403078.112,-23.926,-0.488,78.125,37.109,9.277
1532403078.116,-23.926,-8.301,75.684,46.387,28.320
1532403078.120,-19.043,-13.672,91.309,43.945,37.109
1532403078.124,-22.461,-7.812,88.867,54.688,11.230
1532403078.128,-32.227,-10.254,83.496,49.805,6.348
1532403078.132,-18.066,-11.719,78.613,47.852,11.719
1532403078.136,-20.508,-9.766,75.195,43.457,3.418
1532403078.139,-38.086,-8.301,81.543,32.715,31.250
1532403078.143,-31.250,-7.812,78.613,41.016,33.691
1532403078.147,-18.066,-4.395,79.102,43.945,18.066
1532403078.151,-11.719,-3.906,85.938,42.969,5.859
1532403078.155,-8.301,-4.883,78.613,46.875,17.090
1532403078.159,0.000,-4.395,65.430,54.199,21.484
1532403078.163,4.395,-1.953,62.012,59.082,5.371
1532403078.167,8.789,3.418,70.801,58.594,57.617
1532403078.171,11.230,10.742,70.801,49.316,30.762
1532403078.175,15.625,12.695,63.477,53.711,1.465
1532403078.178,25.391,14.648,63.477,67.871,49.805
1532403078.182,29.785,12.695,63.965,71.777,47.363
1532403078.186,25.391,10.742,59.082,77.148,57.129
1532403078.190,17.578,10.254,55.176,72.266,50.293
1532403078.194,15.625,14.648,54.199,59.570,18.066
1532403078.198,18.066,16.602,54.688,68.848,21.973
1532403078.202,21.484,10.742,59.082,74.219,63.477
1532403078.206,29.297,12.695,62.012,73.730,81.055
1532403078.210,29.785,16.113,50.781,68.359,38.574
1532403078.214,25.879,18.066,46.875,62.012,41.504
1532403078.218,31.250,14.648,53.711,58.105,62.012
1532403078.221,32.227,14.648,54.199,62.500,51.270
1532403078.225,37.598,23.926,53.711,67.383,39.551
1532403078.229,42.969,25.879,53.223,63.477,19.531
1532403078.233,36.621,22.461,49.805,58.105,21.973
1532403078.237,40.039,23.926,50.781,62.988,58.594
1532403078.241,42.480,28.809,49.316,73.242,38.086
1532403078.245,39.062,32.715,36.133,72.266,43.945
1532403078.249,41.504,32.227,43.457,68.848,50.781
1532403078.253,46.387,29.785,57.617,67.383,21.973
1532403078.257,48.340,27.344,59.570,67.383,39.551
1532403078.261,49.316,24.902,55.664,76.172,55.176
1532403078.264,46.387,25.879,48.828,71.289,73.730
1532403078.268,47.363,28.320,49.805,70.312,49.805
1532403078.272,46.387,31.250,53.711,73.730,16.602
1532403078.276,41.504,32.715,50.781,73.730,23.926
1532403078.280,42.480,32.227,46.387,72.266,49.316
1532403078.284,48.828,33.691,50.781,74.707,50.293
1532403078.288,52.734,31.250,50.293,78.613,6.348
1532403078.292,50.781,28.809,44.922,60.059,-9.766
1532403078.296,51.270,38.574,45.410,58.594,14.648
1532403078.300,64.453,40.039,49.805,85.449,45.898
1532403078.303,69.336,30.762,52.246,91.309,61.523
1532403078.307,43.457,29.297,55.176,76.172,44.434
1532403078.311,34.180,30.762,49.805,77.148,15.625
1532403078.315,35.156,26.367,50.781,80.566,20.020
1532403078.319,23.438,20.508,57.617,69.824,14.648
1532403078.323,23.438,18.555,62.500,57.129,11.719
1532403078.327,23.926,17.578,75.195,45.898,37.598
1532403078.331,19.531,18.066,81.543,36.133,15.625
1532403078.335,21.484,20.508,79.590,44.922,-6.836
1532403078.339,14.648,17.578,80.078,49.805,27.344
1532403078.343,11.719,11.230,77.637,53.223,27.344
1532403078.346,18.555,12.695,75.684,62.012,31.250
1532403078.350,13.672,14.160,73.730,61.523,5.371
1532403078.354,20.020,11.719,63.477,62.500,16.113
1532403078.358,32.227,10.254,56.152,64.453,49.316
1532403078.362,31.250,14.648,60.059,66.895,59.082
1532403078.366,32.715,18.555,73.242,67.383,54.199
1532403078.370,31.250,16.602,78.125,55.664,-15.625
1532403078.374,29.785,16.602,75.684,60.547,-17.090
1532403078.378,33.203,18.555,72.754,63.965,26.367
1532403078.382,32.227,20.508,72.754,56.152,54.199
1532403078.386,35.156,22.461,66.406,65.430,57.617
1532403078.389,39.551,25.391,62.012,62.988,12.207
1532403078.393,41.504,26.367,58.594,58.105,7.324
1532403078.397,41.504,23.926,58.594,66.895,41.504
1532403078.401,40.527,25.879,65.918,66.406,46.875
1532403078.405,40.039,27.344,64.453,63.965,47.363
1532403078.409,43.457,25.879,65.430,66.895,38.086
1532403078.413,43.457,22.949,61.035,69.336,14.648
1532403078.417,41.992,23.438,53.711,65.430,9.766
1532403078.421,47.363,28.809,56.641,55.664,11.230
1532403078.425,48.340,31.250,59.570,64.453,43.945
1532403078.428,51.270,29.785,62.500,69.824,49.805
1532403078.432,50.781,27.832,60.547,60.059,-2.441
1532403078.436,49.805,26.367,55.176,63.477,19.043
1532403078.440,51.270,26.367,48.340,70.312,58.594
1532403078.444,48.828,29.297,50.293,69.824,39.551
1532403078.448,47.363,31.250,60.059,62.012,21.484
1532403078.452,48.828,29.785,65.430,54.688,10.254
1532403078.456,50.781,32.227,62.500,59.570,18.555
1532403078.460,49.805,31.250,58.105,63.477,45.410
1532403078.464,47.363,30.273,55.664,59.570,47.852
1532403078.468,48.828,30.762,54.199,61.035,25.879
1532403078.471,55.176,32.227,59.082,59.570,5.371
1532403078.475,55.176,32.715,60.059,66.406,27.832
1532403078.479,51.270,29.297,56.641,62.500,49.316
1532403078.483,49.805,29.785,53.223,49.316,47.852
1532403078.487,49.316,34.180,55.176,55.664,79.590
1532403078.491,47.852,32.715,54.688,53.711,74.707
1532403078.495,52.734,29.785,50.293,57.129,20.996
1532403078.499,48.340,27.832,49.805,58.105,10.742
1532403078.503,42.969,16.602,60.547,62.500,37.109
1532403078.507,59.570,17.090,64.941,84.961,40.039
1532403078.511,60.059,36.621,50.293,66.406,14.648
1532403078.514,42.969,43.457,41.016,31.250,2.930
1532403078.518,43.457,46.875,33.203,33.203,33.203
1532403078.522,46.875,49.316,22.461,36.621,55.664
1532403078.526,45.898,52.246,19.531,31.250,40.039
1532403078.530,43.945,60.547,15.137,31.738,41.504
1532403078.534,49.805,62.012,10.254,22.949,46.875
1532403078.538,67.383,67.871,4.395,10.254,56.641
1532403078.542,73.730,73.242,-0.977,15.625,78.613
1532403078.546,83.008,75.195,-0.488,22.949,60.547
1532403078.550,83.984,81.055,-4.883,12.695,30.762
1532403078.553,87.891,83.984,-10.254,9.277,44.434
1532403078.557,97.656,84.961,-11.719,15.137,65.918
1532403078.561,96.191,85.449,-12.207,16.602,70.801
1532403078.565,97.656,86.426,-12.695,34.668,50.293
1532403078.569,96.191,85.449,-13.672,38.086,14.648
1532403078.573,89.844,85.938,-17.578,35.156,-16.602
1532403078.577,83.984,88.379,-19.043,54.199,0.977
1532403078.581,84.961,85.938,-16.113,70.801,35.156
1532403078.585,90.820,86.426,-17.090,76.660,36.133
1532403078.589,92.285,89.355,-21.484,61.035,42.480
1532403078.593,92.285,88.867,-24.414,48.340,48.340
1532403078.596,98.145,84.473,-19.531,74.707,38.574
1532403078.600,104.980,83.008,-12.207,91.797,35.156
1532403078.604,106.934,82.031,-9.766,74.707,43.457
1532403078.608,99.609,78.613,-4.883,86.914,46.875
1532403078.612,88.379,77.637,1.953,83.496,10.742
1532403078.616,90.332,78.613,1.953,56.152,-0.977
1532403078.620,86.426,78.125,-5.371,66.406,48.828
1532403078.624,82.520,72.754,-6.348,68.848,60.547
1532403078.628,82.520,68.848,-0.488,62.012,21.484
1532403078.632,81.055,68.359,6.348,64.453,4.883
1532403078.636,84.961,66.895,9.766,73.242,15.137
1532403078.639,78.125,62.500,13.672,76.660,11.230
1532403078.643,66.406,60.059,20.020,64.941,36.133
1532403078.647,59.570,59.570,18.555,63.965,35.156
1532403078.651,56.641,57.129,16.113,62.988,19.531
1532403078.655,65.430,58.594,20.020,66.406,37.109
1532403078.659,65.430,62.500,24.414,74.219,70.801
1532403078.663,66.406,61.035,27.832,62.500,51.758
1532403078.667,64.941,57.129,26.367,57.129,27.344
1532403078.671,54.199,53.711,23.438,61.523,22.461
1532403078.675,57.129,52.734,25.391,61.035,-1.953
1532403078.679,57.617,49.316,28.809,63.477,20.996
1532403078.682,59.570,47.363,30.762,70.312,21.484
1532403078.686,61.523,51.270,30.273,73.242,20.508
1532403078.690,59.570,53.711,32.715,67.383,16.602
1532403078.694,56.641,51.270,37.598,63.965,-2.441
1532403078.698,47.363,49.805,34.180,68.359,23.926
1532403078.702,47.852,47.852,27.832,62.500,26.855
1532403078.706,53.711,44.434,29.785,58.105,35.645
1532403078.710,48.340,44.434,35.156,59.082,24.902
1532403078.714,39.062,41.992,39.551,63.965,20.996
1532403078.718,42.480,41.016,41.504,64.941,43.945
1532403078.721,51.758,41.016,41.504,52.246,20.020
1532403078.725,52.246,38.086,43.457,57.617,56.152
1532403078.729,56.641,41.016,42.480,68.848,89.844
1532403078.733,60.547,41.504,40.039,71.289,47.852
1532403078.737,61.523,34.668,47.852,75.684,38.574
1532403078.741,66.406,36.133,50.293,71.777,29.297
1532403078.745,62.988,46.387,34.668,56.641,22.949
1532403078.749,58.105,49.805,26.367,41.992,20.996
1532403078.753,65.430,47.363,32.715,39.551,-4.395
1532403078.757,68.848,48.828,33.203,43.945,26.367
1532403078.761,65.918,51.758,24.414,52.246,65.918
1532403078.764,69.336,51.758,22.461,57.129,55.664
1532403078.768,69.336,45.410,23.926,49.316,38.086
1532403078.772,69.824,43.457,25.879,54.199,30.762
1532403078.776,61.523,46.875,29.297,61.523,14.648
1532403078.780,54.688,47.852,30.273,52.246,11.719
1532403078.784,61.035,46.387,33.203,58.594,34.668
1532403078.788,64.453,47.852,32.227,53.711,28.809
1532403078.792,60.059,47.363,28.320,44.434,20.996
1532403078.796,57.129,45.898,26.855,54.688,34.180
1532403078.800,62.988,47.363,30.762,48.340,20.508
1532403078.804,73.242,48.340,33.203,43.457,11.719
1532403078.807,66.895,46.875,33.203,56.641,35.156
1532403078.811,46.875,43.945,36.133,48.828,44.434
1532403078.815,41.992,39.551,37.109,46.387,48.828
1532403078.819,50.293,39.062,38.574,52.246,28.809
1532403078.823,45.410,45.410,39.062,44.434,19.043
1532403078.827,35.645,43.945,37.109,45.410,46.387
1532403078.831,40.039,42.480,38.086,48.340,56.641
1532403078.835,38.574,41.992,38.574,52.246,61.523
1532403078.839,34.668,40.527,40.039,46.875,33.203
1532403078.843,39.062,38.086,38.574,48.340,24.902
1532403078.846,40.039,36.133,30.762,44.434,38.086
1532403078.850,35.645,39.551,33.691,38.574,27.832
1532403078.854,39.551,37.598,38.574,37.598,34.668
1532403078.858,43.457,33.691,35.156,40.527,63.477
1532403078.862,32.227,32.715,35.645,40.039,44.922
1532403078.866,32.715,37.109,37.109,44.434,44.922
1532403078.870,36.621,37.109,37.109,43.457,34.668
1532403078.874,37.598,35.156,37.109,31.250,10.254
1532403078.878,36.133,39.062,35.156,41.504,37.598
1532403078.882,37.109,39.062,38.086,42.969,54.199
1532403078.886,40.527,38.574,38.574,51.758,28.809
1532403078.889,26.367,38.574,41.016,49.316,-6.348
1532403078.893,26.367,34.180,41.016,34.668,-10.742
1532403078.897,37.109,33.691,38.574,50.293,35.156
1532403078.901,37.109,35.156,38.574,55.176,38.086
1532403078.905,42.969,34.180,36.621,46.875,25.391
1532403078.909,45.410,31.250,37.109,55.176,26.367
1532403078.913,41.016,34.180,36.133,57.129,47.363
1532403078.917,47.852,37.109,36.133,52.246,71.777
1532403078.921,43.457,36.621,33.203,44.922,58.594
1532403078.925,41.504,36.621,29.297,38.574,60.059
1532403078.929,41.992,35.645,34.668,12.207,47.363
1532403078.932,43.945,37.598,38.086,-37.109,10.742
1532403078.936,49.316,35.156,35.156,-48.828,42.969
1532403078.940,41.992,32.227,33.691,-38.574,51.758
1532403078.944,34.180,30.273,37.109,-42.480,45.410
1532403078.948,25.391,30.762,35.645,-43.945,39.062
1532403078.952,33.203,34.180,35.645,-43.945,11.719
1532403078.956,39.062,36.621,38.086,-36.133,35.645
1532403078.960,34.180,37.598,37.109,-14.648,48.828
1532403078.964,31.250,33.203,38.574,-19.043,7.812
1532403078.968,31.738,31.250,36.621,-25.879,17.578
1532403078.971,42.480,35.156,31.250,-22.461,35.645
1532403078.975,42.969,34.668,25.391,-18.555,34.668
1532403078.979,45.410,34.668,24.414,-7.324,45.410
1532403078.983,45.898,30.762,30.273,-1.953,39.062
1532403078.987,41.016,25.879,38.574,9.277,-1.465
1532403078.991,40.039,31.250,41.992,5.859,-16.113
1532403078.995,37.598,33.691,37.598,-3.418,7.324
1532403078.999,30.273,34.668,39.062,-2.441,16.602
1532403079.003,23.926,33.203,40.527,1.465,21.973
1532403079.007,23.926,30.762,39.062,2.930,37.598
1532403079.011,32.227,32.715,38.574,5.371,50.781
1532403079.014,28.320,35.645,33.691,11.230,32.227
1532403079.018,27.832,37.598,34.180,10.742,35.156
1532403079.022,39.551,34.180,34.180,10.742,38.574
1532403079.026,35.156,34.668,31.738,13.184,-5.859
1532403079.030,40.039,38.086,36.133,2.441,-7.324
1532403079.034,42.969,37.598,38.086,-10.742,9.277
1532403079.038,39.062,39.551,35.645,6.836,-3.906
1532403079.042,40.039,38.086,36.133,9.277,1.953
1532403079.046,43.457,35.156,37.109,-0.488,21.484
1532403079.050,38.086,37.109,33.203,0.000,11.230
1532403079.054,30.273,34.180,30.762,6.348,26.367
1532403079.057,31.250,32.715,32.715,8.301,35.156
1532403079.061,28.809,34.668,31.738,0.488,27.344
1532403079.065,28.320,37.598,34.668,6.348,6.836
1532403079.069,35.156,36.133,34.180,13.184,-0.977
1532403079.073,34.180,33.691,33.203,10.742,18.066
1532403079.077,28.809,35.645,40.039,10.742,33.691
1532403079.081,28.809,38.574,43.945,17.578,43.457
1532403079.085,30.762,35.645,44.434,16.602,47.363
1532403079.089,33.203,35.156,38.574,18.066,45.898
1532403079.093,31.250,36.621,28.809,14.648,25.391
1532403079.096,32.227,34.180,28.320,17.090,-7.324
1532403079.100,30.273,32.227,44.434,16.602,13.672
1532403079.104,28.320,35.156,47.852,6.836,32.227
1532403079.108,31.250,39.062,42.969,12.207,7.812
1532403079.112,29.297,40.527,46.387,18.555,16.602
1532403079.116,28.809,41.504,42.480,24.414,19.043
1532403079.120,28.809,39.062,40.527,26.855,4.883
1532403079.124,27.344,35.645,43.945,27.832,-10.254
1532403079.128,26.855,40.039,37.598,30.762,7.324
1532403079.132,26.367,40.039,35.645,19.043,-17.090
1532403079.136,23.438,29.785,42.480,14.648,-16.602
1532403079.139,20.996,27.832,41.504,20.020,26.855
1532403079.143,22.949,34.668,39.551,8.789,22.949
1532403079.147,22.949,36.133,37.109,12.207,49.316
1532403079.151,23.438,34.180,37.109,25.879,43.945
1532403079.155,24.902,33.691,37.109,28.320,25.391
1532403079.159,23.438,35.156,32.227,21.973,31.250
1532403079.163,24.414,35.156,32.715,7.812,23.438
1532403079.167,25.391,31.738,39.551,5.371,20.020
1532403079.171,24.414,30.273,41.992,11.719,1.953
1532403079.175,24.414,30.762,40.527,9.766,-4.395
1532403079.179,14.648,31.250,41.504,3.418,23.926
1532403079.182,14.160,34.180,37.109,-3.418,9.766
1532403079.186,22.461,35.645,31.250,9.277,14.160
1532403079.190,22.949,34.180,43.457,15.137,42.969
1532403079.194,24.414,34.180,49.805,12.207,66.895
1532403079.198,24.414,36.133,46.387,13.184,47.363
1532403079.202,22.949,38.574,48.340,12.695,21.484
1532403079.206,22.461,41.016,48.340,15.625,37.598
1532403079.210,16.113,37.598,49.805,6.836,33.691
1532403079.214,10.742,34.180,51.758,0.000,0.000
1532403079.218,6.836,34.668,49.316,-12.207,-4.395
1532403079.222,10.254,33.691,47.852,-23.926,8.789
1532403079.225,15.137,38.574,47.852,-19.531,18.555
1532403079.229,16.602,40.527,48.340,-20.996,64.453
1532403079.233,30.273,41.992,50.293,-26.855,33.691
1532403079.237,40.039,52.246,41.016,-17.578,9.766
1532403079.241,30.762,58.105,44.922,-3.418,45.898
1532403079.245,0.977,53.711,65.918,-12.695,67.383
1532403079.249,-32.715,49.316,68.848,-27.344,52.734
1532403079.253,-44.434,43.945,64.453,-30.762,20.996
1532403079.257,-50.293,39.062,69.336,-33.691,48.340
1532403079.261,-52.734,45.898,78.125,-38.086,59.082
1532403079.264,-50.781,55.176,80.078,-35.645,53.223
1532403079.268,-62.012,53.223,78.125,-44.922,59.082
1532403079.272,-77.637,45.410,77.148,-71.289,27.344
1532403079.276,-83.984,43.457,76.172,-76.660,21.484
1532403079.280,-83.008,54.688,87.402,-76.172,44.434
1532403079.284,-89.844,58.105,102.051,-88.379,57.617
1532403079.288,-96.680,49.316,102.051,-95.215,60.059
1532403079.292,-91.797,47.852,97.168,-107.422,26.367
1532403079.296,-86.426,55.176,95.703,-118.652,38.086
1532403079.300,-84.961,60.059,92.773,-118.652,54.199
1532403079.304,-79.102,58.105,86.914,-105.469,40.527
1532403079.307,-72.266,56.152,86.426,-101.562,41.504
1532403079.311,-70.801,55.664,87.891,-106.445,11.719
1532403079.315,-60.059,47.852,85.449,-74.707,-2.441
1532403079.319,-54.199,40.527,72.754,-64.941,43.457
1532403079.323,-41.504,32.227,64.453,-78.125,45.410
1532403079.327,-20.508,28.320,65.918,-58.594,28.809
1532403079.331,-11.230,31.250,61.035,-44.434,47.852
1532403079.335,-4.395,25.879,53.223,-36.133,44.434
1532403079.339,7.324,22.461,48.340,-21.484,24.414
1532403079.343,25.879,21.973,42.480,-11.719,29.297
1532403079.347,38.086,15.625,30.273,5.859,45.410
1532403079.350,51.758,9.766,26.367,16.113,18.555
1532403079.354,61.523,8.789,28.809,20.508,-7.324
1532403079.358,64.941,11.230,27.344,29.785,13.672
1532403079.362,70.312,11.230,18.066,34.180,41.992
1532403079.366,71.777,4.395,14.160,34.668,56.641
1532403079.370,76.172,2.930,20.508,31.250,31.250
1532403079.374,79.590,1.465,21.973,36.133,-11.719
1532403079.378,74.219,-2.930,20.020,43.945,15.625
1532403079.382,75.195,-1.953,18.066,46.387,43.945
1532403079.386,79.102,1.465,18.066,44.434,53.223
1532403079.389,79.590,3.418,20.508,48.340,51.758
1532403079.393,79.102,0.977,20.020,55.176,27.832
1532403079.397,80.566,-0.977,18.066,50.293,40.039
1532403079.401,90.820,0.488,18.066,42.480,28.320
1532403079.405,89.844,-2.930,18.066,50.293,23.438
1532403079.409,82.520,-5.371,16.113,57.129,45.898
1532403079.413,82.520,-3.906,17.090,48.340,32.227
1532403079.417,81.543,-2.930,16.602,47.852,34.180
1532403079.421,85.449,0.488,20.996,58.594,33.691
1532403079.425,82.520,1.465,22.949,55.664,10.254
1532403079.429,79.102,4.395,16.113,49.805,19.043
1532403079.432,80.566,8.301,14.648,54.199,3.418
1532403079.436,81.055,7.324,16.113,57.617,23.438
1532403079.440,79.590,8.301,16.113,52.734,41.016
1532403079.444,75.684,11.230,20.020,46.875,24.414
1532403079.448,74.707,10.742,19.531,51.270,39.062
1532403079.452,72.754,9.766,15.625,46.875,15.137
1532403079.456,73.730,10.742,19.043,39.551,30.273
1532403079.460,75.684,13.672,20.996,47.852,43.457
1532403079.464,69.336,10.742,21.973,51.758,25.879
1532403079.468,65.430,9.766,21.484,57.129,26.855
1532403079.472,73.730,16.602,18.066,48.828,18.555
1532403079.475,75.684,20.996,16.113,37.598,23.438
1532403079.479,67.383,24.414,16.602,41.504,31.738
1532403079.483,69.824,24.902,19.531,41.016,55.176
1532403079.487,72.754,22.949,26.367,45.898,56.152
1532403079.491,70.801,23.926,28.809,46.875,34.668
1532403079.495,64.941,22.949,24.902,35.645,11.230
1532403079.499,63.965,21.484,22.461,39.062,-0.488
1532403079.503,64.453,18.066,20.020,44.922,13.672
1532403079.507,58.105,17.090,22.461,41.504,32.715
1532403079.511,59.082,22.949,26.367,37.598,28.809
1532403079.514,58.105,23.438,26.855,40.039,0.000
1532403079.518,57.129,24.902,24.902,43.945,8.301
1532403079.522,63.477,28.320,24.902,45.898,22.949
1532403079.526,65.430,29.785,28.320,46.875,69.824
1532403079.530,60.547,27.344,28.809,49.316,60.547
1532403079.534,52.246,25.391,25.879,50.293,41.016
1532403079.538,46.387,25.879,23.438,44.922,45.410
1532403079.542,47.363,26.855,26.367,44.434,21.973
1532403079.546,49.805,29.297,32.715,41.016,26.855
1532403079.550,54.688,30.762,37.109,36.133,10.254
1532403079.554,53.223,31.250,36.133,30.762,-1.465
1532403079.557,49.805,29.785,29.785,30.273,19.531
1532403079.561,51.758,29.785,27.344,31.738,28.809
1532403079.565,49.805,27.344,31.250,32.227,31.250
1532403079.569,52.734,23.926,32.227,39.062,28.320
1532403079.573,53.223,26.367,28.320,40.039,32.227
1532403079.577,43.945,25.879,26.855,30.273,25.391
1532403079.581,44.922,24.902,30.762,28.809,32.227
1532403079.585,45.898,33.203,33.691,33.691,35.645
1532403079.589,39.551,34.180,34.180,28.320,30.762
1532403079.593,38.086,30.762,35.645,20.020,-0.977
1532403079.597,40.527,31.738,32.227,26.367,16.602
1532403079.600,41.504,30.273,27.832,35.645,65.918
1532403079.604,41.992,24.902,28.809,29.297,47.363
1532403079.608,41.992,23.926,29.785,23.926,38.574
1532403079.612,40.527,28.809,29.297,24.414,32.715
1532403079.616,40.039,33.691,31.738,29.297,39.551
1532403079.620,42.480,33.691,33.691,36.133,25.879
1532403079.624,44.434,33.691,34.180,33.203,13.184
1532403079.628,41.016,30.273,34.180,33.691,35.156
1532403079.632,40.039,29.785,35.156,30.762,51.758
1532403079.636,38.574,30.762,31.250,26.855,45.410
1532403079.640,32.715,21.973,24.902,38.574,36.621
1532403079.643,30.273,22.949,30.762,37.109,57.129
1532403079.647,29.785,30.273,32.227,34.180,41.504
1532403079.651,35.645,33.691,30.273,33.691,6.836
1532403079.655,36.621,29.785,32.227,26.855,28.809
1532403079.659,28.809,22.949,33.203,37.109,43.945
1532403079.663,26.367,29.785,33.203,40.039,50.781
1532403079.667,23.926,32.227,37.109,34.180,57.617
1532403079.671,21.484,34.180,40.039,31.250,45.410
1532403079.675,25.391,34.668,38.574,36.621,41.504
1532403079.679,28.320,34.668,37.109,43.945,36.133
1532403079.682,23.926,35.156,35.645,34.668,39.551
1532403079.686,20.020,32.715,32.715,24.414,65.430
1532403079.690,22.949,28.809,33.691,26.855,20.508
1532403079.694,22.949,24.902,36.133,23.926,-16.602
1532403079.698,17.578,27.832,35.156,30.273,24.902
1532403079.702,20.508,29.297,36.133,33.691,54.199
1532403079.706,29.297,29.297,37.109,31.250,39.062
1532403079.710,33.691,31.738,36.133,35.645,32.715
1532403079.714,29.785,29.297,31.738,39.551,44.434
1532403079.718,32.227,23.438,30.762,44.922,47.363
1532403079.722,32.227,26.367,35.645,42.969,42.969
1532403079.725,27.832,32.715,32.715,39.551,50.293
1532403079.729,25.879,34.180,26.855,39.551,16.113
1532403079.733,23.926,26.855,33.691,35.645,4.883
1532403079.737,21.973,26.367,37.109,36.133,11.230
1532403079.741,28.809,35.645,34.668,42.480,8.301
1532403079.745,30.273,33.203,33.691,40.527,52.734
1532403079.749,22.949,28.809,27.832,37.109,47.363
1532403079.753,20.508,35.156,29.785,32.715,46.875
1532403079.757,19.043,36.621,38.086,33.203,55.176
1532403079.761,27.344,39.062,40.527,39.551,36.133
1532403079.765,25.391,35.645,35.645,36.133,40.039
1532403079.768,20.996,30.273,33.691,37.109,27.832
1532403079.772,28.809,37.598,36.621,36.621,13.672
1532403079.776,31.250,37.598,41.016,42.480,27.344
1532403079.780,28.809,37.598,39.062,49.316,41.504
1532403079.784,21.973,33.691,31.250,46.387,67.383
1532403079.788,24.414,27.344,32.227,50.293,58.105
1532403079.792,22.461,28.809,34.180,40.527,-6.836
1532403079.796,20.996,25.391,33.691,31.250,14.160
1532403079.800,25.879,34.668,34.180,41.992,28.320
1532403079.804,20.020,42.969,32.715,39.551,17.090
1532403079.807,20.020,30.273,35.645,37.109,31.250
1532403079.811,17.090,28.320,37.598,44.434,18.066
1532403079.815,14.648,33.203,33.203,44.922,38.086
1532403079.819,19.043,34.668,28.809,40.527,28.809
1532403079.823,15.625,35.156,38.086,45.898,28.809
1532403079.827,13.184,33.691,43.945,48.340,30.273
1532403079.831,20.020,33.203,37.109,37.109,-6.836
1532403079.835,20.020,30.273,38.574,32.715,0.488
1532403079.839,14.648,28.809,40.039,38.574,36.621
1532403079.843,19.043,26.367,37.109,42.480,40.527
1532403079.847,24.902,21.973,40.039,47.363,13.184
1532403079.850,25.879,26.367,41.016,48.828,37.109
1532403079.854,27.832,28.809,39.551,49.805,52.246
1532403079.858,24.414,30.273,36.133,50.293,29.297
1532403079.862,20.020,33.203,35.156,48.340,38.086
1532403079.866,23.438,40.527,35.156,48.340,24.902
1532403079.870,24.414,40.039,34.668,47.852,6.348
1532403079.874,29.297,23.438,41.016,54.688,16.602
1532403079.878,28.809,25.879,44.922,58.594,44.434
1532403079.882,16.602,38.574,40.039,43.945,48.340
1532403079.886,24.902,41.992,37.598,29.297,31.738
1532403079.890,40.039,46.875,36.133,38.086,22.461
1532403079.893,45.898,49.316,32.227,42.969,23.438
1532403079.897,50.781,38.086,31.738,39.062,50.293
1532403079.901,56.641,36.133,29.297,32.227,72.754
1532403079.905,62.012,47.363,25.391,35.156,26.855
1532403079.909,68.848,52.246,25.879,42.480,4.395
1532403079.913,63.477,47.852,22.949,43.945,43.457
1532403079.917,54.688,41.992,19.043,55.176,43.457
1532403079.921,44.434,41.016,26.367,59.082,16.602
1532403079.925,35.156,41.992,31.250,55.664,-2.441
1532403079.929,34.668,44.434,33.203,61.523,15.137
1532403079.932,31.738,42.480,31.250,54.688,1.465
1532403079.936,29.297,36.621,29.297,47.363,7.812
1532403079.940,33.691,37.109,30.762,54.688,31.738
1532403079.944,29.297,41.992,26.367,49.316,16.113
1532403079.948,21.484,45.410,26.855,46.387,38.574
1532403079.952,30.273,47.852,25.391,45.898,39.062
1532403079.956,35.156,48.828,26.367,35.645,24.902
1532403079.960,35.156,48.340,33.691,32.715,30.762
1532403079.964,37.598,46.387,35.645,35.156,47.852
1532403079.968,41.504,42.969,36.621,36.621,33.691
1532403079.972,41.016,41.992,32.227,36.133,11.230
1532403079.975,40.039,38.574,29.297,37.598,5.371
1532403079.979,43.457,30.762,32.715,46.387,8.789
1532403079.983,43.457,32.227,32.715,47.852,12.207
1532403079.987,43.945,37.109,33.203,46.387,33.691
1532403079.991,50.781,40.527,31.250,45.410,24.414
1532403079.995,52.246,40.527,24.902,46.387,4.395
1532403079.999,47.852,35.156,24.414,55.176,34.668
1532403080.003,44.922,34.668,35.156,54.688,34.668
1532403080.007,44.922,37.109,40.527,52.246,13.672
1532403080.011,43.945,39.551,40.039,50.781,-12.695
1532403080.015,34.668,38.086,37.598,44.434,-7.324
1532403080.018,24.902,28.809,32.715,36.133,12.695
1532403080.022,23.926,24.414,29.297,34.180,3.906
1532403080.026,29.785,27.832,33.203,38.574,19.531
1532403080.030,40.527,29.785,35.156,41.016,27.832
1532403080.034,44.922,29.785,30.273,39.062,18.066
1532403080.038,43.457,30.762,32.227,40.527,25.391
1532403080.042,48.828,40.527,34.668,48.828,34.668
1532403080.046,51.758,40.527,30.273,52.246,37.598
1532403080.050,50.781,29.297,32.227,51.270,19.531
1532403080.054,52.246,30.762,33.203,49.316,35.645
1532403080.057,53.711,31.738,31.250,45.898,45.898
1532403080.061,53.223,29.297,32.227,46.875,22.461
1532403080.065,51.758,35.156,34.180,51.270,26.367
1532403080.069,45.898,39.062,36.621,44.434,32.227
1532403080.073,41.992,38.574,33.691,32.715,-1.465
1532403080.077,41.016,35.156,29.297,33.691,-7.812
1532403080.081,34.180,27.344,30.273,37.109,33.691
1532403080.085,36.621,35.645,32.227,33.203,35.156
1532403080.089,47.852,46.387,22.461,41.992,37.598
1532403080.093,47.852,37.109,27.344,54.688,12.207
1532403080.097,24.414,25.391,50.293,45.410,6.836
1532403080.100,13.184,28.320,57.617,30.273,28.320
1532403080.104,19.043,32.715,53.711,35.645,23.438
1532403080.108,6.836,18.066,53.223,31.250,25.391
1532403080.112,11.230,10.742,52.734,23.438,0.000
1532403080.116,18.066,15.625,50.293,26.367,-1.953
1532403080.120,10.742,15.137,54.688,17.578,34.668
1532403080.124,15.137,14.648,55.176,21.973,40.527
1532403080.128,26.367,17.090,51.758,39.062,42.480
1532403080.132,28.320,15.137,47.852,34.180,39.551
1532403080.136,32.227,15.137,44.922,36.133,32.715
1532403080.140,28.809,17.578,43.457,41.016,32.227
1532403080.143,24.902,19.531,45.410,39.551,37.109
1532403080.147,30.273,30.762,47.363,42.969,55.176
1532403080.151,25.879,23.438,45.410,37.598,58.594
1532403080.155,22.461,13.672,44.434,29.297,40.527
1532403080.159,23.438,18.555,44.922,29.297,29.297
1532403080.163,20.508,25.391,41.016,31.250,25.391
1532403080.167,19.043,23.926,33.691,35.156,30.273
1532403080.171,20.996,15.137,37.598,30.762,4.883
1532403080.175,25.391,16.602,43.457,28.320,-4.395
1532403080.179,27.832,20.996,42.480,29.297,30.273
1532403080.183,27.344,20.996,40.527,29.785,20.020
1532403080.186,30.762,16.602,41.504,37.109,30.273
1532403080.190,33.691,14.160,41.504,36.133,30.762
1532403080.194,28.809,18.555,41.016,33.203,29.297
1532403080.198,27.832,28.320,36.133,37.109,49.805
1532403080.202,36.133,35.645,31.738,39.551,27.344
1532403080.206,32.227,26.855,33.691,30.273,11.230
1532403080.210,26.855,22.461,37.598,24.902,15.137
1532403080.214,29.785,26.855,38.086,25.879,2.930
1532403080.218,36.621,25.879,37.598,33.203,23.926
1532403080.222,43.457,25.391,37.598,44.922,31.250
1532403080.225,33.691,26.855,36.133,46.387,39.062
1532403080.229,28.809,28.809,33.691,33.203,29.297
1532403080.233,41.504,39.062,37.109,35.156,-0.488
1532403080.237,37.109,35.156,35.156,34.180,9.277
1532403080.241,28.320,24.902,27.344,24.414,13.184
1532403080.245,29.297,28.809,20.996,32.715,37.598
1532403080.249,24.414,18.555,29.297,35.645,36.133
1532403080.253,17.578,15.625,40.527,23.438,5.371
1532403080.257,18.066,27.832,38.086,17.090,8.789
1532403080.261,22.461,32.715,36.133,27.832,36.621
1532403080.265,29.297,34.668,39.551,36.133,46.875
1532403080.268,34.180,33.691,37.598,36.621,40.039
1532403080.272,29.785,34.180,29.785,31.738,24.414
1532403080.276,28.320,37.109,26.855,31.250,31.738
1532403080.280,31.250,32.227,30.273,36.621,47.363
1532403080.284,32.227,28.320,30.273,36.621,30.273
1532403080.288,36.133,28.809,31.738,37.598,59.082
1532403080.292,41.992,28.809,37.109,44.434,43.945
1532403080.296,38.086,27.344,32.227,39.551,26.855
1532403080.300,39.062,32.715,33.691,41.504,46.875
1532403080.304,45.898,35.645,41.016,47.363,21.484
1532403080.308,37.109,33.691,42.480,42.480,33.203
1532403080.311,27.832,35.645,40.527,35.645,22.461
1532403080.315,22.461,35.645,34.180,37.109,17.578
1532403080.319,19.043,33.691,30.762,36.621,59.082
1532403080.323,19.043,31.250,32.715,27.344,36.621
1532403080.327,26.855,36.133,27.344,29.297,3.906
1532403080.331,25.879,37.598,27.832,36.621,16.113
1532403080.335,21.973,32.715,36.133,38.086,8.301
1532403080.339,26.855,31.250,35.645,31.738,11.230
1532403080.343,33.203,36.621,36.133,31.738,-0.488
1532403080.347,36.133,37.598,39.062,36.133,20.508
1532403080.350,40.039,30.762,36.621,27.832,15.137
1532403080.354,40.039,35.645,33.691,18.066,-43.457
1532403080.358,32.715,40.039,35.645,26.367,-20.508
1532403080.362,35.645,37.109,41.016,38.574,29.785
1532403080.366,37.598,32.227,40.039,43.457,39.551
1532403080.370,31.738,28.809,33.203,35.645,21.484
1532403080.374,31.738,27.344,30.762,32.227,22.949
1532403080.378,34.180,31.250,34.180,33.691,44.434
1532403080.382,33.203,41.992,31.250,32.715,37.109
1532403080.386,31.738,45.898,28.809,31.250,23.926
1532403080.390,28.320,44.434,35.156,26.855,23.438
1532403080.393,25.391,35.645,32.715,24.902,31.738
1532403080.397,20.996,34.180,31.738,28.320,27.344
1532403080.401,25.879,45.898,36.133,32.227,32.227
1532403080.405,33.203,42.480,35.645,33.203,47.852
1532403080.409,31.738,29.785,33.691,37.598,27.832
1532403080.413,28.809,30.273,25.879,37.109,33.691
1532403080.417,29.785,29.785,26.855,42.969,45.410
1532403080.421,29.297,25.391,38.086,40.527,31.250
1532403080.425,27.832,32.715,41.016,32.227,38.574
1532403080.429,24.902,38.086,39.062,32.227,25.391
1532403080.433,25.879,35.156,30.273,34.180,38.086
1532403080.436,26.367,35.156,27.344,36.133,20.996
1532403080.440,23.438,32.227,36.133,31.738,-0.488
1532403080.444,23.438,32.227,36.621,32.227,13.184
1532403080.448,18.066,31.250,32.715,30.273,17.578
1532403080.452,12.695,30.762,31.738,25.879,-8.301
1532403080.456,14.160,30.762,29.785,22.461,3.906
1532403080.460,17.578,30.762,31.250,26.367,49.805
1532403080.464,16.602,28.320,32.227,39.062,68.359
1532403080.468,20.996,27.344,28.320,46.387,43.457
1532403080.472,20.996,35.156,34.180,37.598,13.672
1532403080.475,13.672,41.504,41.016,28.809,11.719
1532403080.479,14.648,39.551,35.156,35.645,20.020
1532403080.483,19.043,34.180,28.809,39.551,17.090
1532403080.487,21.484,37.598,31.738,45.410,18.555
1532403080.491,21.973,46.387,35.156,50.293,21.484
1532403080.495,17.578,38.574,35.645,41.016,8.789
1532403080.499,17.090,29.297,33.691,38.574,16.113
1532403080.503,26.367,41.016,32.715,41.016,36.621
1532403080.507,25.391,44.434,31.738,37.109,30.762
1532403080.511,15.137,38.086,30.762,20.996,10.742
1532403080.515,18.555,39.551,33.691,15.137,0.488
1532403080.518,21.973,42.480,35.645,27.344,18.066
1532403080.522,20.020,37.109,32.715,26.367,21.484
1532403080.526,22.461,34.180,33.203,22.949,8.789
1532403080.530,24.902,33.203,37.109,22.949,18.555
1532403080.534,25.879,34.180,35.645,20.996,15.625
1532403080.538,27.832,41.016,31.738,35.156,10.742
1532403080.542,27.344,40.039,37.109,41.016,18.555
1532403080.546,29.785,35.156,40.527,32.715,53.223
1532403080.550,27.832,33.203,36.133,38.574,46.387
1532403080.554,22.949,34.180,34.668,34.180,51.758
1532403080.558,25.391,36.621,32.715,21.484,52.734
1532403080.561,29.785,37.109,32.715,22.949,13.672
1532403080.565,33.203,37.109,32.227,23.926,29.785
1532403080.569,37.109,40.039,29.785,22.461,17.090
1532403080.573,41.504,43.457,33.203,21.484,-2.441
1532403080.577,43.457,36.133,32.715,20.020,14.160
1532403080.581,49.805,27.344,34.668,22.949,20.996
1532403080.585,46.387,39.062,41.504,30.762,26.367
1532403080.589,35.156,41.992,44.434,30.273,28.809
1532403080.593,34.668,38.574,45.410,27.344,-3.906
1532403080.597,33.691,41.992,45.898,37.109,20.020
1532403080.600,31.250,40.039,47.852,42.480,50.293
1532403080.604,32.227,38.086,45.410,40.527,43.457
1532403080.608,37.598,40.527,46.387,44.922,48.340
1532403080.612,42.480,44.922,50.293,51.758,53.223
1532403080.616,43.457,48.828,50.293,54.199,58.105
1532403080.620,37.109,46.875,46.387,43.945,42.480
1532403080.624,28.320,43.945,46.875,33.691,24.902
1532403080.628,26.855,43.945,50.781,31.738,27.344
1532403080.632,18.066,47.852,47.852,13.184,22.949
1532403080.636,9.277,53.223,52.734,3.418,2.441
1532403080.640,-1.953,41.504,56.641,-6.836,7.812
1532403080.643,-16.113,37.109,51.758,-28.809,23.438
1532403080.647,-14.160,48.340,51.270,-31.738,29.785
1532403080.651,-15.137,60.547,54.688,-40.039,37.598
1532403080.655,-29.785,62.500,63.965,-49.805,30.273
1532403080.659,-41.016,58.594,66.406,-49.805,21.973
1532403080.663,-45.410,60.059,70.312,-55.176,23.926
1532403080.667,-54.688,64.453,79.102,-63.965,23.926
1532403080.671,-67.383,67.871,80.078,-74.707,9.766
1532403080.675,-69.336,66.895,82.031,-74.219,-1.953
1532403080.679,-64.941,62.500,84.473,-69.824,29.785
1532403080.683,-59.570,62.500,80.078,-69.336,25.391
1532403080.686,-55.664,62.012,69.824,-66.406,17.578
1532403080.690,-53.711,58.594,58.105,-62.500,38.086
1532403080.694,-38.574,47.852,59.082,-44.434,43.945
1532403080.698,-25.391,46.387,61.035,-38.574,42.969
1532403080.702,-21.484,55.664,51.758,-42.480,28.809
1532403080.706,-14.160,54.199,48.340,-28.320,18.066
1532403080.710,-9.277,54.688,47.363,-24.414,21.484
1532403080.714,1.953,49.805,38.574,-16.113,18.066
1532403080.718,10.254,35.645,39.551,0.977,10.254
1532403080.722,11.230,27.832,40.527,10.742,23.438
1532403080.726,33.203,26.367,32.227,25.391,19.043
1532403080.729,36.133,26.367,26.855,30.762,9.766
1532403080.733,35.645,26.367,24.414,33.691,-6.836
1532403080.737,49.805,23.438,21.484,40.527,0.488
1532403080.741,56.641,20.020,23.438,48.828,16.602
1532403080.745,58.105,18.555,25.391,57.129,14.648
1532403080.749,63.477,20.996,20.508,51.270,31.738
1532403080.753,69.336,21.484,21.484,53.711,30.762
1532403080.757,71.289,17.578,30.762,63.965,15.625
1532403080.761,67.871,16.113,29.297,63.477,-2.441
1532403080.765,62.988,15.625,20.996,54.688,16.602
1532403080.768,62.988,17.578,19.043,45.410,58.105
1532403080.772,59.570,15.137,17.578,33.203,6.348
1532403080.776,58.594,10.254,15.625,37.598,-35.156
1532403080.780,56.641,11.719,20.508,48.340,1.953
1532403080.784,58.594,17.578,20.996,49.805,37.598
1532403080.788,62.988,14.160,16.113,56.641,41.016
1532403080.792,57.617,11.719,20.020,60.547,29.297
1532403080.796,66.406,12.695,24.414,63.965,41.504
1532403080.800,75.195,2.930,26.367,64.453,63.477
1532403080.804,65.430,12.207,24.902,62.500,39.551
1532403080.808,67.871,28.809,13.672,64.941,33.203
1532403080.811,70.801,30.273,9.766,58.105,57.129
1532403080.815,67.383,29.785,15.137,51.758,39.551
1532403080.819,84.961,28.320,8.789,69.336,29.785
1532403080.823,87.891,33.203,21.973,75.684,22.461
1532403080.827,35.156,24.414,42.969,39.551,14.648
1532403080.831,9.277,17.090,37.598,20.020,-3.418
1532403080.835,6.348,24.902,31.738,17.578,4.883
1532403080.839,-7.812,17.578,28.320,13.672,27.344
1532403080.843,-11.230,8.789,28.320,12.695,34.668
1532403080.847,-12.207,14.648,44.922,7.812,45.898
1532403080.851,-22.461,21.484,52.734,-5.859,22.949
1532403080.854,-29.297,18.555,43.945,-11.230,9.766
1532403080.858,-22.461,20.508,33.203,-3.418,25.391
1532403080.862,-17.090,26.855,26.855,-4.395,35.156
1532403080.866,-11.719,29.297,40.039,4.883,36.621
1532403080.870,-6.836,24.902,47.363,11.719,32.715
1532403080.874,0.000,16.602,43.457,15.137,13.672
1532403080.878,3.906,10.254,42.969,22.461,35.645
1532403080.882,10.742,12.207,47.852,27.832,50.781
1532403080.886,12.695,23.926,40.039,34.180,20.508
1532403080.890,18.066,26.367,23.438,39.062,19.531
1532403080.893,25.879,19.531,20.508,44.434,41.992
1532403080.897,29.297,10.742,27.832,45.898,39.062
1532403080.901,36.621,7.812,37.109,41.504,0.488
1532403080.905,45.898,21.484,37.109,47.363,12.695
1532403080.909,51.758,26.367,17.090,62.500,38.086
1532403080.913,51.270,31.250,5.371,56.152,1.465
1532403080.917,49.316,32.715,24.414,45.410,21.484
1532403080.921,45.410,22.949,53.223,36.133,42.969
1532403080.925,47.363,23.438,57.617,40.039,65.918
1532403080.929,47.852,33.203,44.434,56.152,74.707
1532403080.933,44.434,36.133,38.574,58.594,37.598
1532403080.936,42.480,28.809,47.852,50.781,29.785
1532403080.940,41.016,25.879,53.711,48.828,55.176
1532403080.944,41.016,26.855,48.828,49.805,40.527
1532403080.948,40.527,26.367,45.898,55.664,18.066
1532403080.952,40.039,30.273,44.922,44.434,22.461
1532403080.956,43.457,30.273,40.527,37.598,17.578
1532403080.960,41.992,25.879,35.645,43.945,34.180
1532403080.964,50.293,33.203,38.086,44.922,30.273
1532403080.968,51.758,38.574,40.039,49.805,19.043
1532403080.972,46.875,35.645,44.922,53.223,54.688
1532403080.976,52.734,36.133,50.293,51.758,55.664
1532403080.979,50.781,35.156,51.270,51.758,28.809
1532403080.983,48.340,31.738,54.199,52.734,13.672
1532403080.987,45.410,34.180,54.199,57.617,18.555
1532403080.991,41.504,35.645,48.340,60.059,34.180
1532403080.995,43.457,35.156,47.363,59.082,1.953
1532403080.999,48.340,31.738,55.664,64.453,5.859
1532403081.003,46.387,29.785,61.523,58.105,34.668
1532403081.007,43.457,35.156,62.500,57.617,46.875
1532403081.011,41.016,36.133,61.035,52.734,13.672
1532403081.015,41.504,36.133,56.641,45.410,-12.695
1532403081.018,42.969,40.039,50.293,54.688,37.598
1532403081.022,41.504,35.156,51.270,53.711,50.781
1532403081.026,40.527,32.715,53.223,57.129,25.391
1532403081.030,38.574,29.297,46.387,58.105,27.832
1532403081.034,39.551,27.344,58.594,51.270,33.691
1532403081.038,36.621,37.109,68.848,54.688,25.391
1532403081.042,33.203,37.109,58.594,50.293,20.020
1532403081.046,30.762,31.250,58.594,49.805,58.594
1532403081.050,29.785,33.203,60.059,52.734,46.387
1532403081.054,29.297,34.180,57.129,44.922,-8.789
1532403081.058,31.250,35.156,58.105,46.387,-6.836
1532403081.061,31.250,39.551,60.059,49.805,31.250
1532403081.065,28.320,27.832,52.734,46.875,58.594
1532403081.069,24.414,20.996,46.875,43.457,62.012
1532403081.073,24.414,37.109,46.875,41.992,57.129
1532403081.077,28.320,43.945,46.875,42.969,32.227
1532403081.081,24.902,42.480,51.758,41.992,17.578
1532403081.085,23.438,34.668,52.734,43.457,23.926
1532403081.089,31.738,29.785,49.805,53.711,22.461
1532403081.093,31.738,38.086,46.387,51.270,21.973
1532403081.097,19.043,37.109,49.316,45.898,20.020
1532403081.101,12.695,39.551,58.105,49.805,-3.418
1532403081.104,11.230,41.504,50.293,44.922,14.648
1532403081.108,7.324,34.180,45.898,50.293,28.320
1532403081.112,20.996,28.320,54.199,60.547,29.297
1532403081.116,41.016,30.273,60.059,63.477,48.828
1532403081.120,27.344,42.969,54.688,43.457,45.410
1532403081.124,19.531,46.875,44.434,31.738,51.270
1532403081.128,31.250,42.480,43.945,37.598,59.082
1532403081.132,29.297,41.016,36.621,33.691,14.160
1532403081.136,24.414,36.133,32.715,35.645,17.578
1532403081.140,16.113,24.902,48.828,35.645,54.199
1532403081.144,12.695,28.320,56.152,33.691,48.340
1532403081.147,12.207,45.898,56.641,38.574,37.598
1532403081.151,7.812,48.828,57.617,31.738,-1.465
1532403081.155,11.230,38.574,58.105,36.133,24.902
1532403081.159,19.043,43.945,47.363,47.852,42.480
1532403081.163,14.160,51.758,42.969,37.598,32.227
1532403081.167,12.695,46.387,50.293,39.062,43.457
1532403081.171,24.414,43.945,43.945,44.922,19.043
1532403081.175,30.762,45.410,44.922,48.828,14.648
1532403081.179,30.762,42.969,53.223,54.688,12.207
1532403081.183,30.273,44.434,52.734,46.387,34.668
1532403081.186,38.086,46.387,54.199,48.340,48.340
1532403081.190,39.551,40.039,49.805,51.758,-7.812
1532403081.194,33.691,38.086,46.387,53.223,-23.926
1532403081.198,33.691,38.086,43.945,53.223,31.738
1532403081.202,30.762,36.133,41.992,55.664,42.480
1532403081.206,32.715,36.133,42.969,59.082,15.137
1532403081.210,43.457,35.156,47.852,62.012,29.785
1532403081.214,39.062,43.457,54.199,60.059,59.082
1532403081.218,29.785,50.293,54.688,59.570,46.875
1532403081.222,34.180,41.504,52.246,60.059,29.785
1532403081.226,36.133,37.109,48.828,59.570,56.641
1532403081.229,42.480,43.457,46.875,67.871,41.016
1532403081.233,47.852,47.852,40.039,58.105,3.418
1532403081.237,49.316,48.340,42.480,49.805,17.578
1532403081.241,46.875,48.340,48.340,56.152,39.062
1532403081.245,44.922,47.852,43.457,56.641,35.156
1532403081.249,49.316,42.969,44.922,50.293,24.414
1532403081.253,46.875,36.133,51.270,46.875,34.668
1532403081.257,49.316,44.922,48.340,41.504,58.105
1532403081.261,55.176,48.828,48.828,37.598,77.148
1532403081.265,52.734,35.156,54.199,44.434,63.965
1532403081.269,54.688,36.621,59.570,58.105,20.508
1532403081.272,60.059,46.387,61.035,72.754,0.000
1532403081.276,51.270,47.363,54.199,62.988,16.113
1532403081.280,36.133,48.340,44.922,53.223,32.715
1532403081.284,39.062,51.758,42.480,58.594,34.668
1532403081.288,41.992,52.734,40.527,59.082,48.340
1532403081.292,34.180,49.316,39.062,58.594,31.250
1532403081.296,33.691,51.270,38.574,53.223,6.348
1532403081.300,33.203,41.992,37.109,44.922,27.344
1532403081.304,29.297,33.691,45.898,47.363,53.711
1532403081.308,32.715,50.293,48.340,52.734,48.828
1532403081.311,34.180,58.105,47.363,45.410,55.176
1532403081.315,30.762,52.734,50.781,43.457,70.312
1532403081.319,37.109,45.898,43.945,49.805,43.457
1532403081.323,39.551,43.457,37.598,52.734,26.855
1532403081.327,42.969,48.340,45.898,53.223,26.367
1532403081.331,51.270,46.387,46.875,46.387,-14.160
1532403081.335,47.852,42.969,40.039,47.363,-19.043
1532403081.339,45.898,51.270,43.457,53.711,18.066
1532403081.343,45.898,49.805,45.898,45.898,35.156
1532403081.347,41.016,47.852,37.598,45.898,43.945
1532403081.351,39.551,54.688,36.621,53.711,15.625
1532403081.354,47.363,52.734,46.875,49.316,9.766
1532403081.358,49.805,47.852,45.410,48.340,25.391
1532403081.362,45.410,50.293,42.480,50.293,30.273
1532403081.366,41.504,36.133,39.062,48.340,39.062
1532403081.370,32.715,29.297,36.621,43.457,21.484
1532403081.374,28.809,41.016,45.898,39.062,-2.930
1532403081.378,29.297,41.016,51.270,42.969,24.902
1532403081.382,25.391,45.410,45.898,39.062,60.059
1532403081.386,24.414,48.340,44.922,37.598,66.406
1532403081.390,28.320,48.340,46.875,46.875,41.016
1532403081.394,30.762,41.016,42.969,51.270,39.062
1532403081.397,29.785,36.133,38.086,47.852,45.410
1532403081.401,35.156,41.504,41.992,54.199,25.391
1532403081.405,40.039,42.480,47.852,58.594,29.785
1532403081.409,40.039,38.086,47.363,49.316,19.531
1532403081.413,43.457,39.551,46.387,49.805,36.621
1532403081.417,49.316,41.992,42.969,53.711,47.852
1532403081.421,45.410,33.203,42.969,50.781,41.016
1532403081.425,40.527,31.250,43.457,48.828,42.969
1532403081.429,37.598,37.109,39.551,51.758,34.180
1532403081.433,30.273,41.992,43.457,43.457,17.090
1532403081.436,28.809,42.480,42.969,40.039,-0.488
1532403081.440,24.414,39.062,39.062,45.410,39.551
1532403081.444,24.902,39.551,40.039,41.016,55.664
1532403081.448,31.250,42.969,41.016,39.551,42.480
1532403081.452,36.621,41.016,42.969,41.504,32.715
1532403081.456,38.574,36.621,35.645,45.410,16.602
1532403081.460,36.621,40.039,27.832,52.734,51.758
1532403081.464,34.180,38.574,30.762,48.828,44.922
1532403081.468,36.621,41.992,40.039,46.875,16.602
1532403081.472,38.086,45.410,41.504,42.969,4.883
1532403081.476,37.598,43.945,35.645,37.598,5.371
1532403081.479,40.527,40.039,39.062,46.387,50.781
1532403081.483,52.246,30.762,37.109,49.805,62.012
1532403081.487,44.434,29.297,38.086,52.246,54.688
1532403081.491,30.762,39.551,44.434,49.805,39.062
1532403081.495,36.133,45.410,48.340,43.945,14.648
1532403081.499,41.992,44.434,46.387,46.875,28.320
1532403081.503,43.945,41.992,39.062,52.246,48.828
1532403081.507,43.945,44.922,46.387,50.293,12.207
1532403081.511,40.527,41.016,52.734,46.387,1.953
1532403081.515,38.574,38.086,48.340,44.434,30.762
1532403081.519,35.156,41.016,39.062,41.016,47.852
1532403081.522,28.320,39.551,33.203,43.457,54.199
1532403081.526,28.320,36.621,38.086,43.457,50.293
1532403081.530,27.344,34.668,41.016,40.527,48.828
1532403081.534,28.809,33.203,45.410,44.434,41.016
1532403081.538,29.785,26.367,45.410,40.527,53.223
1532403081.542,24.902,36.133,36.133,32.715,71.289
1532403081.546,26.855,43.945,37.109,36.621,68.848
1532403081.550,32.715,42.480,41.992,41.504,27.344
1532403081.554,27.344,44.922,45.898,43.457,22.949
1532403081.558,29.297,38.574,46.387,39.062,43.457
1532403081.561,25.879,35.156,46.875,37.109,41.504
1532403081.565,18.555,39.551,42.480,36.133,75.195
1532403081.569,19.043,30.762,40.527,37.109,73.242
1532403081.573,15.625,30.273,39.551,27.832,-1.465
1532403081.577,22.949,40.527,41.992,30.273,3.906
1532403081.581,26.855,38.086,51.270,46.387,39.062
1532403081.585,30.273,22.949,42.969,50.781,33.203
1532403081.589,30.273,23.926,36.133,47.363,25.879
1532403081.593,31.738,40.527,43.945,43.457,15.137
1532403081.597,31.738,43.457,51.758,45.898,31.250
1532403081.601,31.250,38.086,51.270,47.852,24.414
1532403081.604,40.039,39.551,48.340,52.246,-7.812
1532403081.608,38.574,32.715,47.363,51.758,8.789
1532403081.612,34.668,26.367,41.016,32.227,21.973
1532403081.616,33.691,33.691,36.621,24.414,31.250
1532403081.620,32.227,31.738,41.992,33.691,44.922
1532403081.624,45.410,34.668,38.086,42.969,41.016
1532403081.628,51.758,41.504,37.109,54.199,37.598
1532403081.632,33.691,30.273,41.504,50.781,27.344
1532403081.636,28.320,27.344,40.527,51.758,34.180
1532403081.640,34.180,31.738,48.340,58.105,32.227
1532403081.644,33.691,30.762,55.664,54.688,50.293
1532403081.647,36.133,30.273,55.176,48.340,61.035
1532403081.651,34.180,29.297,48.340,44.922,40.039
1532403081.655,33.691,30.762,40.527,46.875,24.902
1532403081.659,36.621,33.691,37.109,47.363,52.734
1532403081.663,35.156,36.621,41.992,52.734,66.895
1532403081.667,41.992,30.273,45.410,59.082,59.082
1532403081.671,50.293,28.809,42.480,58.105,37.109
1532403081.675,44.434,34.180,48.340,56.152,18.066
1532403081.679,41.504,30.273,50.781,56.641,50.293
1532403081.683,42.969,28.809,43.457,51.758,72.266
1532403081.687,44.434,26.367,41.016,45.898,40.039
1532403081.690,45.410,28.809,39.551,39.551,13.184
1532403081.694,39.551,35.156,41.504,35.156,53.711
1532403081.698,33.691,30.762,48.828,34.180,56.641
1532403081.702,28.809,27.832,46.387,24.902,42.480
1532403081.706,24.902,27.832,42.480,26.855,63.477
1532403081.710,30.762,27.344,43.945,36.621,32.227
1532403081.714,29.297,29.297,41.016,20.996,-9.766
1532403081.718,25.391,28.320,27.832,18.066,12.207
1532403081.722,32.715,31.738,31.738,30.762,54.199
1532403081.726,29.297,33.691,49.805,30.273,57.129
1532403081.729,30.273,32.227,43.457,26.367,45.898
1532403081.733,36.621,32.227,33.203,24.414,47.852
1532403081.737,36.133,35.645,40.527,29.297,44.922
1532403081.741,39.551,35.156,45.410,34.180,50.781
1532403081.745,40.039,29.785,47.852,34.180,40.527
1532403081.749,34.180,27.344,42.480,29.785,32.227
1532403081.753,33.691,27.832,42.969,19.531,-1.953
1532403081.757,38.574,30.273,41.504,22.949,0.000
1532403081.761,45.410,11.230,35.645,32.715,36.621
1532403081.765,57.617,4.395,40.527,30.273,52.246
1532403081.769,54.199,41.992,39.551,26.367,38.574
1532403081.772,38.574,52.734,34.180,23.438,8.301
1532403081.776,37.109,41.992,36.621,23.926,13.672
1532403081.780,41.992,41.992,41.992,32.227,49.316
1532403081.784,42.969,41.504,43.945,33.691,72.754
1532403081.788,45.410,35.156,42.480,29.297,63.477
1532403081.792,46.875,30.273,38.574,28.320,50.781
1532403081.796,44.434,34.180,33.203,25.391,44.434
1532403081.800,38.574,31.250,34.180,23.926,51.758
1532403081.804,41.016,29.297,35.645,26.367,54.688
1532403081.808,49.316,29.297,36.621,29.297,59.082
1532403081.812,43.457,22.949,38.086,30.273,42.969
1532403081.815,34.668,29.785,34.180,34.180,21.973
1532403081.819,33.691,40.527,31.738,33.691,22.949
1532403081.823,35.645,39.551,35.645,38.574,40.527
1532403081.827,42.480,42.480,32.715,46.387,72.754
1532403081.831,45.410,39.062,33.691,45.898,57.129
1532403081.835,40.527,19.531,41.504,47.363,23.926
1532403081.839,23.926,24.902,41.504,44.434,12.695
1532403081.843,13.672,39.062,37.109,43.457,43.945
1532403081.847,16.113,37.598,36.621,47.852,58.594
1532403081.851,22.949,29.785,51.758,56.152,40.039
1532403081.854,30.273,30.273,50.781,59.570,50.293
1532403081.858,26.367,40.039,34.180,38.574,56.152
1532403081.862,20.020,40.039,34.180,30.762,36.621
1532403081.866,15.625,41.016,36.621,32.715,45.898
1532403081.870,20.996,41.992,34.180,24.414,44.434
1532403081.874,20.508,40.527,35.645,26.367,-2.441
1532403081.878,17.578,36.133,39.062,40.039,0.488
1532403081.882,20.020,34.180,30.762,43.457,29.297
1532403081.886,25.879,34.668,21.973,46.387,29.297
1532403081.890,37.598,31.738,33.203,57.617,40.039
1532403081.894,31.250,30.273,40.527,46.875,13.672
1532403081.897,29.785,36.133,49.316,33.203,-4.395
1532403081.901,27.832,41.504,54.199,42.480,18.555
1532403081.905,20.996,40.039,47.852,43.945,-2.930
1532403081.909,26.855,38.574,43.457,43.457,-11.230
1532403081.913,28.809,35.156,42.480,46.875,27.832
1532403081.917,29.785,21.484,31.250,46.387,38.086
1532403081.921,30.273,22.461,29.297,42.969,29.785
1532403081.925,26.855,40.039,48.340,39.551,35.156
1532403081.929,28.809,42.969,54.199,34.180,30.762
1532403081.933,37.598,33.203,49.805,28.809,25.391
1532403081.937,54.688,33.691,54.199,44.922,19.531
1532403081.940,60.059,27.832,50.781,52.246,2.441
1532403081.944,46.387,28.809,41.992,35.645,17.578
1532403081.948,39.062,42.969,33.691,37.598,9.277
1532403081.952,33.691,44.434,31.738,38.086,-24.414
1532403081.956,23.926,41.992,43.457,34.180,-29.785
1532403081.960,19.531,39.551,42.480,44.434,-0.977
1532403081.964,20.020,33.203,43.457,47.852,37.598
1532403081.968,15.625,31.738,49.805,47.852,41.992
1532403081.972,10.254,30.762,52.734,51.270,16.602
1532403081.976,7.324,31.250,51.758,47.852,11.719
1532403081.979,9.277,33.691,46.387,49.805,33.203
1532403081.983,18.066,31.738,44.922,46.875,38.574
1532403081.987,20.508,29.785,42.969,36.621,30.273
1532403081.991,19.043,28.809,40.039,32.227,35.645
1532403081.995,28.320,33.691,37.598,33.691,28.320
1532403081.999,30.762,36.621,41.992,37.109,40.039
1532403082.003,25.391,30.273,51.758,32.227,18.555
1532403082.007,28.809,29.785,50.781,30.762,5.371
1532403082.011,34.180,39.551,40.527,29.785,6.348
1532403082.015,34.180,41.992,42.480,23.926,-5.371
1532403082.019,36.133,37.598,52.246,32.227,22.949
1532403082.022,37.109,36.621,50.781,32.227,1.465
1532403082.026,33.203,38.086,40.527,29.297,12.207
1532403082.030,28.809,34.180,41.992,32.227,27.832
1532403082.034,25.879,32.715,46.387,29.785,11.719
1532403082.038,28.320,39.062,46.387,23.438,15.137
1532403082.042,24.414,36.621,41.992,26.855,1.465
1532403082.046,29.785,31.250,36.133,35.156,0.977
1532403082.050,35.645,35.645,36.133,31.738,12.695
1532403082.054,39.551,38.086,43.945,35.156,2.441
1532403082.058,39.062,34.180,41.504,36.621,12.695
1532403082.062,35.156,32.227,38.574,32.715,43.945
1532403082.065,33.691,25.391,43.457,30.273,44.922
1532403082.069,26.367,19.043,39.062,28.320,41.992
1532403082.073,27.344,25.391,38.574,27.832,6.348
1532403082.077,32.715,35.156,41.504,33.203,-10.254
1532403082.081,35.156,40.039,41.504,43.457,4.395
1532403082.085,34.180,41.992,38.574,43.457,-10.742
1532403082.089,28.320,39.551,41.992,45.898,-20.996
1532403082.093,30.762,37.598,38.574,45.898,-3.906
1532403082.097,28.320,34.668,35.156,39.551,36.621
1532403082.101,26.855,31.738,39.551,39.551,54.199
1532403082.104,27.832,28.320,38.086,37.598,33.691
1532403082.108,30.273,30.762,32.715,43.457,29.785
1532403082.112,32.715,29.785,34.180,41.992,47.363
1532403082.116,32.715,23.438,32.227,41.016,32.227
1532403082.120,33.691,25.391,30.762,44.922,3.906
1532403082.124,33.203,25.391,39.062,36.621,2.441
1532403082.128,33.203,27.832,36.133,35.156,32.227
1532403082.132,26.855,32.715,37.109,20.996,19.043
1532403082.136,26.855,35.156,39.551,11.719,-11.230
1532403082.140,25.391,33.691,40.039,20.996,1.465
1532403082.144,27.832,30.273,41.016,21.973,20.508
1532403082.147,27.344,25.879,39.062,23.926,53.223
1532403082.151,30.273,26.367,33.203,27.344,44.922
1532403082.155,29.785,25.391,31.250,25.879,22.949
1532403082.159,20.508,22.461,32.715,29.785,22.461
1532403082.163,21.973,25.391,31.738,31.738,37.109
1532403082.167,23.926,22.461,33.691,35.156,18.555
1532403082.171,25.879,22.461,33.691,30.762,1.953
1532403082.175,22.461,32.227,28.320,20.996,7.812
1532403082.179,19.531,29.785,29.297,29.785,19.531
1532403082.183,16.602,24.414,35.156,28.809,19.531
1532403082.187,15.625,26.855,33.691,18.555,25.879
1532403082.190,20.996,27.832,24.902,13.672,29.785
1532403082.194,24.902,29.297,26.367,15.137,18.066
1532403082.198,25.391,28.809,35.645,15.137,31.250
1532403082.202,21.973,27.344,37.598,14.648,50.781
1532403082.206,19.043,29.785,37.109,15.625,48.828
1532403082.210,23.438,33.203,38.086,13.184,26.855
1532403082.214,22.949,31.250,33.203,16.113,6.348
1532403082.218,19.043,28.320,27.344,15.625,15.137
1532403082.222,20.020,24.902,27.832,17.578,41.504
1532403082.226,20.020,18.066,32.227,18.555,56.641
1532403082.230,19.531,22.461,29.297,20.508,47.852
1532403082.233,21.973,25.391,29.297,23.438,17.578
1532403082.237,22.949,26.367,36.133,22.461,15.625
1532403082.241,21.973,32.715,37.598,17.578,33.691
1532403082.245,20.996,32.715,30.273,13.184,57.129
1532403082.249,23.926,28.809,28.320,12.695,40.527
1532403082.253,20.996,26.855,35.645,9.766,28.809
1532403082.257,19.531,26.367,37.598,6.348,50.781
1532403082.261,18.555,17.578,32.715,4.883,55.664
1532403082.265,14.160,18.066,35.156,16.113,58.594
1532403082.269,18.066,22.461,36.133,24.414,67.383
1532403082.272,20.020,23.438,36.621,23.438,24.902
1532403082.276,23.438,20.508,38.086,34.180,4.883
1532403082.280,28.320,16.113,33.203,48.340,33.203
1532403082.284,29.297,28.320,32.715,56.152,65.430
1532403082.288,31.250,33.203,31.738,56.152,48.340
1532403082.292,33.691,27.344,28.809,52.246,30.762
1532403082.296,31.738,25.879,32.227,49.805,39.062
1532403082.300,30.273,33.203,36.621,48.340,40.039
1532403082.304,29.297,36.621,38.574,46.387,46.387
1532403082.308,24.414,31.738,41.504,41.016,36.133
1532403082.312,21.973,26.367,38.574,32.227,-2.441
1532403082.315,23.926,23.926,33.203,33.691,-8.789
1532403082.319,27.832,27.832,30.273,42.969,38.574
1532403082.323,27.832,27.344,25.391,44.434,55.176
1532403082.327,28.320,20.020,28.809,46.875,63.965
1532403082.331,33.203,20.508,30.273,53.223,51.270
1532403082.335,38.086,24.902,32.715,54.688,25.391
1532403082.339,33.203,21.973,35.645,46.387,30.762
1532403082.343,25.391,25.879,33.203,42.480,29.785
1532403082.347,28.809,27.832,33.691,51.758,39.551
1532403082.351,35.156,21.973,38.086,50.781,63.965
1532403082.355,38.086,27.344,40.039,44.922,32.715
1532403082.358,38.086,32.715,41.016,44.434,2.441
1532403082.362,37.109,32.227,39.551,46.875,32.715
1532403082.366,39.062,34.668,35.156,50.781,59.082
1532403082.370,36.621,30.762,27.344,45.898,53.711
1532403082.374,36.133,26.367,31.738,40.039,8.301
1532403082.378,33.691,28.809,36.133,44.922,12.207
1532403082.382,30.762,30.762,40.527,47.363,65.430
1532403082.386,34.668,34.180,41.992,42.969,44.922
1532403082.390,39.062,37.109,34.668,41.992,7.324
1532403082.394,39.062,33.691,34.668,42.969,23.926
1532403082.397,38.574,34.180,34.668,41.016,50.293
1532403082.401,40.527,32.715,33.203,37.109,48.340
1532403082.405,40.527,28.320,31.738,41.016,58.594
1532403082.409,45.898,24.414,23.438,44.434,35.645
1532403082.413,49.805,16.602,25.391,41.504,-3.418
1532403082.417,44.434,14.648,33.691,42.480,38.086
1532403082.421,38.574,25.391,37.109,43.457,69.336
1532403082.425,38.574,40.527,41.016,45.898,44.922
1532403082.429,39.551,34.668,38.574,43.457,25.391
1532403082.433,39.062,30.762,37.598,39.551,30.273
1532403082.437,38.574,38.086,35.156,42.969,28.809
1532403082.440,38.086,35.645,31.250,43.945,-1.465
1532403082.444,41.016,28.809,34.180,47.363,18.555
1532403082.448,40.527,26.367,37.109,46.387,47.363
1532403082.452,35.156,26.855,38.086,31.738,22.949
1532403082.456,35.156,29.297,38.574,38.574,19.531
1532403082.460,38.086,33.691,33.203,45.410,42.969
1532403082.464,39.062,33.691,32.227,34.668,54.199
1532403082.468,44.922,29.297,35.645,39.551,41.504
1532403082.472,42.969,25.879,41.016,34.180,15.625
1532403082.476,33.203,26.367,41.016,21.973,16.113
1532403082.480,34.668,33.691,30.273,35.156,32.715
1532403082.483,42.969,28.809,28.809,46.387,47.363
1532403082.487,41.504,25.879,39.062,41.992,46.875
1532403082.491,37.598,39.062,48.340,45.898,37.109
1532403082.495,41.504,38.086,47.852,56.152,29.297
1532403082.499,38.574,26.855,42.480,58.105,36.621
1532403082.503,34.180,26.367,37.109,50.293,42.480
1532403082.507,39.062,30.762,33.691,46.875,27.832
1532403082.511,45.410,37.598,35.645,46.387,21.484
1532403082.515,50.293,36.621,36.133,48.340,19.531
1532403082.519,37.109,29.297,44.434,44.922,22.949
1532403082.522,33.691,27.832,49.805,41.992,64.453
1532403082.526,52.246,31.250,43.457,53.711,72.266
1532403082.530,56.152,24.414,33.691,53.711,23.926
1532403082.534,50.293,23.438,26.367,46.387,39.551
1532403082.538,44.922,38.086,31.250,45.898,52.734
1532403082.542,43.457,40.527,33.691,44.922,39.551
1532403082.546,42.969,31.738,31.250,50.781,46.875
1532403082.550,42.969,22.461,38.574,53.223,36.621
1532403082.554,45.898,28.809,31.738,43.945,3.906
1532403082.558,44.434,29.785,34.180,41.992,13.672
1532403082.562,38.574,25.879,44.434,42.969,57.617
1532403082.565,40.527,25.879,41.504,45.410,96.680
1532403082.569,42.969,24.902,36.133,45.898,47.363
1532403082.573,43.457,26.855,35.156,49.805,12.207
1532403082.577,42.480,23.926,42.969,47.852,35.645
1532403082.581,47.363,20.996,43.457,48.828,58.594
1532403082.585,48.340,20.996,37.598,48.828,46.875
1532403082.589,45.898,19.043,42.480,48.828,20.020
1532403082.593,47.363,25.391,41.992,48.828,11.719
1532403082.597,46.875,39.062,26.367,35.645,27.344
1532403082.601,47.363,39.551,26.367,39.062,25.391
1532403082.605,46.875,31.250,35.645,47.363,34.180
1532403082.608,49.805,31.738,37.598,45.898,48.828
1532403082.612,53.223,31.250,37.109,44.922,54.688
1532403082.616,58.105,30.762,42.480,43.945,55.176
1532403082.620,64.453,31.250,41.016,41.504,42.480
1532403082.624,61.035,28.320,36.621,42.969,67.871
1532403082.628,52.734,25.391,34.180,45.898,72.266
1532403082.632,47.852,27.832,30.273,44.434,36.621
1532403082.636,37.109,21.973,33.203,44.922,27.344
1532403082.640,22.949,16.113,34.668,42.969,10.254
1532403082.644,21.973,21.973,32.227,42.969,14.648
1532403082.648,22.461,17.578,32.715,54.199,34.180
1532403082.651,19.043,14.648,37.109,51.270,27.344
1532403082.655,20.020,25.879,40.039,44.922,26.367
1532403082.659,22.949,30.273,41.504,48.828,45.410
1532403082.663,26.855,30.762,40.527,51.270,65.918
1532403082.667,35.156,31.250,42.969,53.711,68.848
1532403082.671,37.598,28.809,41.992,48.340,52.734
1532403082.675,36.621,33.203,39.551,48.828,46.875
1532403082.679,47.363,42.480,51.270,57.129,47.852
1532403082.683,47.363,46.387,61.035,55.664,37.109
1532403082.687,31.250,39.551,55.176,39.062,40.527
1532403082.690,23.926,37.598,52.246,28.809,5.859
1532403082.694,13.184,40.527,46.875,16.602,1.953
1532403082.698,-3.906,32.227,40.527,3.906,61.035
1532403082.702,-4.395,34.180,42.969,4.883,65.430
1532403082.706,-2.930,39.551,47.363,5.859,31.738
1532403082.710,-4.395,45.898,53.223,1.953,24.902
1532403082.714,-5.371,51.270,64.453,3.906,51.270
1532403082.718,-22.461,49.316,56.641,-5.371,48.340
1532403082.722,-41.992,47.363,53.223,-28.320,39.551
1532403082.726,-49.805,51.270,63.477,-37.598,28.320
1532403082.730,-51.270,56.641,63.477,-38.086,-15.625
1532403082.733,-65.430,53.223,69.824,-59.082,-8.301
1532403082.737,-79.590,60.547,80.078,-69.824,27.344
1532403082.741,-73.730,66.895,83.984,-57.617,32.715
1532403082.745,-72.266,63.477,77.637,-56.641,51.758
1532403082.749,-74.707,59.570,64.453,-60.059,30.762
1532403082.753,-76.172,47.852,58.105,-58.594,10.254
1532403082.757,-68.848,48.828,61.523,-50.781,15.625
1532403082.761,-56.152,60.059,59.082,-45.898,15.625
1532403082.765,-52.734,49.316,53.223,-47.363,23.926
1532403082.769,-50.293,36.621,60.059,-43.457,27.832
1532403082.773,-42.480,47.363,64.941,-31.250,26.367
1532403082.776,-30.762,45.410,56.152,-17.090,4.883
1532403082.780,-24.902,33.203,41.016,-12.695,12.207
1532403082.784,-18.066,33.203,32.715,0.000,44.434
1532403082.788,-11.719,29.297,39.062,5.859,13.184
1532403082.792,-3.418,26.367,36.621,1.953,-18.066
1532403082.796,13.184,26.367,30.273,14.160,13.184
1532403082.800,25.391,17.090,25.391,22.949,9.277
