timestamps,TP9,AF7,AF8,TP10,Right AUX
1532402738.123,-127.441,32.227,42.480,7.324,26.855
1532402738.127,-137.695,38.574,41.992,14.160,52.734
1532402738.131,-145.508,40.039,35.156,10.254,41.992
1532402738.134,-154.785,33.691,38.086,1.953,14.160
1532402738.138,-156.738,39.062,39.062,1.953,1.465
1532402738.142,-160.156,42.969,40.039,3.906,7.812
1532402738.146,-164.551,37.598,37.598,-1.465,13.184
1532402738.150,-167.480,33.691,37.109,-1.953,34.668
1532402738.154,-170.410,33.691,38.086,-4.395,4.883
1532402738.158,-168.457,39.062,36.133,-3.906,-26.855
1532402738.162,-159.180,55.664,41.992,11.230,31.250
1532402738.166,-167.480,44.434,35.645,8.789,47.363
1532402738.170,-171.875,28.809,32.715,8.301,25.391
1532402738.173,-171.387,31.250,34.668,5.371,10.742
1532402738.177,-176.758,25.391,34.668,-0.488,16.113
1532402738.181,-173.340,31.738,41.504,3.418,25.391
1532402738.185,-178.223,37.109,45.410,2.930,31.250
1532402738.189,-179.199,40.039,46.387,4.883,48.828
1532402738.193,-177.734,42.480,44.922,6.836,37.598
1532402738.197,-177.734,43.457,38.086,1.953,-12.207
1532402738.201,-178.711,44.922,34.668,5.371,15.137
1532402738.205,-178.223,37.598,39.062,12.207,50.293
1532402738.209,-178.711,34.668,43.945,14.160,43.457
1532402738.213,-182.129,32.227,41.992,11.230,20.508
1532402738.216,-178.223,30.762,42.480,9.766,26.367
1532402738.220,-173.828,32.227,41.504,9.277,29.785
1532402738.224,-169.434,39.062,38.574,17.090,27.344
1532402738.228,-165.039,48.828,40.527,21.973,21.484
1532402738.232,-165.039,52.246,42.480,16.113,8.301
1532402738.236,-172.363,45.898,36.621,9.277,20.996
1532402738.240,-179.688,30.273,33.691,4.883,31.250
1532402738.244,-180.176,29.785,35.645,4.883,49.316
1532402738.248,-179.688,30.762,35.645,4.883,41.504
1532402738.252,-178.711,33.203,33.691,10.254,23.438
1532402738.256,-181.641,34.180,33.203,9.766,3.906
1532402738.259,-170.410,46.387,39.062,13.672,11.719
1532402738.263,-163.574,55.176,36.621,19.531,17.090
1532402738.267,-179.199,29.297,28.320,13.184,6.348
1532402738.271,-177.246,24.902,31.250,14.160,32.227
1532402738.275,-174.316,34.668,36.133,15.137,10.254
1532402738.279,-173.828,34.668,40.527,10.254,-14.648
1532402738.283,-172.852,32.227,36.621,10.742,15.137
1532402738.287,-169.922,31.738,33.203,12.695,39.551
1532402738.291,-165.039,39.062,37.598,18.066,47.363
1532402738.295,-168.457,36.621,36.133,5.371,5.859
1532402738.298,-169.434,27.344,32.227,-1.465,-11.719
1532402738.302,-165.039,31.250,33.691,8.789,12.695
1532402738.306,-165.039,39.062,37.109,13.184,40.039
1532402738.310,-166.016,30.273,30.762,9.766,64.453
1532402738.314,-161.621,31.738,33.691,8.789,51.758
1532402738.318,-157.715,41.016,40.039,10.742,29.297
1532402738.322,-155.273,33.203,35.156,8.301,23.438
1532402738.326,-156.738,25.391,36.133,6.836,31.738
1532402738.330,-156.250,16.602,37.598,6.836,31.250
1532402738.334,-151.855,15.625,33.691,4.395,18.555
1532402738.338,-154.297,27.832,36.621,9.277,3.418
1532402738.341,-153.320,32.227,38.574,17.090,35.645
1532402738.345,-154.297,29.785,36.133,11.230,38.086
1532402738.349,-152.344,35.645,35.645,9.766,35.645
1532402738.353,-149.902,38.086,33.203,6.348,47.363
1532402738.357,-150.391,32.715,31.738,6.836,65.918
1532402738.361,-151.367,27.832,29.785,4.395,72.754
1532402738.365,-147.461,25.391,35.645,0.488,34.668
1532402738.369,-146.973,22.949,38.086,5.859,5.859
1532402738.373,-150.391,24.902,29.297,-0.488,-17.090
1532402738.377,-148.438,24.902,28.320,-3.906,-11.230
1532402738.381,-149.414,20.996,33.691,1.953,20.996
1532402738.384,-146.484,31.250,40.039,6.836,31.738
1532402738.388,-138.672,33.203,39.062,7.324,45.898
1532402738.392,-138.672,24.414,35.156,2.930,31.250
1532402738.396,-140.625,29.297,35.645,0.000,-1.465
1532402738.400,-133.301,33.691,35.156,3.418,2.930
1532402738.404,-126.465,41.016,38.086,10.254,42.969
1532402738.408,-126.465,35.645,35.645,10.254,63.477
1532402738.412,-129.883,24.414,32.715,7.324,19.043
1532402738.416,-127.930,33.691,33.203,7.812,0.488
1532402738.420,-126.465,33.691,37.598,8.301,20.508
1532402738.423,-123.535,30.762,40.039,10.742,23.926
1532402738.427,-127.441,30.762,35.645,9.766,14.160
1532402738.431,-128.906,27.832,34.180,5.859,23.926
1532402738.435,-122.070,37.109,38.086,-0.977,19.531
1532402738.439,-115.234,37.109,40.527,0.000,20.996
1532402738.443,-117.188,28.809,35.645,3.906,24.414
1532402738.447,-122.559,32.715,36.133,-2.441,19.043
1532402738.451,-119.141,32.227,39.551,-6.348,35.156
1532402738.455,-116.699,34.180,40.527,-7.812,1.465
1532402738.459,-113.281,35.156,37.598,-6.836,8.301
1532402738.463,-112.305,31.250,35.156,-6.836,34.668
1532402738.466,-111.816,26.855,32.715,-4.883,11.719
1532402738.470,-110.840,27.344,32.715,4.395,7.324
1532402738.474,-110.352,34.180,34.180,-3.418,8.789
1532402738.478,-104.004,47.852,33.691,-1.465,9.766
1532402738.482,-106.445,39.551,30.273,5.859,33.691
1532402738.486,-112.305,20.020,27.344,3.418,23.438
1532402738.490,-108.887,31.738,28.809,0.488,30.762
1532402738.494,-107.910,32.715,31.738,-2.930,16.602
1532402738.498,-101.074,33.691,35.645,2.930,-3.906
1532402738.502,-98.145,43.457,35.156,2.441,29.297
1532402738.506,-105.957,44.434,34.180,2.930,51.270
1532402738.509,-103.027,24.414,37.109,12.695,43.945
1532402738.513,-101.562,15.625,33.691,4.883,20.996
1532402738.517,-102.051,23.438,24.902,-8.301,16.602
1532402738.521,-91.797,38.574,31.738,4.395,43.457
1532402738.525,-86.426,47.363,36.133,12.207,44.922
1532402738.529,-88.867,36.621,32.227,7.324,24.902
1532402738.533,-83.496,39.062,41.992,11.230,18.066
1532402738.537,-85.449,35.156,34.668,9.277,8.301
1532402738.541,-88.867,29.785,29.785,19.043,36.133
1532402738.545,-87.891,28.320,34.180,27.832,51.270
1532402738.548,-86.914,29.297,33.203,20.020,42.969
1532402738.552,-85.938,35.645,34.180,8.301,22.461
1532402738.556,-88.867,36.133,31.250,0.488,25.879
1532402738.560,-87.402,36.133,33.203,3.418,80.566
1532402738.564,-76.660,53.711,42.480,10.742,62.988
1532402738.568,-72.754,48.828,35.645,10.742,19.531
1532402738.572,-84.961,24.902,24.414,8.301,13.672
1532402738.576,-89.355,22.461,23.438,4.395,-8.789
1532402738.580,-82.031,26.855,28.809,4.883,1.953
1532402738.584,-81.055,37.109,32.227,9.277,72.266
1532402738.588,-81.543,38.574,32.227,2.930,57.129
1532402738.591,-78.613,36.133,35.156,1.465,27.832
1532402738.595,-80.078,34.180,35.645,5.859,35.156
1532402738.599,-81.055,35.645,32.227,3.418,33.691
1532402738.603,-79.590,30.273,33.691,-2.930,43.945
1532402738.607,-80.566,29.297,31.738,-5.371,32.227
1532402738.611,-84.473,31.738,30.273,-1.953,41.992
1532402738.615,-79.590,39.551,40.527,-1.953,24.414
1532402738.619,-75.684,45.410,39.062,-5.371,1.465
1532402738.623,-80.566,38.086,32.715,3.906,21.973
1532402738.627,-72.754,33.691,36.133,12.207,26.855
1532402738.630,-70.801,27.344,33.691,4.883,21.973
1532402738.634,-78.125,32.227,30.762,1.465,22.949
1532402738.638,-68.359,38.086,36.621,0.977,43.945
1532402738.642,-59.570,36.133,36.133,-3.906,70.312
1532402738.646,-60.059,37.109,34.180,-8.301,54.688
1532402738.650,-55.664,41.504,40.039,-0.488,35.645
1532402738.654,-59.570,44.434,42.969,7.324,12.695
1532402738.658,-68.848,42.969,43.457,11.230,13.184
1532402738.662,-78.613,38.086,42.480,12.695,28.320
1532402738.666,-87.402,26.367,37.598,10.254,15.625
1532402738.670,-85.938,25.879,42.969,10.742,37.598
1532402738.673,-90.820,32.715,41.504,-2.930,25.391
1532402738.677,-87.891,31.250,33.203,-6.836,17.090
1532402738.681,-80.078,33.203,35.645,1.953,50.781
1532402738.685,-79.590,35.645,39.551,0.977,49.805
1532402738.689,-74.219,38.086,38.086,2.441,34.180
1532402738.693,-71.777,36.133,39.062,4.883,17.090
1532402738.697,-73.730,36.133,40.039,3.418,24.414
1532402738.701,-68.848,41.992,40.039,-1.465,38.574
1532402738.705,-75.195,36.621,40.527,-9.277,24.902
1532402738.709,-74.707,28.320,35.156,-2.441,35.645
1532402738.713,-58.594,34.180,36.133,7.324,24.414
1532402738.716,-81.055,32.715,41.992,-14.648,8.789
1532402738.720,-91.309,24.902,44.434,-21.973,54.199
1532402738.724,-80.078,38.574,43.457,-9.277,59.570
1532402738.728,-85.449,44.922,40.039,-13.184,42.480
1532402738.732,-84.473,33.691,42.480,-11.230,30.762
1532402738.736,-81.055,31.738,40.039,-12.207,26.367
1532402738.740,-74.707,40.527,39.062,-4.395,40.527
1532402738.744,-71.289,46.875,44.922,2.930,37.598
1532402738.748,-76.172,39.551,41.016,-1.953,28.809
1532402738.752,-76.660,37.598,37.598,-1.953,23.926
1532402738.755,-77.148,35.645,37.109,-12.207,-10.742
1532402738.759,-74.707,41.992,44.922,-4.395,-7.812
1532402738.763,-67.871,49.316,49.316,7.324,34.180
1532402738.767,-70.312,34.668,42.969,-4.883,42.480
1532402738.771,-77.637,28.320,40.039,-12.695,29.297
1532402738.775,-68.359,36.133,44.434,-7.812,23.926
1532402738.779,-65.430,40.527,42.480,-1.953,46.875
1532402738.783,-70.312,40.039,41.016,3.418,52.246
1532402738.787,-64.941,41.992,46.875,6.836,48.340
1532402738.791,-65.918,49.805,46.875,10.254,54.688
1532402738.795,-69.336,41.992,41.504,6.836,48.340
1532402738.798,-67.871,29.785,40.039,4.883,23.926
1532402738.802,-67.383,32.227,40.527,14.160,20.996
1532402738.806,-67.871,35.156,38.574,19.043,17.090
1532402738.810,-63.965,37.598,40.527,17.578,41.992
1532402738.814,-60.547,49.805,49.805,15.625,36.133
1532402738.818,-64.941,54.688,47.852,1.953,13.184
1532402738.822,-77.148,27.832,31.250,-10.254,44.922
1532402738.826,-74.707,18.066,26.855,-8.301,65.918
1532402738.830,-69.824,30.762,35.156,-3.906,59.570
1532402738.834,-64.453,37.598,39.062,-3.906,33.691
1532402738.838,-69.824,40.039,39.062,0.000,10.254
1532402738.841,-75.195,46.875,46.875,3.906,28.320
1532402738.845,-67.383,54.199,46.875,0.977,22.461
1532402738.849,-70.801,36.133,38.086,-4.883,35.645
1532402738.853,-69.824,24.414,39.062,-0.977,66.895
1532402738.857,-62.988,33.203,43.945,4.395,4.395
1532402738.861,-65.918,32.715,42.480,4.883,1.465
1532402738.865,-69.336,38.086,37.598,2.930,41.016
1532402738.869,-72.266,37.598,35.645,-3.418,18.555
1532402738.873,-70.801,40.039,45.410,-4.395,20.020
1532402738.877,-69.824,55.176,48.340,-3.906,39.551
1532402738.880,-78.125,39.551,38.574,-9.766,31.738
1532402738.884,-74.707,31.250,40.527,-6.348,26.367
1532402738.888,-73.242,36.621,41.016,8.301,35.645
1532402738.892,-76.660,32.227,37.109,32.227,32.227
1532402738.896,-72.754,31.738,35.156,50.293,15.137
1532402738.900,-64.941,35.156,38.574,53.711,4.395
1532402738.904,-56.641,44.922,41.016,43.945,18.555
1532402738.908,-56.152,51.758,43.457,34.180,26.855
1532402738.912,-54.199,46.387,42.969,21.973,22.461
1532402738.916,-55.664,42.480,37.109,12.695,23.926
1532402738.920,-66.406,33.691,40.039,5.371,21.484
1532402738.923,-67.871,28.809,38.574,0.488,41.992
1532402738.927,-62.988,41.992,36.621,3.418,31.738
1532402738.931,-67.383,44.434,38.574,-0.977,28.809
1532402738.935,-72.754,41.016,37.109,-7.812,27.832
1532402738.939,-65.918,41.992,34.180,-2.441,12.695
1532402738.943,-65.430,36.133,33.203,-1.953,16.602
1532402738.947,-67.383,26.367,33.203,-2.930,40.527
1532402738.951,-64.453,25.879,36.133,1.953,31.250
1532402738.955,-58.594,30.273,36.133,-3.418,1.953
1532402738.959,-50.781,40.527,37.598,-0.488,11.719
1532402738.963,-51.758,41.992,39.062,3.906,40.527
1532402738.966,-58.105,25.391,34.668,-2.930,28.320
1532402738.970,-56.641,29.785,40.527,-3.418,24.414
1532402738.974,-59.570,33.691,38.574,-8.789,43.945
1532402738.978,-58.105,23.438,35.156,-8.789,29.297
1532402738.982,-54.688,23.438,35.156,-2.930,28.809
1532402738.986,-63.965,17.090,31.250,-10.254,25.391
1532402738.990,-62.988,21.973,34.180,-11.230,28.809
1532402738.994,-58.105,33.203,39.062,-9.766,33.203
1532402738.998,-57.129,40.527,37.109,-11.230,19.043
1532402739.002,-51.758,34.668,31.738,-11.230,27.832
1532402739.005,-52.246,18.555,30.762,-5.859,55.176
1532402739.009,-50.293,27.832,37.109,4.883,83.984
1532402739.013,-50.781,34.180,38.574,0.977,53.711
1532402739.017,-55.176,22.949,32.715,-4.395,32.227
1532402739.021,-51.758,21.973,34.668,-0.488,16.113
1532402739.025,-50.293,33.203,39.551,0.977,20.996
1532402739.029,-54.199,34.668,41.016,-0.977,53.711
1532402739.033,-57.617,23.438,34.180,-8.789,28.809
1532402739.037,-62.988,17.090,29.297,-20.508,19.531
1532402739.041,-64.941,19.531,34.180,-13.184,45.898
1532402739.045,-61.523,25.391,31.738,-5.371,35.645
1532402739.048,-60.547,26.855,29.785,-8.301,26.367
1532402739.052,-53.223,40.527,38.574,-2.441,45.898
1532402739.056,-51.758,50.781,41.016,1.953,60.547
1532402739.060,-65.430,19.531,32.227,-6.348,46.875
1532402739.064,-62.500,7.812,32.715,-1.953,26.855
1532402739.068,-56.641,21.484,39.062,1.465,18.555
1532402739.072,-56.641,31.738,35.645,-0.977,8.789
1532402739.076,-47.363,31.738,32.715,-3.906,26.367
1532402739.080,-47.363,28.809,33.691,-7.812,29.785
1532402739.084,-49.805,32.227,32.715,-1.953,18.066
1532402739.087,-37.109,55.664,40.039,6.348,35.645
1532402739.091,-44.922,48.340,37.109,-1.953,36.621
1532402739.095,-54.199,18.066,31.738,-12.207,19.531
1532402739.099,-55.176,22.949,30.762,-14.648,0.488
1532402739.103,-56.152,26.855,30.273,-10.742,28.809
1532402739.107,-49.316,35.156,33.203,-3.418,75.195
1532402739.111,-41.504,49.316,35.645,4.395,64.941
1532402739.115,-46.387,40.527,35.645,3.418,38.086
1532402739.119,-49.805,27.344,40.039,0.000,31.738
1532402739.123,-46.875,28.320,38.574,0.000,34.180
1532402739.127,-46.387,25.879,32.227,-2.930,47.852
1532402739.130,-46.387,27.344,32.715,-3.906,15.625
1532402739.134,-38.086,46.387,38.574,2.441,3.906
1532402739.138,-34.180,52.246,36.621,0.000,8.301
1532402739.142,-48.340,18.555,26.367,-10.742,6.348
1532402739.146,-45.410,13.672,27.832,-8.789,34.668
1532402739.150,-39.551,30.273,33.203,-1.953,35.156
1532402739.154,-36.621,39.062,40.039,0.488,20.996
1532402739.158,-38.574,31.738,41.504,-3.418,15.137
1532402739.162,-34.668,30.762,37.598,-1.465,35.156
1532402739.166,-25.879,45.898,43.945,7.324,29.297
1532402739.170,-29.785,46.875,46.387,7.324,11.719
1532402739.173,-34.668,34.668,39.551,3.418,7.324
1532402739.177,-34.668,29.785,33.203,-1.465,5.371
1532402739.181,-33.691,27.344,29.297,-0.488,16.113
1532402739.185,-29.297,32.715,33.691,4.395,3.418
1532402739.189,-29.785,35.156,38.086,4.883,19.043
1532402739.193,-30.273,48.828,40.527,5.371,16.602
1532402739.197,-25.391,41.504,38.086,11.719,-9.277
1532402739.201,-20.508,25.879,41.504,19.531,-5.859
1532402739.205,-33.203,30.273,35.645,-0.488,-13.672
1532402739.209,-36.621,36.621,27.832,-5.371,-20.020
1532402739.212,-30.273,42.480,29.785,-2.930,-2.930
1532402739.216,-24.902,48.828,35.645,0.488,-4.883
1532402739.220,-29.785,58.594,37.109,5.859,-16.602
1532402739.224,-36.133,41.992,31.250,-2.441,3.906
1532402739.228,-37.109,22.949,26.855,-2.930,50.781
1532402739.232,-41.504,32.227,36.621,-0.488,41.504
1532402739.236,-36.621,35.156,38.086,-3.906,-1.953
1532402739.240,-34.668,33.691,27.832,-0.488,20.020
1532402739.244,-38.574,43.457,32.715,0.488,28.809
1532402739.248,-43.457,40.039,31.738,-4.883,13.184
1532402739.252,-41.016,34.180,33.203,-5.859,19.043
1532402739.255,-37.598,44.434,33.691,-0.977,36.621
1532402739.259,-39.062,35.156,27.344,3.906,37.109
1532402739.263,-32.715,31.250,31.738,4.395,35.645
1532402739.267,-31.250,39.551,32.227,4.395,21.484
1532402739.271,-33.691,31.738,33.691,2.930,42.480
1532402739.275,-27.344,41.016,40.039,-0.488,8.301
1532402739.279,-24.902,49.805,38.574,-4.883,-20.508
1532402739.283,-27.344,30.762,35.156,-10.742,59.570
1532402739.287,-17.578,28.809,37.109,-7.812,78.125
1532402739.291,-9.766,34.668,31.250,-15.137,39.062
1532402739.295,-0.977,33.691,28.809,-18.555,38.086
1532402739.298,5.859,39.551,31.250,-10.742,44.922
1532402739.302,6.348,45.410,33.691,-1.953,36.133
1532402739.306,1.953,39.062,35.156,2.930,61.523
1532402739.310,-1.465,29.297,30.273,4.395,44.434
1532402739.314,2.441,33.203,32.715,10.742,16.113
1532402739.318,2.441,43.945,39.551,15.625,44.434
1532402739.322,-8.789,35.156,36.621,12.695,39.062
1532402739.326,-11.719,22.949,35.156,11.719,36.133
1532402739.330,-11.719,25.391,37.598,13.672,48.340
1532402739.334,-7.812,46.875,39.551,9.766,-9.277
1532402739.337,-12.695,38.574,37.109,-3.906,-40.527
1532402739.341,-23.438,13.672,35.156,-6.348,21.484
1532402739.345,-19.531,31.738,35.156,1.465,47.363
1532402739.349,-19.043,38.574,33.203,-0.488,41.016
1532402739.353,-20.020,26.855,33.691,-1.953,39.551
1532402739.357,-21.973,29.297,33.691,1.953,41.504
1532402739.361,-25.391,39.551,33.203,0.488,34.668
1532402739.365,-25.391,37.109,29.785,-3.418,17.578
1532402739.369,-22.461,38.574,30.273,-0.488,50.781
1532402739.373,-20.996,39.551,33.691,-2.930,40.039
1532402739.377,-23.926,30.273,34.668,-5.371,-1.953
1532402739.380,-18.066,33.691,38.574,8.301,19.043
1532402739.384,-11.230,33.691,37.109,13.672,20.996
1532402739.388,-17.090,30.273,31.250,15.625,19.531
1532402739.392,-15.625,34.668,38.574,23.926,38.574
1532402739.396,-23.926,33.691,40.039,19.531,16.602
1532402739.400,-26.367,36.621,37.109,15.137,14.648
1532402739.404,-22.949,37.109,37.598,9.277,33.691
1532402739.408,-30.273,24.414,32.715,4.395,45.898
1532402739.412,-29.785,31.738,33.691,7.324,64.453
1532402739.416,-26.855,34.180,33.691,2.441,-6.836
1532402739.420,-25.391,29.297,35.156,4.883,-11.719
1532402739.423,-30.273,28.320,35.645,6.348,26.367
1532402739.427,-27.344,41.992,35.156,11.230,36.133
1532402739.431,-24.414,44.434,35.645,12.695,46.387
1532402739.435,-31.250,23.438,33.691,3.906,42.480
1532402739.439,-26.855,25.879,30.273,7.324,53.223
1532402739.443,-22.461,26.855,28.320,10.742,68.848
1532402739.447,-20.508,32.227,33.203,10.254,60.059
1532402739.451,-15.625,37.598,33.691,10.254,37.109
1532402739.455,-8.789,32.715,35.156,9.766,33.203
1532402739.459,-1.953,36.133,39.062,18.066,18.066
1532402739.462,6.348,47.852,37.598,24.902,3.906
1532402739.466,-5.859,33.691,30.762,12.695,10.742
1532402739.470,-13.672,17.578,30.273,6.836,20.508
1532402739.474,-4.883,26.367,36.621,6.348,12.695
1532402739.478,-4.883,29.297,36.133,5.371,19.043
1532402739.482,-1.953,28.809,32.227,8.301,38.574
1532402739.486,0.000,27.832,35.645,7.324,24.414
1532402739.490,5.859,44.434,42.969,14.160,36.621
1532402739.494,6.348,47.852,39.551,10.742,44.922
1532402739.498,6.348,26.855,33.203,5.371,44.434
1532402739.502,15.625,29.785,34.668,12.207,41.016
1532402739.505,17.090,32.715,31.738,15.137,17.578
1532402739.509,12.207,28.320,29.785,14.160,30.762
1532402739.513,10.742,30.762,28.809,8.301,40.039
1532402739.517,13.184,39.062,33.691,7.324,17.090
1532402739.521,12.207,42.969,38.574,13.184,30.273
1532402739.525,3.906,36.133,31.738,9.277,34.668
1532402739.529,-4.883,34.668,29.785,10.254,35.156
1532402739.533,-9.277,35.645,34.180,13.184,50.293
1532402739.537,-8.789,35.156,36.133,10.254,44.434
1532402739.541,-12.695,22.461,31.738,0.000,37.598
1532402739.544,-15.137,21.484,34.180,1.953,67.871
1532402739.548,-12.207,34.180,36.621,9.766,48.828
1532402739.552,-12.695,32.227,36.133,4.395,16.602
1532402739.556,-11.719,33.691,38.574,-1.953,13.672
1532402739.560,-8.789,31.250,36.621,4.395,30.762
1532402739.564,-6.836,25.391,33.691,6.348,69.336
1532402739.568,-1.465,29.297,30.762,4.395,46.875
1532402739.572,3.418,30.762,29.785,8.789,31.250
1532402739.576,2.441,35.156,33.691,12.695,50.781
1532402739.580,-1.953,32.227,32.227,12.695,58.594
1532402739.584,-2.441,29.785,28.809,11.719,42.969
1532402739.587,1.465,32.227,31.738,17.090,33.203
1532402739.591,-1.953,29.785,34.668,15.137,23.926
1532402739.595,-3.418,32.715,34.180,7.324,23.926
1532402739.599,5.371,46.387,39.551,13.184,9.277
1532402739.603,0.000,38.574,32.227,8.301,5.859
1532402739.607,-10.254,21.484,24.902,-4.395,40.039
1532402739.611,-11.230,28.320,34.668,-2.441,33.203
1532402739.615,-11.230,26.367,39.551,-1.465,-3.906
1532402739.619,-11.719,27.832,38.574,-3.418,-2.930
1532402739.623,-8.789,40.527,39.062,-0.488,25.879
1532402739.627,-6.836,45.898,39.551,1.953,44.434
1532402739.630,-15.625,33.691,33.691,-3.418,30.762
1532402739.634,-22.461,29.297,34.668,-7.324,-20.508
1532402739.638,-20.996,30.762,34.668,-3.418,-13.184
1532402739.642,-21.484,25.879,34.668,1.953,14.160
1532402739.646,-21.484,31.738,39.062,6.348,29.785
1532402739.650,-16.602,45.898,39.062,12.207,54.688
1532402739.654,-19.531,35.156,36.621,2.441,17.090
1532402739.658,-24.414,18.555,30.273,0.488,6.348
1532402739.662,-27.832,25.391,28.320,4.395,41.992
1532402739.666,-22.461,37.598,35.645,3.418,33.691
1532402739.669,-16.113,36.621,37.109,5.859,41.016
1532402739.673,-16.602,37.598,34.668,2.930,4.883
1532402739.677,-19.531,43.945,35.156,-3.418,-21.973
1532402739.681,-27.832,27.344,35.156,-6.836,22.461
1532402739.685,-30.273,17.578,30.762,-6.348,51.758
1532402739.689,-26.367,27.344,30.273,-6.836,29.785
1532402739.693,-27.832,35.645,36.133,-8.789,16.113
1532402739.697,-26.855,36.621,36.621,-5.859,21.484
1532402739.701,-17.578,42.480,39.062,9.277,45.898
1532402739.705,-20.508,42.480,34.180,6.348,56.152
1532402739.709,-25.391,27.344,32.227,5.859,50.293
1532402739.712,-19.043,25.391,40.527,14.648,58.594
1532402739.716,-21.973,18.555,38.086,8.301,33.691
1532402739.720,-25.879,21.973,37.598,11.230,16.113
1532402739.724,-22.949,31.738,39.062,12.695,52.734
1532402739.728,-18.555,28.809,36.133,8.789,79.590
1532402739.732,-16.113,41.992,39.062,12.207,72.754
1532402739.736,-17.090,38.086,37.109,3.906,42.969
1532402739.740,-20.508,23.926,34.668,0.488,27.832
1532402739.744,-19.043,26.855,41.992,7.812,54.688
1532402739.748,-11.719,31.250,39.551,7.324,76.172
1532402739.752,-11.719,32.227,31.250,-2.441,56.152
1532402739.755,-7.812,34.180,28.809,-9.277,15.625
1532402739.759,-6.836,36.621,27.832,-7.812,21.484
1532402739.763,-8.789,27.832,30.762,0.488,35.156
1532402739.767,-9.277,20.996,34.180,3.418,30.273
1532402739.771,-6.348,30.273,34.668,0.488,40.039
1532402739.775,-7.812,31.738,29.785,-1.953,60.547
1532402739.779,-7.812,24.902,29.297,2.930,56.641
1532402739.783,0.000,37.109,35.645,8.789,27.344
1532402739.787,-3.906,31.738,32.715,3.418,34.180
1532402739.791,-12.695,20.508,31.738,2.441,49.805
1532402739.794,-10.742,30.762,39.062,3.418,13.672
1532402739.798,-8.789,33.691,38.086,-0.488,-10.254
1532402739.802,-12.207,31.738,32.227,-1.465,19.531
1532402739.806,-6.836,33.203,35.156,4.883,22.949
1532402739.810,4.395,41.504,37.598,12.695,12.695
1532402739.814,7.324,43.945,36.621,7.324,16.113
1532402739.818,-6.836,20.020,30.273,-3.906,31.738
1532402739.822,-1.953,11.719,31.738,4.883,14.160
1532402739.826,-1.465,25.879,37.109,9.277,35.156
1532402739.830,-16.602,21.484,29.785,1.953,47.363
1532402739.834,-13.184,19.531,32.227,2.441,10.742
1532402739.837,-4.395,37.109,40.039,4.883,10.742
1532402739.841,-7.324,40.039,40.527,7.812,68.359
1532402739.845,-9.277,27.344,41.504,6.836,77.148
1532402739.849,-7.324,23.926,44.434,8.301,34.180
1532402739.853,-8.301,23.438,39.551,9.277,-13.672
1532402739.857,-6.348,20.996,34.668,8.301,8.789
1532402739.861,-7.324,31.250,38.574,5.859,40.039
1532402739.865,-8.301,29.785,35.156,3.418,25.879
1532402739.869,-3.906,32.715,38.086,11.719,18.066
1532402739.873,-3.418,32.715,40.527,8.301,-0.977
1532402739.877,-5.371,19.043,37.598,2.930,-1.953
1532402739.880,-5.371,23.926,35.156,8.301,25.391
1532402739.884,-0.977,32.715,39.551,13.672,21.484
1532402739.888,-6.836,31.250,36.621,12.695,25.879
1532402739.892,-3.906,25.391,30.762,5.371,33.691
1532402739.896,1.465,29.785,37.598,10.254,15.137
1532402739.900,-12.207,21.484,38.574,10.742,36.621
1532402739.904,-16.602,16.602,38.086,3.906,71.777
1532402739.908,-14.160,22.949,39.062,3.418,57.129
1532402739.912,-13.672,26.855,41.016,8.301,15.137
1532402739.916,-9.277,33.691,43.945,6.348,18.066
1532402739.919,-3.418,41.016,43.457,3.906,25.391
1532402739.923,-3.906,36.621,39.062,5.859,17.090
1532402739.927,-7.812,28.809,36.133,3.906,26.367
1532402739.931,-10.254,24.902,30.762,-1.953,31.250
1532402739.935,-5.371,29.297,31.738,-11.230,-3.906
1532402739.939,-2.930,34.668,34.668,-14.160,-26.367
1532402739.943,0.488,39.551,38.574,-7.812,12.207
1532402739.947,0.977,38.086,32.227,-4.395,47.363
1532402739.951,-9.277,25.391,28.809,-3.418,19.531
1532402739.955,-16.602,20.996,35.645,-6.348,-9.766
1532402739.959,-19.043,30.762,42.969,4.395,-5.859
1532402739.962,-21.973,32.715,41.992,11.719,4.883
1532402739.966,-24.902,21.484,34.668,7.324,12.695
1532402739.970,-23.438,27.344,38.574,9.277,17.578
1532402739.974,-22.461,29.785,41.992,3.418,18.555
1532402739.978,-18.066,37.109,44.922,2.930,17.090
1532402739.982,-18.066,45.410,44.434,11.230,34.668
1532402739.986,-18.066,33.203,37.109,2.930,26.367
1532402739.990,-15.137,20.020,38.086,-3.906,13.672
1532402739.994,-13.672,16.113,37.598,-3.906,23.926
1532402739.998,-14.160,20.020,33.203,0.488,19.043
1532402740.001,-12.207,29.785,33.691,1.953,20.996
1532402740.005,-9.766,30.762,40.527,0.488,30.762
1532402740.009,-11.230,32.227,43.945,0.000,26.367
1532402740.013,-4.395,43.945,42.480,7.324,13.184
1532402740.017,-5.859,40.039,39.062,4.395,2.930
1532402740.021,-14.160,21.973,30.762,-10.254,5.859
1532402740.025,-14.648,17.090,30.273,-9.766,21.484
1532402740.029,-18.555,20.020,33.691,-6.348,29.297
1532402740.033,-17.090,35.645,33.691,-2.930,22.461
1532402740.037,-19.043,41.016,35.156,-2.441,-12.207
1532402740.041,-20.020,29.785,37.598,-0.977,1.953
1532402740.044,-14.648,33.691,36.621,0.488,53.223
1532402740.048,-9.766,44.434,29.785,-3.418,57.617
1532402740.052,-0.488,43.945,24.414,7.324,33.691
1532402740.056,-11.719,33.203,30.762,10.254,36.133
1532402740.060,-34.180,18.066,39.551,-4.395,50.781
1532402740.064,-40.039,18.066,43.457,-3.906,41.016
1532402740.068,-42.969,26.855,39.551,-8.301,36.621
1532402740.072,-36.621,26.855,39.551,-6.348,32.227
1532402740.076,-32.227,33.691,44.434,-8.301,-1.953
1532402740.080,-33.203,41.504,41.504,-12.695,25.879
1532402740.084,-29.297,36.133,36.621,-3.418,42.969
1532402740.087,-23.438,28.809,35.645,2.441,33.203
1532402740.091,-22.949,21.973,33.203,0.488,51.758
1532402740.095,-22.949,20.508,31.738,-4.883,38.574
1532402740.099,-13.672,27.344,35.645,0.000,44.434
1532402740.103,-10.254,31.738,32.715,2.930,46.875
1532402740.107,-6.348,32.227,36.621,7.812,44.922
1532402740.111,6.348,30.273,43.457,15.625,41.992
1532402740.115,12.695,37.109,40.039,6.836,22.949
1532402740.119,17.090,32.715,35.156,-2.441,29.785
1532402740.123,19.043,20.508,28.320,-0.977,30.273
1532402740.126,22.461,24.902,33.691,2.930,17.090
1532402740.130,26.855,32.227,38.086,3.418,50.293
1532402740.134,26.367,27.832,31.738,0.977,54.199
1532402740.138,35.156,31.250,33.203,5.859,30.273
1532402740.142,40.527,36.133,34.668,11.719,49.805
1532402740.146,44.434,29.297,36.133,10.742,45.410
1532402740.150,44.922,34.180,38.086,13.672,33.203
1532402740.154,33.691,37.109,34.668,14.648,27.832
1532402740.158,30.762,29.297,36.621,6.348,32.227
1532402740.162,31.738,26.855,36.621,2.930,51.758
1532402740.166,31.250,26.855,39.551,6.348,53.711
1532402740.169,36.133,27.344,43.457,8.789,40.527
1532402740.173,43.457,37.109,42.480,12.207,6.836
1532402740.177,38.086,40.527,39.062,10.254,-9.277
1532402740.181,34.180,34.180,37.598,8.789,27.344
1532402740.185,35.156,36.133,35.645,7.812,51.758
1532402740.189,27.832,30.273,32.227,6.348,39.062
1532402740.193,29.297,33.203,37.598,12.207,19.531
1532402740.197,30.762,32.715,35.156,11.719,23.926
1532402740.201,25.879,23.926,32.715,7.324,58.594
1532402740.205,28.320,27.344,35.156,6.836,36.133
1532402740.209,24.902,29.785,34.180,5.371,32.227
1532402740.212,20.996,28.809,33.691,1.465,37.598
1532402740.216,20.020,31.250,35.156,-8.301,3.906
1532402740.220,15.625,28.809,36.133,-10.254,27.344
1532402740.224,17.578,33.691,41.504,0.977,31.738
1532402740.228,19.531,48.340,44.922,5.859,11.719
1532402740.232,21.973,44.434,41.992,4.883,35.156
1532402740.236,20.508,32.227,35.156,1.465,44.922
1532402740.240,7.812,20.508,29.297,-6.348,35.156
1532402740.244,7.812,19.043,32.227,-6.348,37.598
1532402740.248,11.230,28.320,33.203,-2.441,34.668
1532402740.251,5.371,45.898,32.715,-0.977,5.371
1532402740.255,-3.906,35.156,28.320,-9.766,1.953
1532402740.259,-8.301,21.973,26.855,-8.301,26.855
1532402740.263,-0.488,46.875,34.668,5.859,30.762
1532402740.267,-6.348,37.109,34.180,2.441,45.410
1532402740.271,-19.531,13.184,28.809,-5.371,32.227
1532402740.275,-12.695,28.320,35.156,3.418,18.555
1532402740.279,-8.301,42.480,36.133,5.859,35.156
1532402740.283,-14.648,29.785,29.785,1.953,39.062
1532402740.287,-12.207,21.484,31.738,4.395,63.965
1532402740.291,-14.160,28.809,35.156,6.836,39.551
1532402740.294,-18.066,30.762,34.668,3.418,16.602
1532402740.298,-16.113,29.297,35.156,-0.488,18.066
1532402740.302,-11.719,35.156,30.762,0.000,12.207
1532402740.306,-12.695,36.133,28.809,-4.883,24.902
1532402740.310,-17.090,29.785,31.250,-9.766,47.363
1532402740.314,-24.414,27.832,26.367,-18.066,-4.395
1532402740.318,-20.508,32.227,29.785,-17.578,-6.836
1532402740.322,-15.625,35.645,29.785,-13.184,26.855
1532402740.326,-21.973,27.832,29.785,-13.672,37.598
1532402740.330,-13.672,31.250,35.156,-5.859,30.273
1532402740.334,-12.207,36.133,32.715,-6.836,5.371
1532402740.337,-26.367,26.367,30.762,-6.348,33.691
1532402740.341,-27.832,28.320,29.785,-1.465,24.902
1532402740.345,-28.320,29.297,29.785,-1.953,25.879
1532402740.349,-28.809,29.297,28.809,0.000,42.969
1532402740.353,-31.250,25.391,29.297,-4.883,33.691
1532402740.357,-23.438,33.203,35.645,-0.977,27.832
1532402740.361,-21.484,37.109,35.645,2.930,32.227
1532402740.365,-20.996,35.645,32.715,-2.930,41.992
1532402740.369,-9.766,52.734,37.598,2.441,35.645
1532402740.373,-10.742,40.039,30.273,-1.465,30.273
1532402740.376,-21.973,15.137,22.461,-18.066,38.574
1532402740.380,-18.066,17.578,27.344,-15.625,26.367
1532402740.384,-9.277,33.691,34.668,-3.906,-0.977
1532402740.388,-9.766,39.551,33.691,-12.207,16.602
1532402740.392,-2.930,33.691,30.762,-15.625,31.250
1532402740.396,4.395,47.852,37.109,-12.695,26.855
1532402740.400,-8.301,39.551,33.691,-18.066,20.996
1532402740.404,-15.625,16.113,26.367,-14.648,33.691
1532402740.408,-9.766,24.414,31.250,-3.418,72.266
1532402740.412,-8.789,29.297,31.738,1.953,59.082
1532402740.416,-7.812,38.086,29.297,1.465,37.598
1532402740.419,-7.812,40.527,31.738,0.488,29.785
1532402740.423,-8.301,33.203,34.180,1.953,43.945
1532402740.427,-12.695,35.156,33.691,5.371,35.156
1532402740.431,-17.090,28.809,29.297,-0.977,11.719
1532402740.435,-14.160,30.762,28.320,-2.441,18.555
1532402740.439,-14.160,39.062,25.391,-3.906,58.594
1532402740.443,-15.625,36.133,26.855,-9.766,43.945
1532402740.447,-10.254,42.969,32.715,-1.465,7.812
1532402740.451,-10.742,41.016,31.250,-0.488,26.367
1532402740.455,-13.184,26.367,32.227,-5.859,22.461
1532402740.458,-7.812,33.691,38.574,3.906,19.531
1532402740.462,-7.324,37.109,38.086,5.371,31.250
1532402740.466,-8.301,32.227,33.203,-0.977,25.391
1532402740.470,-8.789,35.156,32.715,1.953,12.695
1532402740.474,-10.742,38.574,34.180,5.371,26.367
1532402740.478,-7.812,38.086,35.645,9.277,64.941
1532402740.482,-3.906,34.180,36.133,11.719,41.992
1532402740.486,-1.953,34.668,33.691,7.812,28.809
1532402740.490,-0.488,35.156,31.250,8.789,61.523
1532402740.494,-3.418,24.902,30.273,6.836,16.602
1532402740.498,-3.906,21.973,31.250,-0.488,-5.371
1532402740.501,-3.418,31.250,34.180,1.465,36.133
1532402740.505,-7.812,35.156,33.691,5.859,35.156
1532402740.509,-6.348,41.504,36.133,11.230,23.438
1532402740.513,7.812,44.434,47.363,21.973,15.137
1532402740.517,-9.277,33.203,40.039,3.418,21.484
1532402740.521,-27.344,23.438,21.973,-21.973,27.344
1532402740.525,-18.555,27.344,22.949,-11.719,26.367
1532402740.529,-24.414,31.738,29.297,-6.348,18.066
1532402740.533,-29.297,33.203,30.762,-12.695,0.977
1532402740.537,-29.297,33.691,30.273,-19.043,-5.371
1532402740.541,-28.809,40.039,33.691,-12.207,29.785
1532402740.544,-26.855,51.758,37.109,-3.418,75.195
1532402740.548,-34.180,48.828,33.691,-6.348,69.336
1532402740.552,-32.715,37.109,32.715,-2.441,35.645
1532402740.556,-29.297,28.320,33.691,-2.441,27.832
1532402740.560,-33.203,22.461,30.762,-7.324,56.641
1532402740.564,-28.809,25.391,30.273,-7.812,41.504
1532402740.568,-22.461,41.992,38.574,-3.906,29.297
1532402740.572,-16.113,52.246,44.922,-2.930,61.523
1532402740.576,-19.043,41.992,36.621,-14.648,33.203
1532402740.580,-21.973,34.180,33.691,-20.996,7.324
1532402740.583,-16.602,31.738,33.203,-21.484,-12.207
1532402740.587,-5.859,38.574,38.086,-10.742,1.953
1532402740.591,-2.441,45.410,39.551,-4.395,50.293
1532402740.595,-8.789,43.457,34.668,-1.953,48.828
1532402740.599,-13.184,41.992,39.551,3.906,39.062
1532402740.603,-13.672,38.086,44.922,10.254,22.461
1532402740.607,-20.508,32.227,38.574,14.160,23.926
1532402740.611,-25.879,22.949,33.691,19.531,39.062
1532402740.615,-21.973,23.438,38.086,19.531,4.883
1532402740.619,-18.066,30.273,37.109,15.137,5.371
1532402740.623,-13.184,37.109,41.016,14.648,26.855
1532402740.626,-14.648,41.504,41.992,15.625,18.555
1532402740.630,-8.301,38.086,38.574,14.648,20.020
1532402740.634,-3.418,36.621,41.504,12.695,17.090
1532402740.638,-16.602,30.273,38.574,6.836,20.020
1532402740.642,-22.949,19.531,36.133,-4.395,43.457
1532402740.646,-22.461,21.973,39.551,-7.324,30.273
1532402740.650,-19.043,29.785,41.504,-4.883,29.297
1532402740.654,-21.484,29.785,39.062,-9.766,53.711
1532402740.658,-18.066,41.016,36.133,-0.488,41.504
1532402740.662,-16.602,50.781,38.086,10.742,51.270
1532402740.666,-26.855,33.691,41.992,4.883,54.688
1532402740.669,-36.133,20.508,39.062,-2.930,30.273
1532402740.673,-40.527,21.484,29.785,-5.859,38.086
1532402740.677,-41.016,25.879,28.320,-0.488,39.062
1532402740.681,-31.250,35.156,39.551,8.789,24.414
1532402740.685,-23.438,50.781,41.992,16.602,15.137
1532402740.689,-29.785,42.480,35.156,10.742,23.438
1532402740.693,-36.133,30.273,34.668,0.977,35.156
1532402740.697,-37.109,28.809,37.109,-6.836,17.090
1532402740.701,-41.504,24.414,37.598,-5.859,-5.859
1532402740.705,-41.504,33.203,40.039,-0.488,13.672
1532402740.708,-41.504,30.762,38.086,-0.977,38.086
1532402740.712,-50.781,23.926,35.156,-3.418,27.344
1532402740.716,-48.828,27.344,34.180,-7.812,33.203
1532402740.720,-43.457,26.367,30.273,-7.812,24.414
1532402740.724,-38.086,38.086,30.762,0.488,23.438
1532402740.728,-35.156,38.574,28.320,-3.418,29.785
1532402740.732,-32.715,38.574,27.344,-6.836,30.762
1532402740.736,-29.785,41.504,30.762,-8.789,-9.766
1532402740.740,-30.273,32.715,27.832,-7.324,-14.160
1532402740.744,-27.832,27.344,24.414,-2.930,49.805
1532402740.748,-24.902,24.414,25.879,-0.488,72.266
1532402740.751,-19.043,40.039,28.320,9.277,41.016
1532402740.755,-14.648,47.363,30.762,12.207,30.762
1532402740.759,-20.508,27.344,28.320,11.719,68.359
1532402740.763,-20.020,20.508,30.762,17.090,59.570
1532402740.767,-19.043,21.484,31.738,15.137,13.672
1532402740.771,-19.531,28.320,33.691,13.184,7.812
1532402740.775,-21.484,39.551,34.668,9.277,-0.488
1532402740.779,-24.414,27.832,28.320,2.441,11.719
1532402740.783,-19.531,24.414,28.320,2.441,32.715
1532402740.787,-20.020,32.715,27.832,-2.441,34.180
1532402740.791,-18.555,34.180,28.809,-4.395,27.344
1532402740.794,-20.020,29.297,27.832,-4.395,25.879
1532402740.798,-12.695,23.926,33.203,0.488,13.184
1532402740.802,-3.906,31.250,34.668,3.418,-2.930
1532402740.806,-9.766,39.062,19.043,-10.254,42.480
1532402740.810,-7.324,33.691,19.043,-2.930,50.781
1532402740.814,-1.465,35.156,34.668,7.324,-4.395
1532402740.818,5.371,36.621,33.691,10.742,-2.930
1532402740.822,5.859,24.414,27.344,18.066,26.855
1532402740.826,3.418,20.020,31.250,24.414,54.199
1532402740.830,1.953,26.367,34.180,26.367,44.922
1532402740.833,-6.836,26.367,30.762,16.113,21.973
1532402740.837,-5.859,20.508,26.367,20.996,25.391
1532402740.841,-0.488,19.043,30.762,27.344,22.949
1532402740.845,-0.977,24.414,32.227,24.414,11.230
1532402740.849,0.000,30.273,29.785,23.438,-8.789
1532402740.853,-5.371,23.438,33.203,19.043,-11.719
1532402740.857,-8.789,22.461,28.320,14.160,11.230
1532402740.861,-6.348,31.738,22.461,7.812,24.414
1532402740.865,-4.883,35.156,29.785,11.719,1.953
1532402740.869,-5.859,30.273,29.297,12.207,14.160
1532402740.873,-6.348,27.832,25.879,9.766,30.273
1532402740.876,2.930,36.621,35.156,14.648,17.090
1532402740.880,5.371,35.645,34.668,14.160,50.781
1532402740.884,5.859,34.668,36.133,22.949,34.180
1532402740.888,5.371,30.273,37.109,26.367,40.039
1532402740.892,-3.906,18.555,30.273,17.578,66.406
1532402740.896,-17.090,22.461,34.668,14.648,26.367
1532402740.900,-18.555,27.344,34.668,18.066,20.020
1532402740.904,-8.301,40.039,35.156,23.926,33.691
1532402740.908,-14.160,38.086,34.180,17.578,58.105
1532402740.912,-22.949,25.879,27.344,11.719,55.664
1532402740.915,-15.137,35.645,31.738,10.254,15.137
1532402740.919,-11.719,38.086,34.180,15.625,20.996
1532402740.923,-17.090,20.508,31.250,13.672,41.992
1532402740.927,-14.648,26.855,37.598,8.789,61.523
1532402740.931,-14.160,38.086,37.109,9.766,31.250
1532402740.935,-19.531,28.809,29.297,4.395,-0.977
1532402740.939,-18.555,22.461,29.297,-0.488,25.879
1532402740.943,-15.625,29.785,31.250,4.395,42.969
1532402740.947,-13.184,37.109,32.227,5.371,42.480
1532402740.951,-10.742,30.273,33.203,-2.441,34.668
1532402740.955,-12.695,24.414,31.738,-1.953,23.926
1532402740.958,-1.465,35.156,33.691,3.418,39.551
1532402740.962,4.883,51.758,36.133,3.418,53.711
1532402740.966,-5.371,37.598,29.785,-1.465,71.289
1532402740.970,-4.883,25.879,28.320,1.465,75.195
1532402740.974,-2.930,30.273,38.086,7.812,20.508
1532402740.978,-0.977,31.250,42.480,10.742,3.418
1532402740.982,-7.812,23.438,34.668,10.742,24.902
1532402740.986,-8.789,28.809,34.668,16.113,32.227
1532402740.990,-10.254,31.738,35.156,14.648,57.129
1532402740.994,-15.137,25.391,38.086,13.184,59.570
1532402740.998,-12.695,34.668,41.504,17.578,55.176
1532402741.001,-14.648,40.039,34.668,14.648,38.086
1532402741.005,-9.766,50.293,44.434,20.508,24.902
1532402741.009,-15.137,39.551,43.945,20.020,40.527
1532402741.013,-30.762,14.648,25.879,0.488,10.742
1532402741.017,-27.344,17.578,25.391,-13.672,-5.371
1532402741.021,-21.484,27.344,30.762,-7.324,58.594
1532402741.025,-15.137,42.480,36.133,-1.953,81.543
1532402741.029,-15.137,49.316,31.738,-2.930,80.078
1532402741.033,-19.531,33.691,29.785,-9.277,36.621
1532402741.037,-17.578,31.738,35.645,-10.742,30.762
1532402741.040,-16.602,36.621,31.250,-9.277,54.199
1532402741.044,-17.578,34.668,31.738,-5.859,25.879
1532402741.048,-14.648,31.250,30.273,-8.301,9.766
1532402741.052,-9.766,38.574,31.738,-8.789,14.160
1532402741.056,-6.836,42.969,33.203,-3.906,3.418
1532402741.060,-3.906,36.621,33.203,3.906,9.766
1532402741.064,-1.465,34.668,37.109,9.766,13.672
1532402741.068,-9.277,29.297,33.691,6.836,20.020
1532402741.072,-4.883,27.344,29.785,6.836,19.043
1532402741.076,-1.465,32.715,36.133,10.742,21.484
1532402741.080,-9.766,35.645,37.109,16.602,39.551
1532402741.083,-7.324,32.715,31.250,17.090,37.109
1532402741.087,-7.812,41.016,35.156,17.578,33.691
1532402741.091,-6.348,41.504,36.133,19.531,21.484
1532402741.095,-4.395,30.762,32.227,17.090,18.066
1532402741.099,-4.883,28.809,34.668,14.648,22.461
1532402741.103,-2.930,28.320,33.203,12.207,13.672
1532402741.107,7.812,30.273,25.391,11.719,26.855
1532402741.111,14.648,35.645,24.902,20.508,51.758
1532402741.115,-2.930,45.898,35.156,2.930,36.133
1532402741.119,-14.648,48.828,48.340,-11.719,15.137
1532402741.123,-19.531,33.691,42.480,-12.695,35.645
1532402741.126,-17.578,23.926,32.715,-14.160,40.527
1532402741.130,-17.090,29.785,37.109,-17.090,21.973
1532402741.134,-24.902,30.273,39.062,-22.461,16.602
1532402741.138,-15.625,30.273,38.574,-17.090,26.855
1532402741.142,-13.184,35.645,37.598,-16.602,4.395
1532402741.146,-16.113,39.551,41.992,-10.254,21.973
1532402741.150,-12.695,31.738,41.504,-5.859,40.527
1532402741.154,-10.254,36.133,39.551,0.000,25.879
1532402741.158,-6.836,44.434,41.992,7.324,41.504
1532402741.162,-11.230,28.320,37.109,3.418,52.734
1532402741.165,-11.230,17.578,34.668,-2.441,53.223
1532402741.169,-7.812,27.832,35.156,2.930,21.973
1532402741.173,-13.184,30.273,32.715,1.465,6.348
1532402741.177,-11.719,32.715,32.715,-5.859,4.395
1532402741.181,-6.348,42.480,34.180,1.953,11.719
1532402741.185,-8.301,29.297,37.109,4.395,32.227
1532402741.189,-9.766,27.344,43.457,7.812,25.391
1532402741.193,-12.207,41.016,38.086,8.301,24.414
1532402741.197,-18.555,25.879,29.785,-5.859,27.832
1532402741.201,-20.020,18.066,31.738,-2.930,39.062
1532402741.205,-14.160,29.785,35.156,0.488,40.527
1532402741.208,-13.184,33.203,35.156,-0.977,37.598
1532402741.212,-15.137,28.320,32.227,-5.371,16.113
1532402741.216,-13.184,20.020,27.832,-15.137,25.879
1532402741.220,-16.113,24.902,20.020,-20.508,44.434
1532402741.224,-3.418,37.598,22.461,-18.066,32.715
1532402741.228,14.648,44.434,30.762,-16.602,37.109
1532402741.232,10.742,30.273,23.926,-23.438,10.742
1532402741.236,12.207,22.461,30.762,-10.742,7.324
1532402741.240,12.695,21.484,34.668,3.906,25.391
1532402741.244,2.441,15.625,32.715,3.906,34.668
1532402741.248,0.977,22.949,36.621,7.324,59.082
1532402741.251,2.930,27.832,37.109,17.090,51.758
1532402741.255,4.395,26.855,39.062,14.160,20.508
1532402741.259,0.977,21.484,39.062,13.184,21.973
1532402741.263,3.418,23.438,36.621,20.508,20.020
1532402741.267,9.277,40.527,38.574,22.461,29.785
1532402741.271,6.836,30.762,34.180,14.160,36.621
1532402741.275,0.977,10.742,32.227,7.324,20.020
1532402741.279,-1.953,11.719,37.109,1.953,41.992
1532402741.283,0.977,15.625,36.133,3.418,36.133
1532402741.287,5.859,20.508,33.691,6.836,15.625
1532402741.290,11.230,28.809,34.668,13.184,22.461
1532402741.294,15.137,38.574,41.504,11.719,-3.418
1532402741.298,8.789,33.691,41.504,1.465,17.578
1532402741.302,4.883,24.414,39.551,8.301,37.109
1532402741.306,11.719,29.297,41.016,13.672,39.062
1532402741.310,13.672,30.273,33.203,9.277,33.691
1532402741.314,8.301,20.508,28.320,0.488,0.000
1532402741.318,5.859,14.160,35.156,-4.883,2.930
1532402741.322,12.207,28.809,39.062,-3.906,51.270
1532402741.326,16.113,36.621,39.062,-3.418,64.941
1532402741.330,20.020,36.133,40.527,3.418,52.246
1532402741.333,20.508,36.133,38.086,-4.395,16.602
1532402741.337,13.184,29.297,31.738,-18.555,-33.691
1532402741.341,16.113,29.785,36.621,-3.906,-19.531
1532402741.345,17.578,34.180,34.180,2.441,9.766
1532402741.349,8.301,29.785,22.461,-10.254,47.852
1532402741.353,10.742,28.809,26.367,-14.160,59.570
1532402741.357,15.625,33.203,31.738,-9.766,45.898
1532402741.361,4.883,25.879,33.691,-9.277,43.457
1532402741.365,5.859,24.902,38.086,-7.324,45.410
1532402741.369,7.812,36.621,38.574,-1.953,53.223
1532402741.372,6.348,41.016,35.156,4.395,58.105
1532402741.376,6.348,41.016,36.621,6.836,55.176
1532402741.380,5.371,33.203,37.109,6.836,49.316
1532402741.384,3.906,33.203,35.645,3.906,25.391
1532402741.388,3.418,43.457,34.668,4.395,39.062
1532402741.392,-0.977,34.180,34.180,3.906,45.410
1532402741.396,-6.836,24.902,31.250,-10.742,3.418
1532402741.400,-4.395,33.203,35.156,-6.348,5.859
1532402741.404,-3.906,36.621,41.504,0.488,18.066
1532402741.408,-10.254,32.227,38.574,-0.488,25.879
1532402741.412,-6.348,24.414,36.621,5.371,27.344
1532402741.415,10.254,39.062,42.969,17.090,15.625
1532402741.419,8.789,59.082,42.480,9.766,26.855
1532402741.423,-3.418,40.039,30.273,-4.395,34.180
1532402741.427,1.953,24.414,26.367,-0.488,24.902
1532402741.431,11.719,35.645,29.785,5.859,15.137
1532402741.435,10.254,39.551,28.809,-3.418,-2.930
1532402741.439,3.906,35.645,35.156,-6.348,2.930
1532402741.443,5.859,37.598,37.109,2.441,20.996
1532402741.447,16.113,49.805,35.156,8.789,39.551
1532402741.451,20.020,52.734,36.621,1.953,41.992
1532402741.455,16.602,41.016,38.574,-7.812,22.461
1532402741.458,15.137,31.738,38.574,-3.906,21.973
1532402741.462,17.578,31.738,36.133,-0.977,39.551
1532402741.466,23.926,42.480,38.574,2.441,27.832
1532402741.470,29.297,48.340,40.039,3.906,9.766
1532402741.474,31.738,52.734,40.527,5.371,29.785
1532402741.478,30.273,43.945,38.086,3.906,23.438
1532402741.482,32.227,31.250,32.227,6.836,35.156
1532402741.486,28.320,30.273,29.785,9.277,48.340
1532402741.490,33.203,38.086,28.320,10.254,41.992
1532402741.494,41.016,53.223,32.227,10.254,14.160
1532402741.497,29.785,42.480,34.180,1.953,22.949
1532402741.501,22.949,30.273,32.227,1.953,36.621
1532402741.505,26.855,40.527,32.227,7.812,21.484
1532402741.509,24.414,46.875,39.551,11.719,52.734
1532402741.513,17.578,36.621,40.527,0.488,51.270
1532402741.517,9.766,20.996,31.250,-14.648,7.812
1532402741.521,10.254,24.902,30.762,-13.672,27.344
1532402741.525,13.184,34.668,30.273,-5.859,66.406
1532402741.529,11.230,36.621,27.832,0.488,53.223
1532402741.533,13.672,48.340,33.203,0.977,29.785
1532402741.537,9.766,38.086,36.133,-5.859,7.324
1532402741.540,6.348,27.832,38.086,-4.395,9.766
1532402741.544,5.859,27.832,35.645,2.441,41.992
1532402741.548,6.836,23.438,35.645,7.324,48.828
1532402741.552,9.277,34.668,36.133,12.207,35.645
1532402741.556,16.602,40.527,36.621,13.184,56.641
1532402741.560,10.742,29.297,30.762,6.836,69.336
1532402741.564,-0.977,24.902,29.785,1.953,38.574
1532402741.568,6.836,33.691,34.668,9.766,28.320
1532402741.572,4.395,33.691,33.691,8.301,35.645
1532402741.576,4.395,40.039,37.598,-0.977,-0.977
1532402741.580,5.371,47.852,38.086,0.977,5.371
1532402741.583,2.441,35.156,39.062,0.977,49.316
1532402741.587,4.883,33.203,41.992,2.441,29.785
1532402741.591,2.930,35.156,39.062,1.465,24.902
1532402741.595,3.906,37.109,38.086,-4.395,25.879
1532402741.599,6.836,42.480,39.551,-7.812,14.648
1532402741.603,2.441,45.898,39.551,-8.301,33.691
1532402741.607,-3.418,41.016,36.133,-13.672,16.113
1532402741.611,-5.859,45.898,32.227,-18.066,-3.906
1532402741.615,-2.441,46.387,29.785,-20.020,-2.441
1532402741.619,5.371,38.086,35.645,-13.184,0.000
1532402741.622,-12.695,37.598,42.480,-24.414,7.812
1532402741.626,-32.715,41.992,48.340,-39.062,24.902
1532402741.630,-26.855,49.805,51.270,-32.227,51.758
1532402741.634,-30.273,46.387,47.852,-41.504,-14.648
1532402741.638,-39.062,43.457,49.316,-51.270,-17.090
1532402741.642,-37.109,52.734,57.129,-44.922,35.645
1532402741.646,-42.480,56.641,57.129,-46.387,31.250
1532402741.650,-60.059,42.480,50.293,-56.152,32.715
1532402741.654,-62.012,42.480,50.781,-60.059,29.297
1532402741.658,-58.105,44.434,53.223,-58.105,30.273
1532402741.662,-57.129,50.781,55.176,-55.664,40.527
1532402741.665,-54.199,64.453,50.781,-60.547,36.621
1532402741.669,-52.734,62.500,48.828,-66.406,31.738
1532402741.673,-50.293,59.570,54.688,-62.012,28.809
1532402741.677,-51.758,53.711,55.176,-57.617,13.672
1532402741.681,-57.617,52.734,58.105,-56.152,32.227
1532402741.685,-52.246,55.664,65.918,-53.711,15.625
1532402741.689,-44.434,55.176,65.430,-47.363,21.973
1532402741.693,-41.992,51.270,60.547,-47.852,25.879
1532402741.697,-34.180,52.734,60.059,-36.621,28.320
1532402741.701,-36.133,52.734,58.105,-32.715,41.016
1532402741.705,-39.062,42.480,51.758,-35.156,13.184
1532402741.708,-29.785,45.898,47.852,-20.020,23.438
1532402741.712,-26.367,42.969,45.410,-17.578,33.203
1532402741.716,-31.738,32.715,44.434,-25.391,9.766
1532402741.720,-34.668,35.156,44.922,-23.438,2.441
1532402741.724,-25.879,41.016,46.387,-18.066,27.344
1532402741.728,-14.648,45.898,52.246,-4.883,26.367
1532402741.732,-12.695,45.410,50.781,-5.859,28.809
1532402741.736,-7.812,29.785,41.992,-8.789,59.082
1532402741.740,-0.977,26.855,36.621,-1.465,35.156
1532402741.744,-2.441,22.949,37.109,-2.930,21.484
1532402741.747,13.184,23.438,40.527,5.371,25.391
1532402741.751,17.578,25.879,35.645,12.207,25.879
1532402741.755,10.742,28.809,35.645,14.648,25.391
1532402741.759,8.789,29.785,39.551,19.531,9.766
1532402741.763,7.324,26.367,37.598,22.949,47.363
1532402741.767,17.090,28.809,34.180,27.344,51.270
1532402741.771,11.719,18.555,30.762,24.414,41.016
1532402741.775,3.906,11.230,31.738,25.879,35.156
1532402741.779,9.277,14.160,34.180,31.250,29.785
1532402741.783,11.719,20.996,33.203,31.250,52.246
1532402741.787,5.859,15.625,35.645,25.879,39.551
1532402741.790,4.883,12.695,35.645,19.043,48.340
1532402741.794,10.742,15.625,32.227,18.555,38.086
1532402741.798,17.578,16.602,33.691,24.902,-8.789
1532402741.802,18.555,12.695,27.832,22.949,0.488
1532402741.806,20.996,8.301,26.367,21.973,16.602
1532402741.810,26.855,19.043,28.809,22.949,30.273
1532402741.814,29.785,22.949,29.297,16.602,24.902
1532402741.818,29.297,17.578,30.273,16.602,-11.230
1532402741.822,36.621,20.508,33.203,24.902,0.488
1532402741.826,36.621,33.203,34.668,31.250,55.664
1532402741.830,29.297,28.320,30.762,28.809,72.266
1532402741.833,30.762,10.742,33.203,27.832,24.902
1532402741.837,27.832,9.766,31.250,29.297,15.137
1532402741.841,18.066,15.137,29.297,23.926,37.598
1532402741.845,19.043,21.973,33.691,22.949,46.387
1532402741.849,23.926,32.715,31.250,26.367,45.898
1532402741.853,20.508,31.250,29.785,13.672,19.531
1532402741.857,14.160,13.184,26.367,-0.977,36.621
1532402741.861,21.973,9.277,24.414,9.277,48.340
1532402741.865,33.203,19.043,25.391,10.254,35.156
1532402741.869,41.016,27.344,29.297,7.812,40.039
1532402741.872,50.781,35.156,31.250,12.695,24.414
1532402741.876,45.898,22.461,26.367,8.301,9.277
1532402741.880,40.527,7.324,29.785,14.160,9.766
1532402741.884,47.852,20.996,38.086,31.250,-5.859
1532402741.888,40.527,28.809,38.574,30.273,14.648
1532402741.892,18.555,13.184,29.297,21.973,32.715
1532402741.896,16.602,18.066,32.715,22.461,32.715
1532402741.900,12.207,22.949,36.621,21.484,30.762
1532402741.904,2.930,13.672,26.855,18.555,17.090
1532402741.908,3.418,21.973,30.762,23.438,37.109
1532402741.912,2.930,28.809,35.156,23.438,30.762
1532402741.915,-1.465,12.207,27.832,14.648,33.691
1532402741.919,1.953,3.906,27.344,13.672,33.203
1532402741.923,14.160,15.625,30.762,20.996,10.742
1532402741.927,21.973,19.531,29.297,23.926,24.414
1532402741.931,22.949,27.832,32.227,28.320,40.527
1532402741.935,25.879,38.086,37.109,26.855,24.414
1532402741.939,21.484,18.066,32.227,20.508,7.324
1532402741.943,17.090,10.254,29.785,21.484,23.926
1532402741.947,20.020,24.902,37.109,20.508,35.645
1532402741.951,16.602,22.949,36.133,12.695,19.531
1532402741.954,19.043,16.113,29.297,3.906,9.277
1532402741.958,25.391,24.414,31.250,6.836,41.016
1532402741.962,23.926,32.715,30.762,14.160,53.223
1532402741.966,26.367,30.273,31.250,18.066,42.480
1532402741.970,20.020,32.715,29.297,17.090,30.273
1532402741.974,8.789,15.625,26.855,12.207,39.062
1532402741.978,4.395,3.906,29.297,9.277,45.410
1532402741.982,5.859,23.438,29.785,9.277,29.297
1532402741.986,8.789,29.785,30.762,13.184,45.410
1532402741.990,5.859,14.648,32.227,13.672,39.062
1532402741.994,-0.977,9.277,27.832,3.418,17.090
1532402741.997,1.465,20.996,29.297,-4.395,34.668
1532402742.001,5.371,25.391,36.621,1.953,56.152
1532402742.005,5.371,19.531,39.551,7.812,50.293
1532402742.009,8.301,24.902,36.621,9.277,27.344
1532402742.013,11.719,28.809,34.668,10.254,31.738
1532402742.017,9.277,14.648,34.180,6.348,35.645
1532402742.021,7.324,11.230,34.668,9.277,23.926
1532402742.025,6.836,13.184,34.180,11.230,8.789
1532402742.029,9.277,20.996,38.574,11.719,16.602
1532402742.033,15.137,35.156,41.016,17.090,20.508
1532402742.037,8.789,20.020,34.180,10.742,9.766
1532402742.040,0.488,4.883,28.809,6.836,55.176
1532402742.044,4.395,25.879,27.832,15.137,52.246
1532402742.048,6.836,36.133,28.320,20.508,14.648
1532402742.052,1.953,23.438,29.785,12.207,9.277
1532402742.056,1.953,24.414,29.297,8.301,15.137
1532402742.060,5.859,33.691,30.762,15.625,22.949
1532402742.064,2.441,27.832,35.645,16.602,38.574
1532402742.068,-2.930,12.695,34.668,9.277,31.738
1532402742.072,-1.465,14.160,40.039,7.324,33.203
1532402742.076,2.441,30.762,42.969,11.230,39.062
1532402742.079,-1.465,22.949,38.086,12.695,41.016
1532402742.083,1.953,12.695,42.969,25.391,31.250
1532402742.087,4.395,12.695,41.504,23.438,14.648
1532402742.091,-2.930,9.277,29.785,5.859,44.434
1532402742.095,-3.906,17.090,26.855,0.000,12.695
1532402742.099,0.977,21.484,28.320,3.906,-21.484
1532402742.103,4.395,22.949,29.785,13.672,-2.441
1532402742.107,5.371,28.320,30.273,13.672,15.137
1532402742.111,6.836,29.297,30.273,8.301,22.949
1532402742.115,9.766,31.738,29.297,10.742,27.344
1532402742.119,8.301,20.020,22.949,9.766,34.668
1532402742.122,6.348,14.160,23.926,6.836,18.066
1532402742.126,6.348,22.461,26.367,12.207,12.207
1532402742.130,9.766,31.738,26.367,20.508,22.949
1532402742.134,10.742,27.344,24.902,16.113,3.906
1532402742.138,10.742,23.926,29.297,17.578,5.371
1532402742.142,6.836,20.996,33.691,23.438,30.762
1532402742.146,-2.441,8.301,31.738,22.461,23.926
1532402742.150,0.977,10.742,28.809,20.508,3.906
1532402742.154,5.859,25.391,30.273,22.461,-0.977
1532402742.158,5.371,25.879,34.180,28.809,28.320
1532402742.162,4.883,8.789,30.762,17.578,41.504
1532402742.165,3.418,11.719,26.367,9.277,32.227
1532402742.169,9.277,28.320,32.715,16.602,52.246
1532402742.173,10.742,35.645,36.133,12.695,25.879
1532402742.177,1.953,18.066,27.344,-0.488,-10.254
1532402742.181,2.441,10.254,30.273,6.836,35.645
1532402742.185,13.184,31.250,36.621,16.113,52.734
1532402742.189,11.719,35.645,26.367,11.719,34.180
1532402742.193,-1.953,11.230,20.508,8.301,31.250
1532402742.197,7.812,30.273,34.668,21.484,60.059
1532402742.201,10.742,42.969,38.574,23.438,47.363
1532402742.204,-7.812,6.348,24.902,6.348,24.414
1532402742.208,-0.977,10.742,25.879,13.672,47.852
1532402742.212,4.395,22.461,24.414,17.090,46.875
1532402742.216,10.742,27.832,27.832,15.625,18.066
1532402742.220,20.508,33.203,32.227,21.973,13.184
1532402742.224,16.602,14.648,26.367,20.020,31.250
1532402742.228,20.020,13.184,21.973,20.508,40.039
1532402742.232,25.391,14.160,16.602,16.113,28.320
1532402742.236,31.738,26.855,22.949,14.160,11.230
1532402742.240,28.809,38.574,32.715,11.719,3.906
1532402742.244,20.508,29.297,31.250,5.371,24.902
1532402742.247,28.320,22.461,28.809,6.836,32.227
1532402742.251,31.250,25.879,23.438,7.812,48.340
1532402742.255,19.043,23.438,23.438,6.836,51.270
1532402742.259,20.020,24.902,29.785,9.277,31.738
1532402742.263,19.043,28.320,29.785,12.207,32.715
1532402742.267,16.113,27.344,29.785,13.672,35.156
1532402742.271,20.020,28.809,32.227,17.090,51.758
1532402742.275,19.043,19.531,31.738,17.578,24.902
1532402742.279,12.207,12.207,25.879,11.230,7.324
1532402742.283,18.555,29.785,30.273,19.043,40.039
1532402742.287,29.297,44.922,35.156,25.879,43.457
1532402742.290,18.555,23.926,28.809,12.207,39.062
1532402742.294,14.160,21.973,25.391,10.742,61.523
1532402742.298,15.625,22.949,22.461,12.207,40.039
1532402742.302,13.672,15.137,20.020,5.859,35.645
1532402742.306,15.137,24.414,19.043,7.324,53.223
1532402742.310,14.648,39.062,23.438,10.254,66.406
1532402742.314,11.230,36.133,24.902,9.766,42.480
1532402742.318,7.324,20.996,20.508,4.395,6.348
1532402742.322,4.883,25.879,21.973,1.953,20.020
1532402742.326,8.789,34.668,24.414,7.324,51.758
1532402742.329,8.301,30.762,24.902,9.277,45.410
1532402742.333,13.672,32.715,32.227,13.184,-1.465
1532402742.337,15.137,35.645,25.391,14.160,9.766
1532402742.341,2.930,21.484,10.742,4.883,42.969
1532402742.345,2.441,12.695,12.695,3.906,47.363
1532402742.349,12.207,27.832,18.555,11.719,64.453
1532402742.353,16.602,38.574,16.113,10.742,60.059
1532402742.357,11.230,30.273,18.066,3.906,31.738
1532402742.361,10.254,29.297,23.438,9.766,19.531
1532402742.365,9.277,28.809,19.043,10.254,21.973
1532402742.369,-2.441,16.602,16.113,4.395,30.273
1532402742.372,-4.883,21.484,15.625,1.465,12.207
1532402742.376,2.930,32.227,16.602,0.977,-8.789
1532402742.380,7.812,37.598,17.090,8.301,12.695
1532402742.384,5.371,32.227,13.672,7.812,28.809
1532402742.388,4.395,22.461,13.672,6.836,37.598
1532402742.392,5.371,23.438,14.160,10.254,27.344
1532402742.396,5.859,27.832,17.090,11.719,12.207
1532402742.400,12.695,42.969,20.996,12.695,27.832
1532402742.404,10.254,37.598,14.648,10.254,28.809
1532402742.408,1.953,17.578,12.695,5.371,38.086
1532402742.411,6.348,29.297,19.043,9.766,40.039
1532402742.415,10.742,37.109,22.461,8.789,20.020
1532402742.419,6.836,26.367,19.531,6.348,2.441
1532402742.423,4.883,24.902,16.113,12.207,44.922
1532402742.427,4.883,26.855,17.090,13.672,74.219
1532402742.431,3.418,30.273,19.043,11.230,48.828
1532402742.435,7.324,36.133,21.484,12.695,44.434
1532402742.439,12.207,25.879,22.949,16.602,34.668
1532402742.443,14.648,9.277,18.066,15.137,46.387
1532402742.447,15.137,17.090,16.113,4.883,52.246
1532402742.451,15.137,26.855,12.207,-1.953,38.574
1532402742.454,22.461,35.156,13.184,-3.418,6.836
1532402742.458,26.367,31.738,8.789,0.977,13.184
1532402742.462,22.949,28.320,8.789,12.207,25.391
1532402742.466,16.113,34.668,20.020,12.207,32.715
1532402742.470,8.789,24.902,14.648,5.371,38.086
1532402742.474,-0.977,16.602,7.812,0.977,0.488
1532402742.478,-3.906,20.020,8.789,5.859,18.066
1532402742.482,3.418,34.668,17.578,10.742,19.531
1532402742.486,-0.977,28.320,12.207,0.488,21.973
1532402742.490,-0.488,9.277,6.836,-4.883,43.945
1532402742.494,7.324,17.090,11.719,-2.441,43.457
1532402742.497,9.766,17.578,5.371,-4.395,18.066
1532402742.501,25.391,21.973,7.324,2.441,29.297
1532402742.505,32.715,34.180,12.207,0.000,43.945
1532402742.509,29.785,38.086,10.254,-5.859,16.113
1532402742.513,33.203,29.785,5.371,-12.207,-1.953
1532402742.517,27.344,18.555,3.418,-22.461,-3.418
1532402742.521,20.996,18.066,10.742,-11.719,14.648
1532402742.525,19.531,29.785,15.625,1.465,36.133
1532402742.529,13.672,34.668,10.254,-0.977,34.180
1532402742.533,6.836,16.602,7.812,-1.953,22.461
1532402742.536,9.766,21.484,12.207,8.301,17.578
1532402742.540,16.602,36.621,10.254,15.625,45.410
1532402742.544,13.184,26.855,4.883,14.160,63.477
1532402742.548,14.160,22.949,7.812,16.113,39.062
1532402742.552,17.090,33.203,10.742,17.578,9.277
1532402742.556,24.414,41.504,14.648,17.578,34.180
1532402742.560,22.949,35.645,13.184,19.043,42.969
1532402742.564,5.371,19.531,4.395,12.695,27.832
1532402742.568,4.395,11.719,1.465,7.812,34.180
1532402742.572,11.719,22.461,-0.488,14.160,3.418
1532402742.576,17.578,37.109,6.348,13.184,4.883
1532402742.579,23.926,46.387,12.695,14.160,23.926
1532402742.583,20.020,35.645,1.953,8.789,29.297
1532402742.587,9.766,15.137,-1.953,-1.953,22.461
1532402742.591,10.254,18.066,0.488,-1.465,-1.953
1532402742.595,15.137,27.832,0.977,-2.441,-0.488
1532402742.599,26.367,42.969,5.859,5.859,2.441
1532402742.603,30.762,47.852,7.324,14.160,5.859
1532402742.607,22.461,32.715,4.883,10.254,10.254
1532402742.611,20.508,24.414,3.906,5.859,18.066
1532402742.615,25.391,32.715,8.789,6.348,-4.883
1532402742.619,23.926,32.227,7.812,7.812,-9.766
1532402742.622,21.484,25.391,5.859,15.625,5.859
1532402742.626,23.438,33.203,9.277,16.113,19.043
1532402742.630,20.020,34.180,4.395,11.230,35.645
1532402742.634,20.020,28.809,7.812,15.625,15.137
1532402742.638,24.414,34.668,10.254,18.066,13.184
1532402742.642,25.879,40.527,7.812,19.531,38.574
1532402742.646,23.438,25.391,5.371,18.555,43.945
1532402742.650,18.066,14.160,0.977,17.090,63.477
1532402742.654,25.391,24.902,-0.977,14.648,25.391
1532402742.658,42.969,35.156,4.883,25.391,19.531
1532402742.661,32.715,40.527,19.531,28.320,63.477
1532402742.665,14.160,35.645,17.578,11.230,54.199
1532402742.669,11.230,15.625,4.883,5.859,33.691
1532402742.673,15.137,18.066,7.812,9.277,17.090
1532402742.677,19.531,21.484,4.395,13.672,33.203
1532402742.681,20.996,16.602,-2.441,3.906,32.227
1532402742.685,19.531,23.926,1.953,8.301,15.625
1532402742.689,14.160,31.250,5.859,16.602,24.902
1532402742.693,19.043,32.715,8.301,15.137,14.648
1532402742.697,23.926,39.062,13.672,14.648,-25.879
1532402742.701,16.113,29.297,10.742,11.230,-21.484
1532402742.704,13.184,18.555,7.324,10.254,35.645
1532402742.708,8.789,16.113,2.930,8.789,41.992
1532402742.712,2.930,11.719,-0.488,4.395,14.160
1532402742.716,8.789,17.578,1.953,6.348,23.926
1532402742.720,19.531,26.367,7.812,13.672,22.949
1532402742.724,26.367,35.156,9.766,18.555,12.207
1532402742.728,23.926,35.645,4.883,19.043,48.828
1532402742.732,26.855,35.645,6.836,22.461,36.133
1532402742.736,20.020,30.762,5.371,16.113,8.301
1532402742.740,14.648,19.043,-0.488,14.160,16.113
1532402742.744,14.160,15.137,-0.977,17.578,7.324
1532402742.747,13.672,24.902,0.977,19.043,24.414
1532402742.751,12.695,29.297,0.488,20.996,22.949
1532402742.755,5.859,24.414,0.488,15.137,2.441
1532402742.759,6.836,35.156,4.883,20.508,0.977
1532402742.763,3.906,29.785,3.906,21.973,19.043
1532402742.767,14.160,25.391,10.742,21.973,23.438
1532402742.771,13.672,37.598,10.742,23.438,12.207
1532402742.775,-12.207,13.184,-1.953,10.254,5.371
1532402742.779,-6.836,3.418,0.977,14.648,29.785
1532402742.783,-0.977,18.066,3.418,18.066,37.598
1532402742.786,0.000,26.855,-0.488,11.719,21.973
1532402742.790,2.930,25.391,-4.883,13.184,32.227
1532402742.794,8.789,34.668,0.488,14.648,18.555
1532402742.798,15.137,48.340,3.418,19.531,-7.812
1532402742.802,12.207,38.086,-0.977,23.438,16.113
1532402742.806,7.812,20.508,-0.977,14.648,15.625
1532402742.810,3.418,10.742,-0.977,13.184,34.668
1532402742.814,7.324,19.531,3.418,17.578,48.828
1532402742.818,7.324,26.855,5.859,15.625,24.414
1532402742.822,-3.418,19.043,1.953,12.207,25.391
1532402742.826,2.930,24.902,5.371,18.066,12.207
1532402742.829,5.859,34.180,12.207,26.855,7.324
1532402742.833,2.441,36.133,12.207,25.391,5.371
1532402742.837,1.465,19.531,6.836,20.508,-1.465
1532402742.841,-1.465,3.906,5.371,19.531,42.969
1532402742.845,4.883,17.578,9.766,24.902,68.359
1532402742.849,9.277,24.902,8.789,30.762,52.734
1532402742.853,1.465,18.555,0.000,24.902,42.969
1532402742.857,5.859,24.902,8.789,25.879,24.902
1532402742.861,1.953,31.250,11.230,22.949,39.551
1532402742.865,-8.301,24.414,0.977,15.625,37.598
1532402742.868,-5.859,16.113,-0.977,18.555,14.648
1532402742.872,-0.977,20.996,5.859,18.066,14.160
1532402742.876,4.395,28.320,10.742,13.184,25.391
1532402742.880,0.000,28.320,8.301,19.531,45.898
1532402742.884,-3.418,22.949,4.395,23.926,31.738
1532402742.888,-6.348,20.020,0.488,13.672,22.461
1532402742.892,-6.348,21.484,4.883,18.066,34.180
1532402742.896,-2.930,18.066,7.324,18.066,29.785
1532402742.900,4.883,30.273,6.836,23.438,24.902
1532402742.904,8.301,31.738,3.906,26.367,28.809
1532402742.908,12.695,31.738,6.836,25.879,43.945
1532402742.911,15.137,32.715,9.277,25.391,41.504
1532402742.915,7.812,21.484,2.930,19.531,7.812
1532402742.919,5.859,21.484,3.418,21.973,-8.301
1532402742.923,9.766,25.879,4.395,29.297,9.277
1532402742.927,18.066,23.438,10.742,36.621,28.809
1532402742.931,18.066,37.109,15.137,23.926,35.156
1532402742.935,8.301,36.133,5.371,3.906,2.441
1532402742.939,3.906,20.508,3.906,3.906,11.230
1532402742.943,0.977,27.344,13.184,13.672,45.898
1532402742.947,10.742,42.969,10.254,20.020,45.410
1532402742.951,9.766,40.527,8.301,17.090,39.062
1532402742.954,0.488,27.832,7.324,14.648,26.367
1532402742.958,3.418,22.461,6.348,12.695,34.180
1532402742.962,6.348,30.762,10.254,11.719,53.711
1532402742.966,10.254,32.715,12.207,17.090,43.457
1532402742.970,10.742,31.738,8.301,16.602,27.832
1532402742.974,6.836,27.344,4.883,6.348,21.484
1532402742.978,9.277,23.926,11.230,5.859,10.254
1532402742.982,10.254,25.879,9.277,13.672,23.926
1532402742.986,11.719,34.180,6.836,13.672,30.762
1532402742.990,7.324,35.645,7.324,9.277,52.734
1532402742.993,10.254,34.668,14.160,13.184,78.613
1532402742.997,5.859,35.156,15.625,11.230,56.152
1532402743.001,-5.859,18.555,7.812,4.883,21.484
1532402743.005,-0.977,16.113,10.742,9.766,10.254
1532402743.009,-0.977,21.973,9.766,9.277,14.160
1532402743.013,-1.465,23.438,9.277,4.395,44.434
1532402743.017,7.324,33.203,12.695,7.812,42.480
1532402743.021,9.277,35.156,11.230,11.719,24.414
1532402743.025,4.395,26.367,15.137,10.254,33.203
1532402743.029,0.977,32.227,19.043,11.719,37.109
1532402743.033,-5.859,29.785,9.766,-1.953,-8.789
1532402743.036,-7.812,20.020,6.836,-11.719,-12.695
1532402743.040,-6.348,22.949,15.625,3.418,13.672
1532402743.044,-3.906,34.180,20.996,12.695,17.090
1532402743.048,-7.812,33.691,17.090,5.859,25.391
1532402743.052,-4.883,34.668,14.160,0.000,32.715
1532402743.056,-1.465,42.969,16.602,-1.953,25.879
1532402743.060,-13.184,28.809,14.648,-14.648,31.250
1532402743.064,-17.090,28.320,12.207,-24.902,30.762
1532402743.068,-10.742,40.039,11.719,-24.414,10.254
1532402743.072,-4.395,36.621,8.301,-18.555,24.414
1532402743.076,-3.906,42.969,18.066,-21.484,10.254
1532402743.079,-12.207,48.340,34.668,-25.879,14.648
1532402743.083,-24.414,43.457,30.762,-32.715,15.625
1532402743.087,-37.109,47.363,17.090,-46.387,27.832
1532402743.091,-41.992,45.410,14.160,-48.340,37.109
1532402743.095,-37.109,46.875,24.414,-35.645,37.598
1532402743.099,-31.738,58.105,36.133,-26.367,46.875
1532402743.103,-42.480,49.316,31.738,-32.715,19.531
1532402743.107,-54.199,39.551,29.785,-39.062,15.137
1532402743.111,-59.570,45.898,32.227,-43.457,23.926
1532402743.115,-59.570,50.781,33.691,-54.199,10.742
1532402743.118,-58.594,53.711,30.273,-64.453,-8.789
1532402743.122,-57.129,56.641,27.344,-59.082,0.488
1532402743.126,-54.199,59.082,31.250,-52.246,23.438
1532402743.130,-53.223,59.570,32.715,-58.105,37.109
1532402743.134,-49.805,59.570,36.133,-61.035,19.043
1532402743.138,-53.711,51.270,39.062,-61.523,28.809
1532402743.142,-50.781,43.945,40.527,-55.176,48.828
1532402743.146,-33.691,46.875,40.527,-52.734,27.832
1532402743.150,-27.832,46.387,39.551,-52.734,19.043
1532402743.154,-28.320,42.969,34.668,-41.992,21.973
1532402743.158,-25.879,36.133,34.668,-33.203,16.113
1532402743.161,-22.949,33.691,39.551,-24.414,30.762
1532402743.165,-12.695,31.250,40.039,-10.742,31.250
1532402743.169,-6.348,37.109,39.551,1.953,43.945
1532402743.173,-7.324,35.645,37.109,2.930,34.180
1532402743.177,-10.742,19.043,39.062,-3.906,-10.742
1532402743.181,-9.277,13.672,38.086,2.930,16.602
1532402743.185,-0.488,12.207,30.762,11.719,43.945
1532402743.189,4.395,14.648,24.902,3.906,46.875
1532402743.193,5.371,19.531,18.066,-0.977,24.414
1532402743.197,11.719,20.508,16.602,3.906,26.367
1532402743.201,10.254,15.137,18.066,7.812,38.086
1532402743.204,14.160,18.555,24.902,16.113,40.039
1532402743.208,21.973,25.391,20.996,15.625,35.645
1532402743.212,17.578,7.812,14.160,6.836,17.090
1532402743.216,20.020,-6.836,13.672,5.371,4.395
1532402743.220,31.250,1.465,16.602,17.090,18.555
1532402743.224,39.062,8.789,23.438,25.879,12.695
1532402743.228,44.922,18.066,26.855,31.738,8.789
1532402743.232,51.758,12.207,23.438,36.133,28.320
1532402743.236,57.617,6.836,22.461,40.527,20.996
1532402743.240,55.176,4.883,21.973,41.016,7.812
1532402743.243,50.293,-14.160,12.695,34.668,15.625
1532402743.247,48.340,-11.230,10.254,34.668,56.152
1532402743.251,46.875,0.488,12.207,34.668,55.176
1532402743.255,47.852,6.836,16.113,32.715,21.484
1532402743.259,55.664,18.555,20.996,43.457,13.184
1532402743.263,55.664,19.043,20.508,47.363,27.832
1532402743.267,50.781,11.230,18.555,41.504,37.109
1532402743.271,49.805,8.301,11.719,39.551,16.602
1532402743.275,44.922,-11.719,4.395,29.785,20.996
1532402743.279,43.945,-12.207,11.719,26.855,59.570
1532402743.283,48.828,0.977,15.137,27.832,77.148
1532402743.286,49.316,2.441,11.230,31.738,64.453
1532402743.290,44.922,9.277,17.090,36.133,68.359
1532402743.294,41.016,18.555,19.043,29.297,46.875
1532402743.298,33.203,7.812,14.648,22.949,26.855
1532402743.302,35.645,-2.930,20.508,27.832,32.227
1532402743.306,43.945,8.789,25.391,34.180,24.414
1532402743.310,41.992,11.230,20.508,35.645,48.340
1532402743.314,37.598,6.348,13.184,27.832,20.020
1532402743.318,42.480,4.883,13.672,24.902,7.812
1532402743.322,45.410,11.719,20.020,34.180,31.738
1532402743.325,40.039,17.090,20.508,32.715,32.227
1532402743.329,35.645,12.207,16.113,31.250,44.922
1532402743.333,41.992,7.812,14.160,32.715,26.367
1532402743.337,44.922,7.324,16.113,32.227,6.836
1532402743.341,47.363,13.672,18.066,38.086,24.414
1532402743.345,52.734,26.855,24.902,40.039,62.012
1532402743.349,47.363,19.531,20.020,35.645,65.918
1532402743.353,42.480,1.953,13.672,28.809,37.598
1532402743.357,43.457,0.488,20.020,22.461,8.789
1532402743.361,40.039,9.766,20.508,30.273,11.719
1532402743.365,39.551,18.066,17.090,39.062,19.531
1532402743.368,42.480,23.438,20.996,38.574,21.973
1532402743.372,42.480,26.367,23.438,38.086,35.645
1532402743.376,36.133,17.578,19.531,32.715,27.344
1532402743.380,38.086,11.230,21.973,33.691,17.578
1532402743.384,42.480,32.227,21.484,40.527,27.344
1532402743.388,35.645,21.973,13.672,32.715,31.250
1532402743.392,39.551,8.301,18.555,32.715,41.504
1532402743.396,40.527,28.320,18.555,38.086,26.855
1532402743.400,38.574,30.762,14.160,42.969,-2.441
1532402743.404,39.062,20.020,19.043,45.410,16.602
1532402743.408,43.945,16.113,16.113,49.316,15.137
1532402743.411,44.922,20.508,14.648,49.316,8.789
1532402743.415,34.180,25.879,16.602,39.062,28.809
1532402743.419,33.691,27.832,19.043,40.039,26.367
1532402743.423,35.156,23.926,24.414,39.551,27.344
1532402743.427,28.809,25.879,24.414,37.109,22.461
1532402743.431,21.973,30.273,18.555,30.273,13.184
1532402743.435,19.531,20.508,15.137,19.531,33.691
1532402743.439,22.461,19.531,18.066,22.949,42.969
1532402743.443,25.391,30.762,19.043,26.367,38.574
1532402743.447,27.344,35.645,21.973,26.367,43.945
1532402743.450,22.949,25.879,19.043,22.461,38.574
1532402743.454,24.902,19.531,19.531,18.555,13.184
1532402743.458,31.250,30.762,24.902,29.297,21.484
1532402743.462,29.297,38.086,25.391,30.762,52.734
1532402743.466,26.367,23.438,21.484,26.855,48.828
1532402743.470,25.391,16.602,19.531,31.738,35.156
1532402743.474,31.250,25.879,26.855,29.297,24.414
1532402743.478,39.062,37.109,28.320,30.762,41.504
1532402743.482,34.180,25.879,20.996,29.785,61.035
1532402743.486,31.738,15.137,23.926,27.832,32.715
1532402743.490,34.668,22.949,27.344,28.809,26.855
1532402743.493,37.598,32.227,28.809,23.926,45.898
1532402743.497,43.945,41.016,27.344,16.113,44.434
1532402743.501,37.598,32.715,28.809,12.207,53.711
1532402743.505,18.066,19.531,26.855,7.812,38.086
1532402743.509,12.695,24.414,21.484,7.812,22.461
1532402743.513,16.113,26.855,26.855,10.254,41.016
1532402743.517,23.926,38.574,32.227,10.742,40.527
1532402743.521,23.926,44.434,28.809,8.301,23.438
1532402743.525,16.113,28.809,24.902,0.488,18.555
1532402743.529,19.531,20.996,29.297,10.742,38.574
1532402743.533,33.691,24.902,37.598,18.555,47.363
1532402743.536,20.508,25.391,30.273,-10.254,15.137
1532402743.540,16.602,32.715,20.996,-8.301,11.719
1532402743.544,16.113,29.297,20.020,6.348,22.949
1532402743.548,16.113,32.227,22.949,-0.488,29.297
1532402743.552,27.832,47.363,26.367,-1.465,17.578
1532402743.556,20.020,32.715,25.879,-6.836,-9.766
1532402743.560,13.184,21.973,26.367,-4.883,34.180
1532402743.564,17.578,23.438,27.344,2.441,58.105
1532402743.568,25.391,35.645,34.180,11.719,41.992
1532402743.572,28.809,43.457,37.598,17.578,20.020
1532402743.575,20.508,25.391,25.879,11.230,0.977
1532402743.579,24.414,31.250,23.438,14.160,43.945
1532402743.583,31.250,39.062,24.902,9.766,31.738
1532402743.587,23.926,26.855,27.344,8.301,14.648
1532402743.591,21.973,26.855,28.320,12.207,38.574
1532402743.595,25.391,29.785,28.320,8.301,-11.719
1532402743.599,26.855,33.203,30.273,6.836,-22.949
1532402743.603,32.227,40.039,34.668,14.648,4.395
1532402743.607,32.715,41.016,37.598,18.066,6.348
1532402743.611,24.414,29.297,29.785,15.137,26.367
1532402743.615,23.926,33.203,29.785,17.578,15.625
1532402743.618,27.832,45.898,30.273,20.996,13.672
1532402743.622,19.043,32.715,30.762,15.137,24.902
1532402743.626,7.812,15.625,29.297,5.859,32.227
1532402743.630,8.789,22.949,30.762,4.883,27.832
1532402743.634,15.137,37.109,34.668,5.371,10.254
1532402743.638,19.531,34.668,30.273,6.836,33.691
1532402743.642,17.578,21.973,27.832,6.836,52.246
1532402743.646,15.625,28.320,29.785,2.441,53.223
1532402743.650,18.066,34.180,30.762,3.418,37.598
1532402743.654,21.484,36.621,34.668,4.395,5.859
1532402743.658,19.531,38.574,26.855,-1.953,1.953
1532402743.661,24.902,37.598,29.785,2.441,35.645
1532402743.665,31.738,45.410,46.387,8.789,46.875
1532402743.669,19.531,37.109,33.203,3.418,54.199
1532402743.673,13.184,15.625,25.879,-3.906,52.734
1532402743.677,20.020,23.926,35.645,5.371,28.809
1532402743.681,23.438,41.016,35.156,12.207,46.387
1532402743.685,21.973,33.203,36.133,7.324,51.270
1532402743.689,12.695,26.367,34.668,5.371,56.152
1532402743.693,11.230,31.250,32.715,4.395,33.691
1532402743.697,15.137,32.715,28.320,2.930,-12.695
1532402743.700,22.949,43.945,30.762,18.066,-5.371
1532402743.704,23.438,50.293,32.715,18.066,10.254
1532402743.708,19.531,32.227,26.855,9.277,49.805
1532402743.712,27.344,29.297,29.785,14.648,51.270
1532402743.716,26.367,36.621,35.156,15.137,24.414
1532402743.720,25.391,32.715,36.133,20.020,28.320
1532402743.724,22.461,27.344,34.180,19.531,20.996
1532402743.728,19.043,34.180,35.645,15.137,23.926
1532402743.732,22.949,37.598,35.645,13.184,29.785
1532402743.736,25.391,38.574,33.203,7.812,15.137
1532402743.740,18.066,38.574,32.715,2.930,39.062
1532402743.743,13.672,32.227,31.738,2.930,50.781
1532402743.747,14.160,26.367,27.344,0.977,44.922
1532402743.751,20.508,33.203,32.227,2.930,30.762
1532402743.755,25.879,52.734,36.621,13.184,11.719
1532402743.759,14.160,38.086,30.273,11.719,61.523
1532402743.763,13.672,14.648,33.691,9.766,41.504
1532402743.767,21.973,17.090,31.738,15.625,6.836
1532402743.771,27.832,34.668,31.250,20.996,42.480
1532402743.775,30.762,58.594,41.016,12.695,20.996
1532402743.779,19.043,47.363,39.551,-1.953,12.695
1532402743.782,16.602,20.020,31.250,-7.324,34.180
1532402743.786,16.602,23.438,25.879,-9.766,22.461
1532402743.790,14.648,35.645,28.320,-10.742,16.113
1532402743.794,24.902,37.598,28.809,-9.277,33.691
1532402743.798,36.621,38.574,31.738,-9.277,32.715
1532402743.802,38.086,51.758,36.133,-5.371,41.992
1532402743.806,25.879,40.039,28.809,-4.395,57.617
1532402743.810,14.160,17.578,28.320,-8.301,36.133
1532402743.814,12.207,27.832,34.180,-1.953,33.691
1532402743.818,15.137,42.480,37.598,6.348,32.715
1532402743.822,8.789,41.016,33.691,7.812,28.809
1532402743.825,7.324,37.109,33.203,14.160,22.461
1532402743.829,12.695,43.945,40.527,20.508,34.668
1532402743.833,11.719,49.805,41.016,15.137,49.316
1532402743.837,6.348,29.785,35.156,4.883,6.836
1532402743.841,2.930,20.020,33.691,6.348,16.602
1532402743.845,2.930,34.668,32.227,4.883,65.430
1532402743.849,4.395,35.156,31.250,4.883,36.621
1532402743.853,7.324,43.945,38.086,13.184,7.324
1532402743.857,13.184,48.828,38.574,12.695,12.695
1532402743.861,8.789,34.668,30.273,7.324,16.113
1532402743.865,10.742,33.691,33.203,12.207,21.484
1532402743.868,18.555,44.922,42.480,15.625,42.480
1532402743.872,8.301,40.039,38.086,6.348,34.668
1532402743.876,8.301,41.016,35.156,4.883,27.344
1532402743.880,16.113,42.969,35.156,9.766,34.668
1532402743.884,11.230,27.832,36.621,4.883,18.066
1532402743.888,11.230,26.855,35.156,7.812,21.484
1532402743.892,13.672,34.668,30.762,8.301,19.531
1532402743.896,24.902,46.387,37.109,6.348,16.113
1532402743.900,26.367,52.734,41.016,8.301,6.836
1532402743.904,13.672,38.574,32.227,1.465,-10.254
1532402743.907,20.508,43.457,39.062,5.371,24.414
1532402743.911,25.879,53.223,42.480,14.160,29.297
1532402743.915,21.484,35.645,32.715,4.883,-8.301
1532402743.919,15.137,31.738,34.180,-8.301,12.207
1532402743.923,16.602,41.992,37.598,-5.859,42.480
1532402743.927,20.508,43.457,40.039,-0.977,55.176
1532402743.931,13.184,38.574,39.551,-8.301,41.504
1532402743.935,13.672,51.270,39.062,-6.836,7.812
1532402743.939,17.090,52.734,41.016,-0.977,9.277
1532402743.943,19.043,40.039,39.551,2.441,46.387
1532402743.947,15.137,29.785,31.738,-4.883,55.664
1532402743.950,20.996,41.016,38.574,-1.465,24.414
1532402743.954,27.832,58.594,42.480,5.371,-4.395
1532402743.958,19.531,45.898,39.551,-2.441,-10.254
1532402743.962,19.043,41.016,39.551,0.977,24.902
1532402743.966,16.113,37.598,32.715,-2.441,20.020
1532402743.970,19.043,47.363,41.016,-1.465,43.457
1532402743.974,25.879,54.688,34.180,-3.906,47.363
1532402743.978,17.090,28.320,21.973,-13.184,32.227
1532402743.982,7.812,24.414,31.738,-6.348,46.875
1532402743.986,9.277,34.668,39.062,-3.906,41.016
1532402743.990,17.578,41.992,38.574,-3.906,46.875
1532402743.993,22.461,43.945,34.180,-3.906,22.461
1532402743.997,21.973,46.875,38.574,-5.371,28.320
1532402744.001,29.297,60.059,42.969,-0.488,33.691
1532402744.005,30.762,56.152,37.109,0.977,28.809
1532402744.009,20.508,41.504,36.621,-4.395,54.199
1532402744.013,15.137,33.203,35.156,-10.742,32.227
1532402744.017,15.137,34.668,31.250,-13.184,12.695
1532402744.021,18.555,48.340,37.598,-3.906,29.785
1532402744.025,17.578,46.387,38.086,-3.418,24.902
1532402744.029,12.207,39.062,33.691,-8.789,47.363
1532402744.032,11.230,42.969,32.227,-5.859,36.621
1532402744.036,14.648,38.086,36.133,-0.488,41.992
1532402744.040,25.879,36.621,37.109,3.906,48.340
1532402744.044,27.344,50.293,36.133,8.789,52.734
1532402744.048,16.602,46.387,37.109,6.836,66.895
1532402744.052,14.648,36.133,35.156,2.441,29.297
1532402744.056,20.508,44.922,39.551,6.836,-8.301
1532402744.060,20.020,52.734,43.457,8.301,14.160
1532402744.064,11.719,38.086,36.621,4.883,66.406
1532402744.068,9.277,26.367,34.668,4.883,48.828
1532402744.072,10.254,35.645,38.086,4.395,32.715
1532402744.075,12.207,44.922,38.574,2.930,18.555
1532402744.079,9.277,39.551,36.621,2.930,18.066
1532402744.083,16.602,52.734,40.527,6.348,42.480
1532402744.087,16.113,59.570,41.992,7.812,37.109
1532402744.091,9.766,31.738,42.969,7.324,17.090
1532402744.095,3.906,13.184,38.086,3.906,15.625
1532402744.099,0.977,21.973,35.156,-0.488,25.391
1532402744.103,15.625,34.668,39.062,1.953,45.410
1532402744.107,22.461,40.039,42.969,6.836,23.438
1532402744.111,16.602,50.781,39.551,9.766,0.488
1532402744.115,16.113,46.875,37.109,3.418,-1.953
1532402744.118,13.184,35.645,40.527,0.000,-12.695
1532402744.122,17.578,51.758,38.574,10.254,-5.859
1532402744.126,24.902,53.711,42.480,18.066,37.109
1532402744.130,23.438,31.738,41.992,16.602,60.547
1532402744.134,18.555,27.344,34.668,4.883,37.598
1532402744.138,17.090,29.785,35.156,4.883,32.715
1532402744.142,14.648,34.180,37.109,8.301,2.930
1532402744.146,14.160,41.504,41.016,3.906,11.230
1532402744.150,15.137,47.363,45.898,8.789,41.504
1532402744.154,10.742,42.480,41.992,0.488,13.672
1532402744.157,7.812,41.504,44.922,-10.742,9.766
1532402744.161,8.301,55.176,49.316,-6.348,47.363
1532402744.165,2.930,49.805,41.504,-11.719,41.016
1532402744.169,3.906,37.598,42.969,-15.137,55.176
1532402744.173,9.766,42.480,45.410,-17.578,50.293
1532402744.177,15.137,53.223,44.922,-6.348,30.273
1532402744.181,8.789,52.734,51.270,4.883,43.945
1532402744.185,4.883,50.781,60.059,-3.418,40.527
1532402744.189,11.230,61.035,61.035,-10.254,47.852
1532402744.193,2.930,67.871,52.246,-25.879,26.855
1532402744.197,-10.254,56.641,50.293,-43.457,-3.906
1532402744.200,-16.113,45.898,49.805,-45.898,36.133
1532402744.204,-20.996,59.570,46.875,-46.875,49.805
1532402744.208,-22.949,61.035,49.805,-46.875,19.043
1532402744.212,-22.949,56.641,58.105,-44.434,17.090
1532402744.216,-31.250,66.895,68.359,-48.340,24.902
1532402744.220,-40.527,62.012,76.660,-54.688,18.066
1532402744.224,-29.297,59.082,80.566,-51.758,38.574
1532402744.228,-32.227,60.547,76.660,-50.781,65.918
1532402744.232,-52.246,48.828,72.754,-57.129,49.316
1532402744.236,-50.293,51.758,73.730,-62.012,17.090
1532402744.239,-38.086,62.988,74.219,-54.199,30.762
1532402744.243,-35.156,70.312,68.848,-47.852,61.035
1532402744.247,-40.527,62.500,64.453,-49.316,32.715
1532402744.251,-38.574,54.199,69.824,-42.969,-3.418
1532402744.255,-38.086,57.617,70.312,-46.875,-10.742
1532402744.259,-46.387,55.664,65.430,-56.152,8.789
1532402744.263,-40.527,61.035,67.871,-45.410,31.250
1532402744.267,-27.832,73.730,65.430,-35.156,34.180
1532402744.271,-34.668,60.059,61.523,-40.039,5.859
1532402744.275,-41.016,46.875,64.453,-40.527,-7.324
1532402744.279,-34.668,60.547,71.777,-34.180,17.578
1532402744.282,-32.715,57.617,64.941,-36.133,44.434
1532402744.286,-31.250,47.363,56.152,-39.062,24.414
1532402744.290,-29.785,41.504,55.176,-34.668,-1.953
1532402744.294,-25.879,37.109,57.617,-33.691,-3.906
1532402744.298,-24.414,37.598,61.035,-38.574,1.953
1532402744.302,-22.949,41.016,58.594,-28.320,30.273
1532402744.306,-14.648,41.504,52.246,-20.996,44.434
1532402744.310,-10.254,33.203,47.363,-20.020,52.734
1532402744.314,-4.395,41.504,57.129,-9.766,27.832
1532402744.318,-0.488,55.176,52.734,-5.859,15.625
1532402744.322,1.953,29.785,36.133,-13.184,32.227
1532402744.325,7.812,8.789,35.645,-13.184,40.527
1532402744.329,4.883,18.066,36.621,-5.859,31.250
1532402744.333,6.348,29.785,41.016,-4.395,13.672
1532402744.337,13.672,35.645,40.039,-2.930,5.859
1532402744.341,16.602,40.039,34.668,-5.859,41.016
1532402744.345,14.648,33.203,35.156,-11.719,40.527
1532402744.349,20.020,20.996,37.109,-9.766,21.973
1532402744.353,21.973,23.438,33.203,-11.230,8.789
1532402744.357,17.578,24.414,25.391,-10.254,4.395
1532402744.361,16.113,26.367,19.531,-5.371,21.973
1532402744.364,22.461,30.762,19.531,-0.488,11.719
1532402744.368,28.809,24.902,21.973,6.348,0.000
1532402744.372,41.504,43.945,30.762,14.648,4.395
1532402744.376,39.062,44.922,29.785,15.625,-3.418
1532402744.380,33.203,15.137,22.949,17.090,15.625
1532402744.384,40.527,7.812,14.648,19.043,48.340
1532402744.388,41.504,13.184,13.672,21.973,32.715
1532402744.392,36.621,19.531,21.973,19.043,8.789
1532402744.396,36.621,21.484,28.320,18.555,34.668
1532402744.400,48.828,30.273,34.668,28.320,35.156
1532402744.404,52.246,39.062,35.156,33.691,7.812
1532402744.407,43.457,29.785,24.414,26.855,0.000
1532402744.411,39.551,7.324,19.531,20.508,26.367
1532402744.415,43.945,6.348,23.438,20.020,27.344
1532402744.419,44.434,16.602,26.855,26.367,7.324
1532402744.423,49.316,19.043,30.762,33.203,8.301
1532402744.427,51.270,20.020,28.320,33.203,29.297
1532402744.431,56.152,27.344,25.391,30.273,39.551
1532402744.435,63.965,36.621,28.320,22.461,2.441
1532402744.439,62.012,33.203,28.320,19.531,9.277
1532402744.443,55.176,16.602,22.461,12.207,28.320
1532402744.447,60.547,13.672,23.926,6.836,21.484
1532402744.450,70.312,30.762,26.367,12.695,1.465
1532402744.454,70.312,20.020,25.391,9.766,-19.043
1532402744.458,63.965,12.207,29.785,16.602,18.066
1532402744.462,63.965,37.598,35.156,35.156,33.691
1532402744.466,65.430,40.039,31.250,37.598,7.812
1532402744.470,51.758,4.883,24.902,34.180,5.859
1532402744.474,41.504,6.836,28.809,32.715,3.906
1532402744.478,44.922,27.832,33.203,33.691,-4.395
1532402744.482,43.945,31.250,30.762,40.039,16.113
1532402744.486,42.969,26.367,33.203,40.527,25.879
1532402744.489,43.457,38.574,38.086,43.945,24.414
1532402744.493,30.273,29.297,34.668,32.227,38.086
1532402744.497,29.297,7.812,35.156,27.344,26.855
1532402744.501,35.156,10.254,32.715,26.367,12.695
1532402744.505,32.715,16.602,29.785,20.996,24.902
1532402744.509,36.621,26.855,34.180,30.762,34.668
1532402744.513,48.828,40.039,39.062,37.109,37.109
1532402744.517,56.152,45.410,40.039,37.598,17.578
1532402744.521,56.152,44.434,39.551,35.645,24.902
1532402744.525,53.711,31.738,34.180,28.320,33.203
1532402744.529,49.805,12.695,31.250,18.066,20.020
1532402744.532,55.176,19.043,32.227,10.742,-21.484
1532402744.536,55.664,25.879,34.180,0.488,-49.805
1532402744.540,55.176,33.691,37.598,1.953,3.906
1532402744.544,59.570,40.039,36.133,5.371,48.828
1532402744.548,60.547,36.133,38.574,4.883,17.090
1532402744.552,64.941,36.133,41.992,6.348,0.488
1532402744.556,63.477,30.273,41.016,-0.488,37.109
1532402744.560,54.199,24.414,38.574,1.465,44.922
1532402744.564,53.223,24.414,36.133,3.418,34.668
1532402744.568,63.965,29.297,39.062,3.906,69.336
1532402744.572,63.477,34.668,40.039,6.836,54.199
1532402744.575,57.617,38.086,38.086,1.953,12.695
1532402744.579,59.082,41.016,39.062,3.906,39.551
1532402744.583,68.848,54.688,45.898,11.230,54.199
1532402744.587,62.012,45.410,38.574,4.395,24.902
1532402744.591,45.410,20.508,31.738,-2.441,30.273
1532402744.595,44.434,22.949,37.109,-6.348,0.000
1532402744.599,47.852,35.156,35.645,0.488,-5.371
1532402744.603,51.758,42.969,37.598,12.207,2.441
1532402744.607,47.852,40.039,40.527,7.324,0.488
1532402744.611,47.852,41.016,45.410,8.789,21.484
1532402744.614,58.105,55.176,49.316,11.230,27.344
1532402744.618,52.734,45.410,39.551,3.906,22.949
1532402744.622,40.527,26.855,34.668,3.906,41.016
1532402744.626,44.922,37.109,43.945,15.625,53.223
1532402744.630,43.457,45.898,45.410,15.625,60.059
1532402744.634,31.250,34.668,38.086,0.000,52.734
1532402744.638,31.250,29.297,36.133,0.000,24.414
1532402744.642,41.992,36.621,40.527,8.301,4.395
1532402744.646,41.504,48.340,41.016,12.695,30.273
1532402744.650,35.156,49.316,40.039,8.301,56.152
1532402744.654,31.250,31.250,44.922,0.000,23.438
1532402744.657,32.715,31.738,46.387,2.441,0.488
1532402744.661,38.086,48.340,44.434,6.836,21.484
1532402744.665,30.273,42.969,40.527,1.465,29.785
1532402744.669,32.715,32.715,42.480,5.859,6.836
1532402744.673,36.133,38.086,41.016,3.906,12.695
1532402744.677,37.598,45.898,40.039,-1.953,20.996
1532402744.681,39.062,44.434,41.504,6.348,37.109
1532402744.685,33.203,28.320,40.527,9.766,32.227
1532402744.689,36.621,32.715,43.457,11.230,30.762
1532402744.693,30.762,33.203,39.551,7.324,36.621
1532402744.696,35.645,23.926,39.551,4.395,31.250
1532402744.700,41.504,34.668,44.922,10.254,20.508
1532402744.704,35.645,40.039,42.969,17.578,14.648
1532402744.708,37.109,35.156,43.945,15.625,29.297
1532402744.712,34.180,28.809,41.016,9.277,26.855
1532402744.716,33.691,36.621,47.363,7.324,-2.930
1532402744.720,32.227,44.922,51.270,9.766,-22.949
1532402744.724,25.879,23.438,41.992,7.324,7.324
1532402744.728,26.367,19.043,42.969,10.742,25.879
1532402744.732,31.250,27.832,44.922,17.578,36.621
1532402744.736,26.855,24.414,41.016,11.719,53.711
1532402744.739,26.855,23.438,36.621,7.324,33.691
1532402744.743,27.832,21.973,38.086,12.695,47.363
1532402744.747,28.320,29.297,43.945,22.949,68.359
1532402744.751,39.551,36.621,44.434,21.484,42.969
1532402744.755,33.691,27.832,38.086,8.789,0.977
1532402744.759,28.320,33.203,36.621,10.742,2.441
1532402744.763,27.832,41.016,41.992,16.602,35.156
1532402744.767,27.344,34.668,43.945,14.160,40.527
1532402744.771,29.297,28.809,41.992,11.719,20.020
1532402744.775,22.461,26.855,38.086,9.766,12.207
1532402744.779,22.949,30.273,41.504,12.207,28.809
1532402744.782,29.297,31.738,43.457,15.137,28.320
1532402744.786,29.297,31.738,41.016,16.602,44.434
1532402744.790,29.297,33.691,40.039,12.207,47.852
1532402744.794,27.832,36.133,41.504,12.207,29.297
1532402744.798,28.320,35.645,44.922,14.160,14.160
1532402744.802,34.180,32.227,45.898,14.160,7.324
1532402744.806,33.691,38.574,42.480,16.602,37.598
1532402744.810,26.855,34.180,41.504,10.254,51.758
1532402744.814,24.902,25.879,43.457,6.348,33.203
1532402744.818,28.320,35.156,45.410,11.230,29.297
1532402744.821,25.879,37.109,44.922,10.742,13.184
1532402744.825,20.996,33.691,41.992,7.324,12.207
1532402744.829,28.809,33.203,38.574,7.324,23.926
1532402744.833,34.668,38.574,36.133,3.418,-2.441
1532402744.837,28.809,37.598,33.691,-0.977,-22.949
1532402744.841,34.180,45.410,43.457,11.719,10.742
1532402744.845,36.133,47.852,48.828,15.625,9.277
1532402744.849,26.855,28.320,43.945,11.719,7.812
1532402744.853,26.367,23.926,44.922,9.766,6.348
1532402744.857,29.297,32.715,47.852,4.883,-13.672
1532402744.861,27.832,38.086,48.340,3.906,11.230
1532402744.864,24.414,36.133,46.875,5.859,28.809
1532402744.868,25.391,36.621,46.387,7.324,22.461
1532402744.872,21.484,39.062,43.945,7.324,1.465
1532402744.876,12.695,40.039,43.457,8.301,20.996
1532402744.880,10.254,38.574,40.039,4.883,52.734
1532402744.884,15.625,39.062,38.574,-0.977,46.387
1532402744.888,15.625,40.039,38.574,-2.441,38.574
1532402744.892,9.766,38.086,37.598,1.953,14.160
1532402744.896,14.160,43.457,39.062,0.977,9.766
1532402744.900,21.484,49.316,40.039,2.441,24.902
1532402744.904,18.555,39.551,40.039,5.859,30.273
1532402744.907,16.602,25.391,41.016,9.277,25.879
1532402744.911,16.602,26.367,44.434,7.324,39.062
1532402744.915,17.090,29.297,43.457,-4.395,35.645
1532402744.919,22.461,32.227,43.945,-0.488,43.945
1532402744.923,23.438,36.133,42.969,3.418,27.344
1532402744.927,17.090,34.180,40.527,-0.977,7.324
1532402744.931,18.066,33.203,44.922,2.930,21.973
1532402744.935,20.508,30.762,47.363,3.418,33.203
1532402744.939,21.484,35.156,41.992,2.930,19.531
1532402744.943,22.461,41.504,40.527,2.930,17.578
1532402744.946,25.879,36.133,42.480,7.324,26.855
1532402744.950,28.809,36.621,42.969,9.277,12.695
1532402744.954,24.414,32.715,40.527,-3.418,-14.648
1532402744.958,31.250,40.039,47.363,-2.441,-16.113
1532402744.962,36.621,45.898,43.945,8.301,20.508
1532402744.966,19.531,25.391,33.691,2.441,32.715
1532402744.970,13.672,15.137,38.574,-2.441,41.016
1532402744.974,20.020,24.902,43.457,2.930,46.875
1532402744.978,16.602,22.949,39.551,4.395,59.082
1532402744.982,13.184,15.625,41.504,5.371,53.223
1532402744.986,16.113,19.043,45.898,6.836,4.883
1532402744.989,19.043,20.508,46.387,8.789,0.000
1532402744.993,18.555,21.973,48.828,8.789,13.672
1532402744.997,18.555,24.414,46.875,3.906,16.602
1532402745.001,20.508,26.367,43.457,9.277,8.789
1532402745.005,21.484,24.414,42.969,12.207,4.395
1532402745.009,25.391,29.785,42.480,15.625,41.992
1532402745.013,35.645,33.203,43.457,17.090,29.785
1532402745.017,33.691,20.508,46.387,12.207,17.578
1532402745.021,27.832,21.973,50.293,13.672,14.648
1532402745.025,31.738,20.996,50.293,19.043,29.785
1532402745.029,36.133,13.672,48.340,17.578,34.180
1532402745.032,32.715,21.973,43.945,2.930,13.672
1532402745.036,31.250,21.484,39.062,1.465,15.625
1532402745.040,40.039,18.555,40.527,16.113,11.719
1532402745.044,37.109,27.344,40.039,12.207,30.273
1532402745.048,24.414,29.297,35.645,8.301,41.992
1532402745.052,24.902,19.043,33.203,7.812,14.160
1532402745.056,32.227,14.648,38.086,6.348,1.953
1532402745.060,47.363,24.902,44.434,12.695,18.066
1532402745.064,50.781,28.809,43.945,16.113,39.551
1532402745.068,57.129,22.461,39.551,16.113,43.457
1532402745.071,70.312,20.020,37.598,17.578,26.367
1532402745.075,74.707,22.949,48.828,21.484,11.230
1532402745.079,82.031,34.668,49.805,22.461,32.715
1532402745.083,76.172,19.531,35.645,11.719,54.199
1532402745.087,81.543,4.395,40.039,11.719,48.828
1532402745.091,86.914,12.207,40.039,16.113,36.133
1532402745.095,75.195,23.926,37.109,12.207,10.254
1532402745.099,76.172,32.715,41.016,16.602,3.418
1532402745.103,72.754,23.926,40.039,20.508,14.648
1532402745.107,70.312,17.090,40.527,18.066,24.902
1532402745.111,73.242,25.391,41.016,17.090,30.762
1532402745.114,68.359,27.344,41.016,16.602,32.715
1532402745.118,65.918,26.367,37.598,17.578,20.508
1532402745.122,62.988,27.832,35.645,22.949,-5.859
1532402745.126,51.758,19.531,32.715,21.973,3.906
1532402745.130,46.387,26.855,39.551,27.344,27.344
1532402745.134,44.922,35.645,43.457,27.832,-5.859
1532402745.138,38.574,21.973,35.156,16.113,-22.461
1532402745.142,37.598,24.414,38.574,20.020,16.602
1532402745.146,30.273,21.484,41.992,22.461,32.715
1532402745.150,23.926,20.996,42.969,23.926,18.555
1532402745.153,20.996,29.785,43.457,28.320,19.043
1532402745.157,20.996,32.227,38.574,24.902,40.039
1532402745.161,19.531,20.508,34.180,9.766,54.199
1532402745.165,18.555,9.766,36.133,2.441,44.922
1532402745.169,20.996,15.137,41.992,7.812,31.250
1532402745.173,23.926,24.414,44.434,11.719,4.395
1532402745.177,23.438,25.879,38.574,12.207,18.066
1532402745.181,25.391,24.902,39.551,14.648,48.340
1532402745.185,24.414,24.414,41.504,19.043,46.387
1532402745.189,15.137,16.113,34.180,15.137,45.410
1532402745.193,17.578,12.695,32.227,7.324,20.996
1532402745.196,20.020,21.484,37.109,7.324,23.438
1532402745.200,20.996,34.180,41.016,10.254,41.992
1532402745.204,22.949,33.691,40.527,12.207,16.602
1532402745.208,26.855,31.250,41.992,18.555,25.879
1532402745.212,26.855,27.832,36.621,14.648,27.344
1532402745.216,17.090,10.742,27.344,3.906,28.809
1532402745.220,21.484,11.230,33.203,3.906,41.504
1532402745.224,26.855,22.461,39.551,4.883,30.762
1532402745.228,27.832,28.809,36.133,4.395,41.504
1532402745.232,29.297,31.738,36.133,7.324,42.480
1532402745.236,29.297,31.738,38.086,5.371,-2.441
1532402745.239,25.879,20.996,32.715,-0.488,5.859
1532402745.243,20.020,9.766,29.297,0.488,45.898
1532402745.247,21.973,15.625,34.668,8.301,56.152
1532402745.251,28.809,24.414,32.715,12.695,38.086
1532402745.255,25.879,27.344,27.344,11.719,22.949
1532402745.259,29.785,27.344,29.297,13.184,41.992
1532402745.263,36.133,26.855,30.273,9.277,38.086
1532402745.267,28.809,25.879,29.297,4.395,32.715
1532402745.271,28.320,36.133,33.203,7.324,55.664
1532402745.275,23.926,32.715,34.180,-2.930,15.137
1532402745.278,19.043,16.602,24.902,-13.184,0.488
1532402745.282,27.344,12.695,20.020,2.441,50.781
1532402745.286,39.551,20.020,22.949,18.066,46.387
1532402745.290,27.344,25.391,26.367,7.812,60.059
1532402745.294,13.184,21.484,29.297,-3.418,52.246
1532402745.298,17.090,24.902,34.180,-2.441,42.480
1532402745.302,19.043,23.438,30.273,0.488,57.129
1532402745.306,14.160,20.020,25.879,-2.441,63.965
1532402745.310,16.602,26.855,27.344,0.000,49.316
1532402745.314,21.973,30.762,29.297,6.836,23.926
1532402745.318,22.461,29.297,26.855,6.836,2.930
1532402745.321,24.902,27.344,20.508,13.184,3.906
1532402745.325,23.926,24.902,23.926,9.277,21.484
1532402745.329,23.438,24.414,26.855,5.859,44.922
1532402745.333,23.926,20.508,27.832,5.859,40.527
1532402745.337,21.484,20.996,34.668,3.906,-6.836
1532402745.341,21.484,32.715,29.297,8.301,14.160
1532402745.345,23.926,29.785,23.438,10.254,51.270
1532402745.349,33.203,25.879,29.297,14.160,40.527
1532402745.353,29.297,26.855,27.832,11.719,2.441
1532402745.357,17.090,24.902,26.367,11.719,-0.977
1532402745.361,20.508,22.461,31.250,16.602,23.926
1532402745.364,18.066,20.508,28.320,13.184,23.926
1532402745.368,15.137,24.414,21.973,8.301,23.926
1532402745.372,19.043,28.320,19.531,5.859,-3.906
1532402745.376,10.742,26.855,23.438,-0.977,4.883
1532402745.380,-0.488,28.809,28.809,1.465,39.551
1532402745.384,-1.465,33.203,28.809,0.977,30.762
1532402745.388,-2.441,26.367,22.461,-2.441,55.176
1532402745.392,-0.488,19.531,23.926,0.000,58.105
1532402745.396,-1.953,19.531,24.414,-1.465,32.227
1532402745.400,-2.441,17.578,18.555,-6.836,46.875
1532402745.403,3.418,21.973,17.578,-3.906,31.250
1532402745.407,0.977,26.367,18.066,-2.930,6.348
1532402745.411,1.953,29.297,22.461,-3.418,34.180
1532402745.415,9.277,35.645,18.555,-3.418,7.812
1532402745.419,8.789,32.227,11.719,-5.859,-19.531
1532402745.423,6.348,20.020,15.137,-0.977,15.137
1532402745.427,7.324,21.484,20.996,0.488,25.391
1532402745.431,11.230,32.227,24.902,-1.953,29.785
1532402745.435,11.719,29.785,21.484,0.488,21.484
1532402745.439,4.395,21.484,16.602,-0.977,17.578
1532402745.443,4.395,21.484,14.648,-5.371,16.113
1532402745.446,10.254,24.414,13.184,-7.324,32.227
1532402745.450,15.137,31.738,20.996,-2.441,49.805
1532402745.454,13.184,28.320,23.926,0.977,31.738
1532402745.458,9.277,8.789,20.508,-3.418,26.855
1532402745.462,14.160,18.555,21.973,1.953,18.555
1532402745.466,17.578,30.762,22.949,6.348,26.855
1532402745.470,16.602,18.555,24.902,7.324,30.273
1532402745.474,17.578,17.578,22.949,5.371,16.602
1532402745.478,20.508,22.949,16.602,5.859,-7.812
1532402745.482,24.902,24.414,23.438,16.602,-14.160
1532402745.486,29.785,21.973,27.344,22.949,14.648
1532402745.489,33.203,29.297,19.043,19.043,11.719
1532402745.493,26.367,28.809,15.625,4.883,20.020
1532402745.497,20.020,20.508,16.113,0.488,59.082
1532402745.501,22.461,23.926,17.578,4.395,40.039
1532402745.505,18.066,19.531,18.066,2.930,43.945
1532402745.509,12.695,20.508,20.996,2.930,63.477
1532402745.513,19.531,25.391,22.949,5.859,27.832
1532402745.517,24.414,21.484,17.090,1.953,-0.488
1532402745.521,20.020,22.949,11.230,-1.465,18.066
1532402745.525,38.574,22.949,10.742,4.395,36.133
1532402745.528,75.195,21.973,15.625,10.742,27.832
1532402745.532,84.473,33.203,18.066,6.836,17.090
1532402745.536,91.309,35.156,20.508,2.441,5.859
1532402745.540,106.445,22.949,20.508,0.488,30.762
1532402745.544,118.164,13.184,13.672,-1.953,61.523
1532402745.548,118.652,14.648,11.719,-2.930,23.926
1532402745.552,111.816,20.020,15.137,-0.977,-2.930
1532402745.556,111.328,13.672,19.043,-12.695,14.648
1532402745.560,103.516,15.137,20.996,-6.348,24.902
1532402745.564,88.867,21.973,14.648,9.277,29.785
1532402745.568,82.031,25.879,13.672,8.789,37.598
1532402745.571,75.684,27.832,14.648,7.324,17.090
1532402745.575,69.824,25.879,13.184,5.371,19.043
1532402745.579,63.477,27.344,17.578,3.418,46.875
1532402745.583,51.270,16.602,17.090,-6.348,58.594
1532402745.587,46.387,16.113,16.602,-6.348,53.223
1532402745.591,38.574,18.555,13.672,-4.395,29.785
1532402745.595,39.062,15.625,9.766,-5.371,21.973
1532402745.599,39.062,18.555,6.836,0.977,26.367
1532402745.603,36.621,26.855,9.277,5.859,51.758
1532402745.607,35.156,23.438,10.254,3.906,63.965
1532402745.610,39.062,19.531,5.371,3.906,75.684
1532402745.614,47.852,24.414,9.277,8.301,60.059
1532402745.618,47.852,18.555,18.555,12.207,36.621
1532402745.622,39.062,20.020,20.508,14.160,30.762
1532402745.626,37.598,18.555,13.184,10.254,27.344
1532402745.630,39.551,14.648,11.230,11.230,43.945
1532402745.634,37.109,19.043,17.090,9.766,26.367
1532402745.638,37.109,27.832,18.066,5.371,10.742
1532402745.642,37.598,31.250,18.066,9.766,41.016
1532402745.646,35.645,24.902,20.020,13.184,28.809
1532402745.650,26.855,11.719,17.090,10.254,12.695
1532402745.653,25.391,10.742,15.137,7.324,13.184
1532402745.657,29.297,20.020,13.672,9.277,-2.441
1532402745.661,29.297,22.949,11.719,13.184,28.320
1532402745.665,29.297,25.391,10.742,8.301,52.734
1532402745.669,37.598,25.391,13.672,4.395,43.945
1532402745.673,35.156,20.508,13.184,6.836,27.832
1532402745.677,22.461,22.949,13.672,2.441,44.434
1532402745.681,19.043,28.320,14.160,9.277,54.199
1532402745.685,13.184,20.996,6.348,6.348,41.504
1532402745.689,7.324,19.043,10.254,1.465,37.109
1532402745.693,12.207,32.715,18.555,5.859,28.809
1532402745.696,10.254,33.691,16.113,0.488,27.344
1532402745.700,1.953,18.555,13.184,2.930,21.973
1532402745.704,5.371,15.137,14.160,14.648,16.602
1532402745.708,9.277,19.531,12.695,15.625,42.480
1532402745.712,12.695,27.344,14.160,18.066,25.391
1532402745.716,22.949,24.414,14.160,14.648,13.672
1532402745.720,20.020,17.090,14.160,10.254,47.852
1532402745.724,13.184,17.578,15.137,18.066,71.777
1532402745.728,19.531,24.414,14.160,18.555,50.781
1532402745.732,14.648,29.785,15.137,14.648,32.715
1532402745.735,3.906,18.555,14.160,5.371,20.996
1532402745.739,4.395,15.137,12.695,2.930,1.465
1532402745.743,9.277,21.484,14.648,5.371,26.855
1532402745.747,10.254,21.973,21.484,3.418,27.832
1532402745.751,5.371,22.461,16.113,1.465,43.457
1532402745.755,2.930,23.438,11.719,-5.371,31.738
1532402745.759,9.766,32.715,22.949,0.488,8.789
1532402745.763,5.859,32.227,26.367,0.000,36.133
1532402745.767,9.277,26.855,25.879,-2.930,27.832
1532402745.771,23.438,30.273,28.809,7.324,21.484
1532402745.775,19.531,27.344,29.297,-6.836,20.996
1532402745.778,14.160,24.414,26.367,-20.020,20.508
1532402745.782,14.160,30.762,22.949,-22.949,19.531
1532402745.786,0.977,33.203,24.902,-31.250,19.043
1532402745.790,-18.555,34.180,23.438,-35.645,20.020
1532402745.794,-23.438,44.922,20.508,-37.598,-1.953
1532402745.798,-28.809,41.504,29.297,-31.250,-11.719
1532402745.802,-41.504,29.785,40.039,-27.344,-24.414
1532402745.806,-54.199,37.109,41.504,-37.598,-12.207
1532402745.810,-51.758,54.199,43.457,-38.574,41.992
1532402745.814,-57.617,51.758,43.945,-41.016,27.832
1532402745.818,-70.801,46.875,43.457,-54.199,15.625
1532402745.821,-68.359,48.828,46.875,-55.176,24.902
1532402745.825,-62.500,46.387,49.805,-56.152,13.672
1532402745.829,-64.453,49.805,44.922,-57.617,17.090
1532402745.833,-61.523,61.523,45.410,-60.547,16.602
1532402745.837,-59.570,64.941,51.758,-68.848,9.766
1532402745.841,-65.430,50.293,50.293,-69.336,38.574
1532402745.845,-66.895,41.504,46.875,-68.359,69.824
1532402745.849,-67.871,44.922,45.898,-65.918,38.086
1532402745.853,-63.965,48.828,44.922,-58.594,-9.277
1532402745.857,-56.641,52.734,35.156,-53.223,0.000
1532402745.860,-47.363,41.504,29.297,-46.387,40.527
1532402745.864,-40.039,33.691,35.645,-34.180,57.617
1532402745.868,-39.551,34.668,36.133,-29.297,29.785
1532402745.872,-32.715,22.949,28.809,-24.902,27.832
1532402745.876,-27.832,23.926,27.344,-19.043,26.855
1532402745.880,-18.555,26.367,30.273,-9.277,43.945
1532402745.884,-5.371,19.043,27.344,1.953,46.387
1532402745.888,1.953,31.738,23.438,8.301,21.484
1532402745.892,-0.977,22.949,18.066,7.324,13.672
1532402745.896,-3.906,3.906,19.531,-2.441,8.301
1532402745.900,-1.465,5.371,21.973,-6.836,24.414
1532402745.903,0.977,6.348,17.090,3.418,28.809
1532402745.907,3.418,9.766,16.113,7.812,45.410
1532402745.911,2.441,8.301,15.625,3.906,59.570
1532402745.915,14.648,18.555,17.090,15.625,20.508
1532402745.919,15.625,20.996,12.695,15.625,23.438
1532402745.923,19.531,4.883,6.836,11.719,32.227
1532402745.927,22.949,5.859,8.301,20.996,25.391
1532402745.931,10.742,13.672,12.207,29.297,27.832
1532402745.935,16.113,19.043,13.672,29.297,17.578
1532402745.939,22.461,20.020,11.230,27.344,20.020
1532402745.943,20.508,11.719,7.324,24.902,48.340
1532402745.946,18.555,6.348,6.348,22.461,36.621
1532402745.950,24.902,17.578,11.230,28.320,12.695
1532402745.954,26.367,20.508,7.812,22.949,20.020
1532402745.958,26.367,13.672,5.859,20.996,34.180
1532402745.962,25.879,15.137,7.324,26.367,54.688
1532402745.966,22.461,15.625,5.371,28.809,45.898
1532402745.970,22.949,13.184,11.230,35.645,33.203
1532402745.974,22.461,19.043,12.207,34.180,13.184
1532402745.978,16.602,17.578,7.324,23.926,2.930
1532402745.982,16.602,10.742,3.418,26.855,27.832
1532402745.985,32.715,20.020,2.930,35.645,13.672
1532402745.989,34.668,27.832,10.254,34.668,7.324
1532402745.993,26.367,24.902,12.695,35.156,49.805
1532402745.997,29.785,12.695,9.277,38.086,72.754
1532402746.001,27.344,8.789,8.789,33.691,27.344
1532402746.005,25.391,10.254,10.742,30.273,19.043
1532402746.009,33.203,20.508,17.090,38.574,65.430
1532402746.013,37.109,30.273,20.020,38.574,42.480
1532402746.017,27.832,11.719,12.695,28.809,20.508
1532402746.021,34.668,13.672,13.184,32.227,18.555
1532402746.025,39.551,21.973,19.043,35.645,14.648
1532402746.028,33.691,9.766,14.160,32.715,37.109
1532402746.032,33.203,10.742,8.789,26.855,30.273
1532402746.036,34.180,20.020,10.742,23.438,10.254
1532402746.040,34.668,19.531,10.254,28.809,42.969
1532402746.044,31.738,14.648,12.695,31.250,50.293
1532402746.048,27.344,10.742,13.184,30.273,28.320
1532402746.052,23.926,16.113,7.324,34.668,32.227
1532402746.056,17.578,15.137,9.277,33.203,21.973
1532402746.060,17.578,13.184,14.648,28.320,16.113
1532402746.064,24.902,20.020,14.648,32.715,-6.348
1532402746.067,31.738,27.832,13.672,35.156,23.438
1532402746.071,28.320,20.996,6.836,31.250,41.992
1532402746.075,26.855,8.789,2.930,21.484,-14.648
1532402746.079,33.691,16.113,5.859,29.297,-20.996
1532402746.083,35.156,24.414,6.348,35.645,13.672
1532402746.087,29.785,20.508,8.789,24.414,20.996
1532402746.091,27.832,16.602,10.742,27.344,37.598
1532402746.095,30.273,22.949,12.695,30.273,25.879
1532402746.099,24.902,17.578,14.648,25.391,22.461
1532402746.103,17.578,9.277,12.207,23.438,39.062
1532402746.107,19.531,14.160,12.207,25.879,10.742
1532402746.110,20.996,16.602,14.648,27.344,-5.859
1532402746.114,22.461,19.531,14.648,24.414,4.883
1532402746.118,26.367,21.484,12.695,20.996,30.762
1532402746.122,22.949,23.926,14.160,20.996,24.414
1532402746.126,18.066,22.949,17.578,23.438,21.973
1532402746.130,19.531,20.508,18.066,24.902,28.320
1532402746.134,17.578,19.043,15.625,14.648,-7.812
1532402746.138,19.531,22.949,7.324,12.207,12.207
1532402746.142,17.578,26.367,7.812,15.137,43.945
1532402746.146,14.160,18.066,16.602,13.184,12.695
1532402746.150,21.973,23.926,20.020,14.648,11.230
1532402746.153,17.090,22.461,18.555,9.766,19.043
1532402746.157,9.277,16.113,18.555,11.230,10.254
1532402746.161,11.719,20.508,18.555,14.160,34.180
1532402746.165,17.578,27.832,18.555,17.578,20.996
1532402746.169,20.996,37.109,20.996,21.973,15.137
1532402746.173,15.625,27.832,19.043,13.184,9.277
1532402746.177,9.277,15.625,17.090,3.906,-11.230
1532402746.181,6.836,16.602,19.043,12.207,12.695
1532402746.185,12.695,29.785,20.020,18.066,23.438
1532402746.189,14.160,30.762,19.043,18.555,43.457
1532402746.192,6.348,16.602,19.531,14.648,41.016
1532402746.196,9.277,27.344,19.531,15.625,26.855
1532402746.200,10.742,32.227,18.066,16.113,47.852
1532402746.204,8.301,20.508,17.090,7.324,36.621
1532402746.208,9.766,20.996,16.602,5.371,20.996
1532402746.212,7.812,25.879,18.555,8.789,44.922
1532402746.216,9.277,26.855,19.531,6.348,20.508
1532402746.220,11.230,30.273,14.648,4.883,9.277
1532402746.224,13.672,30.273,16.113,13.672,52.246
1532402746.228,20.020,39.062,26.367,20.020,71.289
1532402746.232,17.578,42.969,20.996,14.648,55.176
1532402746.235,8.789,21.973,16.113,7.324,-2.441
1532402746.239,10.742,16.602,20.996,7.324,0.977
1532402746.243,7.324,22.949,20.996,4.883,21.484
1532402746.247,7.324,23.926,22.949,5.371,41.504
1532402746.251,15.137,29.297,25.391,7.324,65.918
1532402746.255,12.207,25.391,22.461,0.488,22.461
1532402746.259,16.602,23.926,23.926,4.395,12.207
1532402746.263,14.160,33.691,27.832,11.719,48.828
1532402746.267,8.789,27.344,25.879,6.348,49.805
1532402746.271,17.090,33.691,25.879,12.695,35.645
1532402746.275,17.578,44.922,22.949,19.043,55.664
1532402746.278,15.625,28.809,18.066,12.695,52.246
1532402746.282,9.277,21.973,22.461,9.277,30.273
1532402746.286,3.418,17.578,20.508,6.836,50.293
1532402746.290,8.789,19.531,19.531,4.395,55.176
1532402746.294,11.230,29.785,21.484,2.930,59.570
1532402746.298,7.324,34.180,25.879,5.371,55.176
1532402746.302,10.742,31.738,26.855,6.836,29.785
1532402746.306,12.695,31.738,22.949,7.324,31.738
1532402746.310,6.836,30.273,24.902,8.789,38.086
1532402746.314,9.277,26.367,18.066,5.859,60.059
1532402746.317,16.602,28.320,15.137,3.418,47.852
1532402746.321,13.184,32.227,23.926,9.766,39.062
1532402746.325,10.742,22.949,20.020,9.277,42.480
1532402746.329,12.695,24.414,20.020,9.766,36.621
1532402746.333,11.719,35.156,26.855,9.277,59.570
1532402746.337,7.324,24.902,27.344,3.418,46.387
1532402746.341,4.395,27.344,24.902,6.348,16.602
1532402746.345,6.348,31.738,21.484,9.277,32.227
1532402746.349,7.324,28.320,22.949,13.184,27.344
1532402746.353,16.602,36.621,25.391,13.184,12.207
1532402746.357,12.695,33.203,23.926,8.789,21.973
1532402746.360,7.324,30.762,24.414,10.254,28.320
1532402746.364,7.324,31.250,27.832,5.371,15.625
1532402746.368,3.906,27.344,27.832,1.465,18.066
1532402746.372,8.789,27.832,24.902,2.930,21.484
1532402746.376,9.277,36.133,25.391,0.977,1.953
1532402746.380,13.184,44.434,27.344,4.883,17.090
1532402746.384,12.695,30.762,21.973,5.371,38.086
1532402746.388,9.277,21.973,19.531,5.859,26.855
1532402746.392,7.324,27.344,24.414,3.418,4.395
1532402746.396,11.230,40.527,29.785,3.418,-0.488
1532402746.400,8.301,38.574,24.414,2.441,13.672
1532402746.403,6.836,28.809,18.555,1.953,25.879
1532402746.407,11.230,30.762,23.438,7.812,28.320
1532402746.411,9.766,36.621,25.879,12.207,37.598
1532402746.415,8.301,33.691,26.367,6.348,25.391
1532402746.419,5.371,24.414,24.414,-3.906,3.906
1532402746.423,12.207,29.297,18.555,-2.441,34.180
1532402746.427,22.949,39.551,20.996,-0.977,60.547
1532402746.431,16.113,40.039,29.785,-1.953,40.039
1532402746.435,11.230,35.156,29.297,-6.348,23.926
1532402746.439,8.301,28.320,23.926,-9.277,-4.395
1532402746.442,10.254,26.367,21.973,-10.742,12.695
1532402746.446,12.695,34.180,26.855,-9.277,30.762
1532402746.450,18.066,33.691,28.320,-4.883,22.949
1532402746.454,25.879,24.414,25.391,-9.766,15.137
1532402746.458,31.738,30.273,26.855,-11.719,20.020
1532402746.462,31.738,30.762,28.809,-5.371,45.410
1532402746.466,33.203,42.480,36.133,1.953,27.344
1532402746.470,19.531,45.410,35.645,6.836,26.367
1532402746.474,1.465,20.020,27.344,3.418,0.977
1532402746.478,-0.488,16.113,29.785,5.371,4.395
1532402746.482,2.441,34.668,32.227,11.719,15.137
1532402746.485,-0.488,38.086,25.879,5.859,5.371
1532402746.489,-4.883,20.996,20.996,4.395,29.785
1532402746.493,-3.418,22.461,27.344,3.418,12.207
1532402746.497,-6.836,33.691,35.156,3.906,4.395
1532402746.501,-8.301,33.203,30.273,3.418,10.742
1532402746.505,-8.789,20.020,25.391,0.977,12.207
1532402746.509,-0.488,26.855,34.668,6.836,31.738
1532402746.513,-1.465,39.551,35.156,-0.977,24.414
1532402746.517,1.465,38.086,29.297,-8.789,21.973
1532402746.521,2.930,34.668,26.855,-3.418,28.809
1532402746.524,-7.812,21.484,21.973,-4.883,30.762
1532402746.528,-4.395,23.926,23.438,-4.883,60.059
1532402746.532,0.000,37.598,25.391,-1.465,56.152
1532402746.536,0.000,38.574,27.344,0.977,22.461
1532402746.540,1.953,32.227,30.273,3.418,35.645
1532402746.544,1.465,25.391,27.832,1.953,60.547
1532402746.548,-4.395,19.043,25.391,-8.789,31.738
1532402746.552,6.836,24.414,30.273,-10.254,26.855
1532402746.556,12.207,35.156,36.133,-7.324,32.715
1532402746.560,-0.977,28.809,32.715,-14.648,24.414
1532402746.564,0.000,24.414,31.738,-8.789,20.020
1532402746.567,9.277,40.527,33.691,-0.977,13.184
1532402746.571,10.742,41.992,34.668,-1.465,13.672
1532402746.575,4.883,20.508,33.691,-5.859,0.000
1532402746.579,4.883,20.508,28.809,-4.883,10.742
1532402746.583,10.254,30.762,25.391,0.977,19.043
1532402746.587,14.160,33.691,29.297,1.465,15.137
1532402746.591,13.672,34.668,32.715,4.883,7.324
1532402746.595,13.184,26.367,32.715,3.418,20.020
1532402746.599,16.113,35.156,35.156,6.348,34.180
1532402746.603,21.484,45.898,37.598,9.277,21.973
1532402746.607,12.695,26.855,37.598,0.488,31.738
1532402746.610,2.441,21.973,37.109,1.465,40.527
1532402746.614,8.301,31.738,36.621,-4.395,15.625
1532402746.618,9.277,31.738,32.227,-4.395,-18.066
1532402746.622,7.324,27.832,28.809,5.371,0.000
1532402746.626,12.695,28.320,31.738,4.395,13.672
1532402746.630,14.160,29.785,31.250,5.371,17.578
1532402746.634,12.695,31.250,35.645,2.930,-7.324
1532402746.638,16.602,41.504,37.109,4.395,-25.879
1532402746.642,18.066,40.527,33.203,7.812,22.949
1532402746.646,16.113,21.484,31.738,2.930,47.363
1532402746.649,14.160,19.531,28.809,1.953,44.922
1532402746.653,18.066,34.180,31.738,6.348,28.320
1532402746.657,22.949,40.039,36.133,7.812,7.812
1532402746.661,19.531,35.645,37.598,7.812,41.016
1532402746.665,22.949,45.898,39.062,6.348,41.504
1532402746.669,23.438,44.922,37.109,4.395,21.973
1532402746.673,14.648,37.109,40.527,2.441,24.902
1532402746.677,8.301,25.391,36.621,-6.348,20.508
1532402746.681,11.719,23.926,34.180,-0.977,33.203
1532402746.685,22.461,40.039,35.156,4.883,40.527
1532402746.689,22.461,37.109,30.273,-4.395,50.781
1532402746.692,25.391,44.922,34.180,0.488,41.504
1532402746.696,27.344,50.293,35.156,5.859,0.488
1532402746.700,16.602,30.273,30.762,-0.977,-6.348
1532402746.704,18.066,23.926,29.785,-0.977,5.859
1532402746.708,29.785,35.156,35.156,14.648,36.621
1532402746.712,20.508,39.062,38.086,10.742,39.062
1532402746.716,3.418,29.785,32.715,-9.766,3.906
1532402746.720,3.418,33.203,32.227,-8.301,-11.230
1532402746.724,0.488,43.945,35.156,-5.371,-11.230
1532402746.728,-1.953,35.156,23.926,-9.277,26.855
1532402746.732,2.930,32.227,22.461,-6.836,21.484
1532402746.735,1.953,32.227,31.738,-11.719,15.625
1532402746.739,0.977,22.461,30.273,-9.766,28.809
1532402746.743,-0.488,19.531,29.785,-0.977,37.598
1532402746.747,3.418,24.902,31.738,2.930,70.801
1532402746.751,3.418,23.926,32.227,0.488,72.754
1532402746.755,1.953,28.320,30.273,-0.488,41.992
1532402746.759,5.859,41.504,32.227,8.301,21.973
1532402746.763,3.906,46.387,36.621,10.254,38.086
1532402746.767,2.441,39.551,35.156,10.742,45.898
1532402746.771,2.441,27.832,27.832,12.695,24.902
1532402746.774,-0.977,18.555,26.855,1.465,-0.488
1532402746.778,-4.883,18.555,26.855,-5.859,-1.465
1532402746.782,-3.906,25.391,23.926,2.441,12.207
1532402746.786,0.977,31.250,28.809,4.883,38.574
1532402746.790,6.348,33.691,30.273,2.441,61.035
1532402746.794,8.789,39.551,26.855,0.977,62.012
1532402746.798,4.395,46.387,26.855,2.441,43.457
1532402746.802,2.930,36.621,28.809,-1.465,9.277
1532402746.806,-2.441,25.879,23.926,-9.277,22.461
1532402746.810,1.465,31.250,25.391,-3.418,33.203
1532402746.814,5.371,33.203,29.297,-5.371,14.648
1532402746.817,2.441,31.738,22.949,-10.742,11.719
1532402746.821,5.859,31.738,20.996,-3.418,37.109
1532402746.825,8.789,35.156,28.809,-0.488,76.660
1532402746.829,8.789,36.133,29.785,4.883,83.984
1532402746.833,12.695,37.109,26.367,3.418,30.273
1532402746.837,16.113,42.480,29.297,0.977,-6.348
1532402746.841,15.625,37.109,30.273,8.301,10.254
1532402746.845,20.020,45.410,30.273,11.719,52.734
1532402746.849,20.020,53.223,30.762,12.695,50.781
1532402746.853,11.230,29.785,28.320,1.465,22.461
1532402746.857,9.766,26.855,27.832,-3.906,39.062
1532402746.860,7.324,34.668,30.762,1.953,30.762
1532402746.864,-0.488,31.250,32.227,-0.488,36.133
1532402746.868,1.953,33.691,32.715,-1.953,27.344
1532402746.872,10.254,35.645,32.227,0.977,-5.859
1532402746.876,14.648,30.762,30.762,1.465,11.719
1532402746.880,11.719,32.227,32.227,-0.977,41.016
1532402746.884,10.742,30.273,29.785,-2.441,34.668
1532402746.888,12.695,35.156,27.344,2.441,41.504
1532402746.892,11.719,38.574,28.320,3.418,39.551
1532402746.896,9.766,30.273,31.738,-2.441,8.301
1532402746.899,11.719,32.227,32.227,-1.465,8.301
1532402746.903,8.789,25.391,26.367,-5.371,47.852
1532402746.907,8.301,28.809,26.367,-8.789,46.875
1532402746.911,10.254,35.645,30.273,-4.395,23.926
1532402746.915,16.602,34.180,27.832,-9.277,9.766
1532402746.919,12.695,30.273,23.926,-12.695,19.531
1532402746.923,9.766,30.273,22.949,-3.418,47.363
1532402746.927,13.184,41.504,26.367,-2.441,32.715
1532402746.931,4.395,31.250,22.461,-13.184,32.227
1532402746.935,8.789,21.973,21.973,-9.766,41.016
1532402746.939,10.742,27.832,25.391,-4.883,39.551
1532402746.942,5.859,28.320,28.320,-9.277,47.852
1532402746.946,10.742,38.574,33.203,-2.441,55.664
1532402746.950,15.137,48.828,30.273,0.488,56.152
1532402746.954,6.836,34.180,22.949,-16.602,17.578
1532402746.958,3.418,16.113,23.438,-25.391,5.859
1532402746.962,11.719,22.949,28.809,-12.695,30.762
1532402746.966,15.625,33.203,26.855,-8.301,37.109
1532402746.970,18.066,30.762,22.461,-6.836,55.664
1532402746.974,22.461,27.344,29.297,-8.301,32.227
1532402746.978,20.020,31.738,34.668,-4.883,23.926
1532402746.981,21.973,38.574,30.762,3.906,37.109
1532402746.985,20.996,28.809,25.879,-1.953,16.113
1532402746.989,12.695,16.602,26.367,-9.277,41.504
1532402746.993,12.695,21.484,27.344,-8.301,62.500
1532402746.997,17.578,29.785,29.297,-0.977,62.988
1532402747.001,18.066,32.715,28.809,-3.906,54.688
1532402747.005,21.484,27.344,27.344,-6.836,21.484
1532402747.009,30.273,35.645,28.809,-0.488,32.227
1532402747.013,29.297,40.527,32.715,-1.465,50.781
1532402747.017,23.438,35.645,33.203,-5.859,-5.859
1532402747.021,19.531,21.973,31.250,-5.371,-5.371
1532402747.024,19.043,12.695,29.785,-1.953,42.480
1532402747.028,22.461,18.555,33.203,3.418,43.945
1532402747.032,17.578,23.926,34.668,-1.465,7.812
1532402747.036,11.719,27.344,30.762,-9.766,0.977
1532402747.040,18.555,33.691,33.691,-8.789,31.738
1532402747.044,23.438,37.598,34.668,-5.859,39.551
1532402747.048,23.926,21.973,34.668,-4.395,46.875
1532402747.052,32.227,30.762,34.668,-1.953,29.785
1532402747.056,29.785,38.574,29.297,-13.184,-23.926
1532402747.060,26.855,20.508,30.762,-16.602,0.488
1532402747.064,26.855,15.625,30.762,-5.859,35.156
1532402747.067,26.855,26.367,24.414,-4.395,28.809
1532402747.071,29.785,34.668,25.879,-13.672,30.273
1532402747.075,29.785,30.273,28.809,-14.160,25.879
1532402747.079,39.551,37.109,40.039,-2.930,27.832
1532402747.083,38.574,51.758,41.504,1.465,46.387
1532402747.087,28.809,35.645,29.297,-4.395,45.410
1532402747.091,32.227,17.578,26.855,-3.418,23.438
1532402747.095,42.480,21.484,33.691,4.395,40.039
1532402747.099,47.363,33.203,38.574,9.277,49.316
1532402747.103,47.363,52.246,39.551,13.184,48.828
1532402747.106,41.504,43.945,34.668,10.254,41.016
1532402747.110,27.832,22.461,28.320,0.488,27.832
1532402747.114,30.273,34.180,30.273,-3.906,16.113
1532402747.118,33.691,38.574,32.715,-0.977,28.320
1532402747.122,30.762,30.273,33.203,2.930,60.547
1532402747.126,31.738,33.203,31.738,0.977,49.316
1532402747.130,36.133,40.527,34.180,4.883,47.852
1532402747.134,41.504,45.898,32.715,3.418,30.273
1532402747.138,42.480,35.156,27.832,-9.766,7.812
1532402747.142,48.828,32.715,34.180,-2.441,30.762
1532402747.146,58.105,54.199,34.668,7.812,41.992
1532402747.149,52.734,49.316,31.738,1.953,20.996
1532402747.153,45.898,37.598,37.598,-0.977,17.090
1532402747.157,33.691,32.227,33.691,-0.977,-3.418
1532402747.161,23.438,21.973,30.762,-0.488,17.578
1532402747.165,26.855,32.715,37.598,4.395,42.480
1532402747.169,20.508,33.691,36.621,5.859,14.160
1532402747.173,18.555,31.250,36.621,7.324,9.277
1532402747.177,14.648,40.527,34.668,1.465,41.992
1532402747.181,8.301,29.785,27.344,-4.883,57.129
1532402747.185,14.648,19.043,30.762,-5.859,30.762
1532402747.189,22.949,29.297,35.156,-3.418,9.766
1532402747.192,19.531,37.109,30.762,-6.836,3.418
1532402747.196,25.879,49.316,39.551,-9.766,-14.648
1532402747.200,29.297,58.594,39.551,-8.301,15.137
1532402747.204,20.020,34.668,32.227,-12.207,20.508
1532402747.208,22.461,30.273,40.039,-11.230,15.625
1532402747.212,29.297,42.480,40.527,-7.812,37.598
1532402747.216,30.762,31.250,34.668,-5.371,32.715
1532402747.220,34.180,36.621,40.039,0.488,34.180
1532402747.224,32.715,51.758,41.016,-3.418,26.855
1532402747.228,23.438,32.227,34.668,-8.301,29.297
1532402747.231,22.949,20.508,38.574,-2.441,37.598
1532402747.235,25.879,39.551,40.527,-1.465,20.996
1532402747.239,24.902,41.016,38.086,-5.371,17.578
1532402747.243,18.066,34.668,34.180,-3.418,16.602
1532402747.247,17.090,34.668,34.668,-3.906,30.762
1532402747.251,18.555,33.691,35.156,-5.859,31.250
1532402747.255,15.137,31.250,29.297,-12.207,2.441
1532402747.259,21.973,41.992,36.621,-12.207,10.742
1532402747.263,29.297,56.641,38.574,-6.836,26.367
1532402747.267,25.879,31.738,30.273,-7.812,32.227
1532402747.271,27.832,26.367,31.738,-2.441,34.180
1532402747.274,29.297,32.227,31.250,-3.418,7.324
1532402747.278,30.273,33.203,35.645,-8.301,26.367
1532402747.282,25.879,36.133,39.062,-10.254,39.551
1532402747.286,29.297,33.203,34.180,-12.207,13.184
1532402747.290,-3.906,33.691,31.738,-14.648,-1.953
1532402747.294,-41.016,34.180,33.203,-16.602,29.297
1532402747.298,-5.371,48.340,37.598,-14.160,53.711
1532402747.302,8.301,52.734,38.086,-13.184,62.012
1532402747.306,-19.531,29.297,31.738,-20.996,28.809
1532402747.310,-34.180,20.996,30.273,-19.531,38.574
1532402747.314,-33.203,32.715,34.668,-18.066,35.156
1532402747.317,-28.320,37.109,35.645,-16.602,1.465
1532402747.321,-32.715,34.180,35.645,-8.789,23.438
1532402747.325,-36.133,32.227,33.691,-11.230,31.250
1532402747.329,-22.949,41.504,32.715,-2.441,26.367
1532402747.333,-20.996,43.457,33.203,-5.859,31.738
1532402747.337,-24.902,36.133,32.227,-13.184,20.996
1532402747.341,-24.902,34.180,33.691,-11.230,14.648
1532402747.345,-26.367,23.926,29.297,-14.648,34.180
