timestamps,TP9,AF7,AF8,TP10,Right AUX
1532402218.741,43.457,31.250,30.273,26.855,16.113
1532402218.744,41.016,33.203,28.809,23.438,12.695
1532402218.748,41.016,24.414,28.809,24.414,20.020
1532402218.752,51.270,39.551,41.992,39.551,22.461
1532402218.756,50.781,37.109,30.273,37.598,-23.438
1532402218.760,39.062,11.719,23.926,29.785,-30.273
1532402218.764,26.855,19.531,32.227,37.598,39.551
1532402218.768,22.949,30.762,33.691,41.504,39.062
1532402218.772,38.574,58.594,47.363,48.340,-12.695
1532402218.776,40.527,50.293,40.527,44.434,-9.277
1532402218.780,27.832,9.277,17.578,23.926,45.410
1532402218.784,53.711,10.254,13.184,39.551,32.227
1532402218.787,70.312,50.781,32.227,63.477,-15.625
1532402218.791,22.461,44.434,47.363,23.926,4.883
1532402218.795,-4.395,6.836,45.898,-2.441,33.691
1532402218.799,10.254,18.555,41.992,7.812,20.996
1532402218.803,3.906,28.809,38.086,6.836,26.367
1532402218.807,-3.418,27.832,44.434,1.465,23.438
1532402218.811,2.441,40.527,43.945,-3.418,-6.348
1532402218.815,-1.465,36.133,39.551,-13.184,0.977
1532402218.819,2.441,19.043,40.039,-11.230,18.555
1532402218.823,14.160,6.348,36.621,-7.812,8.301
1532402218.826,22.461,8.301,35.156,-5.859,20.996
1532402218.830,34.180,21.973,34.668,-6.348,21.973
1532402218.834,43.457,29.297,34.668,-1.953,28.809
1532402218.838,46.387,31.250,34.180,-2.930,23.438
1532402218.842,41.016,34.668,35.645,2.930,10.742
1532402218.846,33.691,56.152,41.504,20.020,41.504
1532402218.850,28.320,46.875,39.551,20.508,44.922
1532402218.854,15.137,12.695,29.297,20.508,20.020
1532402218.858,7.812,22.461,28.320,27.344,27.344
1532402218.862,4.395,28.320,33.691,21.484,38.574
1532402218.866,-2.930,19.043,32.715,20.020,49.316
1532402218.869,-3.418,23.438,30.762,20.996,25.879
1532402218.873,6.836,28.320,30.762,8.301,-28.809
1532402218.877,9.277,32.227,27.344,12.207,-1.953
1532402218.881,24.902,36.621,29.297,25.391,62.988
1532402218.885,27.344,43.945,33.691,27.344,61.523
1532402218.889,14.160,49.805,35.156,27.344,32.715
1532402218.893,12.695,28.809,30.762,21.484,45.898
1532402218.897,12.695,11.719,28.320,22.949,63.477
1532402218.901,14.160,17.578,33.203,19.043,42.969
1532402218.905,12.695,23.438,37.598,24.414,32.715
1532402218.909,16.602,28.809,38.086,29.297,38.574
1532402218.912,16.113,23.438,32.227,13.672,-0.977
1532402218.916,25.879,36.133,36.133,23.438,4.395
1532402218.920,31.738,43.945,33.203,33.203,29.785
1532402218.924,22.461,29.297,27.832,27.344,-1.465
1532402218.928,27.344,31.738,35.645,32.227,7.812
1532402218.932,27.344,39.551,36.133,36.621,31.738
1532402218.936,24.902,37.109,38.574,35.156,57.129
1532402218.940,24.902,28.320,37.598,34.180,68.359
1532402218.944,23.926,35.156,36.621,35.645,77.148
1532402218.948,20.508,34.668,34.668,32.715,52.734
1532402218.951,10.254,16.602,24.414,19.043,23.438
1532402218.955,11.719,18.066,27.832,19.043,19.043
1532402218.959,21.973,25.879,33.203,30.273,13.184
1532402218.963,27.344,36.621,31.738,29.297,15.137
1532402218.967,25.391,31.738,32.227,30.273,12.695
1532402218.971,26.367,25.391,35.156,25.879,-32.227
1532402218.975,28.809,35.645,39.062,26.367,-39.062
1532402218.979,35.645,47.852,38.086,34.180,6.348
1532402218.983,30.273,42.969,36.621,26.855,32.715
1532402218.987,22.461,22.461,34.180,16.602,39.551
1532402218.991,33.691,29.785,30.273,23.926,18.555
1532402218.994,34.180,34.180,27.344,28.320,30.762
1532402218.998,21.973,24.902,28.320,21.484,16.113
1532402219.002,25.879,32.227,33.203,22.949,-11.230
1532402219.006,30.273,33.203,30.273,25.879,5.859
1532402219.010,27.832,28.320,27.344,16.113,0.000
1532402219.014,30.762,33.203,30.273,14.648,7.324
1532402219.018,29.785,26.367,28.320,23.438,25.879
1532402219.022,27.344,22.949,31.250,25.391,16.113
1532402219.026,32.227,34.180,36.133,31.738,8.301
1532402219.030,23.926,30.762,29.785,19.531,13.184
1532402219.033,26.367,41.992,36.133,22.461,31.738
1532402219.037,35.156,54.688,43.457,40.039,16.602
1532402219.041,30.273,37.109,37.598,32.227,8.789
1532402219.045,36.133,28.320,32.715,28.809,23.926
1532402219.049,29.785,20.996,26.855,17.090,9.766
1532402219.053,26.367,21.973,25.879,13.672,-29.297
1532402219.057,29.297,26.367,29.297,21.973,-2.441
1532402219.061,34.180,30.273,31.738,31.738,22.461
1532402219.065,31.250,29.785,28.809,34.668,11.230
1532402219.069,26.855,50.293,38.086,37.109,10.742
1532402219.073,16.113,53.711,34.180,28.809,6.348
1532402219.076,2.930,19.531,26.367,21.973,16.602
1532402219.080,4.395,9.766,31.250,22.461,33.691
1532402219.084,2.930,12.207,26.367,13.184,31.250
1532402219.088,4.395,24.902,29.297,20.020,14.648
1532402219.092,14.648,45.898,37.109,26.367,-6.836
1532402219.096,11.719,41.992,32.715,18.066,-3.418
1532402219.100,10.742,20.020,27.832,11.230,21.484
1532402219.104,12.695,18.555,30.762,17.090,34.180
1532402219.108,16.602,26.855,37.598,32.715,35.645
1532402219.112,21.484,35.645,42.969,37.109,56.152
1532402219.116,11.719,26.367,31.250,27.832,67.871
1532402219.119,13.184,15.625,26.855,24.902,26.855
1532402219.123,10.742,23.438,34.668,31.738,20.508
1532402219.127,6.348,29.297,37.109,34.668,42.480
1532402219.131,0.977,41.504,38.086,30.762,47.852
1532402219.135,-14.648,37.109,30.273,26.855,36.621
1532402219.139,-26.367,27.344,26.367,28.809,-4.883
1532402219.143,-32.227,29.297,30.762,25.879,11.230
1532402219.147,-33.203,29.785,30.273,15.625,65.430
1532402219.151,-36.621,24.414,29.297,9.277,24.414
1532402219.155,-28.320,32.715,38.574,20.020,-27.344
1532402219.158,-25.391,34.180,39.551,33.203,2.930
1532402219.162,-24.414,30.273,33.691,33.691,40.039
1532402219.166,-11.719,28.809,31.738,33.203,57.617
1532402219.170,-6.348,21.484,27.344,28.809,32.227
1532402219.174,-13.184,36.621,28.809,26.367,4.883
1532402219.178,-33.691,41.504,32.227,28.320,21.973
1532402219.182,-34.668,21.973,27.832,24.414,45.410
1532402219.186,-33.691,10.254,28.809,18.555,45.410
1532402219.190,-36.133,23.926,34.180,22.949,24.414
1532402219.194,-38.086,32.227,32.227,18.555,5.371
1532402219.198,-25.879,37.598,31.250,25.391,41.504
1532402219.201,-14.648,41.016,27.344,26.855,56.641
1532402219.205,-12.695,17.090,28.320,17.090,27.832
1532402219.209,-4.883,26.855,35.645,24.902,-6.348
1532402219.213,-3.418,40.039,33.203,26.367,29.297
1532402219.217,0.000,30.762,33.691,24.902,67.871
1532402219.221,5.371,33.203,36.133,29.785,16.602
1532402219.225,7.812,36.133,33.691,33.203,33.203
1532402219.229,9.277,28.809,32.715,32.227,39.062
1532402219.233,10.254,25.391,29.785,26.855,17.090
1532402219.237,2.441,32.715,24.414,22.949,20.996
1532402219.241,6.836,25.879,24.414,25.391,21.484
1532402219.244,18.066,23.926,29.785,34.180,42.969
1532402219.248,19.043,31.738,29.785,32.715,49.805
1532402219.252,17.090,37.109,30.273,23.926,37.598
1532402219.256,12.695,32.227,31.250,20.508,24.414
1532402219.260,12.207,18.066,28.809,25.879,10.742
1532402219.264,15.625,24.414,31.738,31.738,37.109
1532402219.268,16.113,36.133,33.691,34.668,33.691
1532402219.272,12.695,34.668,29.297,35.156,-13.672
1532402219.276,8.301,26.367,29.297,32.715,-16.113
1532402219.280,8.789,35.156,35.645,32.715,12.207
1532402219.283,16.113,54.688,38.574,42.480,22.461
1532402219.287,9.766,39.062,31.738,34.668,-4.395
1532402219.291,4.395,17.578,30.273,20.508,-19.531
1532402219.295,10.742,28.809,36.133,28.809,9.277
1532402219.299,3.906,33.691,31.250,35.645,28.809
1532402219.303,10.254,24.902,31.250,35.645,15.137
1532402219.307,6.348,40.039,34.668,38.574,13.672
1532402219.311,-12.695,37.109,29.785,36.133,21.484
1532402219.315,-7.812,24.414,29.297,34.180,44.922
1532402219.319,2.441,34.180,30.273,35.645,41.504
1532402219.323,6.348,31.250,28.809,32.715,5.859
1532402219.326,5.859,24.902,35.645,35.645,-2.441
1532402219.330,12.207,20.020,32.227,32.227,2.441
1532402219.334,32.715,28.809,31.250,30.762,0.000
1532402219.338,43.945,49.805,37.598,40.527,5.859
1532402219.342,37.109,29.785,26.367,31.738,30.762
1532402219.346,42.480,33.203,30.762,28.809,54.688
1532402219.350,45.410,42.969,35.645,30.273,23.438
1532402219.354,33.691,13.672,24.902,17.578,-11.230
1532402219.358,31.250,13.184,22.949,15.625,22.949
1532402219.362,34.668,31.250,29.297,24.414,46.387
1532402219.366,29.785,34.668,31.250,23.926,61.523
1532402219.369,26.367,35.156,33.203,18.555,32.715
1532402219.373,27.832,48.828,38.086,19.043,5.371
1532402219.377,19.531,36.621,32.715,20.508,33.203
1532402219.381,16.602,35.645,29.785,27.344,33.691
1532402219.385,18.555,38.086,30.762,28.320,45.410
1532402219.389,13.184,23.926,30.762,21.973,33.691
1532402219.393,14.160,30.273,32.227,17.578,13.672
1532402219.397,11.719,19.531,23.438,16.602,49.805
1532402219.401,15.625,16.602,25.391,23.926,51.270
1532402219.405,26.855,27.344,31.250,25.879,13.672
1532402219.408,31.738,30.762,26.855,28.809,-6.836
1532402219.412,35.156,29.297,27.832,28.809,4.883
1532402219.416,46.387,39.551,37.109,30.273,14.648
1532402219.420,46.875,45.410,33.691,26.855,-3.418
1532402219.424,39.062,25.391,22.461,13.672,-5.371
1532402219.428,39.062,17.090,20.996,8.789,26.855
1532402219.432,37.598,26.855,26.367,2.930,22.949
1532402219.436,36.621,34.180,30.762,13.184,8.789
1532402219.440,38.086,37.598,34.180,34.180,23.926
1532402219.444,33.203,37.598,36.621,37.109,36.621
1532402219.448,28.809,44.434,40.039,42.969,52.246
1532402219.451,23.926,30.273,37.598,43.945,43.457
1532402219.455,20.508,11.719,33.691,36.133,1.465
1532402219.459,17.090,18.066,35.645,37.109,0.488
1532402219.463,13.672,25.879,38.574,40.527,22.461
1532402219.467,19.043,34.668,39.062,42.480,34.668
1532402219.471,24.414,39.062,38.574,40.527,-0.488
1532402219.475,29.297,31.738,39.551,42.480,-20.996
1532402219.479,31.250,30.762,37.598,41.016,49.805
1532402219.483,24.414,30.762,33.691,31.250,49.805
1532402219.487,23.438,34.180,34.668,31.250,10.254
1532402219.490,20.020,28.320,37.109,36.133,6.348
1532402219.494,20.508,30.273,37.109,34.668,21.973
1532402219.498,19.043,26.367,32.715,28.809,37.598
1532402219.502,20.508,24.414,31.738,30.762,16.602
1532402219.506,28.320,41.016,33.691,31.738,18.555
1532402219.510,20.508,27.832,31.738,24.414,14.160
1532402219.514,25.879,29.297,39.062,26.855,25.391
1532402219.518,41.504,52.246,41.016,29.297,45.898
1532402219.522,30.273,33.691,33.203,28.320,38.086
1532402219.526,22.461,20.508,33.691,31.250,40.039
1532402219.530,34.180,30.762,32.227,26.855,35.645
1532402219.533,26.367,31.250,28.809,21.973,25.879
1532402219.537,-1.953,22.461,27.344,24.902,39.551
1532402219.541,-13.672,22.461,29.297,29.297,15.137
1532402219.545,1.953,38.574,33.203,36.133,24.902
1532402219.549,10.254,49.805,37.598,38.086,61.523
1532402219.553,6.836,49.805,37.598,31.738,36.133
1532402219.557,11.230,50.293,34.180,35.645,20.996
1532402219.561,8.789,21.484,27.832,26.367,19.531
1532402219.565,6.348,13.672,28.320,23.926,44.922
1532402219.569,4.883,26.855,30.762,28.320,49.316
1532402219.573,14.160,29.297,33.691,21.484,20.020
1532402219.576,25.391,52.734,44.434,35.645,21.484
1532402219.580,17.090,56.641,40.527,38.086,20.508
1532402219.584,4.395,25.879,30.762,18.066,-11.719
1532402219.588,6.836,19.043,34.668,22.461,-3.418
1532402219.592,8.301,21.973,32.715,16.113,-0.488
1532402219.596,8.789,25.879,32.715,13.184,9.277
1532402219.600,13.184,42.480,35.645,28.320,27.832
1532402219.604,9.277,39.551,31.738,28.809,15.137
1532402219.608,16.602,39.551,38.574,34.180,23.438
1532402219.612,24.414,62.012,42.969,36.133,6.836
1532402219.615,14.648,43.945,32.715,26.367,24.414
1532402219.619,18.066,26.855,37.109,35.156,58.594
1532402219.623,16.602,32.715,31.250,35.156,26.367
1532402219.627,6.348,15.137,21.973,22.461,40.039
1532402219.631,9.766,15.625,29.297,25.391,38.086
1532402219.635,17.090,35.156,38.086,29.297,39.551
1532402219.639,22.461,49.316,42.480,35.156,26.855
1532402219.643,20.020,42.480,37.109,38.574,25.879
1532402219.647,17.090,35.156,37.109,39.062,55.664
1532402219.651,24.902,37.109,41.016,49.316,51.270
1532402219.655,29.297,23.926,39.551,50.293,32.715
1532402219.658,29.297,33.203,31.250,30.762,12.695
1532402219.662,22.949,37.598,20.508,18.555,35.156
1532402219.666,21.484,34.668,20.508,20.508,67.871
1532402219.670,34.180,45.410,23.926,26.367,39.062
1532402219.674,44.434,45.410,26.367,38.574,23.926
1532402219.678,43.457,38.574,23.438,38.086,15.625
1532402219.682,34.180,30.762,15.625,25.391,-7.324
1532402219.686,33.691,34.668,13.184,20.996,5.859
1532402219.690,36.621,47.852,8.789,21.973,11.230
1532402219.694,42.480,55.664,6.836,35.645,21.973
1532402219.698,43.457,59.082,10.254,46.387,19.531
1532402219.701,33.691,49.805,8.301,37.598,-1.465
1532402219.705,26.367,31.250,4.883,36.133,15.137
1532402219.709,32.227,38.086,9.766,34.180,-6.836
1532402219.713,28.320,45.410,15.625,24.902,-21.973
1532402219.717,13.672,39.062,16.602,28.809,37.598
1532402219.721,20.508,50.781,18.555,38.574,38.574
1532402219.725,25.879,63.965,16.602,36.133,9.277
1532402219.729,18.555,39.551,10.254,26.855,30.273
1532402219.733,19.043,29.297,12.207,33.203,56.152
1532402219.737,26.855,44.922,14.648,38.086,30.273
1532402219.740,41.504,49.316,15.625,40.039,21.484
1532402219.744,41.016,44.922,19.043,44.434,45.898
1532402219.748,45.410,58.105,28.809,46.387,35.645
1532402219.752,51.758,65.430,23.926,29.297,1.465
1532402219.756,36.133,39.062,13.184,17.090,10.254
1532402219.760,35.645,22.949,17.090,28.809,43.457
1532402219.764,42.480,24.414,21.484,34.180,54.199
1532402219.768,41.504,34.180,22.949,41.504,32.715
1532402219.772,46.875,48.340,26.367,47.852,4.395
1532402219.776,43.945,37.598,21.484,39.062,46.875
1532402219.780,45.898,29.297,19.531,38.086,69.336
1532402219.783,45.898,35.156,27.344,38.574,27.344
1532402219.787,40.527,34.668,26.855,34.180,-3.906
1532402219.791,47.852,41.992,25.391,40.527,5.859
1532402219.795,50.293,51.758,34.180,46.387,26.855
1532402219.799,48.340,61.035,35.156,43.945,60.059
1532402219.803,41.992,39.551,22.949,33.203,52.246
1532402219.807,33.691,17.578,18.555,29.297,5.859
1532402219.811,39.062,31.250,25.879,30.762,-9.277
1532402219.815,41.992,39.551,27.832,30.762,-0.977
1532402219.819,36.133,34.180,22.949,30.762,30.762
1532402219.823,28.809,22.461,21.484,29.297,33.691
1532402219.826,30.762,32.227,25.879,37.109,30.273
1532402219.830,42.480,51.758,28.320,41.504,43.457
1532402219.834,40.527,25.391,25.879,42.480,48.828
1532402219.838,32.715,13.672,26.855,39.062,36.133
1532402219.842,30.273,22.461,24.414,33.691,25.879
1532402219.846,39.062,25.391,21.484,38.086,40.527
1532402219.850,45.898,35.156,19.043,28.809,0.000
1532402219.854,48.340,54.199,23.438,26.367,-44.922
1532402219.858,51.270,52.734,23.926,41.016,4.395
1532402219.862,40.527,29.297,14.648,35.645,35.156
1532402219.865,26.367,25.391,4.395,28.809,54.199
1532402219.869,31.250,33.691,4.883,27.832,50.293
1532402219.873,40.527,48.340,14.648,27.832,25.391
1532402219.877,34.668,41.992,9.766,24.902,50.781
1532402219.881,31.738,29.297,8.301,20.020,56.641
1532402219.885,36.621,42.969,11.719,29.785,33.691
1532402219.889,37.109,53.223,12.207,33.203,-7.812
1532402219.893,28.809,49.316,14.648,21.484,-14.648
1532402219.897,24.414,39.062,10.254,22.461,33.203
1532402219.901,35.645,35.645,10.254,29.297,34.668
1532402219.905,28.320,37.109,9.277,27.344,14.648
1532402219.908,13.672,47.363,9.766,31.738,15.137
1532402219.912,13.672,58.594,11.719,30.273,4.883
1532402219.916,7.812,40.039,13.184,29.785,20.508
1532402219.920,7.324,29.785,13.672,31.250,18.555
1532402219.924,4.883,38.086,10.742,21.484,2.930
1532402219.928,3.906,39.062,13.184,23.438,38.574
1532402219.932,15.625,45.898,15.625,23.438,49.316
1532402219.936,20.996,45.898,17.090,21.973,18.066
1532402219.940,13.672,26.367,9.766,22.461,15.137
1532402219.944,17.090,28.809,12.695,20.508,15.137
1532402219.947,16.602,46.387,19.531,22.461,17.090
1532402219.951,7.812,40.527,15.137,13.672,44.434
1532402219.955,-8.789,34.180,17.090,16.602,29.297
1532402219.959,-39.551,28.320,11.230,20.996,27.344
1532402219.963,-37.598,30.762,8.789,23.926,57.129
1532402219.967,-15.137,41.992,18.555,28.320,44.922
1532402219.971,-6.836,40.527,18.555,23.438,13.184
1532402219.975,-13.672,30.762,16.602,20.508,30.762
1532402219.979,-15.137,23.926,19.043,23.926,42.480
1532402219.983,-9.766,25.879,15.625,23.438,26.855
1532402219.987,-6.836,32.715,15.625,24.902,34.180
1532402219.990,-12.207,32.715,15.625,15.137,26.367
1532402219.994,-10.742,37.598,18.555,12.695,6.836
1532402219.998,6.348,63.477,29.785,31.738,20.020
1532402220.002,1.953,55.664,21.484,20.996,27.344
1532402220.006,-7.324,17.578,12.695,12.695,-1.465
1532402220.010,-3.906,17.090,15.137,12.207,3.906
1532402220.014,1.465,29.785,16.602,12.695,18.066
1532402220.018,5.859,29.297,12.695,10.742,40.039
1532402220.022,12.207,37.598,21.973,13.184,28.809
1532402220.026,12.695,50.293,20.996,22.949,27.344
1532402220.030,6.836,39.551,13.184,16.113,41.016
1532402220.033,-0.488,22.949,17.578,6.348,23.438
1532402220.037,-2.930,23.926,19.531,19.043,19.043
1532402220.041,-0.488,38.086,24.902,34.180,15.625
1532402220.045,3.418,30.762,21.973,30.762,37.598
1532402220.049,-2.441,20.020,20.996,29.297,43.457
1532402220.053,-6.836,18.555,22.461,32.715,36.621
1532402220.057,12.695,31.250,24.414,43.945,42.480
1532402220.061,21.484,43.945,26.367,47.363,28.320
1532402220.065,17.090,27.344,22.949,36.133,35.645
1532402220.069,18.066,27.344,26.855,40.039,32.227
1532402220.072,15.625,34.180,28.320,37.598,1.465
1532402220.076,14.648,21.973,21.973,30.273,10.742
1532402220.080,27.832,28.320,21.973,37.598,37.109
1532402220.084,31.250,33.203,25.391,33.691,20.508
1532402220.088,30.273,34.180,23.926,29.785,8.789
1532402220.092,33.203,39.062,30.273,33.691,-4.883
1532402220.096,24.902,35.645,30.273,29.785,-6.348
1532402220.100,10.254,16.113,17.578,26.367,-1.465
1532402220.104,15.137,22.949,20.020,32.227,2.930
1532402220.108,17.578,42.969,30.273,41.992,41.016
1532402220.112,6.836,32.227,25.879,34.668,48.340
1532402220.115,-3.418,29.297,20.996,24.902,22.949
1532402220.119,-14.648,29.785,23.926,26.855,18.555
1532402220.123,-8.789,27.832,27.344,33.691,23.438
1532402220.127,0.488,34.180,28.320,36.133,49.805
1532402220.131,2.441,37.109,22.949,33.691,37.598
1532402220.135,0.977,36.621,27.832,25.391,12.207
1532402220.139,-3.906,34.668,28.809,26.367,18.066
1532402220.143,-1.953,31.738,26.367,35.645,25.879
1532402220.147,-5.371,22.461,30.762,32.227,50.293
1532402220.151,-3.418,31.250,29.785,31.250,68.848
1532402220.155,1.465,38.086,30.273,34.668,50.293
1532402220.158,0.000,32.227,30.273,34.668,39.551
1532402220.162,-3.418,22.461,23.438,27.832,21.484
1532402220.166,1.465,27.832,26.367,32.227,42.480
1532402220.170,6.348,44.922,33.691,33.203,54.688
1532402220.174,0.488,31.738,28.809,16.602,16.113
1532402220.178,-4.883,9.766,22.461,17.090,30.762
1532402220.182,5.371,26.367,30.762,34.180,31.738
1532402220.186,24.902,39.551,33.691,43.457,54.199
1532402220.190,27.832,35.156,25.879,32.227,28.809
1532402220.194,19.043,35.645,20.996,17.578,-0.977
1532402220.197,19.531,27.832,18.555,21.973,36.621
1532402220.201,24.414,32.227,19.531,25.879,25.391
1532402220.205,23.438,28.320,17.578,27.344,3.906
1532402220.209,21.973,29.785,22.949,31.738,30.762
1532402220.213,15.137,41.016,23.438,31.250,47.852
1532402220.217,12.695,34.180,16.602,21.973,34.180
1532402220.221,19.043,35.156,25.879,22.461,22.461
1532402220.225,16.113,33.691,28.320,28.809,20.020
1532402220.229,9.766,21.973,22.461,33.691,14.648
1532402220.233,14.648,24.414,21.484,28.320,-18.066
1532402220.237,20.508,36.133,20.508,27.344,-21.484
1532402220.240,17.578,36.621,24.902,33.203,36.621
1532402220.244,17.578,35.645,28.320,30.762,39.551
1532402220.248,15.137,30.762,28.320,26.855,45.898
1532402220.252,11.719,28.320,28.320,26.855,45.410
1532402220.256,23.926,35.156,31.250,34.180,11.230
1532402220.260,27.344,37.598,32.715,43.457,19.531
1532402220.264,22.461,31.738,27.832,43.457,40.527
1532402220.268,16.113,20.996,24.902,39.062,26.855
1532402220.272,14.160,21.484,33.691,36.133,-2.930
1532402220.276,12.695,32.715,36.621,34.668,-16.113
1532402220.280,7.324,24.902,23.926,33.203,35.156
1532402220.283,7.812,14.648,19.531,32.227,57.617
1532402220.287,16.113,27.832,30.273,41.992,30.762
1532402220.291,17.578,35.645,35.156,37.109,17.090
1532402220.295,11.719,20.508,26.367,28.809,23.438
1532402220.299,11.719,15.137,20.508,31.738,32.227
1532402220.303,8.301,21.973,26.855,28.320,32.227
1532402220.307,6.836,29.785,32.227,32.715,8.789
1532402220.311,14.160,32.715,33.203,27.344,8.789
1532402220.315,21.484,28.809,31.250,22.461,2.441
1532402220.319,23.438,18.555,28.320,23.438,22.461
1532402220.322,28.809,15.137,31.250,24.414,32.227
1532402220.326,23.438,19.531,37.598,28.809,31.250
1532402220.330,17.578,30.273,43.945,28.809,48.828
1532402220.334,18.066,34.668,42.969,25.879,39.062
1532402220.338,14.648,20.996,38.574,27.344,34.180
1532402220.342,16.113,19.043,43.945,35.645,36.621
1532402220.346,8.301,25.879,48.828,38.086,54.688
1532402220.350,-2.441,17.578,45.410,26.367,48.340
1532402220.354,-4.395,20.996,44.922,28.320,30.273
1532402220.358,0.488,28.809,45.898,36.621,28.809
1532402220.362,3.418,28.809,45.898,34.180,44.434
1532402220.365,-5.371,18.066,39.062,23.438,61.035
1532402220.369,-5.371,7.324,39.551,18.555,27.832
1532402220.373,4.883,16.602,45.898,20.508,-27.344
1532402220.377,5.859,21.973,46.387,25.879,6.348
1532402220.381,-2.930,16.602,44.434,26.855,44.922
1532402220.385,-4.395,13.672,38.574,26.855,26.367
1532402220.389,-2.441,11.719,37.109,25.391,13.672
1532402220.393,7.324,12.695,43.457,25.879,15.137
1532402220.397,31.250,37.109,47.852,34.668,45.410
1532402220.401,40.039,49.316,44.922,34.180,26.367
1532402220.404,27.344,19.531,40.527,30.762,-6.348
1532402220.408,22.949,-0.977,38.086,26.367,19.531
1532402220.412,18.555,11.230,37.598,19.043,10.742
1532402220.416,3.418,27.832,39.062,23.438,5.371
1532402220.420,-11.719,23.438,42.969,33.203,18.555
1532402220.424,-16.602,22.461,44.922,33.203,2.441
1532402220.428,-15.137,26.367,45.898,30.762,13.184
1532402220.432,-24.902,24.414,44.434,29.785,28.320
1532402220.436,-33.203,19.531,39.062,28.809,21.484
1532402220.440,-40.527,25.879,38.574,24.902,18.066
1532402220.444,-35.156,32.715,27.832,26.855,39.551
1532402220.447,-20.508,16.113,25.879,51.270,41.992
1532402220.451,-61.523,17.578,49.805,27.344,11.230
1532402220.455,-106.445,24.414,55.176,-5.371,-18.066
1532402220.459,-119.629,12.207,50.293,-0.977,28.320
1532402220.463,-128.906,12.207,50.293,-11.719,70.312
1532402220.467,-130.859,14.648,51.758,-10.254,58.105
1532402220.471,-143.066,32.715,61.035,-15.625,19.531
1532402220.475,-144.043,34.180,60.059,-14.648,0.000
1532402220.479,-160.156,15.625,53.711,-23.926,23.438
1532402220.483,-171.875,8.301,53.711,-31.250,48.340
1532402220.487,-170.410,-2.441,53.711,-29.297,47.363
1532402220.490,-165.527,5.859,54.199,-31.738,23.926
1532402220.494,-149.414,13.184,51.270,-20.020,19.043
1532402220.498,-132.812,18.066,52.734,-3.418,29.785
1532402220.502,-122.070,16.602,50.781,-3.418,16.602
1532402220.506,-132.324,9.277,46.875,-6.348,6.836
1532402220.510,-145.508,15.137,42.969,-2.930,2.441
1532402220.514,-157.227,9.277,40.527,-8.789,13.672
1532402220.518,-164.062,6.836,42.480,2.441,31.738
1532402220.522,-162.598,13.672,43.945,11.230,19.043
1532402220.526,-166.016,9.277,38.574,8.789,25.879
1532402220.529,-161.133,14.160,41.992,14.648,23.438
1532402220.533,-158.691,19.043,44.922,9.766,10.742
1532402220.537,-160.156,11.230,38.086,7.812,7.324
1532402220.541,-141.113,23.438,42.480,22.461,3.418
1532402220.545,-130.371,25.391,41.016,22.949,27.832
1532402220.549,-131.348,-0.488,34.668,7.812,32.227
1532402220.553,-126.465,4.395,38.574,12.695,-3.906
1532402220.557,-143.066,16.602,41.016,24.414,-19.531
1532402220.561,-150.391,18.066,40.039,24.902,12.695
1532402220.565,-136.230,26.367,42.480,29.785,48.340
1532402220.569,-136.230,23.926,37.109,29.297,39.062
1532402220.572,-127.441,4.883,28.320,14.160,20.996
1532402220.576,-112.305,2.930,29.785,13.184,35.156
1532402220.580,-109.375,9.766,32.715,21.973,38.086
1532402220.584,-99.609,23.438,32.715,17.090,35.156
1532402220.588,-106.445,26.367,30.273,15.625,35.156
1532402220.592,-132.324,21.484,38.086,17.090,4.395
1532402220.596,-143.066,37.109,37.598,23.926,-2.930
1532402220.600,-144.043,19.043,29.297,20.508,27.344
1532402220.604,-125.000,-3.418,29.785,11.230,15.625
1532402220.608,-103.027,11.719,28.320,14.648,39.551
1532402220.612,-81.543,22.949,31.250,20.508,56.641
1532402220.615,-61.035,47.363,39.551,30.762,31.250
1532402220.619,-63.477,35.156,30.273,30.762,50.293
1532402220.623,-73.730,0.000,22.949,27.832,42.969
1532402220.627,-81.543,8.789,30.273,34.180,9.277
1532402220.631,-88.867,10.254,27.344,36.621,31.738
1532402220.635,-90.332,17.090,26.855,42.969,25.391
1532402220.639,-93.750,24.902,28.320,46.387,-5.859
1532402220.643,-92.285,33.203,33.203,48.828,9.277
1532402220.647,-90.332,45.898,37.598,55.176,23.926
1532402220.651,-100.098,23.438,26.855,37.598,6.836
1532402220.654,-93.750,2.930,21.484,28.320,3.418
1532402220.658,-75.684,16.602,27.832,41.992,10.742
1532402220.662,-78.125,18.066,30.762,41.992,7.324
1532402220.666,-90.332,17.090,27.344,40.527,43.945
1532402220.670,-87.402,30.762,26.855,40.527,43.945
1532402220.674,-76.172,34.180,28.320,41.504,3.418
1532402220.678,-69.824,30.762,23.438,40.527,22.461
1532402220.682,-70.312,14.160,18.555,31.738,56.641
1532402220.686,-61.035,7.324,23.438,39.551,41.016
1532402220.690,-54.688,20.996,27.344,40.039,1.465
1532402220.694,-53.711,15.625,22.461,30.273,26.367
1532402220.697,-45.410,22.461,26.367,39.062,62.500
1532402220.701,-46.875,28.809,34.180,46.387,53.711
1532402220.705,-49.805,18.066,32.715,41.992,27.344
1532402220.709,-51.270,12.695,26.367,35.156,0.977
1532402220.713,-48.828,12.695,24.414,32.715,-5.371
1532402220.717,-41.992,17.578,27.344,41.504,23.926
1532402220.721,-38.086,26.855,24.902,38.574,36.133
1532402220.725,-41.504,25.879,20.996,33.203,19.043
1532402220.729,-39.062,12.695,19.043,31.250,24.902
1532402220.733,-25.391,14.648,22.461,32.227,10.254
1532402220.736,-31.250,26.367,26.855,32.227,17.578
1532402220.740,-46.387,19.531,23.438,24.414,32.227
1532402220.744,-49.805,15.137,25.391,27.832,43.945
1532402220.748,-49.805,20.020,27.344,23.438,49.316
1532402220.752,-40.527,21.973,25.879,26.855,33.203
1532402220.756,-38.086,41.504,29.297,37.598,26.367
1532402220.760,-45.898,30.762,22.949,33.691,38.086
1532402220.764,-50.293,3.906,20.996,33.203,51.758
1532402220.768,-48.828,9.766,21.973,33.691,29.297
1532402220.772,-46.875,10.254,22.461,26.855,14.160
1532402220.776,-48.340,14.160,25.391,29.785,12.207
1532402220.779,-47.852,20.508,26.367,31.250,23.926
1532402220.783,-44.434,20.020,26.367,29.785,19.043
1532402220.787,-43.945,24.902,28.320,34.668,-11.719
1532402220.791,-40.039,30.762,25.879,25.391,-17.578
1532402220.795,-31.250,27.832,25.879,22.949,5.371
1532402220.799,-22.461,33.691,26.855,33.203,41.016
1532402220.803,-32.715,27.344,23.926,24.902,22.949
1532402220.807,-38.086,14.648,24.414,18.066,7.812
1532402220.811,-31.738,18.555,22.949,22.949,1.953
1532402220.815,-34.668,26.855,28.809,30.273,-9.277
1532402220.819,-42.480,28.809,30.273,33.203,-4.395
1532402220.822,-45.410,31.250,27.344,35.156,3.906
1532402220.826,-45.898,37.109,29.297,41.016,14.648
1532402220.830,-39.551,34.668,25.879,37.598,4.883
1532402220.834,-33.691,25.391,24.902,34.668,-4.395
1532402220.838,-38.086,18.555,22.461,34.668,25.879
1532402220.842,-43.457,21.484,23.438,26.855,28.809
1532402220.846,-48.340,22.949,26.855,24.902,32.715
1532402220.850,-56.152,21.973,24.414,29.785,41.016
1532402220.854,-63.477,23.926,23.438,29.297,20.996
1532402220.858,-57.129,29.297,25.879,27.344,9.277
1532402220.861,-50.293,28.809,25.391,26.367,15.137
1532402220.865,-71.777,26.855,26.855,27.832,24.902
1532402220.869,-85.938,29.297,30.273,25.879,2.441
1532402220.873,-78.613,21.484,26.855,19.043,-20.996
1532402220.877,-79.590,22.949,27.344,21.973,27.344
1532402220.881,-76.660,30.762,31.250,27.832,60.547
1532402220.885,-62.988,28.320,32.227,27.344,20.996
1532402220.889,-76.660,19.531,24.902,21.484,-8.301
1532402220.893,-103.027,19.043,22.949,20.020,10.742
1532402220.897,-112.793,24.414,25.879,24.902,12.207
1532402220.901,-107.422,22.461,26.367,26.367,19.531
1532402220.904,-92.773,33.691,33.203,32.227,44.434
1532402220.908,-80.566,41.504,33.691,30.762,34.180
1532402220.912,-65.918,19.531,22.949,22.461,20.508
1532402220.916,-59.082,13.672,21.484,22.461,38.086
1532402220.920,-65.918,22.461,25.879,23.438,12.695
1532402220.924,-72.754,24.902,29.297,24.414,-10.254
1532402220.928,-64.453,30.273,29.785,30.273,19.043
1532402220.932,-49.316,27.832,22.949,21.973,17.090
1532402220.936,-38.574,23.926,22.949,15.625,-6.348
1532402220.940,-33.203,23.438,25.879,23.926,5.859
1532402220.944,-30.273,18.555,25.879,24.902,30.762
1532402220.947,-19.531,29.297,27.344,29.297,42.969
1532402220.951,-26.855,30.273,24.414,25.879,32.715
1532402220.955,-38.574,28.809,25.879,19.531,16.602
1532402220.959,-42.480,40.527,29.297,26.855,31.738
1532402220.963,-56.152,21.973,28.320,30.762,54.199
1532402220.967,-54.199,16.602,27.344,37.598,44.434
1532402220.971,-42.969,33.691,24.414,38.574,4.395
1532402220.975,-39.062,28.320,26.367,35.645,19.043
1532402220.979,-41.992,16.602,29.785,36.621,43.457
1532402220.983,-42.969,25.879,31.738,39.551,17.090
1532402220.986,-40.039,30.273,33.203,40.527,14.160
1532402220.990,-31.250,37.109,36.621,33.691,1.953
1532402220.994,-31.250,38.574,33.691,26.367,0.000
1532402220.998,-41.016,14.648,24.414,29.297,9.277
1532402221.002,-31.738,10.254,23.926,33.691,16.602
1532402221.006,-21.484,26.367,29.297,34.668,25.391
1532402221.010,-26.367,27.832,23.926,32.227,3.906
1532402221.014,-32.715,26.367,22.461,31.250,-8.301
1532402221.018,-22.461,37.598,29.785,37.109,4.883
1532402221.022,-9.766,47.852,32.715,41.992,-3.906
1532402221.026,-18.066,34.668,26.855,38.086,25.391
1532402221.029,-32.227,15.625,21.973,25.879,19.043
1532402221.033,-28.320,14.160,22.949,23.926,20.996
1532402221.037,-22.949,20.996,24.414,28.320,39.062
1532402221.041,-16.602,28.809,22.949,27.344,15.137
1532402221.045,-4.883,35.645,25.879,34.180,19.531
1532402221.049,-4.395,36.133,32.227,38.086,5.371
1532402221.053,-10.254,24.902,27.832,32.227,4.883
1532402221.057,-24.902,21.484,27.832,31.738,15.625
1532402221.061,-29.785,57.617,40.039,39.062,24.902
1532402221.065,-40.527,45.410,33.203,29.297,48.828
1532402221.069,-54.199,2.441,18.555,17.090,19.043
1532402221.072,-41.016,11.719,24.902,19.531,-10.254
1532402221.076,-38.086,23.438,27.344,20.996,9.766
1532402221.080,-48.340,25.391,23.926,22.949,58.594
1532402221.084,-45.410,27.832,26.855,31.250,76.660
1532402221.088,-36.621,39.551,31.738,41.016,37.598
1532402221.092,-34.180,55.176,36.621,50.293,39.551
1532402221.096,-52.246,28.320,24.902,33.203,44.434
1532402221.100,-62.988,2.441,17.578,18.066,20.508
1532402221.104,-53.223,19.043,26.855,28.809,-0.488
1532402221.108,-53.223,19.531,27.344,29.785,10.254
1532402221.111,-49.316,18.555,25.879,28.809,5.371
1532402221.115,-40.039,38.086,28.809,28.320,17.090
1532402221.119,-38.574,38.086,30.273,27.832,64.941
1532402221.123,-36.621,27.344,29.785,28.320,52.246
1532402221.127,-29.785,36.133,32.227,28.320,31.738
1532402221.131,-33.691,36.621,29.297,28.320,32.715
1532402221.135,-19.043,24.902,25.391,31.738,62.012
1532402221.139,-4.883,32.715,31.250,32.227,69.824
1532402221.143,-15.625,34.668,26.855,30.273,49.316
1532402221.147,-31.738,6.836,18.555,18.555,17.578
1532402221.151,-48.340,8.789,22.949,17.090,20.020
1532402221.154,-51.758,24.414,27.832,19.043,28.809
1532402221.158,-46.387,28.320,26.855,21.973,15.137
1532402221.162,-42.480,34.668,26.367,27.344,20.996
1532402221.166,-54.688,30.762,28.320,26.855,44.922
1532402221.170,-73.730,41.992,31.738,27.344,1.953
1532402221.174,-77.637,50.781,30.273,21.973,-4.883
1532402221.178,-81.055,21.484,26.367,19.043,35.645
1532402221.182,-80.566,4.395,20.508,21.484,25.879
1532402221.186,-63.965,15.625,22.461,27.344,42.480
1532402221.190,-51.270,22.949,25.391,24.414,-5.859
1532402221.193,-41.992,23.438,20.020,15.625,-4.883
1532402221.197,-28.320,28.320,20.508,8.789,31.250
1532402221.201,-16.602,35.156,25.391,9.766,20.508
1532402221.205,-4.395,56.152,28.809,22.461,60.547
1532402221.209,-11.719,55.176,25.391,20.020,22.461
1532402221.213,-23.438,16.113,20.996,13.672,-11.719
1532402221.217,-35.156,4.395,18.555,22.461,17.578
1532402221.221,-43.457,13.672,17.578,27.832,-2.930
1532402221.225,-38.086,21.484,22.949,32.227,6.836
1532402221.229,-40.039,25.879,26.367,38.086,12.207
1532402221.233,-37.598,38.086,30.762,41.992,28.809
1532402221.236,-39.551,27.344,31.250,42.969,39.062
1532402221.240,-26.367,22.461,31.250,43.945,22.461
1532402221.244,-16.602,47.852,33.691,45.410,17.090
1532402221.248,-41.016,23.926,23.926,37.109,23.926
1532402221.252,-62.500,0.977,21.484,27.344,-0.488
1532402221.256,-77.637,18.066,28.320,28.320,-1.953
1532402221.260,-93.262,20.508,27.344,33.203,16.113
1532402221.264,-78.613,20.508,27.832,39.062,6.348
1532402221.268,-61.523,23.926,29.297,37.598,21.973
1532402221.272,-58.105,19.043,26.855,30.273,31.738
1532402221.276,-52.734,17.578,24.902,20.996,41.504
1532402221.279,-44.922,30.273,29.785,28.320,54.688
1532402221.283,-42.969,39.551,32.715,41.016,64.941
1532402221.287,-40.527,24.902,34.180,36.621,57.617
1532402221.291,-40.039,9.766,31.738,26.855,31.250
1532402221.295,-38.086,18.066,28.809,32.227,32.227
1532402221.299,-34.668,25.879,31.738,40.527,47.852
1532402221.303,-34.180,14.648,28.809,35.645,37.598
1532402221.307,-33.691,19.531,27.344,39.062,37.598
1532402221.311,-38.574,36.621,30.273,36.133,20.508
1532402221.315,-39.062,30.273,27.344,36.133,29.785
1532402221.318,-28.809,28.809,23.438,42.969,36.621
1532402221.322,-20.508,33.691,24.414,42.480,14.648
1532402221.326,-20.020,22.949,27.344,39.551,39.551
1532402221.330,-18.555,16.113,24.414,29.785,69.336
1532402221.334,-18.555,15.625,23.438,24.902,47.852
1532402221.338,-19.531,24.414,26.855,34.180,13.184
1532402221.342,-19.043,29.785,27.832,29.785,14.648
1532402221.346,-17.578,25.879,25.391,26.367,34.180
1532402221.350,-15.625,32.227,22.949,29.785,48.340
1532402221.354,-13.672,42.480,26.855,27.344,-7.812
1532402221.358,-16.602,26.855,20.508,30.762,-43.457
1532402221.361,-17.090,8.789,15.625,35.156,-10.254
1532402221.365,-10.742,16.602,21.484,36.621,34.180
1532402221.369,0.977,25.879,23.926,35.645,32.227
1532402221.373,19.531,29.785,26.855,41.504,8.301
1532402221.377,24.414,23.438,24.414,39.062,11.719
1532402221.381,24.414,17.578,22.949,42.969,18.555
1532402221.385,34.668,28.320,26.367,51.758,23.926
1532402221.389,43.945,26.855,23.438,49.805,18.555
1532402221.393,36.621,29.297,25.391,48.340,17.578
1532402221.397,-1.465,33.203,25.391,46.875,42.969
1532402221.401,-18.066,12.695,18.555,36.133,32.715
1532402221.404,-3.906,12.695,18.066,34.668,22.949
1532402221.408,-7.324,23.438,22.461,39.062,40.527
1532402221.412,-8.789,20.508,22.949,36.133,15.625
1532402221.416,0.000,25.879,22.949,36.133,29.785
1532402221.420,17.090,38.574,28.809,40.039,31.738
1532402221.424,20.020,28.809,18.555,38.086,-4.395
1532402221.428,19.043,11.719,17.090,39.062,18.066
1532402221.432,22.461,21.973,22.949,40.039,30.762
1532402221.436,22.949,34.180,19.531,37.109,19.043
1532402221.440,18.555,32.715,19.043,31.738,0.000
1532402221.443,13.184,14.648,18.066,24.902,9.277
1532402221.447,23.926,26.367,22.461,36.133,50.293
1532402221.451,23.438,37.109,26.367,37.109,0.000
1532402221.455,12.695,20.020,21.484,31.738,-43.457
1532402221.459,5.859,15.137,18.555,33.691,10.742
1532402221.463,-1.465,20.996,20.996,36.621,34.668
1532402221.467,0.000,26.367,23.926,40.039,16.113
1532402221.471,1.953,28.320,22.949,33.691,-17.090
1532402221.475,1.465,28.320,18.555,20.996,-0.977
1532402221.479,7.812,24.414,19.043,22.461,33.203
1532402221.483,-5.859,24.414,19.043,28.320,24.414
1532402221.486,-17.578,26.367,22.949,30.273,14.160
1532402221.490,-6.836,32.715,26.855,26.855,-2.441
1532402221.494,-12.695,26.367,20.508,18.555,8.789
1532402221.498,-17.578,16.113,20.020,28.809,52.246
1532402221.502,-4.883,31.250,22.949,36.621,30.762
1532402221.506,8.789,40.039,23.438,38.574,46.387
1532402221.510,15.137,33.203,26.367,39.062,25.879
1532402221.514,21.484,40.527,26.855,40.039,-2.441
1532402221.518,18.066,48.828,20.508,37.598,24.414
1532402221.522,8.301,32.227,13.184,32.715,-3.418
1532402221.526,11.230,23.926,16.113,34.180,3.906
1532402221.529,8.301,34.668,23.438,30.273,29.297
1532402221.533,4.883,39.551,26.367,21.484,8.789
1532402221.537,2.930,27.832,22.461,28.809,10.742
1532402221.541,-16.602,29.297,20.020,36.133,35.156
1532402221.545,-21.484,47.363,22.949,36.621,42.969
1532402221.549,-11.719,40.527,22.461,39.551,63.965
1532402221.553,-7.812,30.762,21.484,38.574,47.852
1532402221.557,-6.836,33.203,25.879,41.016,0.488
1532402221.561,-1.953,35.156,25.391,41.016,23.438
1532402221.565,-1.953,35.156,22.949,35.156,40.527
1532402221.568,-4.395,27.832,21.484,35.645,12.695
1532402221.572,-4.395,31.250,23.438,45.410,-6.348
1532402221.576,-14.648,34.180,25.391,43.945,-9.766
1532402221.580,-33.203,21.973,21.973,37.598,20.508
1532402221.584,-21.484,27.344,20.996,43.945,40.527
1532402221.588,0.977,34.668,26.367,51.270,1.465
1532402221.592,4.395,31.250,25.879,38.574,-26.367
1532402221.596,4.883,26.855,18.066,23.926,2.930
1532402221.600,5.859,24.414,18.555,28.320,27.344
1532402221.604,13.672,31.250,22.949,37.598,18.066
1532402221.608,26.367,39.551,25.879,42.969,17.090
1532402221.611,20.020,32.227,26.367,39.062,46.387
1532402221.615,21.973,24.414,22.949,35.156,47.852
1532402221.619,41.016,29.297,19.043,42.969,39.062
1532402221.623,34.668,31.738,19.043,37.598,23.926
1532402221.627,25.391,19.531,25.391,32.227,28.809
1532402221.631,37.598,14.160,23.926,31.738,26.855
1532402221.635,32.715,28.809,19.043,23.926,5.859
1532402221.639,17.090,26.367,19.043,25.391,24.902
1532402221.643,10.742,15.625,20.996,21.973,38.574
1532402221.647,9.277,22.461,22.461,19.043,45.898
1532402221.650,5.859,30.273,26.855,27.832,18.555
1532402221.654,2.930,20.996,25.879,25.391,16.602
1532402221.658,-0.488,20.508,23.926,20.508,38.574
1532402221.662,3.418,26.367,22.949,28.320,31.250
1532402221.666,18.066,30.762,24.902,40.527,31.738
1532402221.670,3.418,18.066,21.484,24.414,23.926
1532402221.674,-2.441,7.812,16.602,11.719,19.043
1532402221.678,-5.859,20.020,20.020,29.297,38.574
1532402221.682,-40.527,22.949,24.902,36.133,46.387
1532402221.686,-43.945,26.855,24.902,34.668,46.875
1532402221.690,-30.273,21.973,16.113,29.297,33.691
1532402221.693,-19.531,8.789,16.602,28.320,27.832
1532402221.697,-0.488,16.602,23.926,32.715,46.875
1532402221.701,6.836,30.273,24.902,31.738,34.668
1532402221.705,11.230,23.438,22.949,29.785,15.625
1532402221.709,20.020,20.508,24.414,34.180,26.367
1532402221.713,21.484,27.344,20.508,34.180,21.973
1532402221.717,19.531,30.273,20.020,39.551,44.922
1532402221.721,18.555,21.973,20.020,35.156,12.207
1532402221.725,21.484,13.672,19.531,38.086,6.836
1532402221.729,34.180,33.203,22.461,44.922,61.523
1532402221.733,27.344,31.250,17.090,29.297,30.762
1532402221.736,14.648,17.090,16.602,29.297,7.324
1532402221.740,23.438,25.391,26.367,41.016,0.000
1532402221.744,22.949,28.809,25.391,44.434,17.578
1532402221.748,11.230,20.020,20.020,40.527,35.645
1532402221.752,0.488,16.602,22.949,35.645,20.020
1532402221.756,-4.395,18.066,21.973,35.645,18.555
1532402221.760,0.488,20.996,20.020,33.691,29.297
1532402221.764,-1.953,19.531,18.066,28.320,42.969
1532402221.768,-13.184,24.414,23.926,28.320,35.156
1532402221.772,-3.418,36.133,27.832,27.832,-7.324
1532402221.775,1.465,22.461,19.531,27.344,-6.348
1532402221.779,3.906,30.762,25.879,41.016,31.738
1532402221.783,4.883,45.410,32.715,39.062,49.805
1532402221.787,0.000,22.461,22.461,26.367,12.695
1532402221.791,8.789,16.113,19.043,18.555,0.977
1532402221.795,25.391,32.715,21.484,22.461,37.598
1532402221.799,26.367,32.227,18.555,23.438,52.246
1532402221.803,22.949,22.461,16.113,13.672,40.039
1532402221.807,32.715,32.715,18.066,20.020,8.301
1532402221.811,35.156,35.156,19.531,23.926,19.531
1532402221.815,28.320,23.926,21.484,21.484,20.996
1532402221.818,18.555,22.461,23.926,33.203,2.930
1532402221.822,19.043,29.785,31.738,45.898,32.227
1532402221.826,30.273,31.250,37.598,54.199,40.527
1532402221.830,13.672,17.578,28.320,42.480,17.578
1532402221.834,10.254,6.348,20.508,34.668,19.043
1532402221.838,10.742,8.789,19.531,39.062,8.789
1532402221.842,-7.324,9.766,17.578,31.250,14.160
1532402221.846,0.977,15.625,22.461,35.156,22.461
1532402221.850,-16.113,29.785,27.344,36.133,11.230
1532402221.854,-24.902,27.344,23.926,28.320,-10.254
1532402221.858,-11.719,31.738,23.438,31.738,-10.254
1532402221.861,-26.367,27.344,18.066,24.414,32.715
1532402221.865,-31.250,7.812,16.113,16.602,56.641
1532402221.869,-14.160,17.090,23.438,24.902,35.156
1532402221.873,2.441,35.156,29.785,31.250,9.277
1532402221.877,8.301,37.109,28.809,29.785,23.438
1532402221.881,3.418,23.438,20.508,25.879,48.828
1532402221.885,-7.324,28.809,18.066,24.902,40.527
1532402221.889,-14.648,31.738,17.578,26.855,19.043
1532402221.893,-0.977,23.438,18.555,26.367,15.137
1532402221.897,20.020,40.527,30.762,39.551,34.668
1532402221.900,22.461,48.828,28.809,42.969,58.105
1532402221.904,17.090,34.180,21.484,31.250,57.617
1532402221.908,24.902,26.367,23.926,33.691,49.316
1532402221.912,26.367,21.973,24.414,25.879,10.742
1532402221.916,15.625,24.414,24.902,20.996,28.320
1532402221.920,6.348,24.902,23.438,21.484,65.918
1532402221.924,6.348,22.461,19.531,17.090,43.457
1532402221.928,-2.930,27.832,21.973,17.090,22.949
1532402221.932,-14.160,28.809,23.926,14.648,23.926
1532402221.936,-16.602,19.531,18.066,15.625,37.598
1532402221.940,-13.672,20.508,20.508,22.461,49.805
1532402221.943,-9.766,23.926,19.531,19.531,56.641
1532402221.947,-3.906,16.602,16.113,21.973,54.199
1532402221.951,4.395,16.113,24.414,26.855,13.184
1532402221.955,4.883,26.855,22.949,19.531,20.508
1532402221.959,2.441,23.438,15.137,23.438,54.199
1532402221.963,-0.977,13.672,16.602,31.250,64.941
1532402221.967,1.465,20.020,20.020,27.832,56.641
1532402221.971,1.953,20.508,19.531,29.785,36.133
1532402221.975,-3.418,18.555,18.555,32.227,19.043
1532402221.979,-20.508,18.066,18.555,33.203,35.156
1532402221.983,-23.926,19.531,16.113,37.598,79.102
1532402221.986,-20.508,20.996,16.602,29.785,36.133
1532402221.990,-20.508,17.578,21.484,27.832,-0.488
1532402221.994,-13.672,18.066,20.996,31.250,15.625
1532402221.998,-8.789,17.578,19.531,31.738,33.691
1532402222.002,-7.812,25.391,24.414,29.785,40.039
1532402222.006,-12.695,33.691,25.391,28.809,43.457
1532402222.010,-38.574,14.648,18.555,22.461,17.090
1532402222.014,-66.406,7.324,16.602,14.160,-9.277
1532402222.018,-60.547,15.137,18.066,16.602,22.949
1532402222.022,-33.203,22.461,19.531,26.367,10.742
1532402222.025,-27.832,20.020,20.020,25.391,-9.277
1532402222.029,-24.414,19.531,21.973,24.414,13.184
1532402222.033,-17.578,28.320,24.902,26.367,27.832
1532402222.037,-21.973,21.484,20.508,26.367,15.625
1532402222.041,-15.137,11.230,18.555,24.902,8.301
1532402222.045,-0.977,16.602,17.090,22.949,27.832
1532402222.049,6.836,23.438,19.043,25.391,33.203
1532402222.053,5.859,25.879,23.438,22.949,-5.859
1532402222.057,0.000,28.320,25.391,30.273,-13.184
1532402222.061,-6.348,17.578,21.973,32.715,19.531
1532402222.065,-1.953,13.672,19.531,31.738,46.875
1532402222.068,5.859,34.180,25.879,34.180,41.016
1532402222.072,3.906,24.902,21.484,28.320,10.254
1532402222.076,4.883,11.719,15.137,27.344,19.531
1532402222.080,4.395,19.043,17.090,23.438,65.918
1532402222.084,1.465,17.090,20.996,23.926,61.035
1532402222.088,4.883,19.531,23.926,28.809,28.809
1532402222.092,8.301,20.508,24.414,19.043,0.488
1532402222.096,7.324,23.926,24.414,25.879,8.789
1532402222.100,5.859,33.691,24.414,32.715,30.762
1532402222.104,6.836,35.156,28.809,27.344,8.301
1532402222.107,-3.418,15.625,25.391,27.832,-1.953
1532402222.111,-11.230,4.395,20.020,27.832,-10.254
1532402222.115,-12.207,14.648,17.578,29.297,7.812
1532402222.119,-7.812,17.578,15.137,29.785,21.973
1532402222.123,-0.488,21.484,18.066,28.809,-7.324
1532402222.127,7.324,23.438,20.020,24.414,-11.719
1532402222.131,17.090,25.879,20.020,22.461,1.953
1532402222.135,16.602,28.809,17.090,16.113,36.133
1532402222.139,24.902,35.156,24.902,22.461,36.133
1532402222.143,41.016,44.434,29.785,29.785,9.766
1532402222.147,39.551,21.484,16.602,22.461,31.250
1532402222.150,41.016,7.324,18.555,23.438,55.176
1532402222.154,46.875,22.461,25.391,23.438,14.648
1532402222.158,45.898,22.949,22.461,26.855,29.297
1532402222.162,41.016,14.648,21.973,31.250,50.293
1532402222.166,41.992,14.648,20.020,30.762,50.781
1532402222.170,47.852,20.020,19.043,22.949,37.598
1532402222.174,49.316,22.949,24.414,24.902,9.766
1532402222.178,46.387,18.555,24.902,30.273,59.570
1532402222.182,41.504,23.438,25.391,27.344,68.359
1532402222.186,21.973,31.738,30.273,33.691,18.555
1532402222.190,-8.301,29.297,30.273,33.203,-0.977
1532402222.193,-35.156,19.531,23.438,20.996,12.695
1532402222.197,-47.852,6.836,20.020,21.484,64.941
1532402222.201,-58.594,11.719,24.902,25.391,54.688
1532402222.205,-63.965,21.973,29.297,29.297,12.207
1532402222.209,-73.730,22.949,23.926,27.832,20.020
1532402222.213,-71.289,20.020,20.508,25.879,50.781
1532402222.217,-38.086,19.531,20.508,27.344,53.223
1532402222.221,-19.043,23.438,19.531,23.438,40.039
1532402222.225,-25.391,26.367,22.461,22.461,23.926
1532402222.229,-16.113,36.133,28.320,31.738,15.625
1532402222.232,-5.859,36.133,26.367,27.832,7.324
1532402222.236,-11.230,19.531,20.508,23.926,0.977
1532402222.240,-6.836,15.625,26.367,32.715,18.555
1532402222.244,3.906,20.996,32.227,37.109,-11.719
1532402222.248,13.672,29.297,27.344,36.621,-7.324
1532402222.252,14.648,25.879,22.949,29.785,23.438
1532402222.256,10.254,13.672,21.484,26.855,10.742
1532402222.260,15.137,17.578,25.391,32.715,0.000
1532402222.264,20.508,25.391,24.414,29.785,19.531
1532402222.268,18.555,25.879,24.902,30.273,33.203
1532402222.272,21.484,22.461,23.926,32.227,24.902
1532402222.275,14.160,24.414,21.973,29.297,27.832
1532402222.279,-13.672,34.668,24.902,30.762,30.762
1532402222.283,-33.691,25.879,23.438,27.832,48.828
1532402222.287,-15.625,15.625,24.414,21.484,51.758
1532402222.291,3.418,21.484,24.902,14.648,13.672
1532402222.295,11.719,21.973,20.508,14.648,10.254
1532402222.299,4.883,18.066,19.043,21.484,50.781
1532402222.303,-21.484,19.043,19.043,20.996,52.734
1532402222.307,-26.367,21.484,20.020,21.973,23.438
1532402222.311,-13.672,19.531,22.949,27.344,-6.836
1532402222.315,4.883,32.227,30.273,38.574,24.414
1532402222.318,19.043,36.133,34.180,38.574,43.457
1532402222.322,26.855,20.508,31.250,33.203,4.395
1532402222.326,28.809,17.090,30.762,35.645,-5.371
1532402222.330,35.645,20.020,30.762,35.645,12.207
1532402222.334,38.086,18.555,28.320,27.344,28.809
1532402222.338,34.180,17.578,27.832,32.227,3.906
1532402222.342,37.598,22.461,26.855,35.645,-22.949
1532402222.346,27.832,25.391,24.902,28.320,14.648
1532402222.350,20.508,24.902,24.414,34.180,32.715
1532402222.354,20.020,25.879,25.391,37.109,0.977
1532402222.357,-3.418,30.762,26.855,36.621,14.160
1532402222.361,-31.250,38.574,29.297,43.945,16.113
1532402222.365,-54.688,28.809,25.879,38.574,-7.324
1532402222.369,-45.410,17.090,20.508,22.949,0.488
1532402222.373,-19.531,25.391,21.484,22.461,-7.324
1532402222.377,-8.301,30.762,26.367,30.762,23.438
1532402222.381,-0.977,26.855,31.250,35.645,22.949
1532402222.385,4.395,24.902,29.785,40.527,4.883
1532402222.389,10.254,29.785,23.438,32.715,28.809
1532402222.393,12.695,29.297,26.367,28.809,38.086
1532402222.397,23.438,34.180,34.180,38.086,49.805
1532402222.400,37.598,35.645,35.156,35.645,56.641
1532402222.404,48.828,22.949,28.809,28.809,64.453
1532402222.408,56.641,14.648,25.879,26.367,67.871
1532402222.412,56.641,21.484,25.879,32.227,34.180
1532402222.416,47.852,30.273,28.320,38.574,37.598
1532402222.420,45.410,27.832,31.250,40.039,48.340
1532402222.424,46.387,35.156,33.203,49.316,18.555
1532402222.428,25.391,32.227,32.715,46.387,14.160
1532402222.432,16.602,19.043,29.297,37.109,-3.906
1532402222.436,27.344,21.484,25.391,41.016,-16.602
1532402222.439,27.344,22.461,26.367,46.387,22.949
1532402222.443,35.156,29.297,31.738,48.828,42.480
1532402222.447,43.945,36.621,29.785,48.340,35.156
1532402222.451,46.387,28.809,27.344,42.969,36.621
1532402222.455,56.641,21.484,29.785,39.062,48.828
1532402222.459,69.824,24.414,31.738,38.574,35.645
1532402222.463,70.801,26.855,27.832,33.691,52.734
1532402222.467,74.219,29.785,29.785,38.086,60.547
1532402222.471,79.102,31.250,33.203,36.133,-14.648
1532402222.475,72.754,21.973,26.855,22.461,-4.395
1532402222.479,64.453,15.625,25.391,26.367,58.594
1532402222.482,56.152,20.508,28.320,27.832,46.387
1532402222.486,51.270,20.996,25.391,23.926,41.992
1532402222.490,54.199,30.762,27.344,32.715,23.926
1532402222.494,60.059,44.434,33.691,39.062,26.855
1532402222.498,50.781,21.484,27.832,29.297,73.242
1532402222.502,38.574,12.207,23.926,28.320,55.176
1532402222.506,30.762,21.973,25.391,32.227,25.391
1532402222.510,41.504,24.902,28.809,26.367,18.066
1532402222.514,46.875,28.320,34.180,23.926,0.488
1532402222.518,35.156,23.926,31.738,25.391,24.902
1532402222.522,44.434,20.508,30.273,24.414,22.949
1532402222.525,43.457,30.273,34.668,30.273,7.324
1532402222.529,31.738,43.945,36.621,31.250,25.879
1532402222.533,23.438,31.738,29.297,16.602,27.344
1532402222.537,19.043,16.602,25.391,14.160,20.996
1532402222.541,20.508,20.020,28.320,18.555,24.414
1532402222.545,22.461,32.715,29.297,25.391,45.898
1532402222.549,12.695,26.367,25.879,25.391,52.734
1532402222.553,0.488,18.066,29.297,26.367,46.387
1532402222.557,6.348,30.273,35.156,32.227,13.184
1532402222.561,11.230,31.250,34.668,33.203,10.254
1532402222.564,15.137,33.203,33.691,34.180,44.434
1532402222.568,9.277,29.785,31.738,30.273,33.203
1532402222.572,6.836,27.832,32.227,27.344,14.160
1532402222.576,17.090,34.180,31.738,30.273,24.414
1532402222.580,14.648,22.949,29.297,30.273,22.461
1532402222.584,16.602,21.973,31.250,29.297,26.367
1532402222.588,14.160,25.879,31.738,27.344,4.395
1532402222.592,15.625,22.461,27.832,24.902,-19.531
1532402222.596,22.461,22.461,30.273,31.738,2.930
1532402222.600,23.438,38.086,40.039,41.992,34.668
1532402222.604,20.508,39.551,37.109,36.621,32.715
1532402222.607,22.949,24.414,32.715,31.738,27.344
1532402222.611,20.508,17.090,28.809,25.879,26.855
1532402222.615,9.277,16.113,25.391,18.555,19.043
1532402222.619,3.418,17.578,28.320,27.832,34.668
1532402222.623,3.418,32.227,38.574,38.574,52.246
1532402222.627,-2.930,35.156,37.598,30.273,44.434
1532402222.631,-12.207,16.113,24.902,21.484,53.711
1532402222.635,-9.766,21.484,26.855,26.367,86.426
1532402222.639,1.465,32.227,33.203,30.762,51.758
1532402222.643,-1.465,23.926,28.320,26.367,0.000
1532402222.647,-1.465,20.508,24.414,29.785,11.230
1532402222.650,4.395,29.297,29.297,29.297,22.461
1532402222.654,-9.277,23.438,26.855,24.902,0.488
1532402222.658,-6.836,25.391,26.367,31.250,12.695
1532402222.662,2.441,29.785,29.297,35.156,42.969
1532402222.666,3.906,30.762,29.785,35.645,33.203
1532402222.670,16.602,43.457,30.273,33.691,-0.977
1532402222.674,33.691,34.180,27.832,34.180,-12.207
1532402222.678,40.039,20.508,25.879,33.203,20.508
1532402222.682,31.250,26.855,28.809,33.691,40.039
1532402222.686,23.438,28.809,32.715,38.086,16.602
1532402222.689,16.113,24.414,25.879,34.180,27.832
1532402222.693,9.277,21.484,23.438,32.227,12.695
1532402222.697,11.230,33.691,29.297,41.992,15.137
1532402222.701,10.742,35.645,30.273,36.621,26.855
1532402222.705,6.348,23.438,29.297,26.855,2.930
1532402222.709,1.465,33.203,32.715,26.855,16.602
1532402222.713,1.953,26.855,32.715,16.113,13.184
1532402222.717,11.230,12.695,26.855,21.973,32.227
1532402222.721,25.879,27.344,29.785,34.180,28.809
1532402222.725,30.762,29.297,31.250,38.086,-5.859
1532402222.729,32.227,36.133,34.668,41.504,21.973
1532402222.732,27.344,37.598,36.621,36.621,34.180
1532402222.736,18.555,24.414,32.227,35.645,19.043
1532402222.740,9.766,29.297,28.809,37.598,-2.441
1532402222.744,7.812,21.484,24.414,30.762,-1.465
1532402222.748,7.324,17.090,29.785,27.832,33.691
1532402222.752,5.859,25.879,32.715,27.832,-1.465
1532402222.756,-2.930,24.414,31.738,29.297,-23.926
1532402222.760,-17.090,27.344,33.203,36.133,-3.906
1532402222.764,-12.207,41.992,38.574,40.039,11.719
1532402222.768,-11.719,38.574,35.156,37.109,46.387
1532402222.772,-12.695,35.156,27.344,36.621,17.090
1532402222.775,-12.695,29.785,23.926,28.809,15.137
1532402222.779,-7.324,14.160,23.438,24.902,21.973
1532402222.783,-5.371,14.648,27.832,33.203,16.602
1532402222.787,-19.531,23.926,35.156,34.180,36.133
1532402222.791,-18.066,31.738,41.504,38.086,33.203
1532402222.795,-25.879,35.156,40.039,42.480,26.367
1532402222.799,-39.551,31.738,33.203,36.621,45.410
1532402222.803,-31.738,23.926,31.738,36.621,43.945
1532402222.807,-9.277,35.156,42.969,41.992,30.273
1532402222.811,5.859,35.645,39.062,27.344,32.227
1532402222.814,8.789,24.414,26.855,18.066,18.066
1532402222.818,7.324,27.344,30.273,27.344,5.859
1532402222.822,13.672,26.367,28.320,21.484,-3.418
1532402222.826,23.926,36.133,28.809,24.414,10.742
1532402222.830,31.738,40.039,36.621,32.227,16.602
1532402222.834,40.039,34.668,30.762,28.320,21.973
1532402222.838,41.016,27.344,27.832,28.320,8.789
1532402222.842,40.039,23.438,35.156,29.785,2.930
1532402222.846,42.480,29.297,32.715,32.227,47.852
1532402222.850,40.039,24.414,25.879,25.879,44.922
1532402222.854,38.574,23.438,27.344,15.137,10.742
1532402222.857,39.062,32.715,30.762,24.414,34.668
1532402222.861,37.109,49.805,33.691,31.250,19.531
1532402222.865,37.598,38.574,30.273,22.461,25.391
1532402222.869,35.156,9.766,26.367,15.625,39.551
1532402222.873,34.668,13.184,27.344,15.625,9.277
1532402222.877,41.016,23.926,27.344,16.113,11.719
1532402222.881,51.758,27.344,27.344,23.438,22.949
1532402222.885,56.641,31.250,30.762,31.738,10.254
1532402222.889,47.852,21.973,26.855,25.879,-5.859
1532402222.893,53.711,22.461,25.879,19.531,-18.555
1532402222.896,63.477,42.969,30.273,20.020,-8.301
1532402222.900,52.246,28.320,25.879,16.113,27.344
1532402222.904,39.062,8.789,25.391,19.043,18.555
1532402222.908,24.902,12.695,27.344,23.926,3.418
1532402222.912,15.137,15.137,29.785,27.344,11.719
1532402222.916,9.766,23.926,28.809,23.926,36.133
1532402222.920,12.207,40.527,31.738,26.367,8.789
1532402222.924,18.066,36.133,31.250,27.832,-6.348
1532402222.928,8.301,15.137,25.391,21.484,40.039
1532402222.932,4.883,12.207,26.367,17.090,32.227
1532402222.936,2.441,25.879,26.367,22.461,2.441
1532402222.939,-14.160,36.621,31.250,30.273,3.906
1532402222.943,-25.391,25.879,27.832,20.996,15.137
1532402222.947,-8.789,17.578,24.414,22.949,28.809
1532402222.951,7.812,21.973,25.879,18.555,0.488
1532402222.955,9.277,26.855,28.320,8.789,-29.297
1532402222.959,9.766,33.203,31.738,27.344,-5.371
1532402222.963,-14.648,21.484,29.297,30.762,38.086
1532402222.967,-24.414,19.043,32.227,29.785,24.414
1532402222.971,-28.320,30.273,32.715,38.574,10.254
1532402222.975,-39.551,25.879,30.273,38.086,12.695
1532402222.979,-23.926,23.438,33.203,39.551,8.789
1532402222.982,-18.555,29.785,34.668,39.062,29.785
1532402222.986,-22.461,35.156,32.227,37.109,34.180
1532402222.990,-27.832,25.879,27.832,24.414,11.719
1532402222.994,-17.578,18.555,29.297,19.531,-6.836
1532402222.998,-0.488,29.297,35.156,30.762,18.066
1532402223.002,7.324,26.367,31.250,19.043,30.762
1532402223.006,18.555,26.367,27.832,16.602,0.488
1532402223.010,27.832,28.809,29.297,22.461,8.789
1532402223.014,28.320,22.461,29.297,20.020,30.762
1532402223.018,30.762,23.926,28.809,18.555,8.789
1532402223.021,32.227,28.809,28.320,16.602,21.484
1532402223.025,27.344,34.668,34.180,18.066,30.273
1532402223.029,28.320,36.621,35.645,20.996,38.086
1532402223.033,20.996,25.391,33.691,20.508,26.855
1532402223.037,16.113,25.879,34.668,27.344,7.324
1532402223.041,7.812,22.949,30.762,29.785,-3.906
1532402223.045,8.789,8.301,29.785,26.367,20.020
1532402223.049,5.859,13.184,28.809,23.438,43.945
1532402223.053,-15.625,18.555,27.832,23.438,42.480
1532402223.057,-16.113,26.855,30.762,27.832,37.598
1532402223.061,-11.230,26.855,31.250,26.855,45.898
1532402223.064,-12.207,13.672,32.715,22.949,49.316
1532402223.068,-9.277,22.461,32.715,26.855,30.273
1532402223.072,7.324,25.879,29.785,29.297,21.484
1532402223.076,24.414,18.555,27.832,21.973,6.348
1532402223.080,33.203,29.297,30.273,23.438,18.066
1532402223.084,30.762,36.621,30.762,23.438,46.875
1532402223.088,28.320,30.273,27.832,20.996,48.828
1532402223.092,15.625,22.949,24.902,14.160,15.625
1532402223.096,8.789,17.090,23.926,9.277,16.602
1532402223.100,20.996,25.391,28.320,20.996,31.250
1532402223.104,25.879,26.855,26.367,22.949,25.879
1532402223.107,18.555,20.996,21.973,19.531,19.531
1532402223.111,14.648,24.902,20.996,17.090,19.531
1532402223.115,15.137,28.809,23.438,16.602,38.086
1532402223.119,-13.184,34.668,26.367,18.555,42.969
1532402223.123,-22.461,25.391,21.973,18.555,41.504
1532402223.127,-2.441,16.602,19.531,17.090,49.805
1532402223.131,4.395,22.949,20.020,0.000,29.297
1532402223.135,6.836,20.508,23.926,-5.859,12.207
1532402223.139,3.418,20.508,27.344,12.207,29.785
1532402223.143,-3.418,24.902,26.855,14.160,19.043
1532402223.146,-7.812,23.926,26.855,9.766,24.902
1532402223.150,-17.090,25.879,24.902,13.672,22.949
1532402223.154,-14.160,33.203,24.902,21.973,29.297
1532402223.158,5.371,38.086,23.926,15.137,34.668
1532402223.162,20.020,23.926,17.090,4.883,31.738
1532402223.166,27.832,16.113,18.066,5.859,43.457
1532402223.170,35.645,20.996,20.508,-1.953,45.410
1532402223.174,36.133,21.484,24.414,1.953,35.645
1532402223.178,29.297,24.414,23.926,8.789,41.992
1532402223.182,34.180,27.344,20.508,8.301,24.902
1532402223.186,37.598,37.598,25.879,12.695,32.715
1532402223.189,33.203,32.715,28.320,12.695,13.184
1532402223.193,27.344,29.297,23.438,5.859,12.207
1532402223.197,30.273,30.762,23.926,9.766,77.148
1532402223.201,35.645,25.391,27.832,13.672,73.730
1532402223.205,40.039,28.809,23.926,10.742,48.828
1532402223.209,48.828,24.902,23.926,11.719,31.250
1532402223.213,50.293,26.367,28.809,12.207,22.461
1532402223.217,27.832,26.367,28.320,8.789,27.344
1532402223.221,24.902,22.949,28.809,8.789,19.531
1532402223.225,34.180,18.555,26.367,10.254,17.578
1532402223.229,42.969,21.973,25.879,14.160,25.879
1532402223.232,50.781,31.738,29.785,13.672,8.301
1532402223.236,50.781,33.203,22.949,3.906,16.602
1532402223.240,53.223,28.809,19.531,0.977,10.742
1532402223.244,40.527,17.090,22.949,-3.906,29.297
1532402223.248,42.480,20.508,24.414,0.977,49.316
1532402223.252,36.133,34.180,26.855,3.906,20.508
1532402223.256,12.207,30.273,26.855,0.977,27.832
1532402223.260,-16.602,20.020,23.438,8.301,9.277
1532402223.264,-46.387,25.879,28.809,16.602,38.086
1532402223.268,-45.410,32.715,32.227,16.113,45.410
1532402223.271,-38.086,25.391,28.320,2.441,-14.648
1532402223.275,-38.086,18.555,26.855,1.465,-15.137
1532402223.279,-37.598,18.066,28.320,13.672,42.480
1532402223.283,-33.691,18.066,27.832,9.277,53.711
1532402223.287,-36.133,14.648,21.973,5.371,17.578
1532402223.291,-39.551,26.855,22.949,6.348,-9.277
1532402223.295,-50.781,32.715,25.391,2.930,-4.883
1532402223.299,-62.500,28.320,23.438,4.883,27.832
1532402223.303,-63.477,27.832,25.879,7.812,38.574
1532402223.307,-52.246,27.832,25.391,12.695,6.348
1532402223.311,-40.527,21.484,25.879,6.836,1.465
1532402223.314,-33.691,21.973,32.715,3.906,20.020
1532402223.318,-21.484,27.832,34.668,20.508,27.832
1532402223.322,-20.996,20.020,27.832,17.578,24.902
1532402223.326,-12.695,16.113,23.926,14.648,37.598
1532402223.330,0.488,27.344,29.785,27.344,41.504
1532402223.334,-8.789,31.738,32.715,33.203,42.480
1532402223.338,-15.625,22.461,29.297,26.367,41.992
1532402223.342,-4.395,29.785,30.273,17.578,32.715
1532402223.346,-0.488,41.992,37.598,30.273,36.133
1532402223.350,-9.766,37.598,33.691,32.715,40.039
1532402223.353,-8.789,16.113,24.902,20.996,21.973
1532402223.357,6.836,5.859,24.902,26.855,23.438
1532402223.361,17.578,15.137,24.414,27.832,24.414
1532402223.365,18.555,21.484,25.391,27.832,22.461
1532402223.369,18.066,26.855,26.367,24.902,4.883
1532402223.373,15.625,40.039,30.273,28.809,-23.438
1532402223.377,13.184,40.039,28.320,32.227,10.742
1532402223.381,5.859,24.902,21.484,20.020,38.086
1532402223.385,-0.488,20.508,23.926,20.996,39.551
1532402223.389,3.418,29.297,26.855,35.156,16.113
1532402223.393,10.254,38.574,30.273,36.621,-6.348
1532402223.396,12.695,31.250,29.297,34.668,17.090
1532402223.400,13.672,15.625,23.926,28.320,9.766
1532402223.404,37.109,24.902,27.344,35.645,-14.648
1532402223.408,36.133,37.109,29.785,33.691,-9.766
1532402223.412,21.973,30.762,29.297,23.926,15.625
1532402223.416,37.109,29.785,28.320,35.645,2.441
1532402223.420,42.969,26.855,24.414,37.109,23.926
1532402223.424,30.273,30.273,29.785,40.527,26.855
1532402223.428,21.484,28.320,27.344,41.016,0.977
1532402223.432,22.461,25.879,25.879,41.504,21.484
1532402223.436,22.949,30.273,31.250,44.434,24.414
1532402223.439,24.414,35.645,35.645,40.527,14.160
1532402223.443,30.273,46.875,37.109,47.363,5.859
1532402223.447,26.855,35.156,30.762,44.922,20.020
1532402223.451,18.066,21.973,32.715,37.598,2.441
1532402223.455,30.273,40.039,35.156,49.805,4.883
1532402223.459,24.902,32.227,30.762,49.316,28.320
1532402223.463,10.742,17.090,31.250,46.875,33.203
1532402223.467,20.996,26.855,32.227,38.574,42.480
1532402223.471,21.973,33.203,31.738,37.109,12.695
1532402223.475,33.691,29.785,31.738,36.621,3.906
1532402223.478,23.438,35.645,32.227,30.273,18.555
1532402223.482,-12.207,57.129,38.574,42.969,44.434
1532402223.486,-33.691,45.898,33.691,34.668,38.086
1532402223.490,-30.762,30.273,23.926,24.414,27.832
1532402223.494,-20.508,27.344,23.438,30.762,47.363
1532402223.498,-20.020,22.461,23.926,34.180,50.781
1532402223.502,-11.230,28.809,23.926,34.180,41.504
1532402223.506,-13.672,31.738,25.879,35.645,44.434
1532402223.510,-13.672,42.480,33.691,39.062,7.812
1532402223.514,-16.113,55.664,37.598,32.715,-13.184
1532402223.518,-35.156,47.363,34.180,28.320,20.508
1532402223.521,-43.457,28.809,29.297,21.973,6.348
1532402223.525,-39.551,25.879,24.902,24.414,-6.348
1532402223.529,-46.387,36.133,26.855,33.203,27.832
1532402223.533,-49.316,37.109,27.832,24.902,20.996
1532402223.537,-33.203,37.598,25.879,30.762,26.367
1532402223.541,-26.855,29.297,26.367,34.668,26.367
1532402223.545,-22.949,20.508,29.785,30.273,25.879
1532402223.549,-19.531,33.691,37.598,32.715,8.301
1532402223.553,-25.879,35.156,30.762,10.742,-30.273
1532402223.557,-19.531,23.926,22.461,4.883,7.324
1532402223.561,-13.184,27.832,28.809,18.555,44.434
1532402223.564,-16.113,24.414,29.785,22.461,34.668
1532402223.568,-13.184,18.066,27.832,12.207,43.457
1532402223.572,-0.977,30.762,30.273,22.461,35.645
1532402223.576,5.371,38.574,28.809,40.039,15.625
1532402223.580,1.953,28.320,23.926,29.785,42.480
1532402223.584,16.113,22.461,25.879,22.461,56.641
1532402223.588,34.668,29.297,30.762,25.391,29.785
1532402223.592,34.668,17.578,25.879,25.391,19.531
1532402223.596,24.902,17.578,23.926,24.414,24.414
1532402223.600,15.625,26.367,25.879,25.391,39.062
1532402223.603,14.648,30.273,24.902,26.367,43.945
1532402223.607,15.137,38.574,30.762,28.809,18.555
1532402223.611,-7.324,35.645,25.391,20.508,8.789
1532402223.615,-16.113,25.391,18.066,15.137,31.738
1532402223.619,-2.930,28.809,22.461,18.555,60.059
1532402223.623,-2.930,24.414,22.949,6.348,59.082
1532402223.627,6.836,21.973,29.297,4.395,23.926
1532402223.631,9.277,24.414,27.344,14.648,-14.160
1532402223.635,9.277,18.555,19.531,17.090,-20.996
1532402223.639,29.297,35.645,28.320,26.367,-0.488
1532402223.643,33.203,40.039,28.320,25.879,22.461
1532402223.646,19.043,26.367,19.531,27.344,47.363
1532402223.650,4.883,17.090,18.555,28.809,41.992
1532402223.654,0.488,20.996,16.113,20.508,10.742
1532402223.658,-0.977,36.133,21.484,31.738,11.719
1532402223.662,-8.789,24.414,21.484,36.133,36.621
1532402223.666,-17.578,10.254,8.789,21.484,68.359
1532402223.670,-16.602,16.113,9.766,19.043,40.527
1532402223.674,-7.812,24.902,15.137,33.203,23.926
1532402223.678,3.906,29.297,12.695,33.203,50.293
1532402223.682,7.324,30.273,10.254,26.367,36.133
1532402223.686,10.742,27.344,14.160,29.785,41.016
1532402223.689,20.020,33.691,18.066,27.344,7.812
1532402223.693,17.090,47.363,17.090,18.066,-34.668
1532402223.697,1.953,34.180,12.695,14.160,7.812
1532402223.701,-7.812,20.020,12.207,18.555,38.086
1532402223.705,-9.277,29.297,17.578,21.484,30.273
1532402223.709,-12.207,31.738,15.625,15.625,24.902
1532402223.713,-19.531,28.809,14.648,14.648,15.137
1532402223.717,-18.555,30.762,17.090,18.555,19.531
1532402223.721,-15.137,33.203,16.113,22.949,6.348
1532402223.725,-13.184,53.223,25.879,35.645,-13.672
1532402223.728,-11.719,45.898,24.414,25.391,8.789
1532402223.732,-22.461,16.602,14.648,-9.766,0.000
1532402223.736,-15.137,22.461,17.578,-12.207,15.137
1532402223.740,-7.812,31.738,20.996,-2.441,34.668
1532402223.744,-3.906,41.992,26.855,-3.418,14.648
1532402223.748,2.930,45.898,29.297,-2.441,16.113
1532402223.752,0.977,37.109,22.949,-9.277,64.453
1532402223.756,-5.859,35.156,21.484,-23.926,61.035
1532402223.760,-14.160,40.527,26.855,-27.832,4.395
1532402223.764,-8.789,41.992,29.297,-23.438,12.695
1532402223.768,0.000,55.176,30.273,-16.113,45.898
1532402223.771,-4.883,63.477,30.762,-27.344,41.992
1532402223.775,-9.277,44.434,24.414,-40.527,16.113
1532402223.779,-8.301,33.203,24.414,-30.762,5.859
1532402223.783,-15.625,35.156,27.344,-33.203,28.320
1532402223.787,-15.625,44.434,31.250,-31.250,15.137
1532402223.791,-18.066,47.363,29.785,-27.832,-4.395
1532402223.795,-20.996,45.898,27.832,-32.715,19.043
1532402223.799,-17.090,48.828,28.320,-30.273,24.414
1532402223.803,-20.020,47.852,23.926,-33.691,7.812
1532402223.807,-4.883,57.129,25.879,-21.973,9.277
1532402223.810,9.277,58.594,27.832,-16.113,6.348
1532402223.814,9.277,36.621,23.438,-17.578,9.277
1532402223.818,14.160,32.715,20.020,-5.371,23.926
1532402223.822,10.254,35.645,18.066,-6.348,12.207
1532402223.826,14.160,27.344,20.020,4.395,6.348
1532402223.830,22.461,31.738,15.625,9.277,4.395
1532402223.834,19.531,41.504,18.066,4.395,15.137
1532402223.838,14.648,33.203,18.555,15.137,29.297
1532402223.842,14.160,24.414,16.602,25.879,17.578
1532402223.846,11.719,25.391,19.043,32.227,34.668
1532402223.850,11.719,28.320,19.531,34.180,43.457
1532402223.853,16.602,28.320,20.508,32.227,31.738
1532402223.857,10.742,24.414,20.020,37.109,30.762
1532402223.861,2.441,16.602,14.160,31.250,21.484
1532402223.865,12.695,19.531,18.066,35.645,25.391
1532402223.869,13.672,35.156,20.020,43.945,17.578
1532402223.873,11.719,20.996,17.090,31.738,-10.254
1532402223.877,17.578,13.672,23.926,38.086,11.719
1532402223.881,6.348,20.020,15.137,37.598,32.715
1532402223.885,11.230,13.184,12.695,40.039,49.805
1532402223.889,18.555,29.785,18.555,46.875,27.832
1532402223.893,10.254,27.832,12.207,37.109,22.949
1532402223.896,4.395,12.207,11.230,40.039,32.715
1532402223.900,-5.859,7.324,15.625,44.922,10.254
1532402223.904,-13.184,7.324,15.625,43.945,13.672
1532402223.908,-3.906,17.090,17.578,44.434,1.465
1532402223.912,-5.859,20.020,23.926,47.363,15.625
1532402223.916,-10.254,19.043,19.531,42.480,57.129
1532402223.920,-6.348,19.043,15.625,40.527,36.133
1532402223.924,3.906,26.855,17.090,43.457,25.391
1532402223.928,14.160,31.250,21.484,49.805,15.137
1532402223.932,9.766,28.809,25.879,46.875,-23.438
1532402223.935,8.789,36.621,26.367,43.945,6.836
1532402223.939,3.418,33.691,22.949,52.246,52.246
1532402223.943,-12.695,23.438,21.973,48.340,38.574
1532402223.947,-24.414,12.695,26.367,46.875,20.020
1532402223.951,-25.879,19.043,26.855,46.875,36.133
1532402223.955,-34.180,22.461,20.996,40.039,42.969
1532402223.959,-35.645,21.973,20.996,41.992,23.926
1532402223.963,-30.762,27.832,24.902,37.109,10.254
1532402223.967,-33.691,25.879,26.367,29.785,23.438
1532402223.971,-32.227,19.043,23.438,30.762,20.996
1532402223.975,-24.414,17.578,19.043,33.691,-6.348
1532402223.978,-13.672,25.879,19.531,38.086,24.902
1532402223.982,-0.977,34.180,25.391,41.016,54.199
1532402223.986,-7.812,29.785,21.973,36.621,42.969
1532402223.990,-17.578,17.090,18.555,32.227,33.691
1532402223.994,-13.672,16.602,25.391,34.180,42.969
1532402223.998,-14.160,27.344,26.855,35.156,45.898
1532402224.002,-3.906,34.180,28.320,40.039,40.527
1532402224.006,3.418,35.645,31.250,43.945,22.949
1532402224.010,-1.465,32.715,31.250,38.086,26.855
1532402224.014,-8.301,33.691,28.320,27.344,50.293
1532402224.018,-7.812,22.949,24.414,33.203,45.898
1532402224.021,-5.859,21.973,24.902,37.598,30.762
1532402224.025,-2.930,29.297,27.832,35.645,19.531
1532402224.029,-1.465,40.039,28.809,36.621,19.531
1532402224.033,-8.301,36.621,27.832,41.504,51.758
1532402224.037,-12.207,32.227,33.691,41.504,51.270
1532402224.041,-9.277,34.668,32.227,40.039,8.789
1532402224.045,-12.207,23.926,24.414,41.992,19.531
1532402224.049,-13.184,28.320,26.855,37.598,21.484
1532402224.053,-7.324,32.227,25.879,34.668,17.578
1532402224.057,-5.859,23.438,26.855,35.645,15.625
1532402224.060,-7.324,23.926,29.785,37.109,15.625
1532402224.064,-10.742,34.180,27.344,36.133,47.852
1532402224.068,-15.625,28.320,27.344,36.621,35.645
1532402224.072,-20.996,26.367,27.344,32.227,-16.602
1532402224.076,-24.902,41.504,32.227,39.062,25.391
1532402224.080,-25.879,36.133,30.762,42.480,65.430
1532402224.084,-24.902,15.137,22.949,30.762,26.855
1532402224.088,-17.090,20.508,27.832,32.715,30.762
1532402224.092,-19.043,30.762,35.156,34.180,37.109
1532402224.096,-23.926,25.879,34.180,29.785,24.414
1532402224.100,-9.766,26.855,33.691,34.180,36.133
1532402224.103,-10.254,29.297,34.180,33.203,20.020
1532402224.107,-28.809,24.414,28.320,29.785,9.277
1532402224.111,-20.996,25.391,28.809,35.156,-7.812
1532402224.115,-19.531,22.461,30.273,34.668,-16.602
1532402224.119,-28.320,15.137,27.832,30.273,27.832
1532402224.123,-21.973,25.391,32.715,32.227,23.926
1532402224.127,-24.414,33.691,34.668,41.504,37.109
1532402224.131,-34.668,23.926,33.203,39.551,70.312
1532402224.135,-40.039,24.414,32.715,29.785,49.805
1532402224.139,-46.875,32.227,33.691,33.203,13.672
1532402224.143,-52.246,33.691,30.762,39.062,14.648
1532402224.146,-55.664,17.578,21.484,33.691,30.273
1532402224.150,-45.898,17.578,25.879,27.832,20.020
1532402224.154,-33.691,32.227,30.762,28.320,-11.719
1532402224.158,-38.086,36.621,28.320,35.156,7.324
1532402224.162,-37.598,41.504,31.250,38.086,30.273
1532402224.166,-23.438,50.293,31.738,40.039,41.992
1532402224.170,-26.367,44.434,25.391,26.367,15.625
1532402224.174,-27.832,23.438,22.461,12.207,-1.465
1532402224.178,-14.160,33.691,25.391,18.066,28.809
1532402224.182,-8.301,46.387,26.855,28.320,20.996
1532402224.185,-15.625,38.574,29.785,29.785,25.879
1532402224.189,-16.113,43.945,31.738,24.414,7.324
1532402224.193,-23.438,43.945,28.809,18.555,0.000
1532402224.197,-47.363,26.367,24.902,20.508,24.902
1532402224.201,-44.434,26.367,24.414,19.531,29.297
1532402224.205,-40.039,31.738,21.973,17.090,53.223
1532402224.209,-41.992,27.832,23.438,19.531,37.598
1532402224.213,-38.086,38.086,30.273,23.926,-9.277
1532402224.217,-38.086,39.551,26.367,28.320,30.762
1532402224.221,-40.039,30.273,26.855,29.785,17.090
1532402224.225,-35.645,46.387,36.621,41.992,6.348
1532402224.228,-37.598,37.598,32.715,37.598,49.316
1532402224.232,-44.922,15.137,26.855,18.555,38.574
1532402224.236,-46.387,14.648,22.461,8.789,17.578
1532402224.240,-36.133,25.391,24.414,14.648,14.648
1532402224.244,-30.273,32.715,25.879,20.508,33.203
1532402224.248,-27.832,32.715,27.832,19.531,52.246
1532402224.252,-15.137,42.969,29.785,13.672,7.324
1532402224.256,-7.812,39.551,27.832,6.348,-21.484
1532402224.260,-9.277,43.457,29.297,17.090,14.160
1532402224.264,-21.484,39.062,29.785,21.973,33.691
1532402224.267,-21.973,25.391,35.156,29.297,60.547
1532402224.271,-29.785,30.762,36.621,28.320,48.828
1532402224.275,-48.828,34.668,33.203,12.207,25.879
1532402224.279,-64.453,35.156,27.344,2.441,19.043
1532402224.283,-80.566,31.738,22.949,-10.254,22.461
1532402224.287,-80.078,36.621,31.738,-2.930,29.785
1532402224.291,-75.195,41.504,36.621,1.953,5.859
1532402224.295,-71.289,51.270,31.738,5.371,4.395
1532402224.299,-75.195,56.641,41.992,7.324,13.184
1532402224.303,-115.234,50.781,44.922,-20.020,29.297
1532402224.307,-141.602,55.176,43.945,-31.250,42.480
1532402224.310,-153.809,60.547,49.316,-45.410,30.273
1532402224.314,-166.016,68.848,48.340,-62.988,-7.812
1532402224.318,-158.203,79.590,49.316,-58.105,-1.953
1532402224.322,-163.086,85.938,52.246,-65.430,14.160
1532402224.326,-173.340,92.773,51.270,-80.566,35.645
1532402224.330,-174.316,93.262,42.969,-86.914,47.852
1532402224.334,-182.617,86.914,40.527,-90.332,8.301
1532402224.338,-197.266,85.938,50.293,-94.727,-5.859
1532402224.342,-206.055,93.750,49.805,-94.238,8.301
1532402224.346,-208.984,93.262,44.922,-80.566,51.758
1532402224.350,-207.031,89.844,46.387,-79.590,42.969
1532402224.353,-191.895,89.844,43.457,-69.824,16.113
1532402224.357,-185.059,82.520,35.645,-54.199,20.020
1532402224.361,-193.359,62.012,28.809,-44.922,46.387
1532402224.365,-186.035,57.617,30.273,-19.043,62.012
1532402224.369,-174.316,65.430,28.809,-11.230,19.531
1532402224.373,-146.484,53.223,26.855,-7.812,-4.883
1532402224.377,-107.422,41.504,25.879,10.742,45.898
1532402224.381,-92.773,36.621,24.414,13.184,59.082
1532402224.385,-83.984,30.273,22.461,14.160,37.598
1532402224.389,-65.918,30.762,20.996,21.484,58.105
1532402224.392,-70.801,32.227,20.508,7.812,5.859
1532402224.396,-66.895,35.156,22.949,11.230,-8.301
1532402224.400,-50.781,39.062,21.973,25.879,61.035
1532402224.404,-43.457,24.414,14.160,23.926,54.688
1532402224.408,-38.574,8.789,12.695,17.090,42.969
1532402224.412,-31.738,11.719,14.160,20.508,54.199
1532402224.416,-10.254,11.230,11.230,32.715,58.105
1532402224.420,17.090,9.277,7.812,34.180,52.734
1532402224.424,37.109,11.230,10.254,36.621,30.273
1532402224.428,54.199,12.695,14.648,44.922,38.086
1532402224.432,69.336,24.414,17.090,47.852,22.949
1532402224.435,68.848,20.508,16.113,43.457,20.508
1532402224.439,62.012,8.301,18.555,52.246,36.621
1532402224.443,61.523,19.531,20.508,69.824,-6.836
1532402224.447,53.711,20.020,18.066,68.359,3.906
1532402224.451,43.457,0.488,13.184,60.547,20.996
1532402224.455,43.457,-8.301,15.137,63.965,21.973
1532402224.459,47.852,-7.812,15.625,69.336,38.086
1532402224.463,48.340,-0.977,16.113,64.941,41.504
1532402224.467,52.246,10.742,16.113,65.918,67.383
1532402224.471,56.641,10.254,17.578,70.801,52.734
1532402224.475,55.176,17.090,22.949,70.801,31.250
1532402224.478,59.082,21.484,19.043,69.824,23.438
1532402224.482,74.219,18.066,15.137,62.500,39.062
1532402224.486,83.008,11.719,16.113,63.477,23.926
1532402224.490,83.496,4.883,18.066,61.035,-15.137
1532402224.494,83.984,8.301,18.066,46.875,6.348
1532402224.498,88.379,17.090,18.066,56.152,40.039
1532402224.502,95.703,14.648,14.648,58.105,45.898
1532402224.506,90.820,4.395,13.672,46.387,44.922
1532402224.510,86.426,8.789,19.043,49.805,17.578
1532402224.514,83.984,17.578,22.949,53.711,20.020
1532402224.517,83.008,28.320,21.973,47.363,47.363
1532402224.521,85.449,20.508,25.391,43.945,34.180
1532402224.525,83.008,8.301,24.902,42.480,22.949
1532402224.529,75.195,7.812,17.090,42.969,52.734
1532402224.533,70.312,4.883,20.508,37.598,38.086
1532402224.537,69.336,16.113,27.832,49.805,5.371
1532402224.541,64.941,19.043,21.484,55.664,7.812
1532402224.545,57.617,8.789,21.484,51.270,37.109
1532402224.549,57.617,22.949,31.738,58.105,54.688
1532402224.553,46.387,17.578,25.391,57.617,39.551
1532402224.557,37.598,4.883,20.996,57.129,17.090
1532402224.560,38.574,8.789,24.902,53.223,1.953
1532402224.564,30.273,10.254,24.902,58.105,18.066
1532402224.568,25.391,16.113,26.855,61.523,26.367
1532402224.572,23.926,14.160,28.809,50.781,30.273
1532402224.576,32.227,14.160,29.785,57.617,41.016
1532402224.580,34.180,24.902,31.738,62.988,38.086
1532402224.584,27.344,36.133,30.273,62.500,58.105
1532402224.588,26.367,28.320,27.344,58.594,25.879
1532402224.592,20.020,6.348,28.320,43.457,-7.812
1532402224.596,15.625,3.906,29.297,40.527,6.836
1532402224.599,14.160,5.371,27.344,48.828,23.438
1532402224.603,17.090,11.719,29.297,47.852,20.508
1532402224.607,22.949,24.902,30.762,48.340,22.949
1532402224.611,28.320,20.996,29.297,52.246,27.832
1532402224.615,40.039,19.043,29.297,54.199,46.387
1532402224.619,48.828,20.020,32.227,48.340,49.316
1532402224.623,60.547,28.320,36.133,49.316,29.297
1532402224.627,66.406,42.480,37.109,52.246,38.086
1532402224.631,54.688,28.320,32.227,42.480,20.508
1532402224.635,43.457,9.277,23.926,36.621,8.789
1532402224.639,52.246,16.113,22.461,38.086,17.090
1532402224.642,55.664,21.484,29.785,39.551,29.297
1532402224.646,41.504,23.926,31.250,46.875,49.316
1532402224.650,39.551,22.949,27.344,41.504,31.250
1532402224.654,41.504,14.160,25.879,30.273,-9.277
1532402224.658,38.574,19.043,31.738,33.691,10.254
1532402224.662,38.574,24.902,34.180,35.156,27.832
1532402224.666,34.668,14.648,24.414,37.598,18.066
1532402224.670,35.156,8.789,21.973,36.133,21.484
1532402224.674,44.922,16.113,27.344,32.715,10.254
1532402224.678,49.316,32.227,29.785,39.062,14.160
1532402224.682,43.945,31.250,27.344,37.109,38.574
1532402224.685,41.504,25.879,26.367,36.133,32.715
1532402224.689,38.086,31.738,31.250,40.527,17.090
1532402224.693,35.156,20.020,31.250,35.645,20.020
1532402224.697,39.062,12.207,28.320,33.203,37.598
1532402224.701,50.781,25.879,30.273,35.645,49.805
1532402224.705,44.922,38.086,32.715,41.016,19.531
1532402224.709,16.113,35.645,31.250,43.457,-17.578
1532402224.713,1.465,30.762,32.715,39.062,5.859
1532402224.717,-2.441,23.926,33.203,37.109,44.922
1532402224.721,-1.465,24.414,31.738,39.062,36.621
1532402224.724,0.000,25.879,24.902,36.133,23.926
1532402224.728,0.977,23.926,22.949,36.133,35.156
1532402224.732,-9.277,24.414,29.785,36.621,29.785
1532402224.736,-22.949,26.855,31.738,39.062,28.320
1532402224.740,-23.438,32.227,28.320,44.434,34.180
1532402224.744,-32.715,25.391,31.250,38.574,43.457
1532402224.748,-46.387,18.066,32.227,35.645,54.688
1532402224.752,-52.246,17.578,31.250,40.039,25.879
1532402224.756,-49.316,20.996,36.621,41.992,18.066
1532402224.760,-46.387,28.320,34.180,38.086,26.367
1532402224.764,-52.246,20.996,29.785,33.203,27.832
1532402224.767,-56.152,22.461,32.227,38.086,40.039
1532402224.771,-47.363,36.133,32.715,39.062,3.418
1532402224.775,-43.457,27.344,32.227,33.691,-14.648
1532402224.779,-52.246,22.461,30.762,37.109,36.621
1532402224.783,-58.594,33.203,31.738,48.828,61.523
1532402224.787,-60.059,35.645,35.645,46.875,53.223
1532402224.791,-83.984,30.273,32.715,37.598,16.113
1532402224.795,-103.027,29.785,28.809,39.551,3.418
1532402224.799,-107.910,32.715,30.762,39.062,41.504
1532402224.803,-113.281,45.410,36.133,39.062,57.129
1532402224.807,-122.559,49.316,33.203,38.574,35.645
1532402224.810,-128.418,38.086,31.738,28.809,19.531
1532402224.814,-133.789,30.273,33.203,21.484,23.926
1532402224.818,-158.203,22.949,29.297,20.508,35.645
1532402224.822,-183.105,20.020,25.391,22.461,24.414
1532402224.826,-171.875,26.367,28.320,29.297,17.578
1532402224.830,-146.484,33.691,29.297,28.809,29.785
1532402224.834,-133.301,35.645,25.391,28.809,41.992
1532402224.838,-123.535,37.598,29.785,32.715,47.363
1532402224.842,-115.723,41.504,31.738,29.785,46.875
1532402224.846,-89.844,65.918,38.086,34.180,30.273
1532402224.849,-88.379,53.711,34.180,21.484,37.109
1532402224.853,-98.633,16.113,20.508,6.348,31.738
1532402224.857,-86.914,19.043,21.484,13.672,29.297
1532402224.861,-99.121,26.367,26.367,19.043,54.688
1532402224.865,-116.699,25.391,27.344,19.043,49.805
1532402224.869,-122.070,27.832,29.785,24.902,21.484
1532402224.873,-126.465,32.227,33.203,23.438,-9.766
1532402224.877,-130.371,29.785,33.691,26.367,-8.301
1532402224.881,-127.930,38.086,40.039,42.969,33.203
1532402224.885,-142.090,33.691,36.133,39.551,58.594
1532402224.889,-137.207,31.738,35.645,42.480,18.066
1532402224.892,-114.258,51.270,48.828,53.711,0.000
1532402224.896,-120.117,40.527,37.598,43.945,30.762
1532402224.900,-137.695,14.648,26.367,29.297,27.344
1532402224.904,-138.672,12.207,27.832,26.367,10.742
1532402224.908,-136.719,19.043,25.391,29.785,-5.859
1532402224.912,-139.648,29.785,29.785,29.785,-25.391
1532402224.916,-132.812,35.156,34.180,30.762,7.812
1532402224.920,-124.512,34.180,33.691,35.645,27.832
1532402224.924,-122.070,38.086,28.809,32.227,10.254
1532402224.928,-121.582,38.574,34.180,31.738,5.859
1532402224.932,-140.137,31.738,41.016,28.320,7.812
1532402224.935,-176.270,41.504,39.551,30.762,16.602
1532402224.939,-216.309,49.805,34.180,31.250,8.301
1532402224.943,-233.887,23.926,29.297,20.020,-15.625
1532402224.947,-229.492,13.184,31.738,22.949,-5.859
1532402224.951,-250.000,20.996,28.320,26.367,10.742
1532402224.955,-279.785,26.367,29.297,25.879,4.883
1532402224.959,-302.246,31.250,32.227,25.879,0.488
1532402224.963,-333.008,27.344,27.832,21.484,-4.395
1532402224.967,-354.004,28.809,29.785,28.320,0.488
1532402224.971,-364.258,37.598,36.621,32.227,-5.371
1532402224.974,-376.465,43.945,36.621,28.320,-27.832
1532402224.978,-380.371,30.762,27.832,29.297,2.930
1532402224.982,-359.863,36.133,37.109,31.250,43.457
1532402224.986,-360.840,45.410,42.969,22.461,19.531
1532402224.990,-381.348,15.137,32.227,24.414,1.953
1532402224.994,-389.160,1.465,27.344,24.902,0.000
1532402224.998,-391.113,16.602,27.344,22.461,30.273
1532402225.002,-392.090,28.320,28.320,20.508,38.574
1532402225.006,-390.625,32.715,30.273,22.949,19.043
1532402225.010,-369.141,28.809,26.367,24.414,26.367
1532402225.014,-341.309,32.715,30.762,12.207,20.508
1532402225.017,-327.148,40.527,31.250,20.508,35.645
1532402225.021,-332.520,22.461,24.414,23.926,28.809
1532402225.025,-327.637,18.555,28.809,16.113,20.020
1532402225.029,-307.129,45.410,37.598,29.297,32.715
1532402225.033,-310.059,26.855,29.785,25.879,34.668
1532402225.037,-312.988,-5.371,19.043,16.602,7.812
1532402225.041,-300.293,10.254,22.949,22.461,-9.766
1532402225.045,-301.758,19.531,25.879,25.879,14.648
1532402225.049,-304.199,20.996,24.902,22.461,32.715
1532402225.053,-291.504,32.715,27.832,4.883,-7.324
1532402225.056,-281.738,35.156,27.344,1.465,-6.348
1532402225.060,-280.273,24.902,24.902,11.719,25.879
1532402225.064,-283.203,22.461,28.320,14.648,44.922
1532402225.068,-284.668,23.926,31.250,13.184,42.969
1532402225.072,-289.062,28.809,33.691,14.160,6.836
1532402225.076,-290.527,44.922,37.598,31.250,18.066
1532402225.080,-290.039,40.527,34.180,31.738,36.133
1532402225.084,-293.945,19.043,29.785,23.926,4.883
1532402225.088,-293.945,8.789,27.832,23.438,-3.906
1532402225.092,-290.039,12.207,27.832,23.438,-3.906
1532402225.096,-290.527,21.484,28.320,26.367,12.207
1532402225.099,-287.598,21.484,29.297,34.180,55.664
1532402225.103,-262.207,26.855,32.227,41.016,33.203
1532402225.107,-244.141,31.738,34.668,43.457,21.973
1532402225.111,-239.746,31.738,34.180,41.016,33.203
1532402225.115,-226.074,30.762,34.668,37.109,40.527
1532402225.119,-206.055,48.340,38.086,44.922,29.297
1532402225.123,-197.754,51.758,33.203,42.480,5.859
1532402225.127,-214.844,17.578,30.273,32.227,16.113
1532402225.131,-238.770,11.230,27.832,27.832,52.734
1532402225.135,-246.094,20.508,25.879,22.949,30.273
1532402225.139,-245.605,24.902,32.227,28.809,-1.953
1532402225.142,-248.047,32.227,32.715,30.273,3.906
1532402225.146,-251.953,33.691,33.203,34.180,30.273
1532402225.150,-250.977,35.645,37.598,39.551,52.246
1532402225.154,-245.117,41.504,37.109,35.645,-3.418
1532402225.158,-237.793,43.945,32.715,38.574,26.855
1532402225.162,-237.305,34.180,32.715,39.551,73.730
1532402225.166,-215.332,36.133,34.180,38.574,48.340
1532402225.170,-196.289,30.762,27.832,29.785,26.855
1532402225.174,-185.059,22.461,32.715,23.926,24.902
1532402225.178,-175.781,28.320,42.480,28.809,60.059
1532402225.181,-169.434,22.949,36.621,31.250,57.129
1532402225.185,-157.227,19.043,29.297,33.203,38.086
1532402225.189,-143.555,25.391,33.691,30.762,21.484
1532402225.193,-136.719,37.598,37.109,22.949,-12.695
1532402225.197,-138.672,37.598,36.621,31.250,-14.160
1532402225.201,-123.535,33.691,34.668,44.434,35.645
1532402225.205,-112.793,34.668,27.344,34.668,57.617
1532402225.209,-111.816,27.344,29.297,23.926,53.223
1532402225.213,-110.840,25.879,35.156,21.973,43.457
1532402225.217,-122.070,24.902,33.203,20.508,57.129
1532402225.221,-125.977,18.555,32.227,20.020,54.688
1532402225.224,-110.840,22.461,36.621,18.555,28.809
1532402225.228,-99.609,26.855,37.109,20.020,26.367
1532402225.232,-95.703,28.809,36.621,18.555,6.836
1532402225.236,-87.402,32.715,38.086,25.879,6.836
1532402225.240,-79.102,35.156,38.574,34.180,22.461
1532402225.244,-84.961,41.992,40.039,34.668,36.621
1532402225.248,-91.309,41.992,39.551,32.715,30.273
1532402225.252,-90.332,32.715,34.180,27.832,16.602
1532402225.256,-88.379,25.879,28.320,23.926,45.410
1532402225.260,-86.426,30.273,30.762,25.879,37.598
1532402225.264,-86.914,39.062,31.738,27.832,42.969
1532402225.267,-94.727,34.668,29.297,24.902,73.730
1532402225.271,-98.633,25.391,28.320,25.879,64.941
1532402225.275,-97.656,28.809,29.785,27.344,41.016
1532402225.279,-105.469,34.180,30.273,19.043,42.969
1532402225.283,-93.262,43.457,32.227,25.391,30.762
1532402225.287,-81.543,50.781,37.109,27.832,36.133
1532402225.291,-95.215,37.109,31.738,10.742,19.043
1532402225.295,-106.445,33.203,27.344,4.395,12.207
1532402225.299,-114.746,41.992,28.320,7.324,46.387
1532402225.303,-123.535,38.086,26.855,14.648,42.480
1532402225.306,-141.113,32.715,26.855,15.137,21.973
1532402225.310,-155.762,38.086,31.250,14.160,11.719
1532402225.314,-165.039,34.180,29.297,15.137,27.344
1532402225.318,-160.645,30.762,30.762,17.090,55.664
1532402225.322,-141.602,45.410,38.574,24.902,41.016
1532402225.326,-136.719,32.715,30.273,20.996,17.578
1532402225.330,-123.535,19.531,29.297,18.555,26.367
1532402225.334,-117.188,31.250,34.668,25.391,32.715
1532402225.338,-140.137,28.320,28.809,32.715,35.156
1532402225.342,-145.020,24.902,31.250,35.156,28.320
1532402225.346,-126.465,30.273,33.691,30.273,44.922
1532402225.349,-119.141,28.320,37.109,35.156,41.016
1532402225.353,-104.004,36.621,42.969,42.969,10.742
1532402225.357,-102.539,29.785,36.621,34.180,2.441
1532402225.361,-127.441,12.207,32.227,24.902,22.949
1532402225.365,-130.859,28.809,37.598,30.762,66.895
1532402225.369,-133.301,31.250,37.109,29.297,40.527
1532402225.373,-157.227,20.508,39.062,27.344,0.488
1532402225.377,-179.199,32.227,41.992,37.109,44.434
1532402225.381,-192.871,27.344,35.156,37.598,49.316
1532402225.385,-190.430,15.137,32.227,32.715,36.621
1532402225.389,-171.387,32.227,39.062,32.227,20.020
1532402225.392,-166.504,37.598,41.504,32.227,-19.531
1532402225.396,-181.641,16.113,33.203,28.320,1.953
1532402225.400,-194.336,14.648,34.180,32.227,27.344
1532402225.404,-202.637,32.227,39.062,40.527,23.926
1532402225.408,-223.633,29.297,36.621,38.574,20.996
1532402225.412,-240.723,28.320,38.574,39.551,10.254
1532402225.416,-252.930,36.621,36.621,41.016,24.414
1532402225.420,-269.043,31.738,35.645,34.668,19.531
1532402225.424,-270.508,24.902,35.645,30.273,10.254
1532402225.428,-240.723,24.902,35.156,33.203,33.691
1532402225.431,-219.238,33.691,32.715,20.996,1.465
1532402225.435,-208.008,27.344,26.367,10.254,-23.438
1532402225.439,-193.848,20.020,29.785,23.926,-19.043
1532402225.443,-190.918,28.809,32.227,23.438,0.488
1532402225.447,-183.594,31.738,33.203,20.996,29.785
1532402225.451,-169.434,36.133,38.086,24.902,62.988
1532402225.455,-160.645,44.922,40.527,26.855,34.668
1532402225.459,-160.156,37.109,36.621,30.273,13.672
1532402225.463,-152.344,26.367,34.668,34.180,31.738
1532402225.467,-146.484,22.461,32.715,38.086,37.109
1532402225.471,-142.090,21.973,37.598,33.203,13.672
1532402225.474,-135.742,36.133,42.480,31.250,-26.855
1532402225.478,-136.230,28.320,38.086,41.992,-12.207
1532402225.482,-136.719,13.672,38.086,41.016,17.578
1532402225.486,-141.113,17.090,41.016,40.527,10.254
1532402225.490,-145.508,27.344,38.574,37.109,6.836
1532402225.494,-150.391,36.133,36.621,35.645,24.902
1532402225.498,-150.879,25.391,34.668,33.203,53.711
1532402225.502,-143.555,31.250,36.621,34.180,47.852
1532402225.506,-142.090,35.645,37.598,34.668,6.836
1532402225.510,-148.438,27.344,36.133,28.809,5.859
1532402225.513,-149.414,32.227,36.621,27.832,31.250
1532402225.517,-146.973,33.203,39.062,29.785,52.734
1532402225.521,-140.137,35.156,45.898,34.668,22.949
1532402225.525,-135.254,33.203,39.062,34.668,11.230
1532402225.529,-128.418,34.668,38.574,31.738,26.367
1532402225.533,-126.465,32.715,40.527,28.320,28.809
1532402225.537,-120.605,24.414,35.156,28.320,33.691
1532402225.541,-102.539,29.297,36.133,28.809,23.438
1532402225.545,-97.656,30.273,37.598,25.879,27.344
1532402225.549,-90.820,35.645,42.480,31.738,34.180
1532402225.553,-77.637,48.828,41.504,29.785,37.598
1532402225.556,-97.168,27.832,32.715,20.996,29.297
1532402225.560,-129.883,21.973,34.668,28.320,14.160
1532402225.564,-156.738,33.203,37.598,34.180,60.547
1532402225.568,-167.480,30.762,36.133,30.273,68.359
1532402225.572,-169.434,32.715,32.715,23.438,8.789
1532402225.576,-168.457,31.738,32.227,25.879,2.930
1532402225.580,-155.762,40.039,37.109,29.297,15.625
1532402225.584,-138.184,36.621,32.715,20.020,35.156
1532402225.588,-128.906,20.020,28.320,15.625,37.109
1532402225.592,-120.605,25.391,33.691,17.090,27.832
1532402225.596,-104.004,33.203,36.133,12.207,27.344
1532402225.599,-86.426,37.598,41.992,16.113,22.949
1532402225.603,-79.102,33.203,38.574,18.555,34.180
1532402225.607,-73.730,28.809,35.156,28.320,28.809
1532402225.611,-68.848,33.203,46.875,31.250,17.578
1532402225.615,-65.918,14.648,43.945,26.367,6.836
1532402225.619,-64.941,9.277,31.250,26.367,40.527
1532402225.623,-72.754,29.297,25.391,20.020,56.641
1532402225.627,-62.988,30.762,25.391,29.785,42.480
1532402225.631,-51.758,23.438,28.320,41.016,41.016
1532402225.635,-43.945,20.508,28.320,44.922,44.434
1532402225.638,-39.062,24.414,22.461,36.133,52.246
1532402225.642,-40.039,31.250,16.602,33.203,41.504
1532402225.646,-25.879,38.086,21.973,51.758,43.457
1532402225.650,-14.160,37.109,21.484,59.082,28.809
1532402225.654,-11.230,31.250,16.113,52.734,15.137
1532402225.658,-10.742,31.250,14.160,50.781,37.598
1532402225.662,-17.578,23.926,9.766,47.852,53.223
1532402225.666,-17.090,30.762,7.812,51.758,44.434
1532402225.670,-10.742,31.738,13.672,52.734,35.156
1532402225.674,-5.859,29.785,24.902,54.199,12.695
1532402225.678,-3.906,34.180,23.926,53.711,24.414
1532402225.681,-3.418,30.273,19.043,58.105,53.711
1532402225.685,-8.789,38.574,24.414,67.871,52.734
1532402225.689,-15.137,39.062,24.902,62.500,50.781
1532402225.693,-5.859,26.367,22.949,57.617,42.480
1532402225.697,11.230,24.902,24.414,60.059,32.715
1532402225.701,17.090,29.297,23.438,62.500,31.738
1532402225.705,23.926,30.273,20.020,60.059,41.504
1532402225.709,47.363,30.762,23.438,58.594,30.273
1532402225.713,55.664,36.133,30.762,51.758,23.926
1532402225.717,44.922,39.551,30.762,51.758,47.852
1532402225.721,45.898,36.621,28.809,56.641,28.809
1532402225.724,49.316,24.414,23.438,44.922,11.230
1532402225.728,49.316,26.855,22.461,42.969,16.113
1532402225.732,51.758,34.668,27.344,51.270,7.812
1532402225.736,58.105,37.109,30.762,52.734,32.227
1532402225.740,60.059,34.668,31.738,48.828,34.180
1532402225.744,63.477,42.480,34.668,44.434,25.391
1532402225.748,57.129,41.504,37.109,40.527,52.734
1532402225.752,44.922,29.297,34.668,30.762,26.855
1532402225.756,46.387,22.461,30.762,26.855,-5.371
1532402225.760,61.035,25.391,23.926,32.715,30.762
1532402225.763,67.383,33.203,20.020,33.203,50.781
1532402225.767,77.148,38.574,25.879,40.039,48.340
1532402225.771,86.914,40.527,26.855,46.875,29.297
1532402225.775,92.285,43.457,26.855,48.828,13.184
1532402225.779,99.609,50.293,31.250,48.828,35.645
1532402225.783,102.539,45.410,31.250,55.664,38.086
1532402225.787,100.586,39.551,27.832,56.641,14.648
1532402225.791,100.098,36.621,27.832,40.039,16.602
1532402225.795,95.215,28.809,30.273,36.621,37.109
1532402225.799,83.984,29.297,31.738,48.828,41.016
1532402225.803,97.168,35.645,30.762,48.340,38.574
1532402225.806,103.516,35.645,29.297,35.645,28.320
1532402225.810,87.891,34.668,28.320,31.250,14.648
1532402225.814,70.801,36.133,25.879,30.273,38.086
1532402225.818,52.246,35.156,23.926,22.949,67.383
1532402225.822,41.504,34.180,23.438,17.090,60.059
1532402225.826,31.738,36.133,31.250,26.367,24.414
1532402225.830,34.180,38.086,34.668,39.551,-1.953
1532402225.834,36.133,40.039,23.438,25.879,19.043
1532402225.838,29.785,43.945,21.484,19.043,20.508
1532402225.842,41.016,52.246,21.973,38.574,-0.488
1532402225.846,56.152,37.598,19.043,51.758,26.855
1532402225.849,51.758,28.809,15.625,43.457,47.852
1532402225.853,35.645,38.086,13.184,40.039,12.695
1532402225.857,31.738,46.387,14.648,62.500,19.043
1532402225.861,38.574,50.293,18.066,81.055,22.461
1532402225.865,35.156,48.828,14.160,83.496,25.879
1532402225.869,32.227,53.711,8.301,83.008,45.410
1532402225.873,33.691,58.594,10.254,83.008,0.488
1532402225.877,28.320,57.617,7.324,74.707,13.184
1532402225.881,26.855,59.570,8.301,81.543,20.020
1532402225.885,25.879,66.406,11.230,93.750,10.254
1532402225.888,19.043,64.941,5.859,85.938,13.184
1532402225.892,17.090,56.641,0.488,64.941,-10.254
1532402225.896,20.508,60.059,0.000,64.453,3.418
1532402225.900,14.648,68.359,-0.488,73.242,19.531
1532402225.904,5.371,61.523,-1.953,66.895,4.883
1532402225.908,5.859,59.570,0.000,77.637,-14.160
1532402225.912,4.883,62.988,7.812,86.426,3.418
1532402225.916,8.789,61.523,12.207,84.961,28.809
1532402225.920,6.836,58.105,9.766,81.055,42.969
1532402225.924,-11.230,52.246,11.230,74.219,44.922
1532402225.928,-23.438,56.152,14.160,74.219,0.977
1532402225.931,-33.691,64.453,18.066,70.801,-4.395
1532402225.935,-43.457,56.641,12.207,63.965,16.602
1532402225.939,-47.852,42.969,8.301,63.965,-6.348
1532402225.943,-53.223,44.434,13.672,63.477,0.977
1532402225.947,-62.988,45.898,14.160,58.105,28.809
1532402225.951,-66.895,46.387,16.113,48.828,6.836
1532402225.955,-67.383,51.758,19.043,41.504,-20.996
1532402225.959,-73.242,46.387,15.625,46.875,32.227
1532402225.963,-72.754,37.109,15.625,54.199,75.684
1532402225.967,-62.988,39.062,19.531,50.293,44.434
1532402225.970,-66.895,44.434,20.508,51.270,21.973
1532402225.974,-78.125,46.387,22.461,55.664,3.418
1532402225.978,-78.125,51.270,24.414,60.059,-10.742
1532402225.982,-83.008,46.387,22.949,58.594,27.832
1532402225.986,-96.680,39.551,24.902,54.688,32.227
1532402225.990,-111.816,43.945,25.391,46.875,-8.301
1532402225.994,-117.676,37.109,21.484,33.203,-6.348
1532402225.998,-107.910,37.598,27.344,41.016,36.133
1532402226.002,-104.004,47.363,32.227,46.875,45.410
1532402226.006,-109.375,41.992,27.832,40.527,27.344
1532402226.010,-116.699,32.715,24.902,33.691,-14.648
1532402226.013,-104.980,34.668,30.273,38.086,-7.324
1532402226.017,-82.031,40.527,32.715,43.457,45.410
1532402226.021,-68.359,40.527,31.738,37.598,26.855
1532402226.025,-66.895,46.387,33.691,39.062,-4.395
1532402226.029,-77.148,44.434,32.715,37.109,-2.930
1532402226.033,-94.238,29.297,29.785,26.367,10.742
1532402226.037,-89.844,29.297,30.762,25.879,19.531
1532402226.041,-70.312,34.180,30.762,29.297,-3.418
1532402226.045,-64.453,40.039,29.297,24.902,30.762
1532402226.049,-65.918,44.434,28.320,29.297,41.504
1532402226.053,-59.082,38.574,30.273,36.621,20.508
1532402226.056,-44.922,38.086,30.762,39.551,32.227
1532402226.060,-55.176,40.527,35.156,44.922,7.324
1532402226.064,-74.707,36.621,37.598,50.293,32.715
1532402226.068,-74.707,36.133,33.203,54.199,27.344
1532402226.072,-71.777,40.527,35.645,47.363,-43.945
1532402226.076,-92.285,45.898,39.551,48.340,-30.273
1532402226.080,-112.305,48.828,39.062,58.594,31.250
1532402226.084,-117.188,46.875,38.086,53.711,45.898
1532402226.088,-124.023,40.039,35.645,48.340,34.668
1532402226.092,-137.207,34.180,31.738,38.086,34.668
1532402226.095,-147.461,34.668,33.691,32.227,35.645
1532402226.099,-145.508,43.457,36.621,31.738,12.695
1532402226.103,-136.719,35.645,35.156,34.180,13.672
1532402226.107,-127.441,27.832,38.086,37.109,23.438
1532402226.111,-134.277,31.738,40.039,34.668,44.434
1532402226.115,-145.996,34.668,37.598,34.668,46.875
1532402226.119,-132.324,41.504,43.457,41.504,10.742
1532402226.123,-114.746,47.852,48.340,42.969,11.230
1532402226.127,-121.094,39.551,39.062,38.574,27.344
1532402226.131,-121.094,29.297,36.621,33.691,8.301
1532402226.135,-101.562,31.738,40.039,25.879,7.812
1532402226.138,-85.938,27.832,36.621,30.762,24.414
1532402226.142,-75.195,25.879,35.645,35.156,31.250
1532402226.146,-75.195,32.227,38.574,34.180,50.293
1532402226.150,-81.055,34.180,38.086,35.156,73.242
1532402226.154,-80.566,34.180,38.086,33.203,54.199
1532402226.158,-78.613,39.062,36.133,30.273,16.602
1532402226.162,-76.660,40.527,31.250,23.926,24.414
1532402226.166,-68.848,36.621,34.180,23.926,48.828
1532402226.170,-49.805,38.086,39.551,20.508,3.906
1532402226.174,-33.691,41.016,36.621,14.160,-20.020
1532402226.178,-26.367,35.645,32.715,12.695,26.367
1532402226.181,-33.691,34.668,34.180,9.766,36.133
1532402226.185,-39.551,39.062,34.668,13.672,24.902
1532402226.189,-30.273,42.480,34.668,19.043,-17.578
1532402226.193,-22.461,42.969,33.203,18.555,-3.906
1532402226.197,-19.531,39.062,31.738,22.949,35.645
1532402226.201,-24.902,38.574,32.227,30.762,61.523
1532402226.205,-37.598,38.086,25.391,27.832,65.918
1532402226.209,-36.133,37.109,23.438,26.855,25.879
1532402226.213,-42.480,36.621,23.438,27.832,17.578
1532402226.217,-58.105,33.691,20.508,26.855,42.480
1532402226.220,-58.594,42.480,23.926,34.668,41.504
1532402226.224,-62.500,45.410,25.391,37.109,8.301
1532402226.228,-80.566,31.250,21.973,27.344,3.418
1532402226.232,-82.031,31.250,22.461,19.531,10.254
1532402226.236,-77.637,39.551,24.414,26.367,4.883
1532402226.240,-73.730,38.086,26.367,32.227,12.207
1532402226.244,-54.199,34.668,27.832,32.227,28.809
1532402226.248,-42.480,36.133,25.879,26.367,20.996
1532402226.252,-48.828,40.039,27.832,15.625,-5.371
1532402226.256,-70.312,34.180,27.832,13.672,-9.277
1532402226.260,-82.520,32.227,26.855,21.484,12.207
1532402226.263,-73.730,37.109,27.344,25.879,46.875
1532402226.267,-63.965,35.156,30.762,30.762,40.527
1532402226.271,-62.012,37.598,32.227,29.785,3.418
1532402226.275,-74.219,39.062,32.227,30.273,-16.602
1532402226.279,-75.684,40.527,34.180,40.527,12.207
1532402226.283,-74.707,46.387,34.180,42.969,33.203
1532402226.287,-83.496,36.621,31.738,41.504,29.785
1532402226.291,-74.219,23.926,28.320,39.062,19.043
1532402226.295,-55.176,28.320,29.785,38.574,16.113
1532402226.299,-37.598,30.273,30.273,39.551,46.387
1532402226.302,-31.738,29.785,29.785,37.109,34.668
1532402226.306,-26.855,35.156,33.203,35.156,14.648
1532402226.310,-30.762,37.598,32.227,31.738,19.531
1532402226.314,-46.387,34.180,29.785,22.461,8.789
1532402226.318,-51.270,33.691,31.250,23.438,16.113
1532402226.322,-48.828,35.156,31.250,24.902,14.648
1532402226.326,-53.711,41.992,25.879,20.508,22.949
1532402226.330,-43.945,44.434,24.902,31.738,28.320
1532402226.334,-34.668,36.133,35.645,49.316,47.852
1532402226.338,-50.781,26.855,44.922,40.527,50.293
1532402226.342,-67.871,24.902,41.504,27.344,-0.977
1532402226.345,-74.219,26.367,39.062,22.461,25.391
1532402226.349,-78.125,27.344,38.574,19.531,44.922
1532402226.353,-84.961,30.273,35.645,12.207,19.043
1532402226.357,-83.984,33.203,39.551,17.090,-1.953
1532402226.361,-82.031,33.203,39.551,25.879,8.301
1532402226.365,-84.961,28.809,33.691,28.320,23.438
1532402226.369,-84.473,27.832,36.621,30.762,12.695
1532402226.373,-80.566,32.227,38.086,21.973,-17.578
1532402226.377,-79.590,35.156,36.621,29.785,-20.508
1532402226.381,-69.336,38.574,36.133,44.434,35.645
1532402226.385,-56.641,34.668,33.691,39.062,50.293
1532402226.388,-39.062,30.273,33.691,36.133,15.137
1532402226.392,-28.320,28.320,33.203,32.715,11.719
1532402226.396,-22.949,24.414,32.227,30.273,9.766
1532402226.400,-19.043,29.297,33.691,26.367,24.902
1532402226.404,-15.137,35.156,30.762,21.973,44.922
1532402226.408,-13.672,29.785,27.344,23.438,28.320
1532402226.412,-8.789,27.832,32.715,20.996,12.207
1532402226.416,-1.465,31.250,32.715,24.902,63.965
1532402226.420,-1.953,30.762,29.297,28.320,64.453
1532402226.424,7.324,34.668,34.180,28.320,11.719
1532402226.427,11.230,41.016,34.668,35.156,30.762
1532402226.431,9.277,33.203,31.250,35.645,56.641
1532402226.435,9.277,28.809,32.227,31.250,68.359
1532402226.439,7.812,27.832,35.645,30.762,41.016
1532402226.443,7.812,31.250,36.133,33.691,23.926
1532402226.447,5.859,34.668,36.133,36.133,39.062
1532402226.451,14.160,35.645,34.180,31.738,32.715
1532402226.455,15.625,30.273,30.762,23.926,32.227
1532402226.459,0.000,26.367,32.227,22.949,38.086
1532402226.463,-3.906,32.715,35.156,23.438,32.227
1532402226.467,-3.906,33.691,34.180,17.578,63.477
1532402226.470,0.977,34.180,31.250,22.949,36.621
1532402226.474,11.230,41.992,32.715,28.320,-10.742
1532402226.478,12.207,35.645,30.273,23.438,20.508
1532402226.482,14.160,26.855,27.832,27.344,58.105
1532402226.486,17.090,28.809,29.785,30.273,53.711
1532402226.490,23.438,30.273,31.250,23.926,23.926
1532402226.494,33.203,33.203,32.227,22.461,-3.906
1532402226.498,32.227,35.156,31.250,30.273,4.395
1532402226.502,22.949,35.645,36.621,36.133,40.039
1532402226.506,25.879,33.203,36.621,31.738,43.457
1532402226.510,33.203,34.180,32.227,26.367,35.645
1532402226.513,41.016,40.527,33.691,28.809,11.719
1532402226.517,36.133,34.668,32.227,31.250,22.949
1532402226.521,20.996,30.273,31.250,30.273,28.809
1532402226.525,12.207,31.250,28.809,26.367,31.738
1532402226.529,9.277,28.320,30.273,26.855,40.039
1532402226.533,6.836,31.250,31.738,26.855,30.273
1532402226.537,2.441,32.715,32.715,20.020,35.645
1532402226.541,-1.465,29.785,33.691,17.578,32.227
1532402226.545,-11.230,31.738,32.715,19.531,21.973
1532402226.549,-14.648,28.320,37.109,27.832,29.297
1532402226.552,-15.137,34.180,37.109,26.855,0.488
1532402226.556,-24.414,40.527,32.715,23.438,-13.184
1532402226.560,-9.277,31.250,28.320,26.855,17.090
1532402226.564,8.301,34.668,30.762,25.391,45.410
1532402226.568,12.695,43.457,34.180,25.879,39.062
1532402226.572,18.555,40.527,26.855,18.066,-1.465
1532402226.576,19.531,40.039,23.438,12.207,20.020
1532402226.580,18.066,38.574,26.367,16.113,49.316
1532402226.584,8.789,37.109,26.367,16.602,49.805
1532402226.588,-0.977,37.598,27.832,21.973,37.109
1532402226.592,2.930,40.039,29.785,22.461,0.000
1532402226.595,2.930,42.969,29.785,11.719,16.113
1532402226.599,-0.977,34.180,30.762,19.043,45.898
1532402226.603,-10.254,33.203,29.297,28.320,16.602
1532402226.607,-10.254,40.039,29.297,25.391,4.883
1532402226.611,-16.602,41.016,32.227,23.438,11.230
1532402226.615,-29.297,41.992,31.738,23.926,31.738
1532402226.619,-25.391,37.109,33.203,21.973,31.738
1532402226.623,-29.297,41.016,31.738,18.066,5.371
1532402226.627,-44.434,36.621,27.832,13.672,19.043
1532402226.631,-51.758,31.250,28.320,12.695,40.527
1532402226.635,-42.969,37.109,27.344,11.719,51.758
1532402226.638,-29.785,42.969,29.297,9.766,27.832
1532402226.642,-15.625,48.828,29.785,7.324,-2.441
1532402226.646,-11.230,41.992,28.809,17.578,0.977
1532402226.650,-11.230,30.273,29.785,26.367,31.250
1532402226.654,-7.324,31.250,31.250,27.344,41.016
1532402226.658,0.488,38.086,35.156,39.551,2.930
1532402226.662,-5.371,33.203,34.180,37.598,-9.277
1532402226.666,-10.742,31.250,32.227,38.086,19.531
1532402226.670,-1.465,35.645,33.203,36.621,21.973
1532402226.674,-7.324,33.691,33.203,29.785,7.324
1532402226.677,-15.137,33.203,31.250,29.297,25.391
1532402226.681,-13.184,38.574,30.762,29.785,18.555
1532402226.685,-11.719,44.922,33.203,28.320,25.391
1532402226.689,-9.277,38.574,31.738,18.555,21.973
1532402226.693,-11.719,28.809,28.320,16.113,-6.348
1532402226.697,-16.602,33.691,29.297,24.902,35.645
1532402226.701,-20.996,34.668,29.785,24.902,67.383
1532402226.705,-18.066,33.203,29.297,22.461,48.828
1532402226.709,-12.207,34.180,33.203,25.879,52.246
1532402226.713,-20.508,33.691,33.203,25.879,66.406
1532402226.717,-28.809,32.227,36.621,20.996,61.523
1532402226.720,-31.250,37.598,35.645,20.508,49.316
1532402226.724,-45.410,35.645,32.715,22.949,29.785
1532402226.728,-53.711,32.715,34.668,21.484,20.996
1532402226.732,-54.199,43.945,33.203,20.508,4.883
1532402226.736,-58.594,41.016,30.273,19.531,2.930
1532402226.740,-63.477,30.273,29.297,18.066,31.250
1532402226.744,-66.406,33.691,30.273,28.320,37.109
1532402226.748,-62.012,42.969,33.203,36.133,29.297
1532402226.752,-56.152,43.457,32.227,35.645,33.203
1532402226.756,-56.152,40.039,28.320,30.273,59.082
1532402226.759,-44.922,39.062,30.762,25.879,43.945
1532402226.763,-51.270,41.016,32.715,24.414,40.527
1532402226.767,-79.590,37.598,28.809,23.926,60.547
1532402226.771,-77.637,38.574,31.250,24.414,26.855
1532402226.775,-74.707,38.574,30.273,20.996,-4.883
1532402226.779,-91.797,29.785,25.391,17.578,13.672
1532402226.783,-95.215,31.738,27.344,18.066,50.293
1532402226.787,-82.520,34.668,27.832,22.949,73.242
1532402226.791,-78.125,31.738,28.809,21.973,27.832
1532402226.795,-64.453,38.086,33.203,20.020,-10.742
1532402226.799,-69.336,41.504,32.227,26.367,24.414
1532402226.802,-87.402,35.156,29.785,28.809,37.598
1532402226.806,-82.031,28.320,31.738,33.203,9.277
1532402226.810,-68.848,36.621,38.574,41.992,14.160
1532402226.814,-60.059,43.945,37.109,46.387,45.410
1532402226.818,-62.012,31.738,32.227,39.551,43.457
1532402226.822,-69.336,31.250,35.645,34.180,0.977
1532402226.826,-65.430,35.156,35.156,41.504,3.418
1532402226.830,-60.059,39.551,36.621,36.621,30.762
1532402226.834,-66.895,38.574,36.621,23.926,53.711
1532402226.838,-67.383,26.855,30.273,19.531,46.387
1532402226.842,-68.359,28.320,31.250,20.020,22.461
1532402226.845,-61.523,34.668,35.156,19.043,34.180
1532402226.849,-43.945,29.785,36.133,17.578,36.621
1532402226.853,-34.668,27.832,34.180,14.648,36.621
1532402226.857,-30.762,29.297,31.250,10.254,25.879
1532402226.861,-20.996,35.156,32.715,18.066,15.625
1532402226.865,-20.508,34.668,35.645,29.785,44.434
1532402226.869,-20.508,33.203,37.598,35.645,45.410
1532402226.873,-20.996,38.086,36.621,24.414,5.371
1532402226.877,-10.254,37.109,35.645,27.832,32.227
1532402226.881,-4.883,35.156,37.109,34.180,77.637
1532402226.884,-4.395,36.133,39.551,29.785,49.805
1532402226.888,-0.488,36.133,35.645,27.832,29.297
1532402226.892,-14.648,33.203,30.762,23.926,26.367
1532402226.896,-20.508,35.645,36.133,29.297,41.016
1532402226.900,-21.484,39.062,37.598,31.250,40.039
1532402226.904,-21.973,35.156,35.156,29.297,33.691
1532402226.908,-17.090,37.598,37.598,34.668,22.949
1532402226.912,-16.113,33.691,39.551,32.227,12.695
1532402226.916,-16.602,24.414,35.645,27.832,23.438
1532402226.920,-19.043,24.902,33.691,29.297,61.523
1532402226.924,-27.344,29.297,34.668,28.809,64.941
1532402226.927,-41.504,31.250,34.668,28.809,27.832
1532402226.931,-32.715,26.367,34.668,26.367,19.043
1532402226.935,-21.484,24.902,34.180,29.785,-2.441
1532402226.939,-19.531,27.344,35.156,35.156,-17.090
1532402226.943,-14.648,29.785,31.738,36.133,-15.625
1532402226.947,-13.672,30.273,26.855,34.668,9.277
1532402226.951,-6.348,31.738,29.297,35.645,40.527
1532402226.955,-4.883,30.762,28.809,40.527,36.133
1532402226.959,2.930,31.738,29.297,41.016,12.207
1532402226.963,13.672,27.832,29.297,32.715,2.930
1532402226.967,12.207,25.391,26.855,35.645,32.715
1532402226.970,15.137,29.297,29.785,35.156,14.648
1532402226.974,11.230,29.297,31.738,23.438,-18.066
1532402226.978,0.488,32.227,31.738,27.344,-3.418
1532402226.982,-11.719,32.227,31.738,34.668,17.578
1532402226.986,-24.902,20.508,27.344,32.227,48.340
1532402226.990,-27.344,19.043,29.297,24.414,26.855
1532402226.994,-25.391,25.879,32.715,29.785,21.973
1532402226.998,-21.484,23.926,29.785,24.414,36.133
1532402227.002,-30.273,27.344,28.320,22.949,53.711
1532402227.006,-45.410,30.273,24.902,28.809,61.035
1532402227.009,-52.734,25.391,17.578,9.766,16.113
1532402227.013,-44.922,25.879,10.742,6.836,-13.672
1532402227.017,-17.090,25.391,17.090,47.852,2.441
1532402227.021,-24.414,17.090,34.668,57.129,23.926
1532402227.025,-51.270,16.602,38.086,20.996,38.574
1532402227.029,-55.664,20.020,36.133,3.906,26.367
1532402227.033,-64.941,17.578,41.992,-1.953,31.250
1532402227.037,-62.988,24.414,48.340,-8.301,39.551
1532402227.041,-69.824,25.391,56.641,-25.879,10.254
1532402227.045,-103.027,17.090,59.082,-47.852,17.090
1532402227.049,-134.277,16.113,57.129,-62.988,40.527
1532402227.052,-155.762,18.066,62.500,-80.566,64.941
1532402227.056,-153.320,22.461,64.941,-96.680,52.734
1532402227.060,-147.949,25.879,67.383,-107.422,50.781
1532402227.064,-143.555,33.203,74.707,-115.723,72.266
1532402227.068,-154.785,31.250,80.566,-136.230,46.875
1532402227.072,-164.062,24.414,76.172,-145.508,10.742
1532402227.076,-155.762,29.785,77.637,-138.184,19.531
1532402227.080,-163.086,30.273,83.008,-142.090,40.527
1532402227.084,-166.504,22.949,84.473,-140.625,67.871
1532402227.088,-161.621,24.902,83.008,-136.719,64.941
1532402227.092,-157.715,27.832,84.961,-149.414,-2.930
1532402227.095,-146.973,31.250,86.426,-143.066,-15.625
1532402227.099,-146.484,29.785,80.566,-128.906,12.207
1532402227.103,-143.555,20.508,76.660,-128.906,15.625
1532402227.107,-130.371,19.531,77.637,-111.328,21.973
1532402227.111,-106.445,34.668,80.566,-100.586,-21.484
1532402227.115,-100.586,21.484,69.824,-98.633,-31.250
1532402227.119,-106.934,-5.371,61.035,-86.914,25.879
1532402227.123,-90.820,-4.883,60.059,-81.055,29.785
1532402227.127,-90.332,-1.953,55.176,-73.242,31.738
1532402227.131,-105.469,0.488,52.734,-56.152,57.617
1532402227.134,-107.422,-1.953,50.293,-51.270,36.133
1532402227.138,-97.656,-2.441,45.898,-58.105,17.090
1532402227.142,-66.895,2.441,46.387,-44.434,42.969
1532402227.146,-64.941,1.465,44.922,-27.832,56.152
1532402227.150,-63.965,1.953,47.852,-27.344,36.133
1532402227.154,-49.805,1.465,47.363,-28.320,3.906
1532402227.158,-58.594,-11.719,36.621,-24.414,-6.836
1532402227.162,-58.594,-21.484,36.133,-16.602,-1.465
1532402227.166,-53.711,-9.766,40.527,1.465,41.992
1532402227.170,-51.758,0.000,36.621,12.207,64.453
1532402227.174,-57.617,-8.789,31.250,14.160,37.109
1532402227.177,-53.711,-14.648,31.250,21.973,26.367
1532402227.181,-31.250,-2.441,37.109,35.156,40.527
1532402227.185,-17.578,12.207,35.645,36.621,41.504
1532402227.189,-13.672,0.977,29.297,30.762,1.465
1532402227.193,-13.184,-4.883,32.715,39.551,18.066
1532402227.197,-8.301,-2.930,31.250,40.039,58.105
1532402227.201,-2.930,1.465,30.762,38.086,61.035
1532402227.205,-14.648,1.953,30.762,38.086,49.805
1532402227.209,-32.715,-8.301,27.832,31.738,8.789
1532402227.213,-38.086,-0.977,33.203,33.691,-8.789
1532402227.216,-25.391,8.301,33.691,34.180,22.461
1532402227.220,-10.742,13.184,24.902,30.273,30.762
1532402227.224,0.000,22.461,26.367,35.156,8.789
1532402227.228,0.488,11.230,23.438,31.250,15.137
1532402227.232,-5.371,-6.348,15.625,23.438,22.949
1532402227.236,-1.465,-2.441,19.531,33.691,28.809
1532402227.240,1.953,3.906,25.879,43.457,23.438
1532402227.244,-0.488,7.324,27.832,41.504,28.809
1532402227.248,-2.930,9.766,26.367,48.340,45.898
1532402227.252,0.000,21.973,27.344,49.805,27.344
1532402227.256,-3.906,18.555,29.297,40.039,-0.488
1532402227.259,-10.254,5.859,26.367,45.898,8.301
1532402227.263,-2.441,22.461,28.809,62.500,9.277
1532402227.267,-3.906,22.461,24.902,55.664,41.992
1532402227.271,-8.301,-2.441,18.066,43.945,47.363
1532402227.275,-4.883,-2.441,22.461,41.992,48.828
1532402227.279,-6.836,9.277,22.949,41.504,62.988
1532402227.283,2.441,20.996,20.508,47.363,46.875
1532402227.287,11.230,19.531,24.902,46.387,78.613
1532402227.291,5.859,18.555,25.879,43.945,41.504
1532402227.295,0.977,25.879,22.461,41.504,-6.836
1532402227.299,1.953,20.996,20.508,38.574,34.180
1532402227.302,13.184,20.508,19.531,38.086,49.316
1532402227.306,19.531,26.367,21.484,39.551,40.527
1532402227.310,4.395,25.879,21.973,27.832,18.555
1532402227.314,-6.836,16.602,20.020,17.090,13.672
1532402227.318,2.930,24.902,21.484,30.273,25.879
1532402227.322,3.906,30.273,16.602,29.785,12.207
1532402227.326,-8.301,19.043,18.066,31.738,30.762
1532402227.330,-10.742,19.531,22.461,35.156,36.621
1532402227.334,-5.371,32.227,22.461,33.691,37.598
1532402227.338,7.324,35.645,24.902,31.250,23.438
1532402227.341,11.719,20.996,22.949,25.879,3.418
1532402227.345,-2.930,13.184,19.043,26.855,34.180
1532402227.349,0.977,22.949,20.020,32.227,56.641
1532402227.353,5.859,31.738,22.949,28.809,30.762
1532402227.357,-2.441,26.367,20.996,27.832,11.719
1532402227.361,-12.695,22.949,17.090,31.250,7.324
1532402227.365,-10.254,29.785,17.578,33.203,49.805
1532402227.369,-7.812,27.344,20.508,36.621,60.547
1532402227.373,-11.230,23.926,18.066,32.227,31.250
1532402227.377,-9.766,26.367,17.090,32.715,42.969
1532402227.381,-16.113,23.926,20.020,30.762,73.242
1532402227.384,-11.719,25.879,24.902,23.926,70.801
1532402227.388,-1.465,25.391,21.973,20.996,28.320
1532402227.392,7.812,21.484,20.996,20.996,-3.906
1532402227.396,9.277,18.066,22.949,24.902,34.180
1532402227.400,5.371,21.973,22.461,35.156,86.426
1532402227.404,-0.488,26.367,23.438,35.156,57.617
1532402227.408,-10.254,20.996,21.973,33.691,27.832
1532402227.412,-13.672,21.973,22.949,37.598,39.062
1532402227.416,-20.020,27.344,24.902,37.109,43.457
1532402227.420,-29.785,25.391,23.438,32.715,44.922
1532402227.424,-30.273,34.180,24.414,27.832,20.020
1532402227.427,-32.715,26.855,25.879,22.461,20.020
1532402227.431,-27.832,20.508,27.344,20.508,5.859
1532402227.435,-12.207,35.156,25.391,28.320,-3.418
1532402227.439,-7.812,23.438,17.578,30.273,22.461
1532402227.443,-9.277,17.578,18.555,29.785,24.902
1532402227.447,-4.883,17.578,23.926,45.410,23.438
1532402227.451,6.348,22.949,28.320,51.270,17.090
1532402227.455,-1.465,35.645,22.461,27.832,20.020
1532402227.459,-14.648,31.738,13.672,10.254,29.785
1532402227.463,4.883,30.762,14.648,31.738,15.137
1532402227.466,20.996,37.598,21.973,50.293,20.020
1532402227.470,4.883,34.180,18.555,35.156,47.363
1532402227.474,3.418,33.203,16.113,38.574,36.133
1532402227.478,0.488,34.668,11.230,41.992,18.066
1532402227.482,-3.906,36.133,7.812,37.109,24.902
1532402227.486,5.859,41.016,12.695,49.316,37.598
1532402227.490,0.488,30.273,16.602,50.293,-25.879
1532402227.494,-12.207,19.043,15.625,36.133,-40.527
1532402227.498,-5.859,27.344,17.578,41.504,25.391
1532402227.502,-3.418,31.738,20.020,46.875,39.062
1532402227.506,-16.602,39.551,18.555,43.945,22.949
1532402227.509,-20.996,39.551,14.160,37.598,18.555
1532402227.513,-2.930,29.297,12.695,37.109,31.738
1532402227.517,18.555,29.785,16.602,41.016,26.855
1532402227.521,29.297,33.203,19.043,45.898,-1.953
1532402227.525,30.762,45.410,22.461,48.340,-21.484
1532402227.529,13.184,40.039,20.996,39.551,16.113
1532402227.533,0.000,25.391,19.043,35.645,26.367
1532402227.537,2.441,36.133,21.973,35.645,23.438
1532402227.541,2.930,36.133,22.461,34.180,24.902
1532402227.545,-2.441,24.902,20.996,38.574,20.996
1532402227.549,-15.137,23.438,18.066,40.039,38.574
1532402227.552,-17.578,23.926,20.996,37.598,27.344
1532402227.556,-12.695,36.133,24.902,41.992,33.203
1532402227.560,-19.531,37.598,23.926,38.574,36.133
1532402227.564,-26.367,18.066,20.996,33.203,30.273
1532402227.568,-17.090,17.578,24.414,35.645,30.273
1532402227.572,-11.719,33.203,29.297,35.645,11.719
1532402227.576,-13.184,38.086,28.320,38.086,1.465
1532402227.580,-10.742,26.367,27.832,42.480,25.879
1532402227.584,-0.977,22.461,25.879,41.992,63.965
1532402227.588,5.371,27.344,23.438,43.457,8.789
1532402227.591,5.859,36.621,28.320,45.410,-25.879
1532402227.595,0.488,35.156,31.738,44.922,0.977
1532402227.599,-24.902,20.020,27.832,40.039,39.062
1532402227.603,-31.250,22.461,26.855,40.527,45.898
1532402227.607,-17.090,38.086,31.250,49.316,7.324
1532402227.611,-22.949,37.109,32.715,43.945,-22.461
1532402227.615,-29.785,26.367,35.156,42.480,-18.066
1532402227.619,-27.344,27.344,30.273,40.039,18.066
1532402227.623,-25.391,31.250,23.438,33.691,3.418
1532402227.627,-34.668,31.250,24.414,41.016,20.508
1532402227.631,-47.852,27.344,25.391,36.621,28.320
1532402227.634,-40.527,26.367,28.320,29.785,19.043
1532402227.638,-25.879,30.273,26.855,33.691,24.414
1532402227.642,-18.066,36.133,26.855,41.504,16.602
1532402227.646,-11.719,41.992,29.785,42.480,36.133
1532402227.650,-4.883,38.574,31.738,36.133,52.734
1532402227.654,3.418,30.273,32.227,35.645,26.855
1532402227.658,3.906,19.043,23.926,33.203,7.812
1532402227.662,5.859,20.508,24.902,32.227,31.738
1532402227.666,3.906,25.391,26.855,26.855,41.504
1532402227.670,-5.371,23.926,27.832,21.973,28.809
1532402227.673,-2.441,34.180,30.273,17.090,-15.137
1532402227.677,0.977,39.551,28.809,18.555,-7.812
1532402227.681,-6.836,35.156,30.273,35.645,21.484
1532402227.685,-6.348,26.855,34.668,45.410,43.457
1532402227.689,-5.371,30.273,32.715,39.062,46.875
1532402227.693,-22.461,31.250,18.066,15.137,48.340
1532402227.697,-24.902,20.996,12.695,13.184,47.852
1532402227.701,-16.602,22.949,22.461,28.809,49.316
1532402227.705,-18.555,30.762,28.320,33.203,40.527
1532402227.709,-12.207,29.785,23.438,29.785,2.441
1532402227.713,-20.020,21.484,20.508,25.879,3.418
1532402227.716,-31.738,22.949,23.438,26.367,20.508
1532402227.720,-20.996,33.203,25.879,26.367,29.297
1532402227.724,-16.113,40.527,27.344,30.762,38.574
1532402227.728,-24.414,33.691,26.855,31.250,39.062
1532402227.732,-29.297,18.066,22.461,19.043,18.066
1532402227.736,-20.508,20.508,19.043,17.578,12.695
1532402227.740,-14.648,24.414,19.531,32.227,21.484
1532402227.744,-27.832,20.508,23.926,31.250,33.203
1532402227.748,-26.367,31.250,26.367,29.785,34.668
1532402227.752,-18.066,36.621,27.344,36.621,33.203
1532402227.756,-20.508,29.297,25.391,34.180,26.367
1532402227.759,-20.996,34.668,29.297,34.668,22.949
1532402227.763,-19.531,36.621,28.809,41.016,38.574
1532402227.767,-22.949,27.344,20.996,36.133,32.227
1532402227.771,-28.320,24.902,25.879,26.367,16.602
1532402227.775,-36.621,28.320,24.414,23.438,-11.719
1532402227.779,-39.551,30.273,21.973,30.762,13.184
1532402227.783,-34.180,43.457,29.297,41.016,36.621
1532402227.787,-29.785,41.016,29.297,46.387,35.645
1532402227.791,-22.949,36.621,30.762,48.340,31.250
1532402227.795,-21.484,36.621,31.250,42.480,37.109
1532402227.798,-24.414,24.414,26.855,38.086,61.035
1532402227.802,-23.926,28.320,26.855,35.156,62.500
1532402227.806,-32.227,35.156,25.391,27.832,8.301
1532402227.810,-35.645,32.715,23.438,23.926,-30.273
1532402227.814,-25.391,34.180,24.902,16.602,-1.465
1532402227.818,-24.414,45.410,31.738,15.625,34.180
1532402227.822,-32.715,41.504,28.809,18.555,32.715
1532402227.826,-30.273,24.414,23.926,20.508,28.320
1532402227.830,-28.809,25.879,30.762,25.879,38.086
1532402227.834,-44.434,23.438,30.762,30.273,19.531
1532402227.838,-52.734,17.578,26.855,33.203,-14.648
1532402227.841,-58.594,25.879,28.809,35.645,-16.113
1532402227.845,-65.430,30.762,31.250,39.551,12.695
1532402227.849,-72.754,25.391,29.297,30.762,27.344
1532402227.853,-82.031,29.297,31.250,30.273,8.789
