timestamps,TP9,AF7,AF8,TP10,Right AUX
1532384584.763,29.297,26.855,25.391,19.531,80.566
1532384584.767,29.297,39.062,28.320,15.137,62.500
1532384584.771,34.180,39.062,22.461,12.695,27.832
1532384584.775,31.738,28.809,21.973,16.113,42.480
1532384584.779,26.855,19.043,21.484,20.996,67.383
1532384584.783,30.273,16.113,17.578,21.484,31.738
1532384584.787,26.855,20.996,23.926,22.949,-7.812
1532384584.791,30.762,37.598,25.391,18.555,-8.789
1532384584.795,39.551,34.180,25.391,22.461,31.250
1532384584.798,37.109,19.043,28.320,36.133,67.383
1532384584.802,30.762,34.668,23.926,29.297,23.438
1532384584.806,27.832,48.828,23.438,15.137,-2.930
1532384584.810,32.227,47.852,22.949,15.137,47.852
1532384584.814,42.480,44.434,20.020,24.902,59.570
1532384584.818,46.875,41.504,9.277,26.367,75.195
1532384584.822,43.457,43.945,1.953,23.438,46.387
1532384584.826,50.293,34.668,9.277,32.227,55.176
1532384584.830,53.223,30.762,12.207,36.133,83.496
1532384584.834,47.363,37.598,1.953,30.762,59.082
1532384584.838,50.293,42.480,-0.977,31.250,55.664
1532384584.841,57.129,39.062,12.207,25.391,32.227
1532384584.845,51.758,31.738,25.879,20.996,22.949
1532384584.849,41.992,34.180,25.391,20.020,29.785
1532384584.853,46.387,20.508,23.438,14.648,16.113
1532384584.857,46.875,13.672,18.066,21.973,23.926
1532384584.861,37.598,33.691,7.812,25.879,41.992
1532384584.865,33.691,41.016,16.602,20.508,27.832
1532384584.869,37.109,40.039,20.996,22.461,21.484
1532384584.873,38.574,35.645,17.578,28.320,13.672
1532384584.877,38.086,34.180,21.973,27.344,12.207
1532384584.881,40.527,29.297,28.320,25.391,49.316
1532384584.884,48.340,16.113,28.809,29.785,45.898
1532384584.888,43.945,23.926,21.484,27.344,0.000
1532384584.892,38.086,32.227,7.812,19.531,-5.859
1532384584.896,39.062,25.391,10.742,17.578,33.691
1532384584.900,32.227,23.926,18.555,16.602,39.062
1532384584.904,27.344,24.902,21.973,13.184,18.555
1532384584.908,24.414,19.531,28.320,9.277,-1.465
1532384584.912,23.438,12.695,19.043,10.254,2.930
1532384584.916,26.367,3.418,9.277,12.695,17.090
1532384584.920,25.391,7.812,14.648,7.812,19.043
1532384584.923,25.391,28.320,21.973,7.812,19.043
1532384584.927,27.832,40.039,26.855,14.160,19.043
1532384584.931,33.203,40.039,25.879,11.719,34.180
1532384584.935,30.273,34.668,18.555,7.812,43.945
1532384584.939,27.832,28.809,20.020,11.719,45.410
1532384584.943,39.062,25.391,18.066,16.113,47.852
1532384584.947,50.293,22.461,6.836,25.391,52.246
1532384584.951,39.551,18.555,2.441,25.391,56.152
1532384584.955,23.438,17.090,20.020,24.902,38.086
1532384584.959,29.297,19.531,37.598,31.250,41.016
1532384584.963,37.598,21.484,37.109,40.527,56.641
1532384584.966,44.434,17.090,30.273,41.992,43.457
1532384584.970,44.922,18.066,25.879,37.109,22.949
1532384584.974,44.434,28.320,17.090,38.574,36.621
1532384584.978,43.945,30.273,18.555,37.598,18.555
1532384584.982,40.039,20.020,27.832,41.016,32.227
1532384584.986,37.109,16.113,33.203,38.574,54.199
1532384584.990,34.668,17.090,24.414,33.203,-6.348
1532384584.994,26.367,18.066,4.883,24.414,6.348
1532384584.998,20.508,30.762,16.602,14.160,49.805
1532384585.002,22.461,33.691,43.457,24.902,35.645
1532384585.006,28.320,26.367,46.875,32.227,6.348
1532384585.009,30.273,29.297,39.551,28.320,29.785
1532384585.013,33.203,31.738,35.645,27.344,43.945
1532384585.017,36.621,26.855,32.715,30.762,18.555
1532384585.021,37.109,27.832,23.926,27.832,-0.488
1532384585.025,38.086,27.832,22.461,21.973,3.906
1532384585.029,38.086,25.391,34.180,23.438,12.207
1532384585.033,34.180,24.902,38.574,21.484,-3.906
1532384585.037,31.250,11.719,37.598,21.973,-9.766
1532384585.041,39.551,11.230,34.180,25.391,-12.695
1532384585.045,38.574,20.996,27.832,23.438,16.113
1532384585.048,26.855,27.344,29.297,19.531,29.785
1532384585.052,22.949,42.969,32.715,12.207,13.672
1532384585.056,22.949,43.457,31.738,11.230,-0.977
1532384585.060,26.855,39.551,23.438,16.602,-9.766
1532384585.064,23.438,33.691,18.066,15.625,10.742
1532384585.068,20.996,28.320,35.645,15.137,17.578
1532384585.072,29.785,31.250,43.457,15.137,-2.441
1532384585.076,39.551,26.855,38.086,16.602,-3.906
1532384585.080,26.855,24.902,41.504,15.625,19.043
1532384585.084,19.043,23.926,36.133,16.113,41.016
1532384585.088,25.391,26.855,33.203,12.695,-20.508
1532384585.091,24.414,40.039,39.062,7.812,2.930
1532384585.095,28.809,41.504,31.738,15.625,39.062
1532384585.099,29.785,35.645,26.855,19.531,5.371
1532384585.103,25.391,28.809,30.762,18.066,15.137
1532384585.107,26.367,20.508,35.156,16.113,23.926
1532384585.111,31.250,14.648,38.574,13.672,23.926
1532384585.115,32.715,21.484,42.480,17.090,38.574
1532384585.119,32.715,29.785,40.527,20.020,30.762
1532384585.123,31.250,28.809,38.574,17.578,18.555
1532384585.127,30.762,26.367,37.598,18.555,12.695
1532384585.131,35.156,27.832,34.668,19.043,-0.488
1532384585.134,30.273,32.227,36.621,14.160,26.367
1532384585.138,27.832,40.039,28.320,22.461,22.461
1532384585.142,33.691,44.922,22.949,27.344,10.254
1532384585.146,37.598,25.879,34.180,24.902,35.156
1532384585.150,38.086,23.438,35.156,16.113,41.992
1532384585.154,27.344,39.062,35.156,5.371,33.203
1532384585.158,27.832,34.180,38.574,4.883,13.184
1532384585.162,37.598,34.668,24.902,13.184,29.297
1532384585.166,35.645,19.043,18.555,21.973,49.316
1532384585.170,29.785,9.766,31.250,13.184,18.066
1532384585.174,27.344,33.203,32.227,9.766,2.441
1532384585.177,32.715,40.039,35.156,20.996,18.555
1532384585.181,30.762,45.898,41.504,24.414,21.973
1532384585.185,29.785,51.270,49.316,18.066,11.230
1532384585.189,29.297,46.875,36.133,14.160,12.207
1532384585.193,32.715,40.527,17.578,18.555,24.902
1532384585.197,36.133,30.762,30.273,19.531,43.457
1532384585.201,26.367,31.250,41.016,16.602,29.297
1532384585.205,24.902,33.203,43.457,13.184,29.297
1532384585.209,32.227,30.273,34.180,9.766,20.020
1532384585.213,38.574,30.762,18.555,12.695,20.508
1532384585.216,37.598,32.227,21.973,13.672,42.969
1532384585.220,39.551,35.156,33.691,13.672,16.602
1532384585.224,34.180,41.016,29.297,10.742,19.043
1532384585.228,22.949,40.527,25.391,5.859,47.363
1532384585.232,19.531,26.855,37.109,2.930,76.172
1532384585.236,19.531,30.762,38.574,0.977,45.410
1532384585.240,27.344,50.293,33.691,3.418,23.926
1532384585.244,30.762,56.152,32.715,4.883,62.988
1532384585.248,28.320,53.223,30.273,6.836,51.758
1532384585.252,33.203,43.945,20.996,17.090,44.434
1532384585.256,35.645,31.738,18.555,20.020,44.922
1532384585.259,26.855,37.598,34.668,8.301,25.879
1532384585.263,27.344,52.734,43.457,8.301,39.551
1532384585.267,26.367,50.293,39.551,12.695,36.133
1532384585.271,17.090,40.039,28.320,2.441,-4.395
1532384585.275,22.461,44.922,27.832,4.883,12.207
1532384585.279,27.832,38.086,43.945,17.090,40.039
1532384585.283,27.344,20.508,36.133,19.531,41.504
1532384585.287,29.785,30.273,18.066,19.043,36.621
1532384585.291,24.414,45.898,18.066,6.348,14.648
1532384585.295,19.043,58.594,30.273,5.371,24.902
1532384585.299,22.949,66.406,40.527,9.277,37.598
1532384585.302,24.902,53.223,41.504,4.395,34.668
1532384585.306,25.879,44.922,36.621,4.883,33.203
1532384585.310,33.203,55.664,22.461,8.301,8.789
1532384585.314,29.785,53.223,20.508,6.348,19.043
1532384585.318,30.273,44.922,37.109,8.789,20.020
1532384585.322,41.504,49.805,41.016,17.090,-0.488
1532384585.326,31.738,50.293,29.785,10.742,18.555
1532384585.330,26.855,44.434,28.809,8.789,35.645
1532384585.334,35.156,41.016,35.156,15.137,54.199
1532384585.338,32.227,34.180,34.180,14.160,46.387
1532384585.341,26.855,27.832,32.227,15.625,17.578
1532384585.345,25.879,31.738,34.180,14.648,30.273
1532384585.349,20.996,39.062,32.227,12.695,22.461
1532384585.353,17.578,33.203,21.484,9.277,-5.371
1532384585.357,21.973,20.020,14.160,10.254,5.371
1532384585.361,24.414,25.391,24.414,12.695,24.902
1532384585.365,14.648,34.668,36.133,8.789,32.715
1532384585.369,17.090,41.992,38.086,3.418,23.926
1532384585.373,17.578,41.992,29.785,2.441,13.672
1532384585.377,16.602,45.410,26.855,7.812,-10.254
1532384585.381,28.320,59.082,29.785,10.254,5.371
1532384585.384,30.273,49.316,28.809,12.695,20.020
1532384585.388,25.879,30.762,33.203,9.277,17.578
1532384585.392,20.996,40.527,33.691,1.465,14.160
1532384585.396,21.484,54.199,35.645,3.906,32.715
1532384585.400,17.578,56.152,32.227,1.465,43.945
1532384585.404,13.672,56.152,20.996,0.488,23.926
1532384585.408,17.090,57.617,17.090,-4.883,5.859
1532384585.412,23.438,58.105,30.273,-3.418,-7.812
1532384585.416,26.855,54.199,36.133,8.789,8.789
1532384585.420,20.996,46.875,30.273,7.324,28.320
1532384585.424,20.508,47.363,35.645,5.371,34.180
1532384585.427,23.926,51.758,31.250,8.789,40.527
1532384585.431,24.414,41.016,14.648,10.254,21.484
1532384585.435,30.762,43.457,26.367,14.648,21.484
1532384585.439,35.156,53.711,43.945,22.461,30.273
1532384585.443,31.738,49.316,36.621,25.879,40.527
1532384585.447,19.043,56.152,26.855,20.020,57.617
1532384585.451,11.230,66.895,19.531,6.348,28.320
1532384585.455,18.066,59.570,16.113,3.906,25.879
1532384585.459,23.926,45.898,23.438,19.043,49.316
1532384585.463,29.297,37.598,32.715,22.949,75.195
1532384585.467,24.902,39.062,33.203,13.672,72.266
1532384585.470,23.926,37.109,38.086,16.113,43.945
1532384585.474,26.855,20.020,33.203,19.043,61.035
1532384585.478,23.926,28.320,19.531,11.719,44.922
1532384585.482,26.855,42.969,31.250,12.695,50.293
1532384585.486,29.297,43.457,35.156,16.113,69.824
1532384585.490,33.691,39.062,26.855,15.625,30.762
1532384585.494,42.969,28.809,37.109,19.531,0.977
1532384585.498,49.316,36.133,45.410,20.508,41.504
1532384585.502,42.969,47.852,29.785,3.906,72.266
1532384585.506,34.180,53.223,17.578,-14.160,30.273
1532384585.509,42.969,48.340,26.367,-16.602,26.367
1532384585.513,44.922,39.062,26.367,-6.836,55.664
1532384585.517,33.691,43.457,25.879,10.742,29.785
1532384585.521,25.879,46.875,29.785,15.625,11.719
1532384585.525,27.832,43.457,28.809,16.113,15.625
1532384585.529,27.344,36.133,22.949,25.391,39.551
1532384585.533,24.414,30.762,6.836,28.809,57.617
1532384585.537,28.320,32.715,1.465,29.297,56.152
1532384585.541,21.973,41.504,26.367,30.273,35.156
1532384585.545,16.602,50.293,41.992,23.438,37.598
1532384585.549,21.484,49.316,39.551,16.602,55.664
1532384585.552,25.391,46.875,41.016,18.066,16.113
1532384585.556,32.227,40.527,40.039,24.414,16.602
1532384585.560,32.227,34.668,38.574,25.391,33.203
1532384585.564,33.203,38.574,42.480,25.391,51.758
1532384585.568,35.156,39.551,38.086,23.926,28.809
1532384585.572,27.832,33.691,30.273,18.066,-15.625
1532384585.576,31.250,40.039,24.414,22.461,11.230
1532384585.580,37.598,47.363,22.949,31.250,24.414
1532384585.584,27.832,44.922,34.668,26.855,18.555
1532384585.588,29.785,41.504,39.551,23.926,4.395
1532384585.592,36.621,42.969,32.227,25.391,-24.902
1532384585.595,38.086,37.598,31.250,28.809,3.906
1532384585.599,40.527,35.156,40.039,32.715,33.691
1532384585.603,38.086,51.758,43.457,31.250,38.086
1532384585.607,35.645,52.246,43.945,24.902,31.250
1532384585.611,34.180,48.828,27.344,28.809,2.930
1532384585.615,27.832,52.734,11.230,27.832,6.348
1532384585.619,22.461,50.781,28.809,19.531,0.977
1532384585.623,21.484,46.875,41.992,21.484,-3.418
1532384585.627,29.785,41.504,33.691,20.996,12.695
1532384585.631,30.762,31.250,34.668,18.555,-4.395
1532384585.634,22.461,36.133,40.039,18.555,0.488
1532384585.638,20.020,52.734,30.762,22.949,21.973
1532384585.642,20.020,50.781,18.066,25.391,7.324
1532384585.646,24.414,48.340,15.625,24.414,18.066
1532384585.650,22.461,46.875,20.508,23.926,7.324
1532384585.654,23.438,48.340,26.367,21.484,-12.695
1532384585.658,29.785,63.477,24.902,18.555,7.324
1532384585.662,27.344,66.895,23.926,11.230,20.508
1532384585.666,22.461,52.246,22.949,8.789,35.645
1532384585.670,23.438,46.387,9.766,9.766,26.367
1532384585.674,23.438,52.734,7.812,14.648,-14.160
1532384585.677,30.273,53.711,20.508,19.531,10.254
1532384585.681,28.320,47.363,22.949,16.602,39.551
1532384585.685,27.832,53.711,20.508,18.066,30.273
1532384585.689,31.738,64.941,20.508,12.695,-17.578
1532384585.693,20.508,63.965,20.508,8.789,-34.180
1532384585.697,20.996,61.035,21.484,14.648,12.207
1532384585.701,24.902,61.523,8.301,14.160,26.855
1532384585.705,26.367,58.105,6.836,10.254,4.395
1532384585.709,21.484,56.152,27.344,4.883,-1.465
1532384585.713,15.137,55.664,27.832,6.348,4.883
1532384585.717,16.602,39.062,20.508,4.395,20.020
1532384585.720,29.297,27.832,24.902,9.277,-6.348
1532384585.724,33.203,43.457,22.461,20.020,-20.508
1532384585.728,21.973,59.082,19.531,19.531,4.395
1532384585.732,22.461,65.430,16.602,10.254,23.438
1532384585.736,28.809,70.801,12.207,3.418,5.371
1532384585.740,28.809,68.848,20.020,5.371,3.906
1532384585.744,41.992,65.918,13.672,17.578,25.879
1532384585.748,47.852,62.988,11.719,30.762,30.273
1532384585.752,41.016,55.176,20.020,21.973,4.395
1532384585.756,39.062,57.617,11.719,13.184,-6.836
1532384585.760,35.156,63.965,11.230,10.254,16.113
1532384585.763,36.133,66.406,22.461,10.742,45.898
1532384585.767,39.551,64.941,24.414,17.578,34.668
1532384585.771,36.133,62.988,14.648,17.578,-7.812
1532384585.775,34.668,54.688,11.230,14.160,-0.488
1532384585.779,31.738,47.852,11.719,15.625,25.879
1532384585.783,27.344,41.992,12.207,24.902,34.180
1532384585.787,27.832,39.062,23.438,21.484,3.906
1532384585.791,33.691,49.805,27.344,21.484,-9.277
1532384585.795,29.297,54.199,21.484,22.461,11.719
1532384585.799,26.855,54.199,23.438,20.508,44.922
1532384585.802,32.227,51.758,26.367,28.320,39.551
1532384585.806,24.902,53.711,17.090,21.484,10.254
1532384585.810,26.367,55.664,16.113,19.043,41.016
1532384585.814,29.297,49.805,24.902,24.902,56.152
1532384585.818,30.273,53.223,35.156,25.879,33.203
1532384585.822,27.832,50.781,36.621,28.320,34.668
1532384585.826,31.738,41.992,23.926,27.832,32.227
1532384585.830,29.297,45.898,22.949,14.160,26.855
1532384585.834,22.461,50.293,20.508,8.789,41.016
1532384585.838,20.508,44.922,18.555,13.672,32.227
1532384585.842,14.648,47.363,27.344,9.277,26.855
1532384585.845,20.996,39.551,28.320,15.137,41.504
1532384585.849,21.973,34.668,22.949,15.625,41.016
1532384585.853,14.648,45.898,19.531,4.395,56.641
1532384585.857,16.602,39.551,20.996,0.000,36.133
1532384585.861,19.531,30.762,24.414,6.348,-0.488
1532384585.865,20.020,29.297,28.320,14.160,47.852
1532384585.869,31.738,23.438,21.484,19.043,60.059
1532384585.873,29.785,25.879,17.090,18.555,15.137
1532384585.877,22.461,37.109,24.414,17.090,28.320
1532384585.881,30.273,35.645,29.297,21.484,57.617
1532384585.885,29.297,28.809,25.879,24.902,65.430
1532384585.888,20.508,19.531,24.902,20.508,37.598
1532384585.892,24.414,22.461,29.297,17.578,42.480
1532384585.896,25.879,32.227,28.809,16.602,66.895
1532384585.900,18.066,32.715,22.461,8.301,55.664
1532384585.904,19.531,24.414,12.695,8.301,28.809
1532384585.908,31.250,13.184,16.113,15.625,10.254
1532384585.912,36.133,13.184,27.832,15.137,-7.324
1532384585.916,28.809,27.344,31.250,16.602,6.348
1532384585.920,25.391,42.480,23.926,18.066,23.438
1532384585.924,21.973,41.016,25.391,12.695,25.879
1532384585.927,24.902,24.902,25.391,6.348,47.852
1532384585.931,28.809,12.695,17.090,12.695,38.574
1532384585.935,26.855,26.855,15.625,11.230,21.484
1532384585.939,26.367,37.109,16.602,5.371,20.508
1532384585.943,30.762,31.738,15.137,14.160,35.645
1532384585.947,37.598,26.367,12.695,12.695,43.457
1532384585.951,29.297,22.949,15.625,10.742,51.758
1532384585.955,30.762,18.555,26.855,15.137,20.996
1532384585.959,34.180,18.066,28.809,16.602,-10.742
1532384585.963,24.414,31.738,9.277,16.602,13.184
1532384585.967,31.250,32.227,2.441,16.602,31.738
1532384585.970,42.480,18.555,13.184,21.973,-35.156
1532384585.974,38.574,27.344,9.766,20.508,-41.016
1532384585.978,29.297,36.621,4.395,13.184,27.832
1532384585.982,25.879,27.832,8.789,10.254,29.785
1532384585.986,27.832,22.949,13.184,13.184,27.832
1532384585.990,30.762,16.602,8.789,15.625,24.902
1532384585.994,34.180,11.230,4.395,10.742,42.480
1532384585.998,34.180,22.949,-2.441,11.719,54.688
1532384586.002,25.391,31.250,-6.348,12.695,26.367
1532384586.006,23.438,38.574,-6.348,14.648,-9.277
1532384586.010,24.414,40.527,-13.184,16.602,-38.574
1532384586.013,25.879,33.203,-10.254,15.137,-6.836
1532384586.017,26.855,28.809,-8.789,15.625,18.066
1532384586.021,27.344,32.715,-16.113,18.555,7.324
1532384586.025,28.809,36.621,-8.301,18.066,8.301
1532384586.029,27.344,37.109,-0.977,19.043,-0.977
1532384586.033,23.438,34.668,-7.324,14.648,0.488
1532384586.037,28.809,24.414,-9.766,14.648,1.953
1532384586.041,28.809,21.973,-10.742,21.973,10.254
1532384586.045,29.297,25.879,-12.695,17.578,20.020
1532384586.049,26.855,21.973,-7.324,15.625,12.695
1532384586.053,29.297,23.438,-10.742,20.020,1.465
1532384586.056,32.227,28.320,-20.508,20.996,10.742
1532384586.060,31.250,31.250,-17.090,19.043,20.508
1532384586.064,26.367,38.574,-11.230,15.137,26.855
1532384586.068,25.391,41.016,-21.484,20.508,-14.648
1532384586.072,38.086,38.574,-17.090,33.203,-51.758
1532384586.076,32.227,32.715,-5.371,22.461,-7.324
1532384586.080,22.949,33.691,-14.648,11.230,61.035
1532384586.084,27.344,37.109,-24.902,10.254,41.504
1532384586.088,30.762,35.156,-31.250,15.137,-15.137
1532384586.092,31.738,46.875,-33.691,17.090,-4.883
1532384586.095,31.738,52.246,-30.762,16.113,15.137
1532384586.099,34.180,47.363,-31.250,18.066,25.391
1532384586.103,36.621,54.688,-37.109,14.160,26.855
1532384586.107,37.109,50.293,-40.039,14.160,32.227
1532384586.111,26.855,32.715,-46.387,10.742,22.461
1532384586.115,21.484,31.250,-46.387,11.230,20.020
1532384586.119,23.438,27.344,-45.898,18.555,21.484
1532384586.123,26.855,15.625,-45.898,19.043,-5.371
1532384586.127,34.668,14.648,-32.715,18.555,-4.883
1532384586.131,40.039,25.879,-22.461,15.137,35.156
1532384586.135,41.016,43.457,-21.484,21.484,19.531
1532384586.138,37.109,42.969,-31.250,24.902,0.488
1532384586.142,35.156,34.668,-40.527,15.137,8.301
1532384586.146,39.551,32.715,-30.762,14.648,25.391
1532384586.150,38.574,36.621,-26.855,18.066,-2.441
1532384586.154,36.133,38.086,-36.133,15.137,-13.672
1532384586.158,38.574,33.691,-40.039,18.555,24.902
1532384586.162,42.969,33.691,-35.645,20.020,38.574
1532384586.166,40.039,37.598,-31.738,17.578,44.434
1532384586.170,39.062,43.945,-27.832,19.043,17.090
1532384586.174,35.645,43.945,-24.902,17.090,4.395
1532384586.178,32.715,41.016,-36.133,16.113,0.977
1532384586.181,32.227,27.832,-33.691,20.508,7.324
1532384586.185,31.250,21.973,-29.297,14.648,15.625
1532384586.189,35.156,37.109,-33.203,16.602,-1.465
1532384586.193,31.738,43.457,-17.578,19.043,4.395
1532384586.197,28.809,46.875,-14.648,11.230,13.184
1532384586.201,26.367,49.805,-24.902,9.766,6.836
1532384586.205,21.484,33.691,-22.461,18.555,-0.488
1532384586.209,21.973,27.832,-20.508,23.926,10.254
1532384586.213,28.320,47.363,-25.879,15.137,30.762
1532384586.217,28.809,60.547,-28.809,20.020,20.508
1532384586.220,29.785,57.617,-25.391,27.832,-5.859
1532384586.224,33.203,49.805,-13.672,21.484,6.836
1532384586.228,30.273,47.363,-6.836,22.461,0.000
1532384586.232,31.738,48.340,-10.742,23.926,-19.531
1532384586.236,36.621,43.457,-6.836,27.344,-18.066
1532384586.240,35.645,41.504,-6.348,34.180,-23.926
1532384586.244,32.227,47.852,-17.090,26.855,2.930
1532384586.248,30.762,50.293,-18.066,24.414,12.695
1532384586.252,31.738,48.340,-18.066,21.484,-13.184
1532384586.256,25.879,52.246,-27.832,12.207,-32.715
1532384586.260,20.996,44.922,-19.043,15.625,-19.043
1532384586.263,23.438,27.344,-13.672,16.602,21.484
1532384586.267,26.855,43.945,-18.555,18.555,-5.859
1532384586.271,27.344,63.477,-9.766,18.555,-33.691
1532384586.275,23.926,60.059,-12.695,13.672,-7.812
1532384586.279,29.297,51.758,-10.254,21.973,15.137
1532384586.283,33.203,46.875,-7.812,21.973,19.531
1532384586.287,36.133,55.176,-8.301,17.090,-32.715
1532384586.291,35.645,61.035,-9.766,21.484,-61.035
1532384586.295,25.879,55.176,-21.484,21.484,-28.809
1532384586.299,19.043,53.223,-21.484,13.672,-10.742
1532384586.303,18.555,48.340,-9.277,9.277,-1.953
1532384586.306,25.391,48.340,-6.348,14.648,-5.859
1532384586.310,26.855,57.617,-11.230,16.602,-16.602
1532384586.314,30.762,56.152,-15.625,16.113,19.043
1532384586.318,31.250,44.922,-17.578,9.766,26.855
1532384586.322,30.762,42.480,-15.137,12.695,-2.930
1532384586.326,43.945,45.898,-4.883,18.066,20.996
1532384586.330,46.387,50.293,-0.977,8.301,8.301
1532384586.334,45.898,56.152,-3.418,4.883,5.859
1532384586.338,38.574,59.570,-8.301,5.371,30.762
1532384586.342,26.855,51.270,-13.672,11.719,20.020
1532384586.345,26.855,47.363,-13.672,23.926,29.785
1532384586.349,21.484,48.340,-11.230,22.461,29.297
1532384586.353,17.090,49.805,-12.695,17.090,1.465
1532384586.357,20.020,54.199,-18.555,22.461,22.461
1532384586.361,21.484,54.199,-18.066,22.461,47.852
1532384586.365,15.137,51.270,-18.555,22.461,40.039
1532384586.369,11.230,47.852,-13.184,25.391,55.664
1532384586.373,27.344,46.875,3.906,35.156,43.945
1532384586.377,34.668,39.062,1.465,36.133,46.387
1532384586.381,20.996,41.504,-10.254,8.789,68.359
1532384586.385,18.555,60.547,-13.184,2.441,56.152
1532384586.388,20.996,64.453,-22.949,8.789,29.297
1532384586.392,22.949,53.711,-22.949,0.000,39.551
1532384586.396,28.320,52.734,-19.531,7.324,118.164
1532384586.400,29.785,52.734,-27.344,8.789,137.207
1532384586.404,30.273,41.016,-31.738,1.953,83.496
1532384586.408,25.391,32.227,-24.414,4.395,82.031
1532384586.412,23.438,47.852,-16.602,11.719,110.352
1532384586.416,28.809,68.848,-16.113,14.648,122.070
1532384586.420,25.879,64.453,-15.137,16.113,111.328
1532384586.424,25.879,61.523,-13.672,21.484,95.215
1532384586.428,28.320,55.176,-19.531,26.855,108.887
1532384586.431,28.809,41.992,-16.602,20.020,125.000
1532384586.435,27.344,47.852,-9.277,13.184,155.273
1532384586.439,28.320,55.176,-9.766,11.719,154.297
1532384586.443,31.250,44.922,-9.277,15.137,153.809
1532384586.447,33.691,40.039,-9.766,18.555,157.715
1532384586.451,35.156,40.039,-9.277,26.367,139.648
1532384586.455,35.645,44.922,-10.742,30.762,139.648
1532384586.459,42.480,40.527,-27.344,25.879,142.090
1532384586.463,50.781,36.133,-28.809,30.762,141.113
1532384586.467,42.969,49.316,-16.602,26.367,139.160
1532384586.471,38.086,64.453,-9.277,21.973,110.352
1532384586.474,41.992,61.523,-12.207,21.484,140.625
1532384586.478,39.062,50.781,-21.484,21.484,193.848
1532384586.482,41.016,46.875,-7.812,27.344,154.297
1532384586.486,46.875,49.805,5.371,30.762,135.742
1532384586.490,57.129,41.992,0.977,37.598,107.910
1532384586.494,56.152,20.020,-5.859,45.410,115.723
1532384586.498,33.203,33.203,-8.789,36.133,146.973
1532384586.502,26.367,56.152,-5.859,26.367,137.207
1532384586.506,38.086,52.246,-0.488,30.273,142.578
1532384586.510,42.969,34.180,1.465,26.367,131.836
1532384586.513,36.133,37.109,0.488,27.344,139.160
1532384586.517,42.480,51.758,-2.930,38.086,120.605
1532384586.521,51.270,46.875,-12.695,32.227,105.469
1532384586.525,51.270,38.574,-12.695,29.785,117.188
1532384586.529,54.688,42.480,-6.348,35.645,103.516
1532384586.533,57.617,51.758,-14.648,36.133,115.723
1532384586.537,49.805,51.758,-21.973,26.855,108.398
1532384586.541,49.316,44.922,-13.672,18.555,99.121
1532384586.545,49.316,39.062,-7.324,23.926,111.328
1532384586.549,47.363,46.387,-7.324,25.391,78.125
1532384586.553,51.270,49.805,-11.230,22.949,77.637
1532384586.556,52.734,54.199,-12.207,26.367,73.730
1532384586.560,54.688,60.059,-16.113,26.367,66.406
1532384586.564,54.688,53.223,-19.043,28.809,85.938
1532384586.568,54.199,52.734,-18.555,24.414,71.777
1532384586.572,48.828,50.781,-16.113,11.719,41.504
1532384586.576,40.527,46.875,-20.996,20.996,66.406
1532384586.580,38.574,54.199,-23.926,30.273,117.188
1532384586.584,41.992,51.270,-26.367,34.180,104.492
1532384586.588,38.086,43.945,-32.227,37.598,72.754
1532384586.592,30.762,38.574,-20.508,32.227,75.195
1532384586.596,26.367,38.086,-21.973,27.832,97.656
1532384586.599,29.297,48.828,-28.809,24.414,74.707
1532384586.603,29.785,40.039,-18.555,25.391,70.312
1532384586.607,23.438,27.344,-19.043,28.809,74.219
1532384586.611,22.949,48.340,-30.273,21.973,49.316
1532384586.615,27.832,61.035,-31.738,18.066,52.246
1532384586.619,31.738,43.945,-28.320,18.555,69.336
1532384586.623,28.320,33.691,-32.227,20.020,67.871
1532384586.627,22.461,49.316,-36.621,17.090,71.777
1532384586.631,22.949,57.617,-32.227,10.254,79.590
1532384586.635,28.809,53.711,-33.203,14.160,50.293
1532384586.638,29.785,55.176,-42.969,15.625,54.199
1532384586.642,23.438,47.852,-49.805,15.625,85.938
1532384586.646,26.855,41.992,-47.363,16.113,53.223
1532384586.650,30.273,42.480,-41.504,14.160,66.895
1532384586.654,25.879,34.668,-39.062,15.625,88.379
1532384586.658,25.391,40.527,-40.527,13.672,71.289
1532384586.662,22.949,54.688,-41.992,15.137,81.055
1532384586.666,15.625,55.176,-41.504,20.508,93.262
1532384586.670,17.090,46.387,-46.387,24.414,74.219
1532384586.674,17.578,38.574,-44.434,19.043,50.293
1532384586.678,16.113,47.852,-39.551,18.066,59.082
1532384586.681,20.508,55.664,-36.133,25.879,55.664
1532384586.685,19.043,46.387,-32.227,23.438,42.969
1532384586.689,13.672,43.945,-38.086,21.973,43.457
1532384586.693,13.184,47.852,-45.898,20.508,48.828
1532384586.697,12.207,51.270,-47.363,17.578,56.641
1532384586.701,6.348,50.781,-42.969,14.160,66.406
1532384586.705,9.766,45.898,-34.180,9.277,53.223
1532384586.709,11.230,46.387,-34.180,7.812,52.246
1532384586.713,17.090,46.875,-40.527,11.719,56.152
1532384586.717,26.367,31.738,-43.945,12.695,56.641
1532384586.721,21.973,32.715,-41.992,10.254,40.039
1532384586.724,15.137,42.969,-36.621,4.883,23.438
1532384586.728,16.113,50.293,-32.227,1.953,21.973
1532384586.732,16.602,50.293,-35.156,4.395,28.809
1532384586.736,17.090,39.551,-34.180,7.812,6.348
1532384586.740,20.020,48.828,-34.180,10.742,8.789
1532384586.744,17.578,55.664,-36.621,9.766,46.387
1532384586.748,19.531,46.875,-29.785,15.625,47.852
1532384586.752,19.531,49.316,-31.250,12.695,26.367
1532384586.756,22.949,52.734,-38.574,11.230,27.344
1532384586.760,24.414,45.898,-28.809,16.602,27.344
1532384586.764,19.043,35.156,-18.066,12.695,41.992
1532384586.767,13.672,34.668,-26.855,6.836,16.113
1532384586.771,8.301,39.551,-28.320,4.883,1.465
1532384586.775,9.277,43.457,-24.414,9.766,17.578
1532384586.779,12.695,42.969,-30.762,10.254,27.832
1532384586.783,33.691,32.227,-33.203,22.949,24.902
1532384586.787,46.387,34.180,-20.996,40.039,2.441
1532384586.791,8.301,38.086,-9.766,10.254,34.180
1532384586.795,-21.484,26.367,-11.230,-15.137,46.875
1532384586.799,-23.926,20.020,-4.395,-14.648,32.227
1532384586.803,-17.090,28.320,7.324,-18.555,29.297
1532384586.806,-17.090,34.668,7.324,-22.461,-0.488
1532384586.810,-36.133,27.832,5.859,-33.203,14.160
1532384586.814,-33.203,25.391,16.602,-33.203,31.250
1532384586.818,-32.227,35.645,20.508,-37.598,18.555
1532384586.822,-31.738,38.086,13.184,-36.621,12.207
1532384586.826,-17.090,20.020,13.672,-28.809,38.086
1532384586.830,-9.277,22.949,9.277,-24.414,37.598
1532384586.834,-7.812,44.922,9.277,-13.184,17.090
1532384586.838,-4.883,26.367,16.602,-1.953,34.180
1532384586.842,-1.465,14.160,12.695,-2.441,22.949
1532384586.846,0.000,37.109,3.418,0.488,22.949
1532384586.849,5.371,42.480,-0.488,3.906,23.926
1532384586.853,5.371,37.598,0.000,6.348,17.090
1532384586.857,1.953,34.180,2.930,7.812,22.949
1532384586.861,12.207,34.668,1.953,6.348,34.180
1532384586.865,12.207,32.715,-3.418,12.207,44.922
1532384586.869,10.742,20.020,-7.812,6.836,14.160
1532384586.873,8.789,20.020,-1.465,1.953,5.859
1532384586.877,6.836,32.715,3.418,14.160,26.855
1532384586.881,9.277,38.574,7.812,11.719,14.648
1532384586.885,8.789,29.785,18.066,8.789,15.137
1532384586.889,8.301,23.926,7.812,9.766,5.371
1532384586.892,10.254,29.785,-4.395,10.742,-7.812
1532384586.896,13.672,37.598,-0.977,15.137,5.859
1532384586.900,17.578,40.527,4.883,16.113,17.090
1532384586.904,17.578,42.969,0.000,10.742,30.762
1532384586.908,12.207,45.898,-3.418,4.395,41.504
1532384586.912,12.207,44.922,-1.465,4.883,39.551
1532384586.916,14.648,42.969,-10.254,3.418,52.246
1532384586.920,18.555,43.945,-9.277,3.906,37.598
1532384586.924,20.020,43.457,5.371,10.254,27.344
1532384586.928,25.391,50.781,6.348,12.695,-0.977
1532384586.931,24.902,40.039,1.465,11.719,6.348
1532384586.935,20.996,29.297,-8.301,11.230,40.527
1532384586.939,21.484,45.898,-9.277,10.254,11.719
1532384586.943,15.137,46.387,-1.953,11.719,0.000
1532384586.947,16.602,41.016,0.488,12.695,27.832
1532384586.951,18.555,47.363,4.883,5.859,-2.441
1532384586.955,25.879,47.363,7.812,11.230,-38.086
1532384586.959,31.250,39.551,2.930,20.508,8.789
1532384586.963,21.973,38.574,-8.301,14.648,33.203
1532384586.967,19.043,39.062,-7.324,14.160,53.223
1532384586.971,20.996,44.434,-8.789,14.648,39.062
1532384586.974,20.996,43.945,-14.160,7.812,13.184
1532384586.978,18.555,39.062,0.000,0.977,35.156
1532384586.982,20.508,47.852,5.859,4.883,36.621
1532384586.986,25.391,46.875,0.000,9.277,23.926
1532384586.990,22.949,32.715,-1.465,6.836,11.719
1532384586.994,22.461,34.668,-1.465,13.184,41.504
1532384586.998,27.832,42.480,-2.441,21.973,69.824
1532384587.002,25.879,48.340,-10.254,10.742,52.734
1532384587.006,26.367,53.223,-12.207,3.906,48.828
1532384587.010,30.762,47.852,-13.184,9.766,26.855
1532384587.014,27.832,41.016,-8.789,11.719,42.480
1532384587.017,24.414,40.527,5.371,9.277,32.227
1532384587.021,25.391,39.062,9.766,8.301,-1.953
1532384587.025,22.949,26.855,3.906,15.625,28.809
1532384587.029,21.973,30.762,-5.859,15.625,33.203
1532384587.033,22.461,44.922,-0.488,6.836,18.555
1532384587.037,17.578,44.434,6.836,0.977,-2.930
1532384587.041,17.578,44.922,4.395,8.789,2.441
1532384587.045,22.949,47.363,4.395,19.531,23.438
1532384587.049,22.461,47.852,3.906,11.230,16.113
1532384587.053,22.461,43.945,3.418,6.348,4.395
1532384587.057,25.391,35.645,2.441,13.184,0.977
1532384587.060,23.438,36.621,2.441,15.137,20.020
1532384587.064,29.297,35.645,10.742,19.531,44.434
1532384587.068,27.344,32.715,8.301,21.484,33.691
1532384587.072,24.414,40.039,-2.441,19.531,1.953
1532384587.076,31.738,43.457,-9.277,19.531,15.625
1532384587.080,25.391,35.645,-3.418,18.555,16.113
1532384587.084,14.648,32.227,0.488,17.090,22.949
1532384587.088,12.695,43.457,-0.977,16.113,-4.395
1532384587.092,21.484,45.898,6.348,15.625,-33.203
1532384587.096,24.902,44.922,7.812,10.742,23.926
1532384587.099,23.926,54.199,3.418,8.301,38.574
1532384587.103,22.949,48.340,3.418,8.789,-2.930
1532384587.107,18.555,35.645,1.465,1.465,-3.418
1532384587.111,25.879,27.832,4.395,2.441,29.297
1532384587.115,31.250,31.250,-3.906,13.672,33.203
1532384587.119,28.320,37.598,-9.277,20.020,21.973
1532384587.123,24.414,47.852,7.324,15.625,20.996
1532384587.127,24.414,62.988,10.742,5.859,25.879
1532384587.131,33.203,55.176,0.000,0.000,40.527
1532384587.135,41.504,55.176,-1.953,3.418,36.621
1532384587.139,40.039,54.688,1.953,8.789,16.113
1532384587.142,40.527,44.434,2.441,12.207,24.414
1532384587.146,45.898,42.480,-3.906,11.230,55.664
1532384587.150,46.875,41.016,-3.418,12.695,27.344
1532384587.154,39.062,31.738,11.719,14.648,3.418
1532384587.158,31.738,28.809,11.719,21.484,29.785
1532384587.162,29.785,42.480,5.859,28.809,48.828
1532384587.166,25.391,43.457,9.766,31.738,53.711
1532384587.170,18.555,36.133,7.812,34.180,20.508
1532384587.174,14.648,35.156,6.348,28.809,-20.508
1532384587.178,14.648,30.762,10.742,29.785,-4.395
1532384587.182,13.184,30.762,4.883,27.344,38.574
1532384587.185,12.695,36.621,-0.977,20.996,33.203
1532384587.189,20.020,34.180,-3.418,21.973,17.578
1532384587.193,26.855,30.762,-4.395,19.043,-13.672
1532384587.197,23.926,30.273,4.883,15.137,3.418
1532384587.201,23.438,23.438,-1.953,17.090,27.344
1532384587.205,23.926,30.273,-18.066,20.020,-2.930
1532384587.209,23.438,43.945,-4.883,16.602,19.043
1532384587.213,24.902,41.504,8.301,18.066,39.551
1532384587.217,25.391,40.527,5.859,22.949,20.020
1532384587.221,21.484,27.344,4.395,19.043,0.000
1532384587.224,13.184,26.367,7.812,9.277,0.488
1532384587.228,21.973,36.621,8.301,8.301,-10.742
1532384587.232,23.926,35.645,3.418,8.789,-44.922
1532384587.236,11.719,41.016,-3.418,10.254,-20.996
1532384587.240,12.207,41.016,-4.395,11.230,-5.859
1532384587.244,16.602,34.668,1.953,7.812,-2.441
1532384587.248,15.625,32.715,0.488,4.883,34.180
1532384587.252,20.508,30.273,-3.906,10.254,19.043
1532384587.256,19.043,31.250,-9.277,12.207,-14.160
1532384587.260,10.742,36.133,-4.883,6.348,20.508
1532384587.264,12.695,36.621,-3.418,4.883,46.875
1532384587.267,23.926,35.156,-3.418,11.230,24.414
1532384587.271,23.926,29.297,-0.977,14.648,-15.625
1532384587.275,18.066,34.180,-7.812,9.766,-9.277
1532384587.279,20.508,34.180,-1.953,7.812,26.855
1532384587.283,20.020,31.738,3.906,5.859,32.715
1532384587.287,22.949,41.992,4.883,9.277,6.836
1532384587.291,29.297,41.016,4.883,13.672,-24.414
1532384587.295,30.273,39.551,2.441,20.508,-8.789
1532384587.299,31.250,44.434,5.371,20.020,39.551
1532384587.303,27.832,46.387,5.859,13.672,32.715
1532384587.307,22.461,46.875,6.348,9.277,19.531
1532384587.310,26.855,45.410,10.254,14.648,51.270
1532384587.314,31.738,38.574,11.719,27.344,59.082
1532384587.318,33.691,31.250,4.883,27.832,34.668
1532384587.322,27.832,36.621,-1.953,18.066,-2.441
1532384587.326,27.344,44.434,-4.395,16.602,4.395
1532384587.330,29.297,42.969,0.488,16.113,1.465
1532384587.334,25.879,38.574,3.906,11.230,0.488
1532384587.338,27.832,40.039,3.418,14.648,25.879
1532384587.342,32.227,44.434,8.301,16.602,14.648
1532384587.346,34.180,41.992,11.230,15.625,48.340
1532384587.350,33.203,49.316,10.742,16.113,45.898
1532384587.353,30.762,53.223,7.324,16.602,9.277
1532384587.357,37.109,47.363,6.348,16.602,17.090
1532384587.361,45.410,42.969,-1.953,16.113,20.996
1532384587.365,40.527,41.504,-7.324,21.973,27.344
1532384587.369,37.598,45.898,0.977,16.602,7.812
1532384587.373,32.227,36.621,0.977,5.371,8.301
1532384587.377,29.297,40.039,6.348,10.254,30.762
1532384587.381,32.227,50.293,13.672,13.184,32.715
1532384587.385,33.203,50.293,19.043,16.602,32.715
1532384587.389,32.715,54.199,17.090,15.625,-3.418
1532384587.392,35.645,42.969,2.930,14.160,10.254
1532384587.396,36.621,35.645,-2.441,18.066,47.363
1532384587.400,31.738,38.574,5.371,13.184,35.645
1532384587.404,25.391,41.504,12.207,13.184,17.578
1532384587.408,23.926,44.922,12.695,20.508,3.418
1532384587.412,23.438,43.457,1.465,17.578,19.043
1532384587.416,21.484,39.062,-6.348,17.578,39.062
1532384587.420,19.531,38.574,3.418,16.602,27.344
1532384587.424,24.902,33.203,17.578,14.160,25.391
1532384587.428,25.391,30.273,18.066,17.090,56.641
1532384587.432,24.414,42.480,7.324,12.695,28.809
1532384587.435,25.879,53.223,1.953,10.254,-6.348
1532384587.439,20.996,52.734,12.695,13.672,9.277
1532384587.443,22.461,42.480,16.113,16.602,14.160
1532384587.447,24.414,33.691,7.812,10.742,19.043
1532384587.451,23.926,33.691,3.418,10.254,24.902
1532384587.455,29.297,35.156,0.000,10.254,25.391
1532384587.459,30.273,32.227,-5.371,5.859,31.250
1532384587.463,27.344,26.855,2.441,9.277,57.129
1532384587.467,28.320,32.715,19.043,6.836,46.875
1532384587.471,23.926,36.133,16.113,-1.465,-2.441
1532384587.475,22.461,24.414,4.883,3.906,18.555
1532384587.478,25.879,27.832,-0.977,15.625,31.738
1532384587.482,20.020,33.203,6.836,15.137,29.785
1532384587.486,24.902,21.973,15.625,14.160,24.414
1532384587.490,19.531,18.066,13.184,15.137,-11.719
1532384587.494,8.789,33.691,0.488,16.113,27.344
1532384587.498,16.602,44.434,0.977,15.625,99.121
1532384587.502,20.020,33.203,11.719,19.043,58.594
1532384587.506,20.020,25.879,-1.465,14.160,-6.348
1532384587.510,21.973,29.785,-1.465,8.301,-17.578
1532384587.514,25.879,26.855,15.625,14.648,14.160
1532384587.517,28.809,20.508,5.371,18.066,34.180
1532384587.521,35.156,23.926,-7.324,16.113,7.812
1532384587.525,36.133,20.508,6.348,18.066,12.207
1532384587.529,32.227,18.066,18.555,18.066,40.527
1532384587.533,29.297,28.809,15.137,11.230,56.641
1532384587.537,27.832,35.645,12.207,12.695,25.879
1532384587.541,40.039,31.738,9.766,18.066,8.789
1532384587.545,43.945,32.227,7.324,22.461,38.574
1532384587.549,27.832,35.645,-0.977,20.020,62.500
1532384587.553,28.809,27.832,-3.906,21.484,19.043
1532384587.557,31.738,31.250,0.488,20.508,35.645
1532384587.560,30.762,38.574,8.789,16.602,65.430
1532384587.564,34.668,31.738,18.555,17.578,41.992
1532384587.568,31.250,34.180,9.766,18.555,25.391
1532384587.572,19.043,35.156,-5.371,18.555,1.953
1532384587.576,21.973,30.762,-1.953,22.949,14.648
1532384587.580,25.391,34.668,-0.977,14.648,41.016
1532384587.584,25.391,39.062,0.000,8.301,41.992
1532384587.588,26.855,34.668,11.719,8.789,24.902
1532384587.592,26.367,36.133,17.578,9.277,-20.020
1532384587.596,29.785,38.574,7.324,17.578,-26.367
1532384587.600,29.297,32.227,1.953,17.578,28.809
1532384587.603,29.297,32.715,11.719,18.555,28.320
1532384587.607,30.762,41.504,10.254,18.555,-1.953
1532384587.611,33.203,48.828,3.418,13.672,-1.953
1532384587.615,26.367,30.762,13.672,20.020,12.695
1532384587.619,27.344,10.742,16.602,24.414,3.418
1532384587.623,34.668,35.156,5.371,26.367,-1.953
1532384587.627,32.715,54.199,4.395,28.320,10.742
1532384587.631,28.809,44.922,9.766,26.367,14.160
1532384587.635,22.949,46.387,11.719,22.461,11.719
1532384587.639,22.949,45.410,14.160,22.949,12.207
1532384587.642,21.484,38.086,20.508,21.484,20.020
1532384587.646,20.996,44.922,18.066,20.020,20.020
1532384587.650,32.715,53.711,12.207,28.320,14.648
1532384587.654,39.551,43.457,9.766,34.668,-17.578
1532384587.658,38.086,36.133,15.137,31.250,5.371
1532384587.662,42.480,45.410,18.555,33.203,47.852
1532384587.666,41.992,47.363,-0.488,29.785,58.105
1532384587.670,41.016,43.945,2.930,21.973,46.875
1532384587.674,42.969,48.828,24.414,26.855,13.184
1532384587.678,41.504,41.016,18.555,35.156,8.301
1532384587.682,44.434,20.020,14.160,36.133,7.812
1532384587.685,49.316,30.762,13.184,30.762,14.648
1532384587.689,48.340,49.316,9.766,33.203,13.672
1532384587.693,41.504,49.316,8.789,32.227,18.066
1532384587.697,43.945,45.410,4.883,19.043,49.316
1532384587.701,51.270,46.387,14.648,20.020,61.035
1532384587.705,46.875,49.805,19.531,21.973,49.316
1532384587.709,45.898,45.898,17.578,19.531,36.621
1532384587.713,48.340,34.668,17.578,20.020,2.930
1532384587.717,39.551,36.133,11.230,21.484,27.832
1532384587.721,38.574,54.199,17.090,27.344,34.180
1532384587.725,36.133,56.152,26.367,21.973,6.836
1532384587.728,32.715,47.363,21.973,16.113,29.785
1532384587.732,36.621,43.945,13.672,21.973,48.828
1532384587.736,40.039,43.945,12.695,22.461,21.484
1532384587.740,35.645,41.992,6.836,16.113,2.441
1532384587.744,25.391,45.410,12.695,13.672,18.555
1532384587.748,27.344,53.223,16.113,15.137,16.113
1532384587.752,33.203,54.688,17.090,20.020,-9.277
1532384587.756,27.832,55.664,25.391,18.555,3.906
1532384587.760,27.832,54.688,24.414,10.254,46.875
1532384587.764,27.344,43.457,16.602,15.625,69.824
1532384587.768,25.879,35.156,1.953,21.484,43.945
1532384587.771,28.320,44.922,12.695,18.066,26.367
1532384587.775,26.855,60.059,27.344,20.020,46.875
1532384587.779,25.391,52.246,20.996,14.648,57.129
1532384587.783,22.461,47.363,18.066,7.812,60.059
1532384587.787,27.832,56.641,18.066,11.719,39.551
1532384587.791,26.367,43.457,7.812,6.836,-7.812
1532384587.795,22.949,36.133,7.812,5.859,-5.371
1532384587.799,30.273,45.898,17.090,13.672,29.785
1532384587.803,22.461,54.199,21.484,12.695,0.000
1532384587.807,12.207,56.641,26.855,9.277,-20.996
1532384587.810,19.043,50.781,32.227,10.254,0.000
1532384587.814,20.508,47.852,27.832,10.742,28.809
1532384587.818,20.996,52.246,15.137,8.301,22.461
1532384587.822,24.414,44.922,11.230,7.324,4.395
1532384587.826,28.809,49.805,15.137,12.207,6.836
1532384587.830,29.297,57.617,9.766,8.789,23.438
1532384587.834,28.809,44.434,13.184,10.254,22.949
1532384587.838,31.250,34.180,24.414,14.160,-3.906
1532384587.842,27.344,38.086,25.879,9.277,4.395
1532384587.846,22.949,50.293,23.926,9.277,33.203
1532384587.850,30.273,50.781,13.184,20.508,39.062
1532384587.853,40.039,41.504,15.137,31.738,8.301
1532384587.857,33.691,36.133,28.809,22.949,-9.766
1532384587.861,27.832,41.992,26.367,13.184,14.160
1532384587.865,29.785,55.664,26.367,13.184,39.551
1532384587.869,18.066,55.176,6.836,6.836,29.297
1532384587.873,11.719,44.922,-4.883,8.301,-19.043
1532384587.877,14.160,39.062,11.719,13.672,-18.555
1532384587.881,15.137,44.434,18.555,14.648,32.227
1532384587.885,15.625,36.133,28.809,17.578,36.133
1532384587.889,16.113,27.832,34.180,22.949,-4.395
1532384587.893,19.043,29.297,31.250,21.484,20.996
1532384587.896,23.438,23.926,25.879,23.926,63.477
1532384587.900,20.020,35.645,18.066,27.344,52.246
1532384587.904,16.602,52.246,14.160,25.391,6.836
1532384587.908,25.879,40.527,11.719,29.297,-14.160
1532384587.912,25.391,27.832,12.207,25.391,31.738
1532384587.916,14.648,37.598,8.789,16.602,49.316
1532384587.920,7.324,42.480,-4.883,5.859,9.277
1532384587.924,14.160,36.133,6.348,4.883,-6.348
1532384587.928,19.531,30.273,27.344,12.207,33.691
1532384587.932,20.996,36.621,23.438,6.348,14.160
1532384587.935,23.438,45.410,18.066,3.906,-8.301
1532384587.939,25.391,36.133,22.949,7.324,8.301
1532384587.943,31.738,27.832,22.949,15.137,14.648
1532384587.947,39.062,29.785,21.973,20.996,11.230
1532384587.951,37.598,29.785,21.484,16.113,1.953
1532384587.955,31.250,33.691,15.137,12.207,17.578
1532384587.959,30.273,36.133,11.719,15.137,28.809
1532384587.963,33.691,34.180,10.254,18.555,17.578
1532384587.967,36.621,34.668,16.602,20.020,13.672
1532384587.971,33.203,35.645,12.695,9.277,3.418
1532384587.975,29.785,35.156,11.230,1.465,-23.438
1532384587.978,36.133,34.180,14.160,5.371,8.789
1532384587.982,45.410,36.133,12.695,5.859,58.105
1532384587.986,59.082,41.016,18.066,5.859,39.062
1532384587.990,59.570,35.645,21.973,11.230,10.254
1532384587.994,42.480,29.297,20.996,21.484,20.508
1532384587.998,38.574,20.996,9.766,22.949,25.391
1532384588.002,38.574,19.043,12.695,24.414,-8.789
1532384588.006,34.668,29.297,23.438,30.762,-9.277
1532384588.010,29.297,29.297,20.508,25.391,-8.301
1532384588.014,25.391,24.414,16.113,23.926,-16.113
1532384588.018,21.484,26.367,18.555,31.738,13.184
1532384588.021,27.344,38.574,19.531,31.250,14.648
1532384588.025,34.180,44.922,15.625,26.367,18.066
1532384588.029,38.086,39.062,6.836,31.250,27.344
1532384588.033,39.062,33.691,11.719,31.250,28.809
1532384588.037,31.250,28.320,22.461,19.531,27.344
1532384588.041,30.273,31.250,20.508,18.555,9.277
1532384588.045,34.668,33.691,17.578,20.508,41.016
1532384588.049,31.250,25.879,11.230,17.578,33.691
1532384588.053,33.203,24.902,24.414,15.625,-3.418
1532384588.057,39.062,27.832,36.621,20.996,9.277
1532384588.061,37.109,33.203,22.949,23.438,35.156
1532384588.064,36.133,38.086,18.555,24.414,40.527
1532384588.068,32.227,36.133,20.020,23.926,2.441
1532384588.072,35.645,40.039,19.043,26.367,-13.184
1532384588.076,39.551,47.852,15.625,29.297,21.484
1532384588.080,36.621,42.480,9.277,27.832,25.391
1532384588.084,33.203,31.738,19.043,30.273,24.902
1532384588.088,31.738,31.738,29.785,27.344,21.973
1532384588.092,38.086,37.598,22.949,27.344,30.273
1532384588.096,42.480,36.621,22.949,27.832,51.270
1532384588.100,34.180,33.203,31.250,28.320,27.344
1532384588.103,30.762,32.715,32.227,29.785,27.832
1532384588.107,37.109,33.691,28.320,26.855,14.648
1532384588.111,38.574,30.273,20.508,26.855,8.789
1532384588.115,38.086,31.250,13.672,25.879,24.414
1532384588.119,36.621,37.598,10.742,22.949,18.066
1532384588.123,40.527,39.551,0.977,15.625,28.809
1532384588.127,37.598,34.180,-2.441,15.625,25.879
1532384588.131,28.320,32.227,8.789,13.672,2.930
1532384588.135,30.762,45.410,20.996,15.625,12.695
1532384588.139,29.785,49.316,25.391,15.625,22.949
1532384588.143,23.926,39.062,21.484,7.812,33.691
1532384588.146,30.762,31.738,22.949,16.113,37.109
1532384588.150,37.598,37.598,17.578,24.414,21.484
1532384588.154,33.691,43.457,13.672,26.367,1.953
1532384588.158,31.738,32.715,17.578,26.367,-20.020
1532384588.162,34.668,27.832,14.160,26.855,-2.930
1532384588.166,38.086,28.809,9.277,22.949,22.461
1532384588.170,27.832,25.879,12.207,17.578,11.230
1532384588.174,21.484,28.320,17.578,14.648,24.414
1532384588.178,32.227,27.832,17.578,15.137,25.391
1532384588.182,39.551,26.367,17.090,21.973,17.090
1532384588.186,41.992,31.250,9.766,22.461,14.648
1532384588.189,43.945,31.250,9.766,21.973,-4.883
1532384588.193,39.062,32.715,15.137,16.602,3.906
1532384588.197,30.762,34.180,21.973,10.742,34.180
1532384588.201,30.762,26.367,25.391,18.066,33.203
1532384588.205,29.297,21.484,26.855,16.602,10.742
1532384588.209,27.832,18.555,24.902,6.348,0.977
1532384588.213,20.996,15.625,17.090,3.906,3.906
1532384588.217,29.297,19.043,20.508,12.207,11.230
1532384588.221,39.062,13.184,20.020,20.508,-4.883
1532384588.225,34.668,10.742,14.648,21.973,-4.395
1532384588.228,34.180,15.137,24.902,19.043,15.137
1532384588.232,34.180,21.973,28.809,20.996,-1.465
1532384588.236,32.715,30.762,19.531,20.996,-2.930
1532384588.240,31.250,27.832,17.578,16.113,-15.137
1532384588.244,32.227,15.625,22.949,16.602,4.395
1532384588.248,36.621,26.367,21.484,21.973,24.902
1532384588.252,38.086,35.645,18.066,24.414,6.836
1532384588.256,32.227,33.691,23.926,25.879,-12.695
1532384588.260,32.227,39.062,22.461,29.785,-10.742
1532384588.264,30.273,32.227,16.602,26.855,5.371
1532384588.268,27.832,29.785,10.254,21.973,-0.977
1532384588.271,24.414,29.297,25.879,16.113,-16.113
1532384588.275,24.902,19.043,36.621,9.766,-32.227
1532384588.279,30.273,23.926,25.879,16.113,24.902
1532384588.283,20.020,37.109,26.855,14.648,42.480
1532384588.287,19.043,26.855,28.809,11.230,10.742
1532384588.291,23.438,26.367,19.043,12.695,20.996
1532384588.295,22.461,44.434,6.836,18.555,46.875
1532384588.299,26.855,49.316,10.254,29.785,53.223
1532384588.303,32.715,44.434,21.973,28.320,26.367
1532384588.307,30.762,39.062,25.391,20.996,30.762
1532384588.311,22.949,30.273,26.855,14.648,14.160
1532384588.314,21.484,30.273,25.879,14.160,5.859
1532384588.318,21.973,35.156,22.461,11.719,29.785
1532384588.322,23.438,34.668,24.414,11.230,22.949
1532384588.326,25.391,36.133,25.391,15.625,12.695
1532384588.330,23.926,28.809,23.438,18.555,31.250
1532384588.334,28.809,32.227,15.137,17.090,49.316
1532384588.338,37.598,33.691,5.371,19.043,51.758
1532384588.342,36.621,31.250,8.301,24.414,39.551
1532384588.346,27.344,41.504,19.043,13.184,52.734
1532384588.350,25.879,42.480,22.461,7.812,21.973
1532384588.354,23.926,41.504,18.555,9.766,-8.301
1532384588.357,22.949,41.992,23.438,17.578,9.766
1532384588.361,26.855,40.527,33.691,25.391,24.902
1532384588.365,32.715,32.715,38.086,30.273,51.270
1532384588.369,28.320,27.832,34.180,29.297,36.133
1532384588.373,21.973,38.086,22.461,21.973,13.672
1532384588.377,24.414,42.969,21.484,19.043,33.203
1532384588.381,22.949,37.109,20.020,20.508,52.246
1532384588.385,22.461,35.156,20.996,20.996,53.711
1532384588.389,27.832,26.367,24.414,20.996,11.719
1532384588.393,19.531,24.414,15.625,16.113,-6.348
1532384588.396,18.066,40.039,10.254,12.695,44.434
1532384588.400,26.855,45.898,8.301,19.531,32.227
1532384588.404,27.832,51.758,13.672,19.531,13.672
1532384588.408,23.438,49.805,22.461,10.742,24.414
1532384588.412,17.090,38.574,23.438,7.324,18.555
1532384588.416,21.973,41.016,22.949,10.254,24.414
1532384588.420,28.809,31.738,18.555,13.184,23.438
1532384588.424,27.344,21.973,17.578,18.066,16.602
1532384588.428,28.809,33.691,18.555,19.531,26.855
1532384588.432,26.367,41.992,16.602,11.230,34.180
1532384588.436,28.809,42.969,9.277,14.160,5.859
1532384588.439,33.203,47.363,8.789,22.461,-18.066
1532384588.443,31.250,44.434,17.090,18.555,13.184
1532384588.447,28.809,41.992,22.949,12.207,24.902
1532384588.451,27.832,51.758,24.414,12.207,-5.371
1532384588.455,28.809,39.062,13.184,15.137,9.766
1532384588.459,35.156,25.391,7.324,18.066,11.719
1532384588.463,31.250,44.922,15.625,15.625,18.066
1532384588.467,18.555,53.711,20.508,9.277,36.621
1532384588.471,26.367,42.969,23.926,11.719,-16.113
1532384588.475,28.809,43.457,22.461,11.719,-1.465
1532384588.479,18.555,44.922,9.277,5.371,31.738
1532384588.482,21.484,41.992,2.441,0.977,42.969
1532384588.486,20.996,42.969,12.207,1.953,42.969
1532384588.490,15.625,45.898,8.301,1.465,-14.160
1532384588.494,17.578,33.203,5.371,3.418,10.254
1532384588.498,13.184,22.461,9.766,3.906,36.133
1532384588.502,11.719,35.645,7.324,2.441,48.828
1532384588.506,14.648,42.480,11.719,4.395,51.758
1532384588.510,12.695,39.062,9.277,5.371,24.414
1532384588.514,13.184,48.340,7.812,6.348,45.898
1532384588.518,13.672,48.340,11.230,5.371,47.363
1532384588.521,19.531,41.504,11.719,5.859,12.207
1532384588.525,27.344,42.969,11.719,11.230,33.203
1532384588.529,27.832,41.504,10.742,13.672,51.270
1532384588.533,27.344,47.363,7.812,19.531,41.504
1532384588.537,29.297,58.105,3.906,28.320,36.621
1532384588.541,26.367,43.945,10.254,19.531,25.879
1532384588.545,26.855,38.086,4.395,15.625,54.688
1532384588.549,28.320,57.129,8.789,15.137,55.176
1532384588.553,26.855,63.965,15.137,13.184,18.066
1532384588.557,29.297,54.688,11.230,18.555,26.367
1532384588.561,34.668,44.922,9.766,18.555,37.109
1532384588.564,37.109,52.246,15.137,21.484,55.176
1532384588.568,33.691,58.105,21.484,18.066,45.898
1532384588.572,26.367,53.711,16.602,7.812,38.086
1532384588.576,27.832,51.758,11.230,4.883,36.621
1532384588.580,31.738,51.270,8.789,11.719,23.926
1532384588.584,27.344,41.504,6.348,16.113,8.301
1532384588.588,28.320,42.969,0.977,13.672,-5.859
1532384588.592,32.715,55.664,0.977,16.113,8.789
1532384588.596,29.785,51.758,7.812,20.996,22.949
1532384588.600,29.297,50.293,-7.324,22.461,16.113
1532384588.604,34.180,53.711,-13.184,21.484,33.203
1532384588.607,45.898,47.363,13.184,30.273,41.504
1532384588.611,45.410,52.734,20.996,37.598,4.883
1532384588.615,36.133,64.941,14.648,32.227,41.504
1532384588.619,36.621,60.547,5.859,24.902,59.082
1532384588.623,34.668,49.316,8.301,23.438,25.879
1532384588.627,30.762,51.758,15.625,22.461,11.230
1532384588.631,30.762,54.199,13.672,20.020,-5.371
1532384588.635,37.598,62.012,19.043,26.855,4.883
1532384588.639,54.688,71.777,24.902,41.992,33.203
1532384588.643,68.359,69.336,31.250,58.594,71.289
1532384588.647,73.242,78.125,41.016,66.895,54.688
1532384588.650,78.613,92.285,45.898,59.082,29.297
1532384588.654,83.984,98.633,41.992,61.035,36.133
1532384588.658,85.449,103.027,43.457,72.754,18.066
1532384588.662,85.449,98.633,57.617,75.195,25.391
1532384588.666,83.496,97.656,54.199,76.660,44.922
1532384588.670,76.172,104.492,55.176,78.125,2.930
1532384588.674,76.172,107.422,63.477,75.195,-8.789
1532384588.678,82.031,103.027,57.617,69.336,32.227
1532384588.682,82.031,102.051,57.129,65.918,45.410
1532384588.686,77.637,103.027,65.918,62.012,38.574
1532384588.689,73.242,91.309,66.895,58.105,-10.742
1532384588.693,72.754,77.148,57.129,59.082,-43.457
1532384588.697,70.801,77.148,52.246,64.453,14.160
1532384588.701,69.336,98.633,60.059,67.871,26.367
1532384588.705,73.730,110.840,46.875,63.965,-10.742
1532384588.709,72.266,100.586,29.297,60.547,-6.836
1532384588.713,70.801,88.379,42.969,62.012,17.090
1532384588.717,70.801,85.449,58.105,59.082,51.270
1532384588.721,70.312,89.844,59.570,54.199,45.410
1532384588.725,68.359,89.844,56.641,57.129,6.836
1532384588.729,69.336,74.219,45.898,58.105,23.926
1532384588.732,65.430,66.895,42.480,47.852,68.359
1532384588.736,62.012,84.961,38.574,46.387,36.133
1532384588.740,65.918,94.238,42.480,48.828,33.691
1532384588.744,66.406,69.824,56.641,49.805,37.109
1532384588.748,64.453,64.453,52.246,52.246,-4.395
1532384588.752,58.105,89.355,38.574,44.434,9.766
1532384588.756,49.316,86.914,29.297,30.273,9.766
1532384588.760,40.039,67.383,24.414,25.391,0.000
1532384588.764,34.668,53.711,22.461,24.902,39.551
1532384588.768,32.715,46.875,25.879,26.855,44.434
1532384588.772,33.691,42.480,29.785,25.879,4.395
1532384588.775,38.086,44.922,27.344,23.926,-12.207
1532384588.779,34.180,47.363,18.555,25.391,38.086
1532384588.783,31.250,48.340,6.836,21.973,65.430
1532384588.787,36.621,42.480,7.324,19.531,14.648
1532384588.791,41.992,41.016,14.160,25.391,1.953
1532384588.795,38.086,35.156,10.742,22.949,24.902
1532384588.799,35.645,23.438,-1.953,17.090,45.410
1532384588.803,37.598,25.879,0.000,15.137,39.551
1532384588.807,35.156,38.086,15.137,6.348,-21.484
1532384588.811,37.598,52.246,19.043,-1.953,-15.625
1532384588.814,43.945,54.199,14.160,-3.418,24.414
1532384588.818,47.852,46.387,13.672,-2.441,20.996
1532384588.822,46.875,41.016,12.695,1.953,42.969
1532384588.826,50.293,39.551,1.953,10.742,61.523
1532384588.830,47.363,38.086,0.000,19.043,31.250
1532384588.834,37.109,38.086,5.371,21.973,26.855
1532384588.838,25.391,39.551,6.836,15.625,15.137
1532384588.842,26.367,29.297,15.625,21.973,-6.836
1532384588.846,24.414,23.926,15.625,25.391,9.766
1532384588.850,20.020,34.180,8.789,17.090,26.367
1532384588.854,21.973,28.809,6.836,17.090,28.809
1532384588.857,24.902,10.254,3.418,18.066,21.484
1532384588.861,29.785,18.066,-1.953,17.090,19.043
1532384588.865,31.250,35.645,0.488,20.020,19.531
1532384588.869,20.996,24.414,12.695,14.160,9.766
1532384588.873,15.137,28.809,8.789,4.883,-32.227
1532384588.877,21.973,41.504,7.324,18.066,-6.348
1532384588.881,20.508,41.992,11.719,15.625,42.480
1532384588.885,15.625,34.668,13.184,6.348,25.879
1532384588.889,18.555,21.973,16.113,5.371,-2.441
1532384588.893,29.297,23.438,17.090,11.230,32.715
1532384588.897,28.809,31.250,12.207,13.672,49.805
1532384588.900,20.996,31.738,5.371,11.719,34.668
1532384588.904,17.090,28.809,8.301,9.277,35.645
1532384588.908,20.996,26.855,8.789,12.207,16.602
1532384588.912,25.879,22.949,5.859,12.695,18.555
1532384588.916,20.996,20.020,6.348,12.207,38.574
1532384588.920,13.672,22.949,15.625,9.277,45.410
1532384588.924,13.672,37.598,19.043,4.395,34.668
1532384588.928,19.043,39.062,13.672,9.277,30.273
1532384588.932,18.555,21.484,13.672,11.719,36.133
1532384588.936,22.949,19.043,9.277,14.160,34.180
1532384588.939,23.438,33.691,0.977,14.648,2.441
1532384588.943,11.719,37.598,7.812,6.836,16.113
1532384588.947,16.602,33.203,17.578,7.324,51.758
1532384588.951,19.531,34.180,7.324,12.695,43.945
1532384588.955,16.113,22.949,10.254,13.184,32.715
1532384588.959,24.414,12.207,12.207,15.625,16.602
1532384588.963,23.926,21.973,6.836,9.766,23.926
1532384588.967,17.090,32.227,11.719,5.859,28.320
1532384588.971,14.160,39.551,11.719,0.488,-13.184
1532384588.975,21.484,33.203,12.695,9.277,-23.926
1532384588.979,23.926,18.555,15.625,18.555,25.391
1532384588.982,20.508,22.461,16.113,13.672,45.898
1532384588.986,17.578,29.785,8.789,9.766,3.906
1532384588.990,5.371,33.203,9.277,4.883,-20.020
1532384588.994,9.766,37.598,18.066,1.465,23.438
1532384588.998,19.531,32.227,16.602,7.812,52.246
1532384589.002,19.043,26.367,10.742,14.160,43.457
1532384589.006,22.461,29.785,18.066,15.137,15.625
1532384589.010,26.367,30.273,25.879,12.207,1.953
1532384589.014,26.367,35.645,23.438,3.906,15.625
1532384589.018,31.250,38.086,21.484,7.812,32.227
1532384589.022,29.297,33.691,20.020,12.695,25.391
1532384589.025,19.531,18.066,24.902,7.324,10.742
1532384589.029,20.020,14.648,37.109,6.348,8.789
1532384589.033,23.926,32.715,30.762,6.836,34.180
1532384589.037,20.020,33.691,20.508,4.395,44.434
1532384589.041,16.113,36.621,27.832,-1.465,29.785
1532384589.045,18.555,41.016,15.137,-5.371,23.926
1532384589.049,22.949,33.691,18.555,1.953,18.066
1532384589.053,21.973,23.438,46.875,-0.977,-18.066
1532384589.057,18.555,22.461,44.434,-2.441,-19.043
1532384589.061,21.973,27.832,34.668,10.742,7.324
1532384589.065,24.414,33.691,39.062,10.254,42.480
1532384589.068,19.043,33.203,32.227,7.324,39.551
1532384589.072,13.184,29.297,22.949,5.371,20.020
1532384589.076,8.789,23.926,29.297,-1.465,32.715
1532384589.080,4.395,18.066,41.992,-2.441,50.293
1532384589.084,9.277,25.879,32.715,-3.418,69.824
1532384589.088,11.719,40.039,22.949,0.000,48.828
1532384589.092,10.742,39.062,38.086,6.836,28.320
1532384589.096,19.043,24.902,55.176,11.719,24.902
1532384589.100,16.602,24.902,51.758,7.812,21.973
1532384589.104,14.648,39.551,43.945,11.719,-2.930
1532384589.107,21.484,39.551,45.410,15.137,-16.602
1532384589.111,20.996,28.809,39.551,5.859,15.625
1532384589.115,17.578,28.809,38.086,5.371,37.598
1532384589.119,19.531,36.621,38.086,17.090,37.598
1532384589.123,20.996,32.715,29.297,22.461,19.043
1532384589.127,18.066,26.367,39.062,21.484,17.578
1532384589.131,13.672,24.902,54.199,18.555,27.832
1532384589.135,18.066,32.715,35.645,19.531,39.062
1532384589.139,22.461,37.598,30.762,17.578,17.578
1532384589.143,15.137,35.645,52.734,12.207,-15.137
1532384589.147,18.555,40.039,56.641,17.578,30.273
1532384589.150,25.391,40.039,52.246,17.578,19.531
1532384589.154,25.879,33.203,42.969,10.742,-15.137
1532384589.158,21.484,36.621,35.645,12.207,3.906
1532384589.162,18.555,44.922,51.270,15.625,15.137
1532384589.166,22.461,38.086,59.570,17.090,26.855
1532384589.170,25.391,39.062,55.176,20.020,-5.859
1532384589.174,27.832,39.551,49.805,25.391,-14.648
1532384589.178,20.996,22.949,51.758,20.020,21.484
1532384589.182,21.484,21.973,57.617,15.625,46.387
1532384589.186,27.832,38.574,54.199,20.020,20.020
1532384589.190,23.926,41.992,50.293,12.207,-11.230
1532384589.193,28.320,31.738,46.875,12.695,-12.207
1532384589.197,28.320,34.668,50.781,11.719,15.625
1532384589.201,23.438,50.293,59.082,5.859,53.711
1532384589.205,24.414,44.434,56.152,11.230,31.738
1532384589.209,20.020,36.621,46.387,9.277,11.719
1532384589.213,27.344,40.527,41.992,10.742,35.156
1532384589.217,35.645,36.133,42.969,20.020,39.551
1532384589.221,38.574,30.273,50.781,25.391,11.230
1532384589.225,41.504,38.574,53.711,26.367,19.043
1532384589.229,40.527,36.621,45.898,26.855,8.789
1532384589.232,33.691,25.879,51.270,20.020,17.090
1532384589.236,29.297,26.855,62.988,15.625,8.789
1532384589.240,29.785,21.484,57.129,15.625,-18.555
1532384589.244,26.367,22.461,44.434,23.438,27.832
1532384589.248,20.996,32.715,39.551,23.438,51.758
1532384589.252,19.043,28.320,48.828,7.324,17.090
1532384589.256,20.996,25.879,60.547,12.695,5.859
1532384589.260,26.855,26.855,62.500,21.973,20.020
1532384589.264,28.809,30.273,61.523,21.484,20.020
1532384589.268,31.738,37.109,59.570,21.484,11.719
1532384589.272,30.273,30.762,54.688,18.555,8.301
1532384589.275,25.391,24.902,43.945,20.508,0.488
1532384589.279,27.344,28.320,42.969,20.508,21.973
1532384589.283,30.762,30.762,56.152,25.391,35.645
1532384589.287,26.367,31.738,61.035,24.902,26.855
1532384589.291,21.484,26.855,51.270,12.207,3.906
1532384589.295,22.949,30.762,49.805,7.324,8.301
1532384589.299,21.484,31.738,54.199,9.766,51.758
1532384589.303,18.555,26.367,52.246,10.742,49.316
1532384589.307,19.043,22.461,42.969,10.742,22.461
1532384589.311,19.531,20.996,36.621,8.301,16.113
1532384589.315,22.949,28.809,48.828,11.719,47.852
1532384589.318,28.320,35.156,51.270,13.184,56.641
1532384589.322,28.809,37.109,53.711,10.742,34.180
1532384589.326,25.391,35.645,56.641,10.254,37.109
1532384589.330,28.320,35.645,33.691,15.137,36.621
1532384589.334,32.227,33.691,38.086,14.648,30.273
1532384589.338,31.250,37.109,59.082,13.184,22.949
1532384589.342,31.738,42.480,56.641,13.184,14.648
1532384589.346,26.855,36.621,56.152,10.254,30.762
1532384589.350,15.137,31.250,56.152,6.836,4.395
1532384589.354,18.555,34.668,46.387,4.395,-6.836
1532384589.358,16.113,30.273,44.922,2.441,20.508
1532384589.361,9.277,25.391,51.270,1.953,39.551
1532384589.365,15.625,35.156,52.246,3.906,48.340
1532384589.369,20.996,41.016,48.340,5.859,29.785
1532384589.373,24.902,37.109,44.922,11.230,10.254
1532384589.377,28.809,36.621,53.223,14.160,20.020
1532384589.381,29.297,39.062,60.547,16.113,39.551
1532384589.385,29.297,34.668,64.453,13.184,49.805
1532384589.389,28.809,39.551,55.176,10.742,40.039
1532384589.393,25.879,49.316,40.039,12.207,21.973
1532384589.397,30.273,50.293,38.086,14.160,33.203
1532384589.400,30.273,44.922,44.434,9.277,58.594
1532384589.404,20.020,30.273,49.316,10.742,66.895
1532384589.408,23.438,26.367,52.246,16.113,36.133
1532384589.412,30.273,41.504,50.293,16.113,25.391
1532384589.416,27.344,51.270,55.176,18.555,52.246
1532384589.420,23.926,47.852,65.918,11.719,49.805
1532384589.424,26.855,46.875,60.547,5.371,29.785
1532384589.428,34.180,50.293,53.711,10.254,44.434
1532384589.432,28.809,44.922,52.246,8.301,38.574
1532384589.436,22.461,38.574,50.293,13.184,24.414
1532384589.440,22.461,38.086,51.270,12.695,56.152
1532384589.443,26.855,31.738,48.828,5.371,77.148
1532384589.447,29.297,33.691,41.992,11.719,60.059
1532384589.451,34.668,41.992,32.715,15.625,32.715
1532384589.455,38.574,39.062,26.367,13.184,11.719
1532384589.459,34.668,41.992,32.715,14.160,23.438
1532384589.463,37.598,40.527,40.039,16.602,53.223
1532384589.467,43.457,38.086,52.246,16.602,61.523
1532384589.471,37.598,43.945,51.758,16.113,35.645
1532384589.475,33.691,38.574,41.016,11.719,19.043
1532384589.479,33.691,32.715,42.969,7.812,17.090
1532384589.483,30.273,39.551,40.527,10.742,54.688
1532384589.486,34.180,43.945,39.551,23.438,34.180
1532384589.490,34.668,36.133,37.598,17.578,13.184
1532384589.494,29.785,42.969,41.504,13.184,57.617
1532384589.498,25.391,47.852,53.711,18.555,62.500
1532384589.502,24.414,36.133,47.852,10.254,34.180
1532384589.506,27.344,23.438,41.504,10.254,25.391
1532384589.510,21.484,25.391,43.945,14.648,23.926
1532384589.514,15.625,42.480,31.738,13.184,39.551
1532384589.518,18.555,42.480,28.320,9.277,40.039
1532384589.522,20.508,39.062,48.340,12.207,19.043
1532384589.525,25.391,43.457,45.898,25.391,29.785
1532384589.529,29.297,42.969,34.668,22.461,17.090
1532384589.533,27.832,37.109,38.086,4.883,14.160
1532384589.537,24.902,35.645,33.691,5.859,-10.254
1532384589.541,23.438,38.086,34.180,15.625,-9.766
1532384589.545,19.043,27.344,41.504,13.184,34.668
1532384589.549,14.160,23.438,42.480,7.812,49.316
1532384589.553,16.113,28.320,37.109,4.883,56.152
1532384589.557,19.043,13.184,34.180,7.812,34.668
1532384589.561,18.066,17.090,27.832,8.301,20.020
1532384589.565,20.996,31.738,19.043,7.812,42.480
1532384589.568,27.832,24.414,32.715,6.836,28.320
1532384589.572,22.461,37.598,39.062,0.977,-5.859
1532384589.576,25.391,41.992,29.785,1.465,-7.324
1532384589.580,27.832,39.062,25.879,5.859,41.992
1532384589.584,24.902,48.340,33.203,12.695,71.289
1532384589.588,25.391,47.363,36.133,8.789,27.344
1532384589.592,23.438,40.527,30.762,-0.977,23.926
1532384589.596,30.273,35.156,22.461,-3.418,68.359
1532384589.600,32.715,36.621,19.531,-8.789,49.805
1532384589.604,42.969,37.109,22.949,-9.277,-4.395
1532384589.608,43.945,24.902,20.996,-0.488,-5.371
1532384589.611,25.391,31.250,26.367,2.930,32.227
1532384589.615,27.832,44.434,34.180,4.883,46.875
1532384589.619,30.273,34.180,37.109,12.695,53.223
1532384589.623,15.625,45.898,35.156,15.137,56.152
1532384589.627,11.719,41.504,28.320,16.602,32.715
1532384589.631,12.207,32.227,34.668,15.137,26.367
1532384589.635,0.977,41.016,36.133,8.301,46.387
1532384589.639,3.418,43.945,31.738,8.789,10.742
1532384589.643,13.672,46.387,29.785,12.695,10.742
1532384589.647,13.672,37.109,17.578,13.184,45.898
1532384589.651,20.020,41.504,21.973,15.625,14.160
1532384589.654,20.020,42.969,36.133,13.184,-15.625
1532384589.658,17.090,31.250,32.227,10.742,-6.348
1532384589.662,20.996,41.992,26.367,11.230,27.832
1532384589.666,25.879,48.828,28.809,18.555,54.688
1532384589.670,28.809,43.457,28.809,22.949,2.930
1532384589.674,24.902,35.645,32.227,14.160,-28.320
1532384589.678,30.273,24.414,41.016,19.043,16.602
1532384589.682,33.691,26.855,44.922,21.973,32.715
1532384589.686,22.461,43.945,36.621,6.348,24.414
1532384589.690,16.113,50.781,25.879,1.465,27.832
1532384589.693,20.020,39.551,18.555,1.465,31.250
1532384589.697,24.414,31.738,18.555,1.465,27.832
1532384589.701,23.438,33.691,32.715,9.766,57.617
1532384589.705,23.926,41.016,37.598,17.578,17.090
1532384589.709,21.484,42.969,20.996,3.906,-20.996
1532384589.713,25.879,39.062,24.902,0.000,-4.883
1532384589.717,33.691,46.387,38.086,17.090,8.789
1532384589.721,32.715,42.480,35.645,19.043,18.555
1532384589.725,31.738,40.039,31.738,12.695,28.320
1532384589.729,28.320,44.434,26.855,10.742,33.203
1532384589.733,22.461,40.039,25.391,12.695,35.645
1532384589.736,19.531,37.598,28.320,14.160,39.551
1532384589.740,17.578,28.809,39.551,14.648,15.625
1532384589.744,19.043,23.926,47.363,7.324,15.137
1532384589.748,20.996,33.691,41.016,5.371,21.484
1532384589.752,27.344,46.387,34.668,14.648,33.203
1532384589.756,26.367,45.898,32.715,16.113,10.254
1532384589.760,26.367,41.504,22.949,19.043,4.395
1532384589.764,30.273,27.344,19.531,21.484,23.926
1532384589.768,22.949,25.391,28.320,8.789,12.207
1532384589.772,21.484,36.133,29.297,7.324,-17.090
1532384589.776,31.250,33.203,31.250,17.090,2.441
1532384589.779,32.715,37.109,26.367,13.184,32.227
1532384589.783,31.250,34.668,12.207,12.207,24.902
1532384589.787,32.227,36.133,30.762,21.484,15.137
1532384589.791,25.391,48.828,44.922,19.043,-5.859
1532384589.795,20.020,45.410,42.480,11.719,19.531
1532384589.799,30.273,43.457,37.109,16.113,34.668
1532384589.803,38.086,43.457,28.320,22.949,-5.371
1532384589.807,41.016,38.086,25.879,24.902,-5.371
1532384589.811,39.062,37.598,33.203,25.879,0.000
1532384589.815,35.645,45.410,31.250,24.902,-41.992
1532384589.818,38.086,50.781,19.043,24.414,-9.277
1532384589.822,37.598,48.340,28.320,20.508,25.391
1532384589.826,41.016,43.457,40.039,22.461,21.484
1532384589.830,41.992,46.875,39.062,23.926,35.156
1532384589.834,40.039,44.922,31.738,21.973,56.152
1532384589.838,40.039,34.180,32.227,24.902,51.270
1532384589.842,39.551,34.668,33.691,20.996,30.762
1532384589.846,37.598,38.574,32.715,20.996,47.363
1532384589.850,35.156,36.621,36.621,19.043,33.203
1532384589.854,29.785,40.527,33.203,11.719,-2.930
1532384589.858,30.762,38.086,33.203,17.578,29.785
1532384589.861,35.645,44.434,30.273,23.926,51.758
1532384589.865,31.250,54.199,28.320,23.926,36.621
1532384589.869,26.855,42.480,38.574,27.344,31.250
1532384589.873,22.949,41.504,41.992,20.508,14.648
1532384589.877,14.648,36.621,37.598,7.324,12.207
1532384589.881,15.137,23.926,33.691,12.207,39.062
1532384589.885,21.973,22.461,38.574,19.043,42.480
1532384589.889,14.160,36.133,41.504,14.160,24.414
1532384589.893,12.207,48.828,41.504,13.184,22.461
1532384589.897,19.531,49.316,33.691,16.113,36.621
1532384589.901,22.949,38.086,24.414,14.648,40.527
1532384589.904,28.809,27.344,29.785,21.973,42.480
1532384589.908,28.809,32.227,34.668,28.809,28.320
1532384589.912,25.879,41.504,39.062,23.438,8.301
1532384589.916,28.320,51.270,46.875,28.320,26.855
1532384589.920,29.785,54.688,43.945,27.344,11.719
1532384589.924,27.344,43.457,35.645,19.043,17.090
1532384589.928,26.855,39.062,32.715,19.531,24.414
1532384589.932,29.785,43.945,26.367,26.855,40.039
1532384589.936,27.832,43.945,25.391,24.414,24.414
1532384589.940,30.762,42.480,21.484,19.531,-24.414
1532384589.944,37.109,33.691,19.043,21.973,12.207
1532384589.947,45.898,32.715,30.273,20.508,59.082
1532384589.951,35.156,41.504,32.227,19.531,10.742
1532384589.955,25.391,36.621,34.668,20.996,-15.137
1532384589.959,27.344,31.250,38.574,15.137,14.648
1532384589.963,24.902,39.551,42.480,13.184,22.461
1532384589.967,29.297,49.805,43.945,23.926,19.043
1532384589.971,32.227,46.387,33.203,24.414,17.578
1532384589.975,33.691,41.016,24.902,15.625,29.785
1532384589.979,40.039,42.969,25.391,20.996,41.992
1532384589.983,41.992,37.598,31.250,30.762,21.484
1532384589.986,40.527,35.156,30.762,34.180,1.465
1532384589.990,35.645,37.598,30.762,24.414,10.742
1532384589.994,32.715,33.691,29.297,17.090,27.344
1532384589.998,39.551,25.879,28.809,21.973,66.406
1532384590.002,40.527,26.367,20.996,24.414,79.590
1532384590.006,35.645,27.832,21.973,29.297,64.941
1532384590.010,33.203,24.902,29.297,16.113,40.039
1532384590.014,29.297,29.785,32.227,11.719,-9.277
1532384590.018,34.668,34.668,30.762,21.973,11.719
1532384590.022,38.574,40.039,36.133,22.949,24.414
1532384590.026,37.598,45.898,35.156,27.832,12.695
1532384590.029,41.992,42.969,21.484,22.949,20.996
1532384590.033,43.457,32.227,24.902,24.414,47.852
1532384590.037,42.969,34.668,32.227,30.273,30.762
1532384590.041,40.527,36.621,29.297,25.391,12.695
1532384590.045,47.363,37.598,21.973,30.273,56.152
1532384590.049,47.852,34.668,20.996,30.273,58.594
1532384590.053,42.480,31.250,36.133,17.090,34.180
1532384590.057,39.062,27.832,44.434,17.578,32.715
1532384590.061,33.691,25.391,38.574,14.160,49.316
1532384590.065,39.062,28.809,33.691,15.137,67.383
1532384590.069,41.016,27.344,29.297,28.320,42.480
1532384590.072,30.762,38.086,13.672,26.367,6.348
1532384590.076,32.227,53.711,18.555,16.602,23.438
1532384590.080,36.133,58.105,38.086,20.508,47.852
1532384590.084,39.062,56.152,23.438,29.297,53.711
1532384590.088,43.457,52.246,12.695,29.297,14.648
1532384590.092,41.504,48.828,33.203,22.949,-16.113
1532384590.096,36.621,47.363,36.133,26.855,23.438
1532384590.100,31.738,50.781,33.691,28.809,57.129
1532384590.104,29.785,43.945,32.227,24.902,63.965
1532384590.108,28.809,35.645,28.320,20.020,25.879
1532384590.111,34.180,44.922,34.668,19.531,11.230
1532384590.115,38.574,44.922,36.621,25.391,43.457
1532384590.119,32.715,32.227,38.086,25.391,33.203
1532384590.123,24.902,35.156,37.109,23.438,14.648
1532384590.127,24.902,44.922,29.297,20.020,13.672
1532384590.131,28.809,49.805,29.297,17.090,6.836
1532384590.135,32.715,45.410,20.020,13.184,18.555
1532384590.139,41.992,40.039,10.742,29.785,25.391
1532384590.143,39.551,41.016,34.180,30.273,21.484
1532384590.147,37.598,32.715,43.457,17.578,30.273
1532384590.151,34.668,28.320,35.645,22.461,32.227
1532384590.154,32.715,30.762,32.715,24.902,24.902
1532384590.158,40.039,28.320,26.367,26.855,16.602
1532384590.162,38.574,38.086,29.785,25.879,42.969
1532384590.166,31.250,47.852,36.621,20.508,31.738
1532384590.170,31.250,43.457,42.480,17.578,0.977
1532384590.174,32.715,38.086,37.109,18.066,30.273
1532384590.178,32.227,34.180,25.879,20.508,46.387
1532384590.182,30.762,28.809,26.855,19.531,74.219
1532384590.186,24.902,39.062,19.043,19.531,87.891
1532384590.190,22.461,52.734,18.555,15.625,8.789
1532384590.194,25.879,50.293,38.574,11.230,-9.277
1532384590.197,23.438,41.016,43.457,11.230,66.406
1532384590.201,22.461,41.992,32.715,12.695,85.449
1532384590.205,26.855,36.133,32.715,13.672,58.105
1532384590.209,27.832,34.180,38.086,13.184,32.715
1532384590.213,28.809,42.969,30.273,18.555,38.574
1532384590.217,27.344,49.805,27.832,19.531,43.457
1532384590.221,41.016,50.293,34.180,26.855,28.320
1532384590.225,46.875,49.805,28.809,29.785,14.648
1532384590.229,27.344,46.875,22.461,14.160,28.320
1532384590.233,20.996,44.922,24.414,6.348,46.875
1532384590.236,27.832,54.688,25.879,14.160,42.969
1532384590.240,30.762,54.199,24.902,17.578,59.570
1532384590.244,33.691,48.828,23.926,17.578,67.383
1532384590.248,39.551,45.898,28.809,25.879,24.902
1532384590.252,42.480,36.133,35.645,23.926,8.301
1532384590.256,37.598,32.715,32.715,21.484,48.828
1532384590.260,28.320,40.527,38.086,22.949,44.434
1532384590.264,26.855,42.969,41.504,21.973,52.734
1532384590.268,21.973,41.016,35.156,19.531,49.316
1532384590.272,20.020,42.480,27.344,16.113,24.902
1532384590.276,21.973,46.875,16.113,13.672,5.371
1532384590.279,25.879,54.688,20.508,18.066,29.785
1532384590.283,26.855,47.852,31.250,19.043,41.992
1532384590.287,24.414,40.039,25.879,14.648,7.324
1532384590.291,26.367,45.410,14.160,7.324,-9.277
1532384590.295,23.926,42.480,26.855,8.301,7.324
1532384590.299,23.438,33.691,43.945,19.531,44.922
1532384590.303,30.273,32.227,42.969,23.438,45.410
1532384590.307,29.297,40.527,34.180,19.043,18.555
1532384590.311,24.414,39.551,25.879,19.043,31.250
1532384590.315,31.250,37.109,27.832,23.438,62.012
1532384590.319,36.621,44.922,34.180,26.367,41.016
1532384590.322,35.156,43.945,29.297,25.391,-11.230
1532384590.326,34.180,33.203,17.578,20.508,-10.742
1532384590.330,34.180,28.809,20.996,17.090,42.480
1532384590.334,32.227,37.598,27.344,12.207,23.438
1532384590.338,25.879,38.574,31.250,9.277,15.137
1532384590.342,22.461,35.156,30.762,12.207,37.109
1532384590.346,22.461,38.086,32.715,10.254,35.645
1532384590.350,23.926,34.668,38.086,9.766,28.320
1532384590.354,27.832,38.086,39.062,17.578,27.832
1532384590.358,29.785,48.828,33.203,24.414,25.879
1532384590.362,32.227,44.434,28.320,23.926,9.277
1532384590.365,35.645,40.527,28.320,20.020,14.648
1532384590.369,41.016,39.062,20.996,22.949,5.859
1532384590.373,39.551,33.203,16.113,21.973,-21.484
1532384590.377,36.133,38.086,25.391,14.160,10.254
1532384590.381,36.621,42.480,32.227,3.906,60.059
1532384590.385,44.922,44.434,40.527,1.465,79.590
1532384590.389,53.223,48.340,39.062,0.488,23.438
1532384590.393,53.711,50.781,28.809,-5.371,-39.551
1532384590.397,57.617,36.133,25.391,2.930,-13.672
1532384590.401,54.688,33.691,32.227,15.137,55.664
1532384590.404,48.340,57.129,34.668,22.949,43.945
1532384590.408,41.016,45.410,33.203,25.879,0.488
1532384590.412,26.855,32.715,35.645,20.996,8.301
1532384590.416,24.414,41.504,30.762,19.531,43.457
1532384590.420,24.902,40.527,18.555,23.438,34.180
1532384590.424,19.043,42.969,34.180,26.855,3.418
1532384590.428,14.160,45.410,51.758,23.438,13.672
1532384590.432,14.160,41.016,36.133,12.207,23.438
1532384590.436,17.090,41.992,21.484,8.301,30.762
1532384590.440,23.438,43.945,31.250,14.648,40.039
1532384590.444,33.203,51.758,43.457,20.020,37.109
1532384590.447,43.945,56.641,40.527,26.367,52.734
1532384590.451,43.945,56.152,41.016,28.809,40.527
1532384590.455,41.016,56.641,43.457,33.691,23.926
1532384590.459,37.598,59.082,38.086,29.297,21.973
1532384590.463,36.133,55.664,39.062,24.414,25.391
1532384590.467,37.109,45.410,47.852,25.391,36.621
1532384590.471,34.180,43.945,52.246,14.160,1.953
1532384590.475,31.250,51.758,41.992,10.254,-12.695
1532384590.479,30.273,52.734,41.504,19.531,31.250
1532384590.483,37.109,41.016,44.434,19.043,42.480
1532384590.487,31.250,40.039,32.715,10.742,3.418
1532384590.490,23.926,50.781,20.508,14.160,-6.836
1532384590.494,22.949,47.363,28.809,16.602,26.367
1532384590.498,21.484,46.875,35.645,15.137,37.109
1532384590.502,20.996,45.898,25.879,14.648,29.785
1532384590.506,20.020,37.598,30.273,14.648,20.996
1532384590.510,24.414,34.668,43.945,10.254,-4.883
1532384590.514,27.832,41.016,47.852,12.695,8.789
1532384590.518,26.855,48.340,46.875,20.020,47.852
1532384590.522,25.879,42.480,45.410,16.602,16.602
1532384590.526,29.297,41.992,39.551,15.625,14.160
1532384590.529,32.715,36.621,33.203,15.137,33.691
1532384590.533,37.598,30.273,38.574,16.113,40.039
1532384590.537,38.086,34.180,43.457,22.461,45.410
1532384590.541,34.180,34.668,40.039,20.996,41.992
1532384590.545,28.320,42.480,30.273,15.137,38.574
1532384590.549,30.273,45.410,28.809,13.184,21.484
1532384590.553,30.273,32.227,30.273,11.719,2.930
1532384590.557,15.625,29.785,30.273,8.789,18.555
1532384590.561,16.113,35.645,38.086,16.602,40.527
1532384590.565,28.809,29.785,42.969,28.809,61.523
1532384590.569,30.762,25.391,38.574,23.926,51.270
1532384590.572,24.414,38.574,39.062,16.602,12.695
1532384590.576,23.926,45.898,45.898,18.066,33.203
1532384590.580,29.785,41.992,52.246,18.066,55.176
1532384590.584,31.250,37.598,52.734,21.973,51.270
1532384590.588,32.227,32.715,36.621,20.996,22.461
1532384590.592,38.086,41.504,35.645,15.625,8.301
1532384590.596,35.645,41.992,54.688,17.578,37.109
1532384590.600,33.691,40.527,50.781,16.602,48.828
1532384590.604,41.016,41.992,42.480,18.066,48.340
1532384590.608,36.621,28.809,36.133,17.578,39.062
1532384590.612,31.250,35.645,37.109,9.766,25.391
1532384590.615,31.738,51.270,46.387,11.719,29.785
1532384590.619,33.691,40.039,45.410,20.996,48.828
1532384590.623,33.203,30.762,41.016,18.555,52.734
1532384590.627,31.738,43.945,43.457,10.742,69.336
1532384590.631,28.809,49.805,44.434,16.602,64.941
1532384590.635,29.297,49.805,42.480,16.113,58.105
1532384590.639,32.227,52.246,42.969,12.207,51.758
1532384590.643,37.598,55.176,51.270,22.461,32.227
1532384590.647,38.574,55.664,48.828,22.461,23.438
1532384590.651,35.156,45.410,43.457,16.602,10.254
1532384590.655,39.551,41.016,41.016,20.996,6.836
1532384590.658,44.922,41.992,34.180,26.367,27.832
1532384590.662,42.969,42.969,37.109,28.320,52.246
1532384590.666,40.039,48.828,43.457,30.273,61.035
1532384590.670,40.527,52.246,42.480,32.715,34.180
1532384590.674,39.062,56.641,45.898,35.156,28.809
1532384590.678,38.574,50.293,47.852,34.668,49.316
1532384590.682,31.250,44.922,36.621,26.855,26.367
1532384590.686,27.832,48.340,33.691,18.555,20.508
1532384590.690,35.645,52.246,41.992,21.484,27.832
1532384590.694,39.062,54.688,42.969,28.320,21.484
1532384590.697,34.668,49.805,40.527,27.832,31.738
1532384590.701,30.273,40.527,41.504,20.020,37.598
1532384590.705,27.832,46.387,40.039,19.531,42.480
1532384590.709,27.832,54.688,34.668,14.648,21.484
1532384590.713,26.367,53.223,33.691,7.324,3.906
1532384590.717,23.438,50.781,32.715,15.137,15.625
1532384590.721,20.996,41.992,33.203,19.043,0.977
1532384590.725,18.555,38.086,39.551,15.625,4.883
1532384590.729,20.508,49.316,39.551,14.160,22.461
1532384590.733,29.785,51.758,41.992,19.043,52.246
1532384590.737,31.250,41.016,39.062,22.949,38.086
1532384590.740,23.926,29.785,42.480,25.879,5.371
1532384590.744,20.508,41.992,49.316,20.508,41.992
1532384590.748,20.508,55.664,46.387,15.625,47.852
1532384590.752,25.391,54.199,44.434,19.043,24.414
1532384590.756,26.855,46.387,39.551,17.578,4.395
1532384590.760,29.297,41.504,34.668,19.043,29.297
1532384590.764,29.785,43.457,35.156,22.949,45.410
1532384590.768,32.227,33.691,43.457,20.996,29.785
1532384590.772,30.762,32.715,51.270,21.484,6.836
1532384590.776,31.250,48.340,48.340,22.949,16.113
1532384590.780,38.086,43.457,31.738,23.438,68.359
1532384590.783,31.250,36.621,35.156,23.926,64.453
1532384590.787,30.762,61.035,50.781,26.367,34.668
1532384590.791,37.109,64.941,54.688,27.344,10.742
1532384590.795,28.809,51.270,44.922,24.414,27.832
1532384590.799,27.832,58.594,34.180,21.484,56.152
1532384590.803,31.250,54.199,40.039,17.578,59.082
1532384590.807,28.320,48.828,46.387,21.973,24.902
1532384590.811,32.715,57.129,48.828,24.902,18.066
1532384590.815,32.715,51.270,47.852,20.508,59.082
1532384590.819,34.180,41.504,45.410,21.973,61.035
1532384590.822,41.016,49.805,41.992,27.832,36.621
1532384590.826,37.598,48.828,34.180,23.926,61.523
1532384590.830,37.598,44.922,38.086,26.855,47.363
1532384590.834,33.203,50.781,47.363,23.926,25.879
1532384590.838,28.320,59.082,48.340,12.207,5.859
1532384590.842,27.832,59.570,47.363,12.207,-4.883
1532384590.846,29.297,55.176,38.086,18.066,19.531
1532384590.850,35.645,46.387,35.156,20.508,19.531
1532384590.854,43.457,51.270,44.434,27.344,28.320
1532384590.858,41.016,58.105,49.805,29.297,14.160
1532384590.862,34.668,52.734,51.270,25.391,24.414
1532384590.865,36.133,56.152,46.875,28.320,45.898
1532384590.869,44.922,45.898,42.480,26.855,20.996
1532384590.873,42.480,44.434,41.016,25.391,-3.418
1532384590.877,35.156,53.223,44.434,25.391,22.461
1532384590.881,36.621,48.340,45.410,26.855,19.531
1532384590.885,36.621,47.852,44.434,26.855,10.742
1532384590.889,42.480,55.176,46.387,24.414,-9.766
1532384590.893,44.434,55.664,38.086,20.508,-7.324
1532384590.897,40.039,50.781,42.969,19.043,36.133
1532384590.901,41.016,42.480,41.016,24.414,27.344
1532384590.905,38.086,47.852,30.762,29.785,8.789
1532384590.908,40.527,54.688,47.363,23.926,7.812
1532384590.912,44.434,50.781,49.316,25.879,17.090
1532384590.916,43.945,42.480,34.668,29.297,39.062
1532384590.920,49.316,39.062,42.969,31.738,4.395
1532384590.924,41.504,51.758,54.688,29.785,-7.324
1532384590.928,32.227,62.500,53.223,19.043,52.734
1532384590.932,32.227,57.129,47.363,18.555,46.387
1532384590.936,34.668,49.316,38.574,20.996,31.250
1532384590.940,28.809,51.270,36.133,20.508,32.227
1532384590.944,20.020,49.805,33.691,13.672,30.273
1532384590.948,29.297,49.316,34.180,13.672,43.945
1532384590.951,36.133,58.594,38.086,26.367,39.062
1532384590.955,26.367,52.734,32.715,24.414,34.180
1532384590.959,30.273,39.062,36.133,25.391,30.273
1532384590.963,37.598,35.645,40.527,31.738,34.180
1532384590.967,40.527,38.574,40.527,33.203,65.430
1532384590.971,38.086,43.457,36.133,25.879,21.973
1532384590.975,33.203,37.109,36.621,20.020,4.395
1532384590.979,35.156,25.879,44.434,27.344,58.594
1532384590.983,39.062,32.227,43.457,25.391,64.453
1532384590.987,34.668,30.273,36.621,26.855,39.551
1532384590.990,33.691,23.438,30.273,25.391,23.926
1532384590.994,33.691,27.344,25.391,20.996,8.789
1532384590.998,29.785,22.949,31.738,20.020,42.969
1532384591.002,39.551,20.020,41.992,18.555,79.590
1532384591.006,39.551,21.484,37.109,22.461,72.266
1532384591.010,27.832,25.879,37.109,13.184,42.480
1532384591.014,29.297,27.344,47.852,13.672,40.527
1532384591.018,31.250,25.879,39.062,19.531,63.477
1532384591.022,25.879,24.902,34.668,15.137,45.410
1532384591.026,24.414,22.461,40.527,16.113,41.992
1532384591.030,23.926,20.020,37.598,9.766,26.367
1532384591.033,26.855,20.996,39.062,11.719,40.527
1532384591.037,28.809,20.020,41.992,20.996,33.691
1532384591.041,31.738,13.672,45.410,20.020,18.555
1532384591.045,31.250,12.207,41.016,20.996,45.410
1532384591.049,24.902,14.160,25.391,20.996,38.574
1532384591.053,26.367,11.230,22.461,14.160,45.898
1532384591.057,31.250,16.113,30.762,15.625,33.691
1532384591.061,28.809,17.090,41.504,17.090,10.742
1532384591.065,27.344,10.254,41.992,17.090,46.387
1532384591.069,31.738,12.207,39.062,19.043,43.945
1532384591.073,35.156,17.578,34.180,20.020,-1.465
1532384591.076,34.180,13.672,27.832,23.438,-7.812
1532384591.080,28.320,21.973,36.133,18.555,8.301
1532384591.084,27.832,22.949,33.691,16.602,41.992
1532384591.088,34.668,22.949,34.180,22.461,26.367
1532384591.092,37.598,26.855,37.109,21.484,6.348
1532384591.096,33.691,19.043,25.879,19.043,40.039
1532384591.100,35.156,20.020,26.855,23.926,56.641
1532384591.104,36.621,27.832,41.504,23.438,18.066
1532384591.108,32.227,28.320,38.574,20.020,-8.789
1532384591.112,29.297,26.367,34.180,20.508,3.418
1532384591.115,34.668,32.715,34.180,20.508,15.625
1532384591.119,41.992,34.668,34.180,20.508,31.738
1532384591.123,35.645,33.691,35.645,12.695,20.508
1532384591.127,29.785,40.527,31.250,7.324,12.207
1532384591.131,34.668,36.621,33.691,15.625,13.184
1532384591.135,40.039,37.109,19.043,21.484,-0.977
1532384591.139,36.133,53.223,15.625,22.949,-3.418
1532384591.143,33.203,53.711,33.203,17.578,20.020
1532384591.147,29.785,49.805,32.715,11.230,60.547
1532384591.151,26.367,42.969,37.109,15.625,74.219
1532384591.155,30.273,39.551,46.387,17.090,59.082
1532384591.158,39.062,50.293,35.156,22.949,28.809
1532384591.162,43.945,54.688,32.227,28.320,36.133
1532384591.166,38.574,51.758,42.480,26.367,59.082
1532384591.170,36.133,53.223,41.504,18.066,37.598
1532384591.174,38.574,50.293,37.109,13.672,27.344
1532384591.178,37.109,46.387,28.320,20.020,49.805
1532384591.182,32.227,48.828,20.996,15.137,51.270
1532384591.186,37.109,51.758,22.461,14.160,39.062
1532384591.190,42.480,42.969,32.227,12.695,13.672
1532384591.194,38.086,35.156,29.297,10.742,9.766
1532384591.198,40.039,51.270,20.020,14.648,22.949
1532384591.201,48.340,62.988,32.715,16.602,15.625
1532384591.205,53.711,57.129,41.016,11.230,8.301
1532384591.209,51.270,40.039,46.875,3.418,13.184
1532384591.213,55.664,41.504,49.805,6.836,18.066
1532384591.217,52.734,48.828,35.645,16.113,27.344
1532384591.221,42.969,44.434,29.785,19.531,17.090
1532384591.225,37.598,48.340,33.203,22.461,24.902
1532384591.229,32.227,54.199,29.297,27.832,58.594
1532384591.233,29.785,53.223,27.832,24.902,47.363
1532384591.237,24.414,44.922,29.297,20.996,21.973
1532384591.241,23.926,32.227,31.738,28.809,33.203
1532384591.244,26.367,24.414,38.574,36.621,55.176
1532384591.248,29.297,36.621,38.086,35.645,39.551
1532384591.252,21.484,48.828,35.645,28.809,8.301
1532384591.256,20.508,49.316,37.598,20.508,5.859
1532384591.260,30.273,47.363,36.133,26.367,29.785
1532384591.264,25.879,50.781,41.016,25.879,51.758
1532384591.268,20.996,56.641,34.180,17.090,69.336
1532384591.272,28.320,47.852,24.414,14.648,8.789
1532384591.276,31.738,36.133,34.180,14.160,-36.621
1532384591.280,26.367,42.480,42.969,12.695,2.930
1532384591.283,27.832,48.828,39.551,15.137,21.973
1532384591.287,26.855,46.875,32.227,17.090,15.625
1532384591.291,28.809,46.387,24.902,23.926,-7.812
1532384591.295,29.785,44.922,31.738,27.832,12.695
1532384591.299,34.668,41.504,39.062,26.855,34.180
1532384591.303,42.969,39.551,43.945,31.250,25.391
1532384591.307,39.062,44.922,47.363,26.367,10.742
1532384591.311,33.203,52.734,40.039,8.789,-19.531
1532384591.315,31.738,56.641,35.156,6.348,0.000
1532384591.319,31.738,53.711,35.645,17.578,33.203
1532384591.323,27.344,54.688,38.574,18.555,47.363
1532384591.326,27.832,58.594,36.133,12.207,51.758
1532384591.330,30.273,54.199,38.574,11.230,47.852
1532384591.334,26.367,52.246,35.645,20.020,51.758
1532384591.338,27.344,44.922,30.762,23.438,28.320
1532384591.342,30.762,35.156,32.227,22.949,5.371
1532384591.346,30.762,45.898,37.109,19.531,20.020
1532384591.350,30.273,52.246,40.039,13.184,13.184
1532384591.354,28.320,46.387,33.203,8.789,-4.395
1532384591.358,29.297,44.922,22.949,9.766,37.598
1532384591.362,30.762,44.434,22.461,14.648,38.086
1532384591.366,34.668,50.781,27.344,16.602,59.570
1532384591.369,38.574,53.711,26.367,18.555,37.598
1532384591.373,37.598,49.805,29.297,28.320,6.348
1532384591.377,37.109,43.945,27.344,25.879,52.734
1532384591.381,38.574,36.133,29.785,27.344,60.547
1532384591.385,39.551,35.156,35.156,32.715,46.875
1532384591.389,42.969,48.340,22.949,30.273,31.250
1532384591.393,47.363,67.383,16.602,26.367,14.648
1532384591.397,45.410,67.383,25.391,17.578,15.625
1532384591.401,40.527,59.082,29.297,16.113,39.062
1532384591.405,41.992,53.223,32.715,16.602,48.828
1532384591.408,38.086,42.969,30.762,14.160,3.906
1532384591.412,38.574,44.922,32.227,22.949,13.184
1532384591.416,45.898,50.293,33.203,24.902,53.223
1532384591.420,47.852,51.270,20.508,21.484,12.207
1532384591.424,48.828,49.316,19.043,23.926,-3.418
1532384591.428,43.457,37.598,26.855,19.043,10.254
1532384591.432,38.574,43.945,28.809,13.672,11.719
1532384591.436,41.016,61.035,22.949,17.090,-5.371
1532384591.440,45.410,56.641,18.066,17.578,-21.973
1532384591.444,41.504,38.086,23.926,20.508,16.113
1532384591.448,39.551,37.109,29.785,27.344,23.926
1532384591.451,39.551,48.828,28.809,21.484,22.461
1532384591.455,39.062,51.270,24.414,20.996,40.039
1532384591.459,40.039,47.852,21.973,24.902,32.715
1532384591.463,38.574,49.316,29.785,27.832,35.645
1532384591.467,40.527,47.363,32.227,31.738,36.133
1532384591.471,40.039,47.363,35.645,29.297,-0.977
1532384591.475,38.574,48.340,37.109,28.320,1.953
1532384591.479,35.645,47.852,32.227,32.227,19.043
1532384591.483,32.715,50.293,33.203,34.180,47.363
1532384591.487,33.691,47.363,35.645,30.273,40.527
1532384591.491,28.809,38.574,37.109,19.531,4.395
1532384591.494,20.508,30.762,33.691,10.742,18.066
1532384591.498,20.508,31.738,28.809,14.160,33.203
1532384591.502,29.297,38.574,22.461,20.020,27.344
1532384591.506,31.738,43.945,27.832,20.996,23.926
1532384591.510,27.344,41.992,36.133,18.066,16.113
1532384591.514,30.762,44.922,27.832,22.461,63.965
1532384591.518,31.250,53.223,26.855,25.391,59.082
1532384591.522,26.367,47.852,33.691,17.578,19.531
1532384591.526,30.273,41.504,32.715,17.578,8.789
1532384591.530,32.227,48.340,30.762,21.484,11.719
1532384591.533,35.156,47.363,25.391,21.484,15.625
1532384591.537,37.109,34.668,25.391,17.090,28.320
1532384591.541,31.250,35.645,29.297,20.508,36.133
1532384591.545,31.250,32.715,24.902,27.832,22.461
1532384591.549,28.320,39.551,24.414,23.438,35.156
1532384591.553,29.785,57.617,26.855,23.438,42.480
1532384591.557,34.668,52.734,33.691,20.996,30.762
1532384591.561,27.832,42.969,32.227,12.207,49.316
1532384591.565,25.391,45.410,24.902,12.695,57.617
1532384591.569,29.785,48.828,26.855,16.113,33.203
1532384591.573,29.785,34.668,21.973,15.137,9.766
1532384591.576,27.832,31.738,23.926,14.160,27.344
1532384591.580,32.715,44.434,20.508,20.020,50.781
1532384591.584,38.086,41.016,14.648,24.414,43.457
1532384591.588,40.527,41.992,26.855,24.902,17.578
1532384591.592,40.039,48.828,23.438,23.926,4.883
1532384591.596,40.527,46.387,21.973,24.414,29.297
1532384591.600,39.551,50.293,27.832,23.926,23.926
1532384591.604,32.715,48.828,28.809,16.113,50.781
1532384591.608,31.250,40.039,30.273,12.207,39.551
1532384591.612,39.062,33.203,28.809,19.043,1.465
1532384591.616,39.062,33.203,31.738,17.578,20.020
1532384591.619,33.203,38.086,22.461,8.301,8.301
1532384591.623,29.297,41.504,15.137,9.277,7.812
1532384591.627,23.926,40.039,29.297,10.742,20.996
1532384591.631,28.320,42.480,35.645,4.883,8.789
1532384591.635,33.203,36.133,18.555,7.812,10.742
1532384591.639,32.715,30.273,8.789,15.625,26.855
1532384591.643,37.109,54.199,21.484,14.160,29.297
1532384591.647,33.691,64.453,29.297,14.648,41.992
1532384591.651,28.809,53.711,20.996,16.113,34.668
1532384591.655,36.133,48.828,13.184,15.625,15.137
1532384591.659,33.691,44.922,20.508,12.695,17.578
1532384591.662,27.344,42.480,30.762,11.230,36.621
1532384591.666,31.738,47.852,27.344,14.648,45.898
1532384591.670,31.250,46.875,18.555,12.695,31.250
1532384591.674,27.344,35.156,15.625,9.766,-2.441
1532384591.678,40.039,26.855,17.090,10.742,33.203
1532384591.682,36.621,37.598,20.508,11.719,73.242
1532384591.686,21.973,39.551,22.949,13.184,49.805
1532384591.690,28.320,31.250,27.832,17.090,7.324
1532384591.694,28.809,34.668,36.133,17.578,-12.695
1532384591.698,28.320,36.621,34.180,15.625,20.020
1532384591.701,32.227,34.180,22.949,18.555,41.016
1532384591.705,25.879,31.738,22.949,20.020,24.902
1532384591.709,19.043,37.598,24.902,12.207,11.230
1532384591.713,20.020,42.480,23.926,10.254,20.020
1532384591.717,23.926,41.504,29.297,16.602,30.273
1532384591.721,28.809,38.574,22.461,19.531,1.465
1532384591.725,31.250,31.738,11.719,24.414,-14.648
1532384591.729,22.461,29.785,11.230,21.484,5.859
1532384591.733,21.973,35.645,23.926,16.113,12.695
1532384591.737,27.832,40.527,28.809,15.625,47.363
1532384591.741,31.250,40.039,26.367,16.602,48.828
1532384591.744,29.785,33.691,22.461,18.555,32.715
1532384591.748,30.762,27.832,23.926,25.391,38.086
1532384591.752,41.016,33.691,26.367,30.762,47.363
1532384591.756,37.598,27.344,24.414,26.855,45.898
1532384591.760,31.250,21.973,28.320,20.508,47.852
1532384591.764,29.297,30.273,27.344,15.137,44.922
1532384591.768,22.461,35.156,26.367,17.090,35.156
1532384591.772,23.926,41.016,28.320,11.719,13.184
1532384591.776,25.879,42.969,16.602,9.277,-12.207
1532384591.780,20.020,34.180,16.602,14.648,38.574
1532384591.784,16.602,36.621,31.250,13.672,70.801
1532384591.787,19.531,44.922,39.062,13.184,52.246
1532384591.791,24.414,45.410,38.574,19.531,27.832
1532384591.795,21.973,38.574,31.738,20.996,41.992
1532384591.799,20.508,27.832,30.762,20.996,56.641
1532384591.803,21.973,28.320,26.855,20.020,39.062
1532384591.807,23.926,37.598,28.809,18.066,20.508
1532384591.811,27.344,38.574,36.133,15.625,22.461
1532384591.815,27.832,30.762,28.809,19.043,13.184
1532384591.819,22.461,28.320,29.785,23.926,7.324
1532384591.823,24.414,35.156,34.668,17.090,13.672
1532384591.826,20.508,44.922,24.414,1.953,-11.230
1532384591.830,22.461,46.387,17.090,-5.859,-27.344
1532384591.834,25.879,35.645,21.973,-0.977,-18.555
1532384591.838,18.555,38.086,30.273,-0.977,6.348
1532384591.842,20.020,40.039,37.598,8.301,4.395
1532384591.846,24.414,26.367,24.902,14.160,18.555
1532384591.850,24.902,27.832,16.602,10.254,32.715
1532384591.854,25.391,36.133,33.691,9.766,50.293
1532384591.858,27.832,45.410,43.457,9.766,36.621
1532384591.862,28.809,47.852,34.668,12.207,7.324
1532384591.866,24.902,33.691,27.832,7.324,23.438
1532384591.869,25.391,31.250,24.414,5.859,17.090
1532384591.873,31.250,39.062,21.973,13.672,-5.371
1532384591.877,25.879,41.016,29.297,10.254,25.879
1532384591.881,20.020,43.457,28.809,5.859,42.480
1532384591.885,28.320,36.621,29.785,8.301,24.414
1532384591.889,29.297,42.969,30.762,10.742,37.598
1532384591.893,25.391,45.410,24.414,12.207,0.488
1532384591.897,28.320,44.434,26.855,15.137,20.996
1532384591.901,27.344,54.199,30.762,15.137,59.082
1532384591.905,27.832,44.434,35.645,11.719,38.086
1532384591.909,29.297,38.574,33.691,10.254,5.859
1532384591.912,26.855,45.410,30.762,4.883,-7.812
1532384591.916,20.508,49.316,30.762,6.836,39.062
1532384591.920,23.926,50.293,25.879,15.137,66.895
1532384591.924,25.391,43.457,23.926,13.672,28.809
1532384591.928,27.344,46.875,24.414,6.836,-0.977
1532384591.932,32.227,48.828,37.598,11.230,18.555
1532384591.936,26.367,43.457,42.480,20.508,44.922
1532384591.940,27.344,48.340,30.762,22.461,25.391
1532384591.944,33.691,44.434,28.320,21.484,31.250
1532384591.948,29.785,42.480,34.668,17.578,50.293
1532384591.952,28.320,45.898,38.574,15.137,23.438
1532384591.955,30.273,47.852,41.504,14.648,23.926
1532384591.959,28.320,51.270,36.133,16.113,0.000
1532384591.963,32.227,50.781,34.180,21.484,10.254
1532384591.967,34.668,47.852,43.457,20.996,41.992
1532384591.971,31.738,46.875,39.551,16.113,-2.441
1532384591.975,27.344,44.922,35.645,17.090,7.324
1532384591.979,34.180,46.875,35.156,24.414,42.969
1532384591.983,40.039,56.152,32.715,25.879,54.199
1532384591.987,34.668,57.129,36.133,20.996,69.824
1532384591.991,40.527,57.129,40.527,23.438,31.738
1532384591.994,44.434,52.246,44.922,25.879,23.926
1532384591.998,44.434,50.781,51.758,20.508,49.316
1532384592.002,50.781,51.270,48.828,18.066,41.992
1532384592.006,47.852,51.758,50.781,13.672,14.160
1532384592.010,44.434,41.504,45.898,4.395,4.395
1532384592.014,51.758,34.180,31.738,6.348,-13.672
1532384592.018,48.828,55.176,32.715,10.742,31.250
1532384592.022,36.621,57.129,44.922,2.441,58.105
1532384592.026,34.180,43.457,44.434,10.254,36.621
1532384592.030,32.227,47.852,33.691,26.367,32.227
1532384592.034,27.832,46.875,40.527,29.785,29.297
1532384592.037,30.762,38.574,45.898,33.691,50.781
1532384592.041,32.715,42.969,51.758,33.203,45.410
1532384592.045,28.320,50.781,51.270,33.203,46.387
1532384592.049,28.809,38.574,42.480,28.809,32.227
1532384592.053,29.297,32.715,41.504,29.785,20.020
1532384592.057,15.137,41.504,43.457,28.809,24.902
1532384592.061,13.672,46.387,43.457,13.184,42.480
1532384592.065,19.531,49.316,34.668,10.742,69.824
1532384592.069,23.438,50.781,28.320,14.648,49.805
1532384592.073,29.785,44.434,21.973,16.113,0.977
1532384592.077,27.832,40.039,26.367,18.066,35.156
1532384592.080,24.414,39.062,39.551,16.602,48.828
1532384592.084,26.367,33.691,45.410,21.484,17.578
1532384592.088,32.227,41.992,49.805,19.043,11.719
1532384592.092,37.109,49.805,44.434,17.578,18.555
1532384592.096,38.086,42.969,38.574,20.508,38.574
1532384592.100,32.715,40.039,37.598,17.578,25.879
1532384592.104,28.320,37.598,38.574,11.719,10.742
1532384592.108,31.250,30.762,35.645,10.254,14.648
1532384592.112,32.715,27.344,27.832,11.719,5.859
1532384592.116,32.715,35.156,36.133,11.719,16.113
1532384592.119,36.133,51.270,28.320,20.020,36.621
1532384592.123,32.227,48.828,24.414,16.602,8.789
1532384592.127,28.320,43.457,43.457,5.371,3.906
1532384592.131,31.738,44.922,37.109,5.371,37.598
1532384592.135,37.109,45.410,25.391,7.812,58.594
1532384592.139,39.062,41.992,27.344,11.230,44.922
1532384592.143,30.273,34.180,32.715,13.672,17.090
1532384592.147,24.902,25.391,37.109,12.207,43.457
1532384592.151,26.367,28.809,39.062,14.648,42.969
1532384592.155,30.762,38.086,39.062,20.996,-1.465
1532384592.159,32.715,36.133,32.227,21.484,1.953
1532384592.162,32.715,26.855,34.668,14.160,10.742
1532384592.166,36.621,21.973,40.039,16.602,8.789
1532384592.170,39.551,37.109,36.621,22.461,10.742
1532384592.174,38.574,44.434,30.762,18.066,27.344
1532384592.178,36.621,38.086,27.832,20.020,28.809
1532384592.182,36.133,38.086,34.180,20.020,53.223
1532384592.186,34.180,29.297,35.156,18.066,41.504
1532384592.190,29.785,32.227,19.043,15.625,-23.926
1532384592.194,30.273,47.852,12.695,10.742,-13.672
1532384592.198,28.809,43.945,35.156,14.648,34.180
1532384592.202,25.391,38.574,54.688,9.766,37.109
1532384592.205,26.367,33.691,49.316,8.301,29.297
1532384592.209,25.391,28.320,39.551,10.742,19.531
1532384592.213,29.297,26.367,33.691,8.789,52.246
1532384592.217,33.691,39.062,35.645,11.230,62.988
1532384592.221,36.621,58.105,40.527,12.695,39.062
1532384592.225,41.504,56.641,35.645,13.184,41.504
1532384592.229,42.480,50.293,29.297,15.137,38.086
1532384592.233,40.039,48.828,31.250,12.695,31.738
1532384592.237,35.156,43.457,30.273,9.766,27.344
1532384592.241,32.715,37.598,21.484,10.742,9.766
1532384592.245,35.156,36.621,26.855,12.695,20.020
1532384592.248,35.645,38.574,34.668,11.230,29.785
1532384592.252,34.668,37.598,34.180,5.371,13.672
1532384592.256,27.832,36.133,28.320,0.000,10.254
1532384592.260,23.438,40.039,33.691,5.371,20.508
1532384592.264,21.973,35.156,43.457,7.324,51.758
1532384592.268,21.973,26.367,35.645,1.953,37.109
1532384592.272,28.320,31.250,35.645,4.883,34.668
1532384592.276,26.367,41.992,34.180,8.789,53.711
1532384592.280,19.531,45.410,27.832,4.395,17.578
1532384592.284,24.902,46.875,21.484,9.277,-2.930
1532384592.287,27.832,45.898,19.043,17.090,5.371
1532384592.291,24.414,44.434,34.668,12.695,8.301
1532384592.295,21.973,38.086,45.410,9.766,18.066
1532384592.299,26.367,36.133,37.598,15.137,20.996
1532384592.303,35.156,40.039,32.715,26.367,51.270
1532384592.307,25.391,32.227,36.133,29.785,34.668
1532384592.311,16.113,24.414,43.945,18.555,5.371
1532384592.315,24.414,32.227,46.387,18.066,24.414
1532384592.319,26.367,37.109,39.551,21.973,26.855
1532384592.323,21.484,41.992,41.992,18.066,5.371
1532384592.327,27.832,39.062,33.691,20.508,20.020
1532384592.330,33.203,30.273,23.438,19.531,37.109
1532384592.334,25.879,36.133,43.945,17.578,48.340
1532384592.338,21.484,38.086,50.293,20.508,41.992
1532384592.342,15.137,40.527,36.621,16.113,24.902
1532384592.346,15.625,40.039,39.551,15.625,22.461
1532384592.350,25.391,40.527,44.434,19.531,40.527
1532384592.354,26.855,43.945,29.785,15.137,6.836
1532384592.358,25.879,35.645,33.203,18.066,-1.953
1532384592.362,25.391,26.855,34.668,21.484,25.391
1532384592.366,29.785,35.156,34.668,20.020,51.270
1532384592.370,29.297,40.039,43.457,21.484,41.504
1532384592.373,19.043,34.668,41.992,15.137,16.602
1532384592.377,20.996,31.250,44.434,16.602,22.461
1532384592.381,24.414,34.668,40.527,20.996,44.922
1532384592.385,24.414,33.203,29.297,11.230,72.266
1532384592.389,28.320,36.133,37.109,9.766,36.133
1532384592.393,33.691,43.945,41.992,14.160,12.695
1532384592.397,35.645,43.457,40.039,19.531,53.711
1532384592.401,38.574,46.875,38.086,24.414,48.828
1532384592.405,35.645,35.156,37.109,19.531,19.531
1532384592.409,26.855,31.738,34.668,16.602,4.883
1532384592.412,24.414,41.992,36.133,18.555,32.227
1532384592.416,24.414,36.133,46.387,18.066,47.363
1532384592.420,27.832,35.645,44.434,17.090,39.551
1532384592.424,28.320,35.156,37.598,16.113,27.832
1532384592.428,29.785,37.109,33.691,15.137,11.719
1532384592.432,31.738,41.016,29.297,17.090,44.922
1532384592.436,29.297,38.574,33.203,16.602,34.668
1532384592.440,28.320,26.367,33.691,13.184,11.230
1532384592.444,27.832,23.926,27.344,15.625,47.363
1532384592.448,23.438,36.133,28.320,14.160,41.504
1532384592.452,20.996,39.062,30.762,7.812,16.602
1532384592.455,20.020,30.273,27.344,8.301,24.414
1532384592.459,16.113,22.461,26.367,9.277,40.039
1532384592.463,18.066,27.344,36.621,9.766,58.594
1532384592.467,25.391,31.250,32.715,9.766,65.918
1532384592.471,19.531,24.902,19.531,7.812,20.996
1532384592.475,14.648,26.855,30.273,13.184,-16.113
1532384592.479,19.043,44.922,40.527,13.672,-14.648
1532384592.483,19.531,42.480,38.086,7.324,28.320
1532384592.487,18.555,34.180,31.250,8.789,38.086
1532384592.491,17.090,33.691,30.762,6.348,7.812
1532384592.495,17.090,27.344,28.809,3.906,2.930
1532384592.498,14.160,27.344,21.973,5.859,28.320
1532384592.502,17.090,30.273,32.227,10.742,29.297
1532384592.506,20.508,28.320,44.434,19.043,19.043
1532384592.510,21.484,35.156,43.945,12.695,19.043
1532384592.514,23.438,38.574,41.992,9.277,22.461
1532384592.518,22.949,27.344,30.762,12.207,13.672
1532384592.522,17.578,25.879,17.578,7.324,-12.207
1532384592.526,14.160,35.156,20.996,7.324,0.977
1532384592.530,17.578,33.203,22.949,7.324,17.090
1532384592.534,13.184,25.879,30.762,0.000,11.719
1532384592.537,8.789,31.738,36.133,-4.395,21.484
1532384592.541,11.719,34.180,29.785,-1.465,38.574
1532384592.545,8.789,25.879,32.715,1.953,45.898
1532384592.549,10.742,29.785,38.574,-5.859,29.785
1532384592.553,17.578,26.855,37.598,-5.371,10.742
1532384592.557,14.160,22.949,30.762,-0.488,3.906
1532384592.561,17.090,26.855,30.762,-2.930,34.180
1532384592.565,22.461,29.297,28.809,0.000,44.922
1532384592.569,16.113,40.039,24.414,-4.395,30.273
1532384592.573,16.602,42.969,23.438,-8.789,13.184
1532384592.577,24.902,32.227,22.461,-2.441,4.395
1532384592.580,22.461,31.250,20.020,-1.465,27.344
1532384592.584,16.113,36.133,24.902,-3.906,46.875
1532384592.588,12.695,36.621,28.320,-4.883,26.855
1532384592.592,17.090,39.551,27.832,-2.930,0.488
1532384592.596,18.555,35.645,34.180,-9.277,9.277
1532384592.600,15.137,28.320,36.133,-16.602,50.781
1532384592.604,14.648,29.785,27.344,-14.648,51.270
1532384592.608,14.160,36.621,20.996,-12.695,37.598
1532384592.612,18.555,36.133,30.762,-5.859,20.020
1532384592.616,20.020,34.180,31.250,-6.348,-18.555
1532384592.620,16.602,36.133,32.227,-6.348,-2.441
1532384592.623,21.484,37.598,30.762,2.441,5.371
1532384592.627,30.762,38.086,24.414,7.812,10.742
1532384592.631,28.809,34.180,31.738,7.812,40.527
1532384592.635,26.855,30.273,35.645,5.859,66.895
1532384592.639,29.785,28.809,32.715,9.277,21.484
1532384592.643,26.367,32.715,39.551,11.230,23.926
1532384592.647,22.949,40.039,45.898,3.418,55.664
1532384592.651,20.508,32.715,38.574,7.812,20.996
1532384592.655,24.902,24.414,40.527,18.066,-7.812
1532384592.659,24.414,23.438,39.062,13.184,15.625
1532384592.663,20.508,24.902,36.133,9.277,62.012
1532384592.666,23.438,30.762,37.109,14.648,60.059
1532384592.670,31.738,39.062,40.527,13.672,12.207
1532384592.674,31.250,43.457,47.852,15.137,-8.301
1532384592.678,23.438,47.363,50.781,17.578,9.766
1532384592.682,27.832,51.270,62.012,19.043,23.926
1532384592.686,28.320,45.898,69.336,20.996,43.945
1532384592.690,29.297,41.992,69.336,18.555,21.484
1532384592.694,34.668,41.504,66.406,21.973,28.809
1532384592.698,33.203,42.480,71.289,22.949,41.992
1532384592.702,28.809,45.410,76.660,22.949,30.273
1532384592.705,26.855,32.227,76.172,20.020,21.973
1532384592.709,32.715,31.250,83.008,20.508,0.488
1532384592.713,33.203,52.246,87.402,22.949,-1.953
1532384592.717,33.691,56.641,98.145,27.832,55.664
1532384592.721,38.086,52.246,110.840,31.250,54.688
1532384592.725,42.969,56.152,119.629,30.273,14.160
1532384592.729,40.527,50.293,126.953,30.273,21.973
1532384592.733,39.551,54.199,125.488,30.273,28.320
1532384592.737,38.086,69.824,122.070,26.367,23.926
1532384592.741,40.039,67.871,125.000,24.414,14.160
1532384592.745,47.852,58.105,127.441,29.297,21.484
1532384592.748,48.340,53.223,128.906,31.250,32.227
1532384592.752,46.387,53.223,124.512,26.367,23.926
1532384592.756,50.293,56.641,116.211,28.809,11.230
1532384592.760,53.711,56.641,126.953,33.203,-7.812
1532384592.764,52.246,54.199,146.484,23.926,13.184
1532384592.768,46.387,49.805,149.414,16.113,24.902
1532384592.772,41.016,47.363,146.484,16.602,-2.441
1532384592.776,42.480,59.082,150.391,11.719,-3.906
1532384592.780,47.363,59.082,147.949,9.766,29.297
1532384592.784,55.664,50.781,141.113,10.254,45.410
1532384592.788,55.664,55.176,144.043,7.324,26.367
1532384592.791,53.223,61.523,149.902,15.625,17.578
1532384592.795,49.316,60.059,150.879,23.438,26.855
1532384592.799,41.016,60.059,151.367,29.297,44.434
1532384592.803,34.180,60.059,140.625,33.203,50.781
1532384592.807,37.109,50.293,136.230,35.645,47.363
1532384592.811,28.320,42.969,150.391,25.879,19.531
1532384592.815,18.066,49.805,160.645,21.973,17.090
1532384592.819,26.367,58.594,156.250,34.668,37.598
1532384592.823,27.832,43.457,148.438,28.809,23.926
1532384592.827,29.785,39.551,147.949,26.855,25.391
1532384592.830,28.320,57.129,149.902,26.367,53.223
1532384592.834,21.973,55.664,158.691,22.461,64.941
1532384592.838,28.809,50.293,160.645,24.414,23.438
1532384592.842,34.668,54.199,147.949,22.949,3.418
1532384592.846,29.297,59.570,144.531,21.484,30.273
1532384592.850,24.902,55.664,152.344,14.648,20.508
1532384592.854,27.344,50.293,152.832,10.254,18.555
1532384592.858,26.367,46.387,149.414,9.766,10.254
1532384592.862,27.344,50.293,143.555,14.160,24.414
1532384592.866,28.320,47.363,140.137,16.602,71.289
1532384592.870,26.855,35.156,137.207,10.742,35.156
1532384592.873,30.762,36.621,142.578,14.648,-3.418
1532384592.877,37.109,42.969,140.625,20.020,23.926
1532384592.881,42.969,40.527,138.672,24.414,30.273
1532384592.885,40.039,41.504,145.020,23.926,50.293
1532384592.889,32.227,44.922,142.578,18.555,7.812
1532384592.893,27.832,35.156,148.438,12.695,-38.086
1532384592.897,29.297,37.109,148.438,7.324,3.418
1532384592.901,36.621,46.387,138.672,8.789,15.137
1532384592.905,39.062,49.316,136.230,13.672,19.531
1532384592.909,38.574,43.945,133.789,15.625,11.230
1532384592.913,35.156,37.598,133.301,11.230,0.488
1532384592.916,35.156,46.875,130.371,15.137,38.574
1532384592.920,41.016,48.828,118.652,24.414,39.551
1532384592.924,46.875,27.832,124.512,25.879,15.625
1532384592.928,39.062,29.297,140.137,18.555,12.695
1532384592.932,34.180,49.316,143.066,11.719,18.555
1532384592.936,36.133,44.434,139.160,12.695,18.555
1532384592.940,40.527,50.781,132.812,19.043,0.000
1532384592.944,43.945,56.641,127.930,23.926,6.348
1532384592.948,40.039,45.898,125.977,20.508,40.039
1532384592.952,40.527,44.434,125.000,12.695,10.254
1532384592.956,43.945,47.363,125.977,14.160,-5.859
1532384592.959,36.621,45.410,125.000,14.648,18.555
1532384592.963,30.273,41.992,119.629,6.836,32.227
1532384592.967,35.645,38.574,115.234,12.695,27.832
1532384592.971,33.691,41.504,111.328,19.043,15.625
1532384592.975,29.785,46.387,120.117,17.090,23.438
1532384592.979,29.785,38.086,130.859,14.160,36.133
1532384592.983,28.809,37.109,129.395,16.602,54.688
1532384592.987,29.785,36.621,128.418,15.137,25.391
1532384592.991,29.785,24.902,130.371,8.301,-16.113
1532384592.995,34.668,22.461,123.047,14.160,14.648
1532384592.998,32.715,29.785,120.605,19.531,43.945
1532384593.002,34.180,35.645,120.605,20.508,48.828
1532384593.006,37.109,33.691,118.164,18.555,34.180
1532384593.010,27.344,26.855,112.793,10.254,16.602
1532384593.014,22.461,20.996,109.863,2.930,19.531
1532384593.018,26.855,11.719,119.629,1.953,16.113
1532384593.022,29.297,4.883,115.723,4.395,24.902
1532384593.026,30.273,13.672,102.539,5.859,15.625
1532384593.030,29.785,15.137,98.145,8.789,7.324
1532384593.034,26.855,-0.977,98.145,9.277,51.270
1532384593.038,22.949,-7.812,92.773,11.719,57.617
1532384593.041,18.066,-4.883,100.098,12.695,48.340
1532384593.045,15.625,0.000,109.863,12.695,67.383
1532384593.049,11.719,0.488,104.004,10.742,53.223
1532384593.053,10.254,-8.301,110.840,6.836,40.039
1532384593.057,12.695,-9.277,110.840,8.789,29.785
1532384593.061,20.996,2.930,103.027,11.230,32.715
1532384593.065,31.250,8.301,101.074,14.648,47.852
1532384593.069,31.738,12.207,101.562,14.648,13.672
1532384593.073,16.113,8.301,100.098,10.254,-14.160
1532384593.077,14.160,6.836,91.309,9.277,13.184
1532384593.081,23.926,3.906,80.078,11.719,15.625
1532384593.084,22.461,-6.348,76.172,8.301,6.836
1532384593.088,21.973,-3.906,83.496,3.906,-9.277
1532384593.092,24.414,7.812,91.309,4.395,-20.508
1532384593.096,24.414,11.230,93.750,2.930,20.996
1532384593.100,20.996,1.465,86.914,7.324,45.410
1532384593.104,15.137,0.977,79.102,13.672,17.578
1532384593.108,10.742,4.883,79.102,9.277,27.832
1532384593.112,3.906,-4.395,85.449,5.371,49.805
1532384593.116,1.953,-13.184,95.703,3.906,51.758
1532384593.120,7.324,-3.418,92.285,2.930,35.156
1532384593.123,12.207,12.207,82.520,5.859,28.320
1532384593.127,10.742,12.207,79.590,9.766,13.184
1532384593.131,12.695,-0.977,85.449,5.859,23.926
1532384593.135,14.648,-8.301,94.238,1.953,43.457
1532384593.139,15.625,-1.465,88.867,6.836,24.902
1532384593.143,19.043,16.113,80.566,10.742,14.160
1532384593.147,21.973,18.066,78.613,10.742,23.926
1532384593.151,21.973,8.789,76.172,6.836,57.129
1532384593.155,17.090,6.348,76.660,0.977,39.062
1532384593.159,17.578,7.324,80.078,0.977,13.184
1532384593.163,18.555,8.301,83.496,1.953,42.969
1532384593.166,17.578,5.371,86.914,2.441,56.641
1532384593.170,22.461,2.441,83.008,8.301,41.016
1532384593.174,24.902,0.488,66.406,12.695,3.418
1532384593.178,25.391,12.695,73.242,17.578,18.066
1532384593.182,21.973,15.137,90.820,13.672,47.363
1532384593.186,14.160,5.371,89.844,6.836,41.016
1532384593.190,13.184,6.348,90.332,12.695,19.531
1532384593.194,13.184,9.277,84.961,8.789,10.254
1532384593.198,17.090,17.578,82.520,6.348,23.438
1532384593.202,15.625,22.461,78.613,6.836,28.320
1532384593.206,6.836,11.230,75.684,0.488,28.320
1532384593.209,6.836,-1.465,83.496,4.395,15.137
1532384593.213,4.883,-0.488,81.543,6.836,9.277
1532384593.217,9.766,7.324,74.219,8.789,26.367
1532384593.221,20.020,19.531,79.102,19.531,20.508
1532384593.225,23.438,22.461,81.055,13.184,16.113
1532384593.229,33.203,21.973,85.449,6.348,22.461
1532384593.233,30.762,18.555,88.867,5.371,-0.977
1532384593.237,22.949,12.695,87.402,-0.977,-7.812
1532384593.241,23.926,19.531,82.520,2.930,-3.418
1532384593.245,24.414,22.461,72.754,3.906,1.465
1532384593.249,29.297,17.090,76.172,2.930,13.672
1532384593.252,30.762,15.137,84.961,4.883,34.668
1532384593.256,28.320,25.391,82.520,9.277,67.383
1532384593.260,26.855,26.855,81.055,6.348,48.828
1532384593.264,25.879,14.160,82.520,6.836,41.992
1532384593.268,24.902,17.090,70.312,10.742,49.316
1532384593.272,19.531,21.484,62.500,6.836,-8.789
1532384593.276,12.207,5.859,81.055,5.371,-2.930
1532384593.280,13.672,12.695,83.008,2.930,46.387
1532384593.284,21.973,29.297,81.055,3.906,72.754
1532384593.288,16.602,17.578,88.379,12.695,66.406
1532384593.291,14.648,16.113,90.332,10.254,36.133
1532384593.295,18.066,28.809,83.984,1.465,53.711
1532384593.299,18.555,38.086,77.637,2.441,78.613
1532384593.303,19.531,32.227,83.496,4.395,58.105
1532384593.307,23.438,28.809,83.496,11.719,27.344
1532384593.311,23.438,32.715,73.730,12.695,27.832
1532384593.315,18.066,22.949,72.754,4.395,39.551
1532384593.319,21.484,15.625,80.566,7.812,31.738
1532384593.323,18.066,12.207,78.125,9.277,33.691
1532384593.327,6.836,1.465,67.383,0.000,48.828
1532384593.331,13.184,13.184,61.523,-4.395,55.664
1532384593.334,16.602,34.180,69.824,-4.395,49.316
1532384593.338,12.207,33.203,79.590,-2.930,45.898
1532384593.342,15.625,31.738,81.055,-4.395,45.410
1532384593.346,14.648,28.320,72.266,-5.371,38.574
1532384593.350,9.766,24.414,67.871,-6.836,44.434
1532384593.354,13.184,31.250,76.660,-7.812,28.809
1532384593.358,17.090,27.344,82.031,-3.418,22.461
1532384593.362,20.508,20.020,70.312,3.418,20.020
1532384593.366,22.949,17.090,61.523,0.000,46.875
1532384593.370,22.949,18.066,76.172,4.883,51.758
1532384593.374,20.020,12.207,82.520,6.348,-23.926
1532384593.377,18.555,12.695,67.871,2.441,-17.090
1532384593.381,18.555,23.926,68.359,8.789,48.340
1532384593.385,21.484,27.832,77.637,9.277,39.551
1532384593.389,23.438,37.109,80.078,11.719,28.809
1532384593.393,23.926,32.715,73.242,13.672,38.086
1532384593.397,23.438,28.320,67.383,8.301,55.664
1532384593.401,32.227,35.645,78.613,11.230,60.059
1532384593.405,43.945,28.809,76.660,20.996,39.551
1532384593.409,31.250,15.137,69.336,13.184,4.883
1532384593.413,19.531,20.508,77.637,-0.488,-13.672
1532384593.416,20.020,23.438,78.125,2.930,22.461
1532384593.420,20.020,28.320,78.125,6.348,24.902
1532384593.424,23.926,38.086,78.613,10.254,11.719
1532384593.428,24.902,38.086,74.219,13.672,17.578
1532384593.432,27.344,36.133,83.008,17.090,27.344
1532384593.436,25.391,35.645,79.590,18.555,43.457
1532384593.440,22.949,31.738,59.570,14.648,28.320
1532384593.444,18.066,23.926,61.523,13.672,20.020
1532384593.448,18.555,31.738,79.590,9.277,46.387
1532384593.452,24.414,37.109,83.496,8.301,29.297
1532384593.456,14.648,25.879,78.125,11.719,7.812
1532384593.459,10.742,21.973,77.148,7.812,10.742
1532384593.463,18.066,26.855,79.590,11.719,10.254
1532384593.467,24.414,32.715,83.984,26.855,42.480
1532384593.471,27.832,37.109,77.148,24.902,39.551
1532384593.475,21.973,35.645,68.848,14.160,20.020
1532384593.479,17.578,33.691,71.777,17.090,41.992
1532384593.483,17.090,35.156,74.707,19.043,57.129
1532384593.487,20.996,41.992,72.754,17.090,27.344
1532384593.491,24.902,39.551,64.453,16.602,-1.953
1532384593.495,24.414,32.715,65.430,13.672,-3.906
1532384593.499,25.391,38.574,76.172,17.090,48.340
1532384593.502,27.832,38.086,80.566,17.578,25.879
1532384593.506,26.367,36.133,73.730,13.672,-7.812
1532384593.510,23.926,41.504,73.242,11.230,15.137
1532384593.514,21.973,38.574,80.566,11.230,13.672
1532384593.518,22.461,33.203,74.219,13.184,41.992
1532384593.522,22.949,28.320,64.941,14.648,21.484
1532384593.526,25.391,23.926,67.871,15.625,20.996
1532384593.530,34.668,16.602,84.473,22.949,47.852
1532384593.534,29.785,10.742,78.125,18.066,54.688
1532384593.538,22.461,23.926,62.012,13.184,51.758
1532384593.542,22.949,34.180,72.266,13.184,8.301
1532384593.545,19.043,39.062,76.660,9.766,16.113
1532384593.549,23.926,41.504,63.477,12.695,37.598
1532384593.553,23.926,39.062,62.988,4.395,6.836
1532384593.557,22.461,35.645,79.102,0.977,4.395
1532384593.561,31.250,33.691,77.637,11.719,21.973
1532384593.565,37.109,32.715,72.266,13.184,37.598
1532384593.569,39.551,36.621,73.242,6.836,37.109
1532384593.573,43.945,36.621,74.219,1.465,14.648
1532384593.577,52.734,37.598,64.453,0.977,8.789
1532384593.581,53.223,31.250,53.711,1.465,32.227
1532384593.584,49.316,24.902,66.406,3.418,42.969
1532384593.588,43.945,39.062,73.730,10.254,5.859
1532384593.592,36.133,36.133,71.289,15.625,8.301
1532384593.596,28.320,26.855,67.871,19.531,22.461
1532384593.600,22.461,36.621,64.453,24.902,48.340
1532384593.604,25.391,36.133,71.289,31.250,40.527
1532384593.608,26.855,26.367,71.777,32.227,11.719
1532384593.612,27.344,30.762,71.289,28.809,26.367
1532384593.616,25.391,34.668,74.707,21.484,71.777
1532384593.620,24.414,33.691,72.266,11.230,70.801
1532384593.624,22.949,44.922,63.477,13.672,25.391
1532384593.627,22.461,39.062,61.523,15.137,10.254
1532384593.631,20.020,16.113,65.918,7.324,2.441
1532384593.635,14.648,20.020,62.988,6.348,25.391
1532384593.639,17.578,31.250,62.012,6.836,4.395
1532384593.643,22.461,28.809,69.824,14.160,-10.254
1532384593.647,21.973,26.367,70.801,22.461,38.574
1532384593.651,19.531,23.926,69.824,18.066,37.598
1532384593.655,24.902,29.785,68.359,19.043,24.414
1532384593.659,29.297,32.227,58.594,25.879,22.461
1532384593.663,30.762,30.762,69.824,21.973,39.062
1532384593.667,23.438,30.273,81.055,18.555,54.199
1532384593.670,13.672,25.879,73.242,12.695,27.832
1532384593.674,16.602,30.762,67.871,9.766,40.527
1532384593.678,29.785,24.414,70.801,18.066,32.715
1532384593.682,34.180,16.602,62.988,19.531,31.738
1532384593.686,22.949,31.738,60.059,20.508,54.199
1532384593.690,22.461,41.504,73.730,19.531,3.418
1532384593.694,27.832,27.344,76.172,14.160,7.324
1532384593.698,27.832,24.414,70.801,12.695,32.715
1532384593.702,24.414,36.621,66.406,12.695,7.324
1532384593.706,31.250,34.180,69.824,15.137,9.277
1532384593.709,32.227,33.691,62.988,14.648,5.859
1532384593.713,28.809,31.250,53.223,10.254,22.949
1532384593.717,32.715,26.367,62.988,15.625,30.762
1532384593.721,35.156,31.738,71.289,18.555,7.812
1532384593.725,34.668,32.715,73.730,21.973,13.672
1532384593.729,28.320,37.598,64.941,20.996,25.391
1532384593.733,27.344,43.945,63.965,14.648,51.270
1532384593.737,31.738,35.156,69.824,16.602,58.594
1532384593.741,33.691,26.855,68.359,17.090,32.715
1532384593.745,38.574,39.062,75.195,20.996,22.461
1532384593.749,31.250,41.016,72.754,19.531,33.203
1532384593.752,31.250,33.203,63.477,17.578,31.250
1532384593.756,40.527,27.344,67.871,25.391,24.902
1532384593.760,36.133,21.973,67.871,26.367,13.184
1532384593.764,37.598,27.344,53.711,20.020,39.062
1532384593.768,36.133,35.645,62.012,17.578,48.340
1532384593.772,25.879,36.621,73.242,17.578,4.883
1532384593.776,29.785,40.039,64.453,23.926,13.672
1532384593.780,40.527,40.527,57.617,27.344,35.645
1532384593.784,38.086,29.297,62.500,20.508,16.602
1532384593.788,32.227,28.809,75.684,13.672,6.836
1532384593.792,28.809,32.227,81.055,7.324,-21.484
1532384593.795,26.855,22.461,78.613,10.742,-4.883
1532384593.799,30.273,28.320,69.336,13.672,42.969
1532384593.803,30.762,41.504,68.359,13.184,33.691
1532384593.807,33.691,40.039,66.895,17.578,0.977
1532384593.811,30.273,31.738,58.594,16.602,6.836
1532384593.815,34.180,28.809,64.941,18.066,35.645
1532384593.819,43.457,31.738,68.359,19.043,43.457
1532384593.823,39.062,27.832,65.918,13.672,23.926
1532384593.827,33.691,23.438,67.383,15.625,9.277
1532384593.831,30.273,27.344,61.523,11.230,42.480
1532384593.834,26.855,31.738,54.199,10.254,48.828
1532384593.838,22.461,30.762,56.641,10.742,20.508
1532384593.842,28.320,29.297,66.895,11.719,32.227
1532384593.846,31.250,34.180,71.777,18.066,84.961
1532384593.850,22.949,36.133,65.430,12.695,70.312
1532384593.854,23.926,28.809,65.430,10.742,33.691
1532384593.858,29.297,30.762,68.848,22.949,27.344
1532384593.862,20.020,42.480,62.988,25.879,20.996
1532384593.866,18.555,45.898,61.035,17.090,60.547
1532384593.870,26.367,41.504,55.664,13.672,64.453
1532384593.874,26.855,40.039,53.711,16.113,2.930
1532384593.877,22.461,38.574,62.012,6.836,0.977
1532384593.881,22.949,27.832,67.871,10.254,27.344
1532384593.885,26.367,20.508,62.012,15.137,40.039
1532384593.889,31.738,27.832,51.270,13.184,33.691
1532384593.893,34.180,37.109,50.293,16.113,0.488
1532384593.897,31.738,35.156,55.176,15.137,33.203
1532384593.901,36.133,30.762,61.035,20.996,78.613
1532384593.905,34.668,33.691,60.059,24.902,42.969
1532384593.909,27.344,38.086,54.199,19.043,-0.977
1532384593.913,23.926,33.691,54.688,10.254,12.207
1532384593.917,22.461,35.645,60.547,8.301,33.691
1532384593.920,16.113,38.086,62.500,6.836,34.668
1532384593.924,13.672,29.297,50.781,-1.953,4.883
1532384593.928,14.648,18.066,47.852,-1.465,-26.367
1532384593.932,16.602,20.996,61.035,5.859,-6.348
1532384593.936,17.578,32.227,61.035,5.859,20.508
1532384593.940,14.648,26.367,56.152,8.789,22.949
1532384593.944,16.602,18.555,57.617,11.719,21.973
1532384593.948,25.879,21.484,64.453,13.184,26.367
1532384593.952,34.668,30.273,66.406,16.113,31.738
1532384593.956,30.762,23.926,62.988,21.973,40.527
1532384593.960,28.320,20.020,55.176,26.367,26.367
1532384593.963,27.832,29.785,55.176,17.090,31.738
1532384593.967,23.438,28.809,57.617,11.230,63.477
1532384593.971,21.973,20.020,56.641,7.324,36.621
1532384593.975,18.066,20.508,61.523,9.766,14.648
1532384593.979,16.113,21.484,55.176,9.277,32.715
1532384593.983,12.695,19.043,51.758,-3.418,34.180
1532384593.987,11.719,28.809,55.664,-6.348,41.016
