timestamps,TP9,AF7,AF8,TP10,Right AUX
1532385274.562,30.273,34.668,58.105,31.738,27.344
1532385274.566,38.086,46.875,56.641,31.250,24.414
1532385274.570,46.875,49.805,61.035,37.109,18.066
1532385274.574,40.527,49.316,55.664,26.855,23.438
1532385274.578,33.203,48.340,40.527,14.160,19.043
1532385274.581,31.738,41.016,48.828,23.438,4.395
1532385274.585,24.902,31.738,60.547,26.367,28.809
1532385274.589,36.621,35.156,55.664,36.133,45.898
1532385274.593,40.527,35.645,43.457,42.480,45.898
1532385274.597,32.715,32.227,47.852,37.109,26.367
1532385274.601,35.156,30.273,63.477,36.621,28.809
1532385274.605,40.527,32.715,61.035,44.434,67.383
1532385274.609,33.203,44.434,43.945,33.203,65.918
1532385274.613,26.367,50.293,51.758,17.090,29.785
1532385274.617,23.926,42.480,65.918,11.230,-4.395
1532385274.621,22.949,36.133,59.570,20.020,8.301
1532385274.624,39.062,38.086,50.781,39.551,43.945
1532385274.628,45.898,38.086,54.688,28.809,32.227
1532385274.632,48.340,35.645,54.688,23.438,23.926
1532385274.636,38.574,31.738,43.945,31.250,22.949
1532385274.640,35.645,31.250,32.715,35.645,45.898
1532385274.644,48.340,34.180,48.828,44.922,75.195
1532385274.648,49.805,29.785,64.453,42.969,30.273
1532385274.652,47.363,38.086,57.617,36.621,-6.348
1532385274.656,53.711,47.363,53.223,22.949,24.902
1532385274.660,57.617,44.922,58.105,23.926,59.570
1532385274.664,61.523,45.410,58.105,30.762,25.879
1532385274.667,66.406,49.316,52.246,28.320,-6.836
1532385274.671,58.105,46.875,49.316,37.598,25.391
1532385274.675,43.945,42.969,41.016,47.852,48.828
1532385274.679,48.340,35.645,42.969,51.270,28.320
1532385274.683,39.551,34.180,57.129,50.781,-13.672
1532385274.687,38.574,43.457,73.730,59.082,4.395
1532385274.691,48.340,41.992,81.055,60.547,35.156
1532385274.695,39.062,37.598,65.430,51.270,14.160
1532385274.699,38.086,39.551,53.711,54.199,-7.324
1532385274.703,46.875,39.551,47.363,58.594,20.996
1532385274.706,42.969,41.016,44.922,58.594,69.824
1532385274.710,47.852,46.387,43.457,52.246,51.270
1532385274.714,58.105,44.922,44.434,46.875,-9.277
1532385274.718,53.223,34.180,53.711,56.641,-28.320
1532385274.722,51.758,30.273,56.152,58.594,-6.836
1532385274.726,47.852,43.945,57.617,47.852,30.762
1532385274.730,42.480,49.316,59.570,44.434,39.062
1532385274.734,47.852,48.828,53.711,49.316,24.414
1532385274.738,55.176,48.828,56.641,57.617,28.809
1532385274.742,46.875,37.598,49.316,53.223,40.527
1532385274.746,32.715,32.227,30.762,40.039,8.789
1532385274.749,32.227,36.621,43.945,38.574,-44.922
1532385274.753,40.527,37.598,53.223,37.109,-35.645
1532385274.757,36.621,32.227,52.734,40.527,52.246
1532385274.761,40.527,20.508,47.363,45.410,40.527
1532385274.765,54.199,16.602,43.945,50.293,-7.812
1532385274.769,42.969,33.203,60.059,47.363,1.953
1532385274.773,41.992,41.016,52.734,42.969,42.969
1532385274.777,55.664,48.340,39.062,46.875,35.156
1532385274.781,55.176,54.199,46.875,43.457,17.578
1532385274.785,50.293,43.457,49.805,33.203,23.926
1532385274.789,44.922,36.621,41.992,33.203,66.895
1532385274.792,35.156,39.551,34.180,34.180,80.078
1532385274.796,33.203,38.574,44.434,35.645,17.578
1532385274.800,34.180,24.902,53.711,45.898,6.348
1532385274.804,43.457,26.367,49.316,49.805,34.180
1532385274.808,51.758,36.133,50.293,41.016,56.641
1532385274.812,49.316,38.086,46.387,41.504,25.391
1532385274.816,45.410,41.504,38.574,38.086,-28.320
1532385274.820,52.734,49.805,48.340,40.039,-16.113
1532385274.824,61.035,48.340,57.129,49.316,19.043
1532385274.828,47.852,45.898,43.945,34.668,41.016
1532385274.831,37.598,42.480,36.133,27.344,43.945
1532385274.835,40.527,37.598,44.922,42.969,47.363
1532385274.839,42.480,41.992,49.316,47.852,65.430
1532385274.843,50.293,45.898,44.922,41.016,60.547
1532385274.847,52.734,41.016,38.086,39.551,32.227
1532385274.851,47.852,29.785,32.227,28.320,20.020
1532385274.855,49.805,23.438,36.133,33.691,33.691
1532385274.859,60.547,33.203,55.664,47.363,42.969
1532385274.863,59.082,42.480,47.852,37.598,39.551
1532385274.867,45.898,39.062,37.109,32.715,-4.883
1532385274.871,48.340,31.738,45.410,41.016,0.000
1532385274.874,56.152,26.367,38.574,43.457,51.270
1532385274.878,50.293,34.180,38.086,42.969,27.832
1532385274.882,57.129,41.504,39.062,47.363,-5.371
1532385274.886,58.594,40.527,35.645,41.016,15.625
1532385274.890,48.828,32.227,50.293,36.133,69.336
1532385274.894,46.387,29.297,48.340,38.086,56.641
1532385274.898,53.711,42.480,44.922,47.852,17.090
1532385274.902,57.129,40.527,48.828,52.734,0.977
1532385274.906,50.293,38.086,35.156,44.434,14.160
1532385274.910,41.504,44.434,29.785,36.621,50.781
1532385274.914,48.340,35.645,36.133,40.527,23.438
1532385274.917,55.664,32.227,41.016,42.969,-16.602
1532385274.921,51.758,41.504,40.039,38.574,11.230
1532385274.925,50.781,31.250,35.645,46.875,44.922
1532385274.929,45.898,13.672,39.551,50.293,16.113
1532385274.933,54.688,31.738,47.852,53.223,-8.301
1532385274.937,62.988,46.875,47.363,59.570,8.301
1532385274.941,42.480,38.574,36.133,37.598,29.785
1532385274.945,28.809,33.203,39.062,24.902,32.715
1532385274.949,43.945,33.691,46.875,37.598,-4.395
1532385274.953,51.270,30.273,38.086,42.969,-23.438
1532385274.956,43.457,28.809,39.062,50.293,24.902
1532385274.960,48.828,33.691,37.109,54.688,61.035
1532385274.964,53.711,29.297,28.809,60.059,42.969
1532385274.968,43.457,31.738,38.574,55.176,15.137
1532385274.972,49.316,35.645,36.133,46.875,36.621
1532385274.976,55.176,23.438,30.762,47.852,60.059
1532385274.980,46.875,32.715,45.898,51.270,55.664
1532385274.984,42.480,46.387,54.688,53.711,38.086
1532385274.988,42.969,38.086,38.086,50.781,39.551
1532385274.992,39.551,32.715,25.879,49.805,52.246
1532385274.996,44.434,30.762,33.203,46.387,35.156
1532385274.999,53.711,28.320,37.598,56.152,28.320
1532385275.003,51.270,32.715,28.320,47.852,35.645
1532385275.007,44.434,33.203,15.625,30.273,32.227
1532385275.011,40.527,28.809,12.695,42.969,-0.488
1532385275.015,45.898,26.367,28.320,42.969,-12.695
1532385275.019,49.316,27.344,30.273,48.340,4.395
1532385275.023,53.711,39.551,24.414,55.176,36.133
1532385275.027,56.641,45.898,31.738,58.594,42.969
1532385275.031,55.664,38.574,25.879,53.223,12.695
1532385275.035,48.828,26.367,20.996,46.387,10.742
1532385275.039,42.480,26.855,19.043,51.758,57.617
1532385275.042,48.828,32.227,18.066,56.152,66.406
1532385275.046,60.059,30.273,20.996,64.941,42.969
1532385275.050,62.988,18.066,15.625,66.895,24.414
1532385275.054,59.082,21.973,13.184,51.758,7.324
1532385275.058,57.129,30.762,12.207,46.875,41.016
1532385275.062,53.223,18.555,8.301,55.176,37.109
1532385275.066,54.199,32.715,18.066,54.688,21.484
1532385275.070,58.105,45.410,21.973,59.082,28.809
1532385275.074,61.523,35.156,12.207,58.105,60.059
1532385275.078,58.594,37.109,10.254,52.246,73.730
1532385275.081,50.781,34.180,0.977,51.270,41.016
1532385275.085,58.594,19.043,-2.441,56.152,25.391
1532385275.089,53.223,13.672,5.371,63.477,56.641
1532385275.093,43.457,14.648,6.348,67.383,85.449
1532385275.097,51.758,13.184,15.625,64.941,19.531
1532385275.101,49.316,13.672,20.020,55.664,3.906
1532385275.105,40.039,16.602,16.602,55.664,45.898
1532385275.109,43.945,26.367,20.020,55.664,50.781
1532385275.113,49.805,27.832,1.953,48.828,44.922
1532385275.117,51.270,14.160,-10.254,53.223,-6.836
1532385275.121,49.316,15.137,10.254,56.641,30.273
1532385275.124,47.363,19.531,10.742,59.082,72.754
1532385275.128,49.316,23.438,-3.906,59.082,22.461
1532385275.132,48.340,24.902,-3.906,54.199,8.789
1532385275.136,52.246,18.066,9.277,56.152,13.184
1532385275.140,50.293,9.277,13.184,57.129,42.969
1532385275.144,57.617,9.277,4.395,59.570,69.824
1532385275.148,57.129,15.137,9.277,52.734,37.109
1532385275.152,47.363,16.113,4.395,52.734,-2.930
1532385275.156,51.758,21.484,2.441,54.199,-1.465
1532385275.160,62.012,31.738,21.484,51.270,-11.719
1532385275.164,59.570,24.414,19.043,62.012,3.418
1532385275.167,43.457,15.137,3.418,58.594,24.902
1532385275.171,45.898,16.602,-2.441,40.039,38.574
1532385275.175,57.129,10.254,-2.930,50.293,97.656
1532385275.179,53.711,13.184,-7.812,63.965,71.777
1532385275.183,60.059,18.066,-16.113,57.617,13.184
1532385275.187,61.523,14.160,-12.695,53.711,22.949
1532385275.191,48.828,12.207,0.977,52.246,52.734
1532385275.195,43.945,20.508,10.742,49.805,70.312
1532385275.199,41.016,23.926,8.301,48.340,47.363
1532385275.203,54.199,26.367,1.465,55.176,55.176
1532385275.207,71.289,24.902,0.488,70.312,62.500
1532385275.210,66.406,3.906,-6.836,67.383,40.039
1532385275.214,63.477,-3.906,-19.043,61.035,18.555
1532385275.218,60.547,3.906,-18.555,62.500,13.184
1532385275.222,56.641,7.812,-6.348,62.500,55.664
1532385275.226,53.223,17.578,-11.230,62.988,77.637
1532385275.230,57.617,20.996,-9.277,57.617,39.062
1532385275.234,57.617,17.090,-0.977,58.105,23.438
1532385275.238,57.617,20.508,-6.348,62.500,32.715
1532385275.242,76.172,20.508,-8.789,60.547,57.617
1532385275.246,75.684,20.996,-1.465,69.336,46.387
1532385275.249,58.594,16.113,-3.418,62.988,-18.066
1532385275.253,54.688,6.836,-12.695,46.387,8.301
1532385275.257,55.664,14.648,-22.461,45.898,32.715
1532385275.261,57.129,20.020,-27.344,45.410,22.949
1532385275.265,54.199,16.113,-20.508,48.340,30.762
1532385275.269,50.781,15.137,-25.391,44.922,26.367
1532385275.273,57.617,3.418,-30.273,46.387,45.410
1532385275.277,64.453,-1.953,-27.832,60.059,52.246
1532385275.281,62.988,12.695,-41.504,54.199,61.523
1532385275.285,64.941,25.879,-42.480,51.270,72.754
1532385275.289,66.895,27.832,-26.367,61.035,58.105
1532385275.292,55.176,20.020,-38.086,46.875,23.926
1532385275.296,62.012,6.836,-41.504,51.758,28.809
1532385275.300,62.988,1.465,-45.410,63.477,11.719
1532385275.304,51.758,9.766,-51.758,55.176,21.484
1532385275.308,53.223,14.648,-36.621,53.711,63.965
1532385275.312,60.059,18.066,-41.992,61.523,29.297
1532385275.316,58.594,20.508,-49.805,61.523,3.418
1532385275.320,49.805,5.859,-41.016,53.711,-7.324
1532385275.324,59.570,4.395,-35.156,63.477,17.090
1532385275.328,60.547,15.625,-37.109,62.500,40.039
1532385275.332,51.270,9.766,-48.828,44.434,11.719
1532385275.335,53.711,0.000,-55.664,45.410,24.414
1532385275.339,62.500,-1.953,-61.523,48.340,41.504
1532385275.343,57.129,5.859,-68.359,48.828,48.340
1532385275.347,64.941,11.230,-58.594,62.012,19.043
1532385275.351,67.871,11.230,-44.434,58.594,7.812
1532385275.355,62.500,8.301,-38.086,55.664,46.387
1532385275.359,61.035,9.277,-37.598,62.012,51.758
1532385275.363,50.781,10.742,-46.875,54.688,39.551
1532385275.367,59.570,15.137,-49.805,62.012,29.297
1532385275.371,61.523,15.625,-39.551,59.570,15.137
1532385275.374,55.176,4.395,-48.828,43.945,13.672
1532385275.378,53.223,4.883,-63.477,43.457,23.926
1532385275.382,53.223,5.859,-63.477,47.852,13.672
1532385275.386,43.457,6.348,-54.199,48.828,2.930
1532385275.390,48.340,9.277,-40.527,52.734,29.785
1532385275.394,62.012,3.418,-41.016,58.105,33.691
1532385275.398,65.918,-5.371,-48.828,59.082,17.578
1532385275.402,56.641,-2.441,-52.246,57.617,12.695
1532385275.406,45.898,15.625,-45.410,54.688,17.578
1532385275.410,60.547,21.484,-35.645,60.059,31.250
1532385275.414,63.477,13.184,-41.992,71.777,-14.648
1532385275.417,57.617,10.742,-57.129,63.965,-38.086
1532385275.421,60.547,4.883,-55.176,60.547,32.227
1532385275.425,58.594,-7.812,-40.527,68.359,58.105
1532385275.429,57.129,-0.977,-41.992,62.988,17.090
1532385275.433,60.059,6.836,-44.922,64.453,12.207
1532385275.437,61.523,0.000,-34.668,65.918,36.133
1532385275.441,57.617,-7.324,-47.363,65.430,50.293
1532385275.445,70.312,10.254,-51.270,68.359,46.387
1532385275.449,73.242,28.320,-36.133,57.129,12.207
1532385275.453,60.547,16.602,-40.527,54.199,-11.230
1532385275.457,73.242,6.348,-37.598,63.477,27.832
1532385275.460,62.500,4.395,-30.762,62.500,48.828
1532385275.464,55.176,8.789,-36.621,59.570,31.738
1532385275.468,68.848,11.230,-36.621,64.453,-5.859
1532385275.472,67.871,13.184,-42.480,67.383,11.230
1532385275.476,65.918,17.578,-43.457,64.941,51.758
1532385275.480,80.566,16.113,-38.086,65.430,36.621
1532385275.484,79.590,18.066,-34.668,69.824,10.742
1532385275.488,62.500,18.555,-35.156,60.059,29.297
1532385275.492,73.730,18.555,-43.945,61.035,66.895
1532385275.496,85.449,22.949,-36.133,70.312,45.410
1532385275.499,78.613,18.066,-34.668,58.105,11.230
1532385275.503,76.172,6.836,-43.945,39.062,21.484
1532385275.507,74.707,-0.977,-40.039,31.250,45.410
1532385275.511,67.383,-10.254,-36.133,34.180,30.273
1532385275.515,62.500,-13.184,-41.992,43.457,15.137
1532385275.519,55.664,-2.441,-32.715,59.082,14.160
1532385275.523,54.199,8.789,-24.902,65.918,54.199
1532385275.527,60.059,8.301,-29.297,67.871,62.988
1532385275.531,61.035,6.348,-24.414,70.801,21.484
1532385275.535,58.594,0.977,-16.113,75.195,-14.160
1532385275.539,47.363,-3.906,-17.578,58.105,5.371
1532385275.542,41.992,-3.906,-25.879,52.734,41.992
1532385275.546,42.969,-2.441,-31.250,58.594,18.555
1532385275.550,45.410,-1.953,-27.344,54.199,2.930
1532385275.554,44.434,-7.812,-11.719,55.176,17.578
1532385275.558,52.734,-3.906,-4.395,53.711,38.574
1532385275.562,60.547,3.418,3.418,60.547,53.711
1532385275.566,62.500,19.043,0.977,59.082,14.160
1532385275.570,68.848,26.855,-2.930,52.246,-16.113
1532385275.574,61.523,13.184,7.324,56.641,34.180
1532385275.578,65.918,12.695,13.184,72.754,46.387
1532385275.582,71.777,19.531,14.648,68.848,9.766
1532385275.585,62.988,13.184,1.953,56.152,-2.930
1532385275.589,59.570,8.789,1.953,48.828,30.273
1532385275.593,60.059,-1.465,14.648,47.363,38.086
1532385275.597,58.105,-4.883,17.578,49.316,3.418
1532385275.601,58.105,10.254,13.184,45.410,-11.230
1532385275.605,64.941,9.766,16.602,53.711,20.996
1532385275.609,56.152,7.324,26.367,54.688,45.410
1532385275.613,45.410,22.461,28.320,39.062,31.738
1532385275.617,47.852,23.926,22.461,40.527,8.301
1532385275.621,60.547,20.508,24.902,57.617,27.832
1532385275.624,55.176,19.043,31.738,55.664,57.617
1532385275.628,45.410,13.184,31.250,41.992,40.039
1532385275.632,48.340,7.324,23.926,46.387,32.227
1532385275.636,49.316,1.465,18.555,62.500,27.344
1532385275.640,57.617,8.789,28.320,59.570,49.805
1532385275.644,61.035,21.484,39.062,53.223,76.172
1532385275.648,62.012,27.832,39.551,55.664,21.973
1532385275.652,56.641,20.996,45.898,44.922,-1.953
1532385275.656,46.387,16.113,44.434,39.062,47.852
1532385275.660,40.039,19.043,28.320,40.527,67.383
1532385275.664,55.176,20.020,32.715,43.457,45.410
1532385275.667,61.035,25.391,47.363,46.387,17.578
1532385275.671,40.527,20.996,32.227,37.109,21.973
1532385275.675,44.434,14.648,14.648,32.227,46.875
1532385275.679,50.781,16.602,29.297,27.832,55.664
1532385275.683,37.598,19.531,40.039,24.902,38.086
1532385275.687,43.457,20.996,43.457,32.715,5.371
1532385275.691,54.688,10.742,46.875,41.504,28.809
1532385275.695,44.922,7.324,41.016,41.504,24.902
1532385275.699,43.457,18.555,38.574,39.062,-16.113
1532385275.703,46.387,13.184,36.621,44.434,2.441
1532385275.707,45.410,10.254,43.945,42.480,34.180
1532385275.710,51.270,20.508,34.180,38.086,32.227
1532385275.714,46.387,4.395,19.531,34.180,9.277
1532385275.718,37.598,-7.324,37.598,23.438,0.488
1532385275.722,36.133,12.207,45.410,27.344,14.648
1532385275.726,27.832,26.855,41.992,36.133,22.461
1532385275.730,27.832,19.043,43.945,32.715,14.648
1532385275.734,36.621,-1.953,36.133,35.156,-19.043
1532385275.738,43.457,-1.465,25.879,36.621,8.301
1532385275.742,38.574,12.207,30.273,33.203,35.156
1532385275.746,44.922,25.391,40.527,38.574,7.812
1532385275.750,49.805,23.438,30.273,41.992,-0.488
1532385275.753,38.086,-1.953,34.180,36.621,8.301
1532385275.757,35.156,-4.883,52.246,36.621,25.879
1532385275.761,39.551,9.277,48.340,40.527,24.414
1532385275.765,43.945,16.113,42.480,38.574,-12.207
1532385275.769,37.598,17.090,46.387,39.062,-15.137
1532385275.773,43.457,11.230,43.457,41.992,39.551
1532385275.777,43.457,7.812,32.715,38.086,62.012
1532385275.781,25.879,13.184,38.086,37.109,14.160
1532385275.785,31.250,16.602,52.734,35.156,-4.883
1532385275.789,35.156,18.066,50.293,24.414,13.184
1532385275.792,35.156,17.090,42.480,28.809,26.855
1532385275.796,45.410,18.066,47.363,36.621,2.930
1532385275.800,45.410,14.160,47.363,36.621,-9.766
1532385275.804,39.062,8.301,34.180,43.457,36.133
1532385275.808,41.992,5.859,32.227,38.574,59.570
1532385275.812,40.039,2.930,39.551,31.738,35.156
1532385275.816,31.250,9.277,45.898,41.504,4.395
1532385275.820,24.902,15.137,49.805,36.621,24.902
1532385275.824,24.414,21.484,45.898,23.926,64.941
1532385275.828,35.156,16.602,38.574,30.762,54.688
1532385275.832,34.180,9.766,36.621,41.504,11.230
1532385275.835,26.855,21.973,38.574,41.992,3.906
1532385275.839,20.996,23.438,45.410,41.992,27.344
1532385275.843,21.484,22.461,51.270,39.551,62.988
1532385275.847,28.320,13.672,50.293,35.156,58.594
1532385275.851,33.691,4.395,44.434,35.156,20.508
1532385275.855,32.715,7.324,43.945,36.133,27.344
1532385275.859,36.133,11.230,44.922,36.621,53.223
1532385275.863,39.062,12.695,41.016,39.062,36.133
1532385275.867,24.902,5.859,43.945,37.598,20.996
1532385275.871,20.508,12.695,43.457,32.715,22.461
1532385275.875,25.391,21.484,46.387,25.879,38.086
1532385275.878,37.109,24.414,48.340,25.879,41.992
1532385275.882,33.691,20.996,52.734,28.809,14.648
1532385275.886,28.809,21.973,49.805,41.504,17.578
1532385275.890,35.156,25.391,42.480,39.551,53.711
1532385275.894,28.320,22.949,34.180,26.367,70.801
1532385275.898,28.320,11.230,30.762,30.273,31.738
1532385275.902,34.668,3.906,37.598,30.762,-1.465
1532385275.906,21.484,6.348,38.086,28.809,31.738
1532385275.910,20.508,12.695,39.062,20.996,39.062
1532385275.914,22.949,10.742,39.551,22.461,18.066
1532385275.917,22.949,-3.418,42.480,26.855,12.695
1532385275.921,27.344,-0.488,42.969,31.738,35.156
1532385275.925,35.156,14.648,33.691,38.086,64.941
1532385275.929,41.016,20.020,34.180,24.414,44.434
1532385275.933,23.926,17.578,34.180,17.578,-3.906
1532385275.937,19.043,10.742,25.879,18.066,11.230
1532385275.941,26.367,11.230,36.621,23.438,37.109
1532385275.945,20.996,11.719,40.527,29.297,27.344
1532385275.949,16.602,7.324,20.508,25.391,1.465
1532385275.953,22.461,8.301,26.367,20.020,3.906
1532385275.957,35.645,9.766,37.598,26.367,27.344
1532385275.960,42.480,9.277,29.785,28.320,41.504
1532385275.964,27.344,-0.488,29.297,27.344,26.367
1532385275.968,27.344,-0.977,31.738,25.879,-8.789
1532385275.972,32.715,17.090,28.320,21.484,37.109
1532385275.976,14.648,16.113,32.715,20.996,53.711
1532385275.980,-0.488,1.465,34.668,17.578,18.555
1532385275.984,6.348,-7.812,35.645,12.695,5.859
1532385275.988,20.996,-8.789,30.762,16.113,30.273
1532385275.992,23.438,-4.883,16.113,22.949,62.500
1532385275.996,20.508,0.977,14.160,13.672,37.598
1532385276.000,6.348,9.277,27.832,-0.488,7.324
1532385276.003,1.465,3.418,39.551,-7.812,16.602
1532385276.007,5.859,0.488,32.715,-2.930,47.852
1532385276.011,8.301,0.488,22.949,5.859,57.617
1532385276.015,13.184,-0.977,24.902,5.371,15.137
1532385276.019,25.391,0.000,31.738,20.508,3.418
1532385276.023,10.254,-6.348,30.762,14.160,52.734
1532385276.027,-5.859,-4.883,25.879,-8.301,83.984
1532385276.031,-10.742,-2.930,20.996,-8.789,23.926
1532385276.035,-11.230,-18.066,26.855,-1.953,-18.555
1532385276.039,-9.277,-21.973,18.555,-5.371,24.414
1532385276.042,-9.766,-19.043,7.812,-1.953,44.434
1532385276.046,-1.465,-17.090,5.859,-6.348,48.828
1532385276.050,-4.395,-13.672,20.020,-8.301,23.926
1532385276.054,-14.648,-16.602,28.320,-5.859,26.367
1532385276.058,-0.488,-10.742,16.602,-2.930,49.805
1532385276.062,6.836,-5.859,22.461,2.930,34.180
1532385276.066,-15.137,-14.160,23.438,-6.348,17.090
1532385276.070,-14.160,-15.625,16.602,-12.695,-3.418
1532385276.074,-16.602,-14.648,4.883,-17.090,47.363
1532385276.078,-18.555,-11.230,2.441,-10.742,72.266
1532385276.082,-20.020,-15.137,19.043,-7.324,18.555
1532385276.085,-14.160,-30.762,11.719,-4.883,10.254
1532385276.089,-2.930,-26.855,-10.742,-9.766,49.805
1532385276.093,-10.254,-3.906,4.395,-16.113,65.430
1532385276.097,-0.488,1.953,18.555,-8.789,51.758
1532385276.101,-3.418,-2.441,18.066,-8.301,29.297
1532385276.105,-2.441,-7.812,18.066,-0.977,44.922
1532385276.109,7.324,-13.672,16.602,4.883,61.523
1532385276.113,-8.301,-24.414,13.672,-2.441,75.684
1532385276.117,-7.812,-21.484,5.371,-6.836,51.270
1532385276.121,-5.371,-11.230,4.883,-9.766,34.180
1532385276.125,-15.625,-13.672,13.672,-13.672,50.781
1532385276.128,-14.160,-21.484,14.160,-18.555,49.805
1532385276.132,-8.301,-20.508,11.230,-22.949,5.859
1532385276.136,-10.254,-11.719,12.207,-19.043,1.465
1532385276.140,-12.695,-8.301,13.184,-16.113,41.016
1532385276.144,-7.324,-3.906,20.508,-5.859,41.016
1532385276.148,0.977,-3.418,14.648,-6.836,4.395
1532385276.152,-2.441,-13.184,11.719,-12.207,7.324
1532385276.156,-9.277,-12.207,9.277,-6.348,43.457
1532385276.160,-14.160,-8.789,7.812,-11.719,49.316
1532385276.164,-14.160,-10.254,20.996,-9.277,44.434
1532385276.167,-13.184,-2.441,28.320,-8.301,1.953
1532385276.171,-11.719,-1.465,22.949,-14.160,3.418
1532385276.175,-9.766,-12.695,14.160,-14.160,29.785
1532385276.179,0.977,-19.043,15.137,-13.672,25.391
1532385276.183,-5.859,-10.254,16.602,-5.371,25.879
1532385276.187,2.441,11.230,27.832,9.277,19.043
1532385276.191,-2.441,14.648,26.855,-2.930,47.852
1532385276.195,-25.879,-3.418,21.973,-19.531,51.758
1532385276.199,-13.184,-9.277,18.066,-14.648,17.578
1532385276.203,-7.324,-4.395,12.207,-8.301,3.418
1532385276.207,-3.418,-6.348,23.926,-1.953,28.320
1532385276.210,8.789,-14.160,23.926,3.418,71.289
1532385276.214,5.859,0.000,28.809,5.859,55.664
1532385276.218,5.371,6.836,44.434,8.301,32.227
1532385276.222,3.418,3.418,37.598,4.883,48.828
1532385276.226,3.906,6.836,18.555,0.000,59.570
1532385276.230,9.766,11.719,12.207,2.930,39.062
1532385276.234,5.859,9.277,27.344,-3.906,14.648
1532385276.238,1.953,-0.488,31.250,-12.695,-11.719
1532385276.242,3.906,-5.371,21.484,-11.719,1.953
1532385276.246,9.277,-8.301,24.414,2.441,37.109
1532385276.250,7.324,18.555,18.555,15.137,52.734
1532385276.253,6.348,16.113,21.484,16.602,35.156
1532385276.257,2.930,10.254,29.785,17.090,-7.324
1532385276.261,8.301,5.859,29.785,18.066,4.395
1532385276.265,5.859,8.301,29.785,19.531,35.156
1532385276.269,0.977,13.672,31.738,23.438,7.324
1532385276.273,0.000,13.184,21.973,20.508,-1.465
1532385276.277,-7.812,-2.930,20.996,9.277,36.133
1532385276.281,-5.859,-3.418,29.297,4.395,57.129
1532385276.285,-7.324,19.531,28.809,0.000,60.059
1532385276.289,-5.371,19.043,24.414,-1.953,33.203
1532385276.293,3.418,17.090,28.809,9.766,20.508
1532385276.296,6.836,15.625,33.691,12.695,49.316
1532385276.300,6.836,5.859,36.133,8.789,60.059
1532385276.304,10.742,5.859,29.785,17.090,56.641
1532385276.308,-1.465,7.324,19.531,5.371,24.902
1532385276.312,5.371,5.859,32.715,-3.906,25.391
1532385276.316,15.137,11.230,38.086,2.441,34.668
1532385276.320,0.000,16.602,30.273,0.488,5.859
1532385276.324,3.906,21.484,20.996,0.000,-23.438
1532385276.328,8.789,27.832,10.254,5.371,20.020
1532385276.332,10.742,25.391,5.859,13.184,59.570
1532385276.335,17.578,8.789,18.555,12.207,27.344
1532385276.339,16.113,-3.418,30.273,2.930,-16.113
1532385276.343,7.812,9.766,32.227,5.371,26.855
1532385276.347,-0.488,7.324,47.363,8.789,34.668
1532385276.351,6.348,14.160,41.016,11.230,46.875
1532385276.355,18.066,18.066,36.621,7.324,33.203
1532385276.359,25.879,11.230,32.715,9.766,-3.906
1532385276.363,15.625,-2.441,28.809,12.695,8.789
1532385276.367,2.441,2.930,19.531,-3.906,41.016
1532385276.371,-1.465,20.996,20.508,-8.301,40.039
1532385276.375,4.395,20.508,21.973,-3.418,-4.883
1532385276.378,6.836,9.766,28.320,8.301,-3.906
1532385276.382,14.160,9.277,44.922,15.625,36.621
1532385276.386,18.066,13.184,44.434,12.695,32.715
1532385276.390,9.766,32.227,73.730,19.531,29.785
1532385276.394,21.484,31.250,70.801,25.879,14.648
1532385276.398,26.855,41.992,63.477,22.949,20.508
1532385276.402,30.273,55.176,61.523,17.578,41.992
1532385276.406,20.996,44.922,59.570,15.137,37.109
1532385276.410,22.949,30.273,48.340,15.625,5.859
1532385276.414,25.879,35.645,42.969,15.625,13.672
1532385276.418,19.531,42.969,52.734,11.230,22.461
1532385276.421,21.484,42.480,52.246,7.324,-4.395
1532385276.425,26.855,38.574,50.781,0.000,-50.293
1532385276.429,20.996,35.156,48.340,4.395,-18.555
1532385276.433,12.207,37.109,34.668,16.113,37.109
1532385276.437,11.230,35.645,35.156,20.020,38.574
1532385276.441,13.184,30.273,42.969,20.996,36.133
1532385276.445,16.602,28.809,40.039,25.391,21.484
1532385276.449,12.207,34.180,37.598,23.438,44.434
1532385276.453,8.301,34.180,32.227,13.672,28.809
1532385276.457,6.348,20.020,30.273,15.137,-3.418
1532385276.460,11.230,24.414,24.902,12.207,-0.488
1532385276.464,6.836,40.039,17.578,5.371,28.809
1532385276.468,14.160,40.039,17.578,13.672,73.730
1532385276.472,17.578,34.180,23.438,14.648,45.898
1532385276.476,7.812,28.809,27.832,11.230,4.883
1532385276.480,29.297,37.598,29.785,16.602,19.043
1532385276.484,33.691,36.133,25.879,17.090,29.785
1532385276.488,23.926,20.508,20.020,2.930,20.996
1532385276.492,20.996,28.809,20.020,1.953,13.672
1532385276.496,11.719,35.156,18.555,2.441,10.742
1532385276.500,17.578,26.367,17.578,9.766,34.668
1532385276.503,9.766,28.320,9.277,9.766,37.109
1532385276.507,15.137,34.668,9.766,8.301,21.973
1532385276.511,17.578,32.227,13.672,9.766,-5.859
1532385276.515,7.812,26.367,21.484,6.836,8.789
1532385276.519,12.695,26.367,27.832,7.324,41.992
1532385276.523,20.020,34.180,24.902,12.695,19.043
1532385276.527,14.648,45.898,27.344,21.484,7.324
1532385276.531,7.324,38.086,23.926,19.531,52.246
1532385276.535,0.977,19.043,6.836,8.789,50.781
1532385276.539,2.930,14.160,-2.930,9.766,12.207
1532385276.543,16.113,21.973,2.441,18.066,-0.977
1532385276.546,17.090,29.297,13.672,14.648,28.809
1532385276.550,6.348,30.273,15.137,7.324,66.406
1532385276.554,16.113,37.109,15.137,7.324,34.180
1532385276.558,25.391,41.992,19.531,9.277,-8.789
1532385276.562,21.484,45.898,23.438,14.160,0.977
1532385276.566,28.320,46.387,15.137,13.184,68.848
1532385276.570,27.344,35.156,-3.906,6.836,67.383
1532385276.574,27.832,30.273,0.488,11.719,11.719
1532385276.578,27.344,37.109,9.766,13.672,32.715
1532385276.582,17.090,30.762,12.207,12.695,66.895
1532385276.585,27.832,25.391,21.484,13.672,65.918
1532385276.589,33.691,40.039,32.715,13.184,30.273
1532385276.593,27.344,46.875,33.691,14.648,5.371
1532385276.597,19.531,44.434,20.996,12.207,58.105
1532385276.601,14.160,46.387,16.113,15.625,89.844
1532385276.605,23.438,44.922,28.809,19.043,53.711
1532385276.609,32.227,38.574,35.645,24.902,21.973
1532385276.613,18.555,27.344,38.086,22.461,26.855
1532385276.617,12.207,23.926,33.203,15.137,60.547
1532385276.621,15.137,33.203,25.391,6.348,68.359
1532385276.625,13.672,34.668,38.086,7.812,38.574
1532385276.628,15.137,36.621,41.992,13.672,26.367
1532385276.632,13.184,51.270,33.203,5.371,61.035
1532385276.636,13.184,47.363,39.551,10.254,70.801
1532385276.640,17.090,34.668,32.227,11.230,33.691
1532385276.644,17.090,35.156,30.762,8.301,1.953
1532385276.648,25.391,41.016,51.758,15.625,43.457
1532385276.652,23.438,39.551,52.734,20.020,87.402
1532385276.656,12.207,33.691,41.016,7.324,55.176
1532385276.660,8.301,30.762,34.180,2.441,13.184
1532385276.664,16.113,25.391,37.598,13.184,19.043
1532385276.668,20.996,23.438,50.293,10.254,47.363
1532385276.671,23.438,31.738,55.664,13.184,38.086
1532385276.675,18.555,30.273,38.086,17.090,8.301
1532385276.679,20.508,29.297,32.715,18.555,25.391
1532385276.683,13.672,35.156,58.594,24.902,66.895
1532385276.687,9.277,40.527,67.871,12.695,64.941
1532385276.691,7.324,39.062,55.664,9.277,12.207
1532385276.695,4.883,40.527,56.641,21.484,-3.906
1532385276.699,8.301,43.945,65.918,13.672,35.156
1532385276.703,6.348,24.414,51.270,0.000,49.316
1532385276.707,7.324,11.230,37.109,-6.348,28.809
1532385276.710,8.301,24.414,44.922,-3.418,-5.859
1532385276.714,18.066,21.484,53.711,0.977,15.137
1532385276.718,17.090,20.020,53.223,9.277,66.895
1532385276.722,11.719,25.879,53.711,9.277,43.457
1532385276.726,9.277,26.855,50.293,7.812,7.812
1532385276.730,15.137,27.344,52.246,12.695,34.668
1532385276.734,15.137,27.344,52.734,10.254,58.594
1532385276.738,14.160,21.973,56.152,5.371,37.109
1532385276.742,23.926,23.926,53.223,10.254,15.137
1532385276.746,19.043,35.645,54.688,19.043,-7.812
1532385276.750,20.508,34.668,70.312,25.879,28.809
1532385276.753,13.672,25.391,66.406,11.719,28.320
1532385276.757,12.207,10.742,49.316,-11.719,-5.859
1532385276.761,15.137,0.488,44.434,-5.859,11.719
1532385276.765,8.789,14.648,54.688,10.254,38.086
1532385276.769,15.625,31.738,61.523,4.395,53.711
1532385276.773,28.809,41.016,58.105,1.465,31.250
1532385276.777,29.785,39.062,58.105,7.812,-1.953
1532385276.781,30.273,31.250,55.664,7.324,25.391
1532385276.785,40.527,35.645,52.734,17.578,79.102
1532385276.789,34.668,33.691,65.430,20.020,54.688
1532385276.793,21.973,19.043,65.430,17.090,-8.301
1532385276.796,29.785,11.719,61.035,32.715,-6.348
1532385276.800,28.320,15.625,68.359,34.668,45.410
1532385276.804,1.953,20.508,63.477,23.438,27.832
1532385276.808,0.000,28.809,56.152,26.855,-12.207
1532385276.812,3.418,36.621,49.316,33.691,-14.648
1532385276.816,-7.812,39.551,56.641,18.555,24.902
1532385276.820,-4.395,36.133,71.777,12.695,78.125
1532385276.824,1.465,31.250,71.777,20.508,48.340
1532385276.828,-8.789,29.785,64.941,18.066,11.230
1532385276.832,0.488,30.273,58.105,12.695,21.484
1532385276.836,10.254,26.855,51.270,14.160,31.250
1532385276.839,6.836,25.391,51.758,16.113,26.367
1532385276.843,11.719,25.391,58.594,20.508,-0.977
1532385276.847,5.371,17.578,63.965,22.461,12.695
1532385276.851,18.066,29.297,65.430,29.785,39.551
1532385276.855,30.762,36.621,64.941,34.180,26.855
1532385276.859,23.926,20.996,69.336,19.531,-14.648
1532385276.863,24.414,27.344,69.824,18.555,-11.719
1532385276.867,20.020,33.691,55.664,13.184,25.391
1532385276.871,6.836,31.738,62.012,5.371,28.809
1532385276.875,13.184,29.785,58.105,11.230,28.320
1532385276.878,24.414,26.855,45.898,3.906,38.574
1532385276.882,19.531,31.250,72.754,12.207,66.895
1532385276.886,36.133,41.016,84.961,30.762,68.848
1532385276.890,41.504,29.785,67.871,24.902,39.062
1532385276.894,19.043,28.320,59.082,17.578,30.273
1532385276.898,2.441,29.297,56.641,15.625,42.969
1532385276.902,14.648,22.461,52.734,12.695,58.105
1532385276.906,28.320,29.785,55.664,18.066,41.504
1532385276.910,26.367,36.133,73.242,24.902,19.531
1532385276.914,22.949,34.180,81.055,21.973,28.320
1532385276.918,22.461,30.273,71.777,12.695,49.805
1532385276.921,25.879,34.180,64.941,12.207,59.570
1532385276.925,32.227,38.574,64.453,23.438,37.109
1532385276.929,23.926,27.832,59.082,19.043,44.922
1532385276.933,18.555,30.273,47.852,19.043,62.012
1532385276.937,32.227,32.715,53.711,26.855,37.109
1532385276.941,20.508,25.879,65.918,13.672,27.344
1532385276.945,21.973,30.762,71.289,17.090,23.926
1532385276.949,32.227,38.574,66.895,25.879,57.617
1532385276.953,25.879,44.922,67.383,26.367,68.359
1532385276.957,21.973,41.992,76.172,20.508,11.230
1532385276.961,18.555,39.062,77.148,12.695,-12.207
1532385276.964,12.695,39.062,67.383,16.602,37.109
1532385276.968,20.508,31.250,58.105,20.020,83.008
1532385276.972,37.109,24.902,43.457,18.066,54.199
1532385276.976,33.691,29.297,43.457,26.855,12.207
1532385276.980,25.391,33.203,68.359,25.391,40.527
1532385276.984,20.508,30.273,82.031,19.043,53.711
1532385276.988,31.250,24.902,73.730,22.949,38.086
1532385276.992,37.598,31.250,52.734,22.949,38.086
1532385276.996,26.855,37.598,59.082,15.625,42.969
1532385277.000,23.926,37.598,68.359,16.602,74.219
1532385277.003,28.809,35.645,50.781,22.461,59.570
1532385277.007,24.902,26.855,51.758,28.809,7.812
1532385277.011,29.297,14.160,64.941,30.762,11.719
1532385277.015,35.156,30.762,67.871,25.391,65.430
1532385277.019,36.133,45.410,80.078,32.715,80.566
1532385277.023,27.344,34.180,74.707,30.273,42.969
1532385277.027,24.414,32.227,62.988,20.020,21.973
1532385277.031,34.180,36.621,59.570,15.625,51.758
1532385277.035,32.227,41.016,47.363,15.625,57.617
1532385277.039,18.555,31.250,48.340,14.160,17.090
1532385277.043,21.973,28.320,58.105,21.484,-2.930
1532385277.046,23.438,32.227,54.688,22.461,28.809
1532385277.050,18.555,29.297,51.270,18.555,74.707
1532385277.054,24.414,31.250,54.199,14.648,38.574
1532385277.058,29.297,32.715,69.824,11.230,2.441
1532385277.062,34.180,40.527,75.684,24.902,18.066
1532385277.066,13.184,36.133,62.500,24.902,29.297
1532385277.070,-0.977,22.461,64.941,23.438,25.879
1532385277.074,3.418,26.367,69.336,18.555,12.207
1532385277.078,-0.977,35.645,63.477,18.555,13.672
1532385277.082,10.254,33.203,56.152,30.762,27.344
1532385277.086,10.254,27.344,50.293,23.438,39.551
1532385277.089,29.297,26.855,46.387,20.508,28.809
1532385277.093,39.062,30.762,49.316,31.250,2.441
1532385277.097,19.531,37.109,57.617,21.973,28.320
1532385277.101,16.113,41.016,63.477,21.484,49.805
1532385277.105,17.578,34.668,62.988,28.809,17.578
1532385277.109,20.996,41.504,64.941,23.438,11.230
1532385277.113,11.230,40.527,66.406,18.066,25.391
1532385277.117,1.953,20.508,53.223,17.578,47.852
1532385277.121,-0.977,21.973,43.457,8.789,28.809
1532385277.125,3.418,40.039,59.570,5.859,-17.578
1532385277.128,6.348,41.016,62.988,10.742,-6.348
1532385277.132,4.883,27.832,56.641,7.324,40.527
1532385277.136,10.742,25.391,55.176,10.254,29.297
1532385277.140,11.719,35.645,58.105,7.324,-15.137
1532385277.144,6.836,34.180,66.406,1.953,-6.348
1532385277.148,8.789,29.297,60.547,14.648,59.570
1532385277.152,20.508,32.227,57.129,21.484,69.824
1532385277.156,15.625,30.273,39.062,12.207,28.320
1532385277.160,4.395,25.879,37.598,6.836,4.395
1532385277.164,10.254,28.320,59.570,10.254,20.996
1532385277.168,4.883,30.762,58.105,11.719,60.059
1532385277.171,4.883,17.090,59.082,23.438,39.551
1532385277.175,12.207,13.184,63.477,28.320,9.277
1532385277.179,17.090,24.902,59.570,18.066,26.855
1532385277.183,21.973,26.367,50.293,14.160,59.570
1532385277.187,23.926,33.203,57.617,14.648,60.059
1532385277.191,20.996,46.387,55.664,15.137,15.625
1532385277.195,5.859,29.785,34.180,10.254,20.020
1532385277.199,5.859,17.578,37.109,-9.277,57.129
1532385277.203,17.578,31.738,55.664,0.000,43.457
1532385277.207,23.926,35.156,46.387,6.348,33.203
1532385277.211,18.555,27.344,29.785,7.324,32.227
1532385277.214,13.184,33.203,39.062,7.812,50.781
1532385277.218,19.043,41.504,47.363,13.184,83.496
1532385277.222,19.043,40.527,46.875,22.949,58.105
1532385277.226,15.137,32.227,44.922,17.578,27.344
1532385277.230,20.996,30.273,48.828,27.344,32.715
1532385277.234,24.902,26.855,45.410,35.645,45.410
1532385277.238,29.785,12.207,40.527,28.809,41.016
1532385277.242,23.926,20.508,31.250,20.996,46.387
1532385277.246,15.625,23.926,17.578,19.531,50.293
1532385277.250,21.484,9.277,30.762,14.160,44.434
1532385277.253,22.949,16.602,44.922,8.789,51.758
1532385277.257,16.113,20.996,38.574,11.230,37.598
1532385277.261,20.508,14.160,38.574,13.184,20.508
1532385277.265,27.344,22.949,49.316,8.301,32.715
1532385277.269,17.578,26.855,38.086,1.953,54.688
1532385277.273,16.113,18.066,21.973,1.465,42.969
1532385277.277,19.043,12.695,28.809,10.742,11.230
1532385277.281,18.555,5.859,33.203,2.930,26.855
1532385277.285,15.625,11.719,39.551,-2.930,36.133
1532385277.289,14.160,20.508,44.922,10.254,23.438
1532385277.293,15.625,17.578,38.574,13.184,27.344
1532385277.296,20.020,19.043,38.574,10.254,2.930
1532385277.300,9.277,11.719,30.762,3.418,40.527
1532385277.304,-4.395,-3.418,24.902,5.371,79.590
1532385277.308,7.812,8.789,45.410,8.789,51.758
1532385277.312,6.836,19.043,43.945,2.930,52.734
1532385277.316,-8.301,2.930,34.668,-7.812,69.336
1532385277.320,-9.766,0.488,43.457,-11.719,54.199
1532385277.324,-8.301,3.418,41.016,-8.789,50.781
1532385277.328,0.488,17.090,46.387,-2.441,51.270
1532385277.332,-3.906,28.320,40.527,4.395,34.668
1532385277.336,0.488,20.508,28.809,2.930,29.785
1532385277.339,7.812,25.391,28.809,0.977,2.441
1532385277.343,9.766,22.461,28.809,3.906,-14.160
1532385277.347,5.859,7.812,44.922,5.371,29.297
1532385277.351,12.207,20.508,57.129,7.324,29.785
1532385277.355,13.672,25.879,51.270,8.301,9.277
1532385277.359,8.789,13.184,34.668,8.789,5.371
1532385277.363,2.441,15.625,33.691,3.906,20.508
1532385277.367,-3.418,28.809,44.922,0.000,59.082
1532385277.371,1.465,28.320,34.668,3.418,35.645
1532385277.375,5.371,22.949,23.926,11.719,9.766
1532385277.378,1.953,20.020,42.480,9.766,4.395
1532385277.382,0.977,11.719,61.523,4.395,35.156
1532385277.386,1.953,22.461,62.012,10.742,38.086
1532385277.390,2.930,23.926,52.246,8.301,-2.930
1532385277.394,2.930,13.184,45.898,0.488,23.926
1532385277.398,4.883,13.184,44.434,-3.418,55.664
1532385277.402,14.160,19.043,46.875,7.324,49.316
1532385277.406,4.883,21.484,51.270,5.859,34.668
1532385277.410,5.371,11.719,37.598,-0.488,11.230
1532385277.414,3.418,20.996,27.832,8.789,19.043
1532385277.418,-3.418,35.645,37.109,-0.488,46.387
1532385277.421,6.836,28.320,51.758,-10.254,46.387
1532385277.425,4.883,20.508,53.223,-6.836,15.137
1532385277.429,1.953,20.508,49.316,-1.953,31.738
1532385277.433,-1.953,22.461,52.734,-2.930,70.312
1532385277.437,0.000,25.391,43.945,1.465,63.965
1532385277.441,2.930,23.926,35.156,6.836,57.129
1532385277.445,16.602,19.531,41.504,12.695,36.621
1532385277.449,23.438,21.484,48.828,20.508,48.340
1532385277.453,0.000,16.602,49.316,2.930,75.684
1532385277.457,-9.277,23.438,43.457,-21.973,21.973
1532385277.461,-5.859,33.691,43.945,-23.926,-7.324
1532385277.464,-9.277,26.367,48.828,-6.348,54.199
1532385277.468,3.418,20.020,42.969,1.465,79.590
1532385277.472,12.207,20.508,40.527,0.488,38.086
1532385277.476,6.348,19.043,46.875,0.488,9.277
1532385277.480,9.277,26.855,41.504,5.371,41.992
1532385277.484,9.766,28.320,40.039,6.836,79.102
1532385277.488,3.906,27.344,58.594,8.789,50.781
1532385277.492,6.836,34.180,58.105,13.184,7.324
1532385277.496,10.742,27.832,45.410,4.395,-5.371
1532385277.500,-0.488,20.996,40.039,-3.418,33.691
1532385277.504,-3.418,10.742,37.109,-1.465,46.387
1532385277.507,5.371,10.742,31.738,1.465,15.625
1532385277.511,5.859,20.020,38.086,8.301,23.438
1532385277.515,14.160,22.949,32.715,14.160,42.480
1532385277.519,20.508,25.879,22.461,16.602,41.992
1532385277.523,7.324,27.832,39.551,14.160,37.109
1532385277.527,4.883,27.344,51.758,5.371,44.434
1532385277.531,9.277,21.973,42.480,0.000,66.406
1532385277.535,1.953,17.578,41.504,6.836,52.734
1532385277.539,12.207,20.996,54.688,15.625,11.719
1532385277.543,14.648,23.926,45.898,16.602,11.719
1532385277.546,7.324,21.973,37.109,9.277,24.414
1532385277.550,8.301,10.742,34.668,9.766,48.828
1532385277.554,8.301,13.672,32.227,1.953,42.480
1532385277.558,7.812,26.855,43.945,0.977,19.531
1532385277.562,9.277,23.926,46.875,10.742,17.090
1532385277.566,29.785,37.598,46.875,16.602,20.508
1532385277.570,45.410,47.363,34.668,15.137,55.176
1532385277.574,31.250,21.484,34.668,-6.348,41.504
1532385277.578,28.320,15.625,59.570,2.930,15.137
1532385277.582,23.926,20.020,58.105,14.160,43.945
1532385277.586,1.953,15.137,40.039,5.371,43.945
1532385277.589,0.977,10.742,41.016,13.672,3.418
1532385277.593,5.371,12.207,54.688,26.367,13.184
1532385277.597,-1.953,14.160,52.734,28.320,45.410
1532385277.601,-4.395,3.418,50.293,25.879,38.086
1532385277.605,-9.277,2.441,50.293,13.672,18.555
1532385277.609,-9.766,9.766,47.363,4.883,27.832
1532385277.613,-5.371,20.996,45.898,10.742,38.574
1532385277.617,3.906,36.621,46.875,20.996,42.969
1532385277.621,-4.395,25.879,45.410,11.230,36.621
1532385277.625,-9.766,12.207,40.039,0.977,23.438
1532385277.629,2.930,11.230,27.832,2.441,25.879
1532385277.632,0.000,11.719,23.438,6.348,49.316
1532385277.636,5.859,13.672,30.273,9.277,39.062
1532385277.640,12.695,4.395,35.156,0.977,2.441
1532385277.644,7.324,1.953,33.203,-1.465,-7.324
1532385277.648,8.789,19.531,23.926,4.883,30.762
1532385277.652,8.301,29.785,26.855,8.789,74.707
1532385277.656,15.625,23.926,21.973,8.789,37.598
1532385277.660,16.602,23.438,13.672,17.090,5.371
1532385277.664,17.578,34.668,20.996,22.949,41.504
1532385277.668,22.949,28.320,29.785,21.484,81.055
1532385277.671,17.578,14.160,30.762,12.207,54.199
1532385277.675,4.395,2.441,24.902,7.324,-4.395
1532385277.679,6.348,0.977,12.207,8.789,7.324
1532385277.683,4.395,11.719,10.254,5.859,48.340
1532385277.687,12.207,12.695,15.625,6.348,23.926
1532385277.691,16.602,9.277,18.555,12.695,6.836
1532385277.695,7.812,13.672,13.184,13.672,-8.789
1532385277.699,27.832,21.973,6.348,17.578,43.457
1532385277.703,25.391,22.461,15.137,15.625,100.098
1532385277.707,19.043,27.832,32.227,21.484,46.875
1532385277.711,22.949,27.832,32.227,20.996,34.180
1532385277.714,15.137,23.926,15.137,10.742,56.641
1532385277.718,11.719,15.625,9.277,16.602,57.617
1532385277.722,23.926,9.766,10.254,16.113,50.293
1532385277.726,30.762,16.602,10.742,6.836,16.602
1532385277.730,9.766,14.160,11.719,3.906,25.879
1532385277.734,3.906,14.160,15.625,0.977,60.547
1532385277.738,9.766,25.879,22.949,3.418,25.879
1532385277.742,13.672,33.691,23.438,9.277,17.090
1532385277.746,17.578,29.785,24.902,6.348,34.668
1532385277.750,21.973,20.508,24.414,9.766,74.707
1532385277.754,22.949,23.438,27.832,7.812,84.473
1532385277.757,27.832,29.297,36.133,14.160,33.691
1532385277.761,26.855,20.020,30.762,16.602,8.301
1532385277.765,14.648,24.414,26.855,5.371,22.949
1532385277.769,21.484,32.715,33.203,12.207,41.016
1532385277.773,20.996,30.273,38.086,4.883,20.996
1532385277.777,13.184,21.973,33.691,0.488,-6.836
1532385277.781,18.066,14.648,29.785,9.277,26.367
1532385277.785,11.719,22.461,37.598,3.906,50.781
1532385277.789,11.719,27.344,35.645,0.977,41.992
1532385277.793,14.648,25.391,31.738,7.324,18.066
1532385277.796,24.902,28.809,41.992,15.625,17.090
1532385277.800,26.855,26.855,47.363,11.719,46.875
1532385277.804,29.785,19.043,40.527,2.441,43.457
1532385277.808,26.367,18.555,37.598,-12.695,25.391
1532385277.812,12.207,21.973,44.922,-7.812,25.879
1532385277.816,9.766,19.043,48.828,1.465,61.035
1532385277.820,18.066,20.508,49.316,5.371,47.852
1532385277.824,11.719,20.508,53.223,-3.418,3.906
1532385277.828,6.348,25.391,60.547,-1.465,24.414
1532385277.832,14.160,24.902,58.594,16.602,45.410
1532385277.836,9.277,17.090,43.945,11.719,36.621
1532385277.839,17.578,24.902,41.992,18.066,34.180
1532385277.843,18.555,29.297,51.270,27.344,3.906
1532385277.847,31.738,35.645,54.688,28.809,15.625
1532385277.851,30.762,35.156,63.477,32.227,79.102
1532385277.855,12.207,17.578,65.918,21.484,23.438
1532385277.859,9.277,11.719,71.777,20.508,-59.570
1532385277.863,11.719,20.508,71.777,27.832,-26.367
1532385277.867,27.832,28.809,70.801,31.738,52.246
1532385277.871,31.738,31.738,66.406,34.668,76.660
1532385277.875,21.484,26.367,46.387,28.320,20.508
1532385277.879,27.344,32.227,59.570,37.598,-1.465
1532385277.882,24.902,18.066,69.824,21.484,29.785
1532385277.886,8.789,10.254,66.406,-3.906,52.734
1532385277.890,22.949,32.227,80.078,22.949,36.133
1532385277.894,25.879,36.133,78.613,34.668,-11.719
1532385277.898,11.719,36.133,59.082,22.949,14.160
1532385277.902,11.719,42.969,66.895,27.344,52.734
1532385277.906,3.418,33.203,73.242,20.508,7.812
1532385277.910,-8.789,18.555,68.848,12.207,-20.020
1532385277.914,3.906,19.043,69.336,23.438,20.996
1532385277.918,18.555,26.855,60.547,33.691,52.734
1532385277.921,16.602,26.367,62.012,32.715,16.602
1532385277.925,16.113,28.809,72.266,37.109,-6.348
1532385277.929,25.391,34.668,75.195,41.992,12.695
1532385277.933,38.574,28.320,70.312,32.715,20.020
1532385277.937,27.832,24.902,67.871,26.855,11.719
1532385277.941,15.137,21.484,61.523,32.715,-8.301
1532385277.945,21.973,23.438,65.430,28.809,-8.301
1532385277.949,28.320,30.273,71.289,20.996,17.578
1532385277.953,28.320,28.809,66.406,21.973,19.043
1532385277.957,31.250,26.367,69.336,32.227,-4.395
1532385277.961,30.762,27.344,65.430,30.273,-26.367
1532385277.964,26.855,27.344,67.383,26.367,-2.441
1532385277.968,27.344,31.250,62.500,33.691,10.254
1532385277.972,17.090,36.621,51.758,23.438,-32.715
1532385277.976,15.625,28.809,59.082,21.484,-32.715
1532385277.980,16.602,25.391,60.547,30.273,20.020
1532385277.984,13.672,30.273,64.941,26.855,75.684
1532385277.988,13.184,25.391,77.148,25.879,31.738
1532385277.992,13.184,15.137,68.359,22.461,-32.227
1532385277.996,15.137,12.207,61.523,18.066,-4.883
1532385278.000,11.719,34.180,75.684,19.531,19.043
1532385278.004,11.230,49.316,79.102,24.902,5.371
1532385278.007,11.719,35.156,69.336,19.043,-2.441
1532385278.011,8.789,30.273,62.500,15.137,21.484
1532385278.015,21.484,38.574,46.387,15.625,27.832
1532385278.019,25.879,35.645,53.711,17.578,11.719
1532385278.023,17.578,25.391,69.824,17.090,1.465
1532385278.027,16.113,31.738,55.176,12.695,-6.348
1532385278.031,24.414,33.691,56.641,12.695,12.695
1532385278.035,27.832,24.902,65.430,11.719,43.457
1532385278.039,20.996,22.461,59.082,13.184,21.484
1532385278.043,19.531,22.949,66.895,13.672,-16.113
1532385278.047,19.531,18.066,74.219,14.160,-2.441
1532385278.050,18.555,21.484,67.871,14.648,58.594
1532385278.054,15.625,37.598,58.594,15.625,67.383
1532385278.058,24.414,41.504,61.523,21.484,14.160
1532385278.062,18.066,30.273,66.895,16.113,24.902
1532385278.066,13.672,37.109,71.289,20.020,55.664
1532385278.070,22.949,40.527,69.336,27.832,51.270
1532385278.074,8.789,29.297,59.570,20.508,25.391
1532385278.078,-2.441,20.508,62.500,18.066,-16.602
1532385278.082,3.906,17.578,62.988,13.672,-5.859
1532385278.086,22.461,22.949,57.129,9.277,22.949
1532385278.089,23.926,22.461,55.176,11.230,9.766
1532385278.093,23.926,7.812,63.965,15.137,-0.488
1532385278.097,21.973,20.996,71.289,14.160,14.160
1532385278.101,16.113,51.758,59.082,12.207,50.293
1532385278.105,26.367,52.246,46.875,16.602,46.387
1532385278.109,20.508,41.016,67.871,14.648,-5.859
1532385278.113,9.277,27.832,76.172,7.324,0.000
1532385278.117,-0.977,23.926,59.082,-8.301,31.738
1532385278.121,-2.441,27.344,52.246,-5.859,45.410
1532385278.125,11.719,27.832,54.199,10.254,39.062
1532385278.129,5.859,21.484,47.363,2.441,4.883
1532385278.132,16.602,24.414,61.523,7.324,-4.883
1532385278.136,24.414,31.250,68.848,11.230,46.387
1532385278.140,17.578,34.180,51.758,9.277,44.922
1532385278.144,16.602,30.273,46.875,16.113,18.555
1532385278.148,24.902,22.949,60.059,29.297,33.691
1532385278.152,34.180,31.250,64.941,29.297,45.410
1532385278.156,35.645,39.551,58.594,13.672,51.758
1532385278.160,24.902,33.203,68.359,22.949,28.809
1532385278.164,33.691,35.645,62.988,34.668,6.348
1532385278.168,28.320,38.086,55.176,29.297,6.348
1532385278.172,8.789,29.785,75.684,17.578,39.551
1532385278.175,13.672,27.344,75.195,20.996,-4.883
1532385278.179,8.789,11.719,45.410,14.648,-23.926
1532385278.183,18.555,18.555,50.293,6.836,25.391
1532385278.187,23.926,20.020,66.406,-0.488,15.137
1532385278.191,17.578,20.020,65.430,14.648,-10.742
1532385278.195,21.973,30.762,68.359,21.973,-10.254
1532385278.199,16.602,21.484,69.336,20.508,1.953
1532385278.203,12.207,14.648,62.500,17.578,14.648
1532385278.207,26.367,14.648,61.035,19.531,-2.930
1532385278.211,22.461,7.812,66.895,18.066,-43.457
1532385278.214,8.301,16.602,62.500,10.742,-16.602
1532385278.218,12.695,34.180,56.152,-0.488,-3.906
1532385278.222,18.066,45.898,57.617,11.719,0.488
1532385278.226,20.508,30.273,59.082,12.207,-13.184
1532385278.230,10.742,14.648,62.988,5.371,-14.648
1532385278.234,16.113,27.344,66.895,10.742,21.973
1532385278.238,25.879,29.297,59.570,14.160,41.504
1532385278.242,20.508,24.902,53.711,11.719,15.137
1532385278.246,25.391,24.902,59.570,11.230,-9.277
1532385278.250,31.250,26.855,67.871,14.648,0.000
1532385278.254,40.039,40.527,71.777,24.414,14.648
1532385278.257,31.738,39.062,62.988,20.996,33.691
1532385278.261,31.738,31.738,47.363,10.742,19.043
1532385278.265,36.133,30.762,39.551,16.113,-0.488
1532385278.269,13.672,24.902,48.340,15.625,41.992
1532385278.273,7.324,25.879,59.082,-0.977,35.156
1532385278.277,17.090,28.320,62.988,-9.277,19.531
1532385278.281,20.020,23.438,64.453,0.000,19.043
1532385278.285,25.391,24.902,63.965,11.230,35.645
1532385278.289,31.738,31.738,59.570,8.301,47.852
1532385278.293,35.645,20.508,58.105,15.625,10.254
1532385278.297,31.738,14.648,50.781,24.902,-15.625
1532385278.300,30.762,31.738,52.734,30.762,32.227
1532385278.304,38.574,36.621,55.664,34.180,70.312
1532385278.308,27.344,24.414,44.434,34.180,23.438
1532385278.312,3.906,30.762,56.641,-13.184,6.836
1532385278.316,4.883,29.785,56.641,4.883,0.488
1532385278.320,8.789,18.555,45.898,18.066,30.273
1532385278.324,11.230,16.602,55.176,28.320,54.199
1532385278.328,15.625,29.297,70.312,40.039,28.320
1532385278.332,20.996,36.133,53.711,33.691,0.977
1532385278.336,24.414,35.645,41.504,22.949,7.324
1532385278.339,19.043,30.762,43.457,20.508,38.574
1532385278.343,19.043,32.227,39.062,21.484,49.316
1532385278.347,24.414,36.133,52.246,25.879,24.414
1532385278.351,29.297,34.180,69.824,30.762,3.418
1532385278.355,24.414,36.621,62.500,20.020,28.320
1532385278.359,18.066,27.344,50.781,14.160,42.480
1532385278.363,14.648,20.996,56.152,13.672,16.602
1532385278.367,16.602,26.855,62.988,14.160,35.645
1532385278.371,18.555,27.344,50.293,16.602,56.152
1532385278.375,19.531,31.738,33.691,20.508,62.988
1532385278.379,20.020,35.645,31.250,19.531,55.664
1532385278.382,17.578,25.391,53.223,24.902,31.738
1532385278.386,16.113,19.531,65.918,23.438,36.621
1532385278.390,27.344,28.809,61.523,22.461,32.715
1532385278.394,31.250,33.691,63.965,40.527,30.762
1532385278.398,31.738,35.156,53.223,39.551,9.277
1532385278.402,38.574,36.621,64.941,42.969,13.184
1532385278.406,38.086,36.133,83.984,32.715,-5.371
1532385278.410,30.273,45.410,88.379,22.949,15.625
1532385278.414,23.438,35.645,89.844,14.648,62.500
1532385278.418,24.902,31.738,78.125,27.344,42.969
1532385278.422,25.879,35.645,93.262,29.297,22.949
1532385278.425,17.578,31.250,104.004,16.113,50.781
1532385278.429,23.926,21.973,100.586,25.391,87.402
1532385278.433,21.484,12.695,110.840,27.832,90.820
1532385278.437,13.184,19.531,112.305,25.879,39.551
1532385278.441,25.391,19.043,117.188,36.621,20.508
1532385278.445,23.438,21.484,106.445,26.855,52.246
1532385278.449,21.973,34.180,76.172,16.602,73.730
1532385278.453,13.672,38.574,75.684,24.414,38.574
1532385278.457,6.836,36.621,93.262,23.926,20.020
1532385278.461,11.719,34.180,100.098,27.344,37.109
1532385278.464,22.949,29.785,106.445,25.879,48.340
1532385278.468,27.344,25.879,106.934,28.320,44.434
1532385278.472,27.344,28.809,111.328,26.367,21.973
1532385278.476,34.180,38.086,119.141,30.762,32.227
1532385278.480,42.969,30.762,115.723,42.480,48.340
1532385278.484,32.227,15.625,97.656,22.461,44.434
1532385278.488,15.625,22.461,92.285,7.324,34.668
1532385278.492,14.160,28.809,108.887,15.625,33.203
1532385278.496,24.902,34.668,109.863,24.902,48.828
1532385278.500,32.715,34.668,102.051,27.832,31.738
1532385278.504,27.344,32.715,111.816,23.438,4.395
1532385278.507,23.438,38.574,106.445,21.973,22.949
1532385278.511,14.648,36.621,107.422,21.484,66.895
1532385278.515,12.207,30.273,110.352,19.531,56.641
1532385278.519,25.879,34.668,106.934,28.320,28.320
1532385278.523,25.879,39.551,112.305,32.227,35.645
1532385278.527,32.227,38.086,114.258,30.273,43.457
1532385278.531,38.574,40.527,117.188,28.320,51.758
1532385278.535,39.062,33.203,107.910,16.602,-5.371
1532385278.539,40.527,32.227,108.398,21.484,-27.344
1532385278.543,36.621,37.598,113.770,31.250,11.230
1532385278.547,31.738,37.109,111.328,21.973,33.203
1532385278.550,22.461,44.434,115.723,22.461,35.156
1532385278.554,17.578,36.621,119.629,23.438,-7.812
1532385278.558,29.785,34.180,119.141,20.996,-7.812
1532385278.562,33.691,41.504,104.004,31.250,44.434
1532385278.566,35.156,37.109,106.934,35.156,57.617
1532385278.570,44.434,36.621,118.164,41.016,28.809
1532385278.574,38.086,35.645,104.980,42.480,29.297
1532385278.578,34.668,41.504,103.516,42.480,44.922
1532385278.582,46.387,46.387,130.859,51.758,39.551
1532385278.586,41.016,30.762,138.672,45.898,15.625
1532385278.590,29.297,29.785,121.582,31.738,-1.465
1532385278.593,27.832,46.387,105.957,20.508,7.324
1532385278.597,28.809,42.969,104.492,23.438,34.668
1532385278.601,38.574,47.363,102.539,47.363,17.090
1532385278.605,42.480,54.688,94.238,46.387,-16.113
1532385278.609,41.992,41.016,109.863,40.527,17.090
1532385278.613,38.574,33.203,125.000,41.504,38.086
1532385278.617,26.367,41.992,118.164,23.438,11.719
1532385278.621,26.367,49.316,112.793,25.879,3.906
1532385278.625,32.227,42.969,116.211,39.062,23.438
1532385278.629,43.945,40.527,114.258,44.922,34.668
1532385278.632,55.176,44.434,116.699,56.641,34.668
1532385278.636,44.434,46.387,114.746,47.852,8.301
1532385278.640,37.109,55.664,105.957,35.645,0.000
1532385278.644,41.016,56.641,105.469,41.016,38.574
1532385278.648,43.945,50.781,93.750,42.480,64.453
1532385278.652,42.969,36.621,88.867,39.551,-0.977
1532385278.656,48.340,29.297,108.398,40.527,-30.762
1532385278.660,48.828,43.945,116.699,41.992,4.395
1532385278.664,46.875,53.711,115.723,42.480,28.320
1532385278.668,51.270,61.523,114.746,46.875,32.227
1532385278.672,50.293,56.641,114.258,42.480,21.484
1532385278.675,51.270,47.363,112.793,45.410,21.484
1532385278.679,51.270,51.758,100.586,43.945,41.016
1532385278.683,38.574,51.758,88.867,30.273,63.477
1532385278.687,34.668,43.457,108.887,31.250,29.297
1532385278.691,36.621,45.410,120.605,34.668,-10.742
1532385278.695,30.762,50.293,104.980,26.367,13.184
1532385278.699,47.852,45.898,108.887,30.273,43.945
1532385278.703,49.805,40.527,121.094,45.410,21.484
1532385278.707,51.270,49.316,116.211,44.434,-3.906
1532385278.711,62.988,63.477,115.234,32.715,31.738
1532385278.715,61.523,58.105,104.492,23.926,39.551
1532385278.718,58.594,57.617,91.309,27.344,0.488
1532385278.722,46.875,61.035,94.238,28.809,-28.809
1532385278.726,53.711,56.152,101.562,29.785,15.137
1532385278.730,51.758,49.316,111.328,30.273,73.730
1532385278.734,43.457,45.410,114.746,34.668,48.340
1532385278.738,41.992,46.387,121.582,62.012,-4.395
1532385278.742,42.480,46.387,128.418,67.871,2.441
1532385278.746,49.805,51.270,113.770,61.523,41.504
1532385278.750,56.152,61.035,121.582,72.266,60.547
1532385278.754,45.898,60.547,129.883,64.941,30.273
1532385278.757,35.156,51.270,112.305,45.898,11.719
1532385278.761,28.809,51.270,111.816,39.551,60.547
1532385278.765,35.645,54.199,109.863,46.875,59.570
1532385278.769,37.109,45.410,104.980,46.875,15.137
1532385278.773,34.668,46.387,111.328,47.363,-6.836
1532385278.777,51.270,51.270,113.281,52.734,3.418
1532385278.781,41.016,43.945,116.699,60.059,40.527
1532385278.785,37.598,56.152,120.117,50.781,41.016
1532385278.789,61.035,71.777,124.512,64.941,11.230
1532385278.793,51.758,63.965,119.141,69.824,13.184
1532385278.797,37.598,46.387,113.770,39.062,17.578
1532385278.800,36.621,27.832,124.512,51.758,20.508
1532385278.804,45.410,34.180,121.094,74.707,-0.977
1532385278.808,53.223,55.664,113.770,63.965,34.668
1532385278.812,54.199,59.570,126.465,64.453,68.359
1532385278.816,62.500,58.594,128.906,65.430,33.691
1532385278.820,70.801,55.176,112.305,65.918,29.297
1532385278.824,60.547,53.223,108.887,67.871,12.695
1532385278.828,49.316,61.035,124.023,66.406,20.996
1532385278.832,59.570,60.059,126.465,57.129,27.344
1532385278.836,63.965,61.523,124.023,71.289,-6.348
1532385278.840,55.176,56.152,121.582,79.102,3.418
1532385278.843,55.664,41.992,114.746,62.012,43.457
1532385278.847,56.152,48.828,122.070,55.664,53.223
1532385278.851,53.223,52.246,125.000,60.547,13.184
1532385278.855,53.711,50.781,117.676,56.641,-39.062
1532385278.859,55.176,51.758,114.258,46.387,-25.391
1532385278.863,52.734,55.664,113.770,51.270,17.578
1532385278.867,51.270,54.199,113.770,56.152,9.277
1532385278.871,51.758,48.340,112.793,55.664,-8.789
1532385278.875,55.664,52.246,109.375,62.500,-1.465
1532385278.879,50.781,48.828,110.352,66.895,32.715
1532385278.882,55.664,48.340,120.117,64.941,58.594
1532385278.886,61.035,54.688,124.023,67.871,37.109
1532385278.890,47.852,45.898,109.863,62.988,29.785
1532385278.894,45.898,46.387,107.422,52.734,41.504
1532385278.898,41.504,50.293,105.957,42.969,32.227
1532385278.902,42.480,41.992,102.051,40.527,12.207
1532385278.906,52.246,40.039,99.121,45.898,2.930
1532385278.910,41.016,50.781,99.121,45.898,42.480
1532385278.914,33.691,57.617,98.633,32.227,39.551
1532385278.918,39.062,52.246,95.703,29.785,19.531
1532385278.922,42.480,46.875,96.680,48.828,33.203
1532385278.925,46.875,52.246,94.238,47.363,56.641
1532385278.929,53.711,59.082,95.703,45.898,73.242
1532385278.933,51.270,61.523,99.121,55.664,61.035
1532385278.937,45.898,43.945,92.773,46.387,33.691
1532385278.941,52.734,29.297,89.355,42.969,5.859
1532385278.945,54.688,42.480,94.238,43.457,45.898
1532385278.949,50.781,53.223,101.562,56.152,72.266
1532385278.953,59.082,56.641,104.980,60.059,40.527
1532385278.957,61.523,61.035,86.426,52.734,41.016
1532385278.961,54.688,53.711,86.914,55.176,64.453
1532385278.965,49.316,48.340,99.121,47.363,47.852
1532385278.968,47.852,51.758,102.051,45.410,27.832
1532385278.972,44.434,47.363,103.027,48.828,22.949
1532385278.976,49.316,48.340,99.609,46.387,23.438
1532385278.980,67.383,58.594,103.516,59.082,62.012
1532385278.984,56.641,50.293,100.098,54.199,50.781
1532385278.988,41.016,34.668,95.215,50.781,12.695
1532385278.992,40.039,41.016,94.727,45.898,6.836
1532385278.996,40.527,57.129,98.145,38.574,39.551
1532385279.000,41.504,63.477,101.074,47.363,56.152
1532385279.004,38.086,61.035,99.121,47.363,47.852
1532385279.007,54.688,58.105,110.352,55.176,38.086
1532385279.011,56.152,52.734,99.121,61.035,32.227
1532385279.015,39.551,34.180,83.984,47.363,47.363
1532385279.019,43.945,42.969,102.539,44.434,35.645
1532385279.023,40.039,58.594,100.098,52.734,21.484
1532385279.027,32.227,38.574,84.961,47.852,47.363
1532385279.031,26.855,31.738,85.938,35.156,72.754
1532385279.035,33.691,46.875,79.102,42.480,26.367
1532385279.039,33.691,46.387,79.102,34.668,0.488
1532385279.043,21.484,44.922,86.914,15.137,30.273
1532385279.047,22.461,50.293,87.891,30.273,44.434
1532385279.050,34.180,45.898,80.078,42.480,45.410
1532385279.054,42.969,35.156,72.754,43.457,25.879
1532385279.058,36.621,29.297,74.219,29.785,7.812
1532385279.062,33.203,29.785,86.426,37.109,45.898
1532385279.066,31.250,40.527,91.797,47.363,62.012
1532385279.070,20.996,45.898,83.496,33.691,46.387
1532385279.074,24.414,41.504,81.543,35.645,28.809
1532385279.078,33.203,37.109,76.660,37.109,53.711
1532385279.082,34.180,38.574,82.031,35.156,68.359
1532385279.086,31.250,42.969,81.055,33.203,33.691
1532385279.090,37.109,43.945,68.359,38.574,5.859
1532385279.093,42.480,40.527,79.102,50.293,8.789
1532385279.097,49.316,34.668,78.613,43.945,42.969
1532385279.101,49.805,38.574,78.125,49.316,60.547
1532385279.105,40.039,44.434,83.496,55.664,11.719
1532385279.109,44.434,37.598,80.566,51.270,28.809
1532385279.113,53.223,31.738,84.473,48.828,77.148
1532385279.117,56.152,36.621,80.566,45.898,45.898
1532385279.121,38.574,45.898,90.820,37.598,9.277
1532385279.125,28.809,46.875,92.773,37.598,15.625
1532385279.129,34.180,44.922,83.008,47.852,56.641
1532385279.133,40.527,46.875,77.637,47.852,41.504
1532385279.136,46.875,49.805,75.684,47.363,-2.930
1532385279.140,47.363,39.062,84.961,52.734,32.715
1532385279.144,39.551,36.621,85.938,51.270,72.754
1532385279.148,47.363,53.711,78.613,44.922,65.430
1532385279.152,52.734,57.617,67.383,45.898,27.832
1532385279.156,43.457,50.293,72.266,47.363,-3.906
1532385279.160,35.645,42.480,88.867,43.945,28.320
1532385279.164,40.527,41.992,91.309,36.133,54.688
1532385279.168,39.551,49.805,89.844,31.738,16.602
1532385279.172,37.109,34.668,83.984,32.227,-20.996
1532385279.175,41.016,24.414,75.195,28.809,8.301
1532385279.179,34.180,38.574,73.730,30.273,41.504
1532385279.183,24.902,45.898,79.590,30.762,31.738
1532385279.187,19.043,49.316,86.426,26.855,14.160
1532385279.191,26.855,56.641,93.750,32.715,0.000
1532385279.195,36.621,62.500,87.891,38.574,11.719
1532385279.199,34.668,56.641,73.242,27.344,17.090
1532385279.203,41.504,49.316,82.520,34.668,8.301
1532385279.207,35.645,41.504,95.215,42.969,-10.254
1532385279.211,26.855,42.969,92.285,39.551,15.137
1532385279.215,26.367,53.223,80.566,29.785,45.898
1532385279.218,25.391,51.270,81.055,19.531,-2.441
1532385279.222,34.180,38.086,86.914,30.762,-12.207
1532385279.226,40.527,31.738,85.938,41.016,13.184
1532385279.230,41.504,33.691,95.215,40.527,21.973
1532385279.234,25.879,41.016,94.727,34.668,4.883
1532385279.238,23.438,61.035,80.078,33.691,-4.883
1532385279.242,24.902,60.059,77.148,33.203,1.465
1532385279.246,31.250,47.852,80.566,27.344,35.156
1532385279.250,36.133,49.805,87.891,28.320,29.297
1532385279.254,29.297,52.734,95.703,32.715,-17.090
1532385279.258,39.062,43.945,97.656,32.227,0.977
1532385279.261,44.922,44.434,92.285,38.574,36.621
1532385279.265,43.945,53.223,79.102,36.133,28.320
1532385279.269,41.992,37.598,71.777,37.109,20.020
1532385279.273,36.621,24.902,79.102,36.133,-24.414
1532385279.277,32.227,39.551,89.844,27.832,-27.344
1532385279.281,26.367,43.457,73.242,35.156,7.324
1532385279.285,38.574,44.434,68.359,41.504,0.977
1532385279.289,36.621,49.805,85.938,35.645,-7.324
1532385279.293,28.809,49.316,92.285,38.086,-1.953
1532385279.297,36.621,49.316,99.609,33.691,6.348
1532385279.300,41.504,55.664,99.121,33.203,50.293
1532385279.304,45.410,55.664,82.520,42.969,52.734
1532385279.308,41.504,43.945,76.172,40.039,25.879
1532385279.312,42.480,31.250,76.172,34.180,49.316
1532385279.316,55.176,41.016,73.242,47.852,34.180
1532385279.320,49.316,49.805,85.938,59.082,28.809
1532385279.324,38.574,36.621,87.402,41.016,45.410
1532385279.328,33.691,38.574,88.867,36.133,62.012
1532385279.332,42.480,40.039,87.891,40.039,65.918
1532385279.336,44.922,37.109,84.473,42.969,9.766
1532385279.340,37.109,42.480,82.520,40.039,7.324
1532385279.343,30.762,45.410,80.078,38.574,37.109
1532385279.347,37.109,41.992,84.961,42.969,65.918
1532385279.351,49.316,46.387,77.637,48.828,38.574
1532385279.355,46.387,49.805,62.500,57.129,0.977
1532385279.359,40.527,44.434,70.801,55.664,49.316
1532385279.363,32.227,38.086,89.355,41.992,67.383
1532385279.367,23.926,26.855,96.191,35.645,28.809
1532385279.371,16.113,31.738,87.402,25.391,-18.555
1532385279.375,19.531,38.574,73.242,26.855,-6.836
1532385279.379,29.785,34.180,64.941,34.180,51.758
1532385279.383,24.902,39.062,69.824,33.691,72.754
1532385279.386,24.902,48.828,59.570,35.645,20.508
1532385279.390,25.391,41.992,51.758,31.250,-19.043
1532385279.394,32.227,38.086,49.805,33.203,2.441
1532385279.398,33.691,28.320,48.340,37.109,31.738
1532385279.402,30.762,26.367,61.035,41.992,29.297
1532385279.406,44.434,47.852,60.059,45.410,51.270
1532385279.410,51.270,49.316,62.012,48.340,46.387
1532385279.414,31.250,27.832,57.129,35.645,43.945
1532385279.418,22.949,23.438,38.086,26.855,55.664
1532385279.422,28.809,33.691,41.504,35.645,11.230
1532385279.425,28.320,42.480,49.316,29.297,17.578
1532385279.429,26.855,39.062,43.945,26.855,62.988
1532385279.433,24.902,33.203,44.922,33.203,56.641
1532385279.437,26.367,31.738,34.180,30.273,25.391
1532385279.441,29.785,27.344,29.297,29.785,20.020
1532385279.445,30.762,32.715,45.410,34.180,57.129
1532385279.449,21.973,34.668,41.016,28.809,44.434
1532385279.453,19.531,24.902,22.461,20.020,-0.488
1532385279.457,17.090,33.691,34.180,22.461,7.324
1532385279.461,17.090,43.945,46.387,18.066,18.066
1532385279.465,25.879,37.109,41.504,20.508,18.066
1532385279.468,19.531,28.809,26.855,24.902,-7.812
1532385279.472,36.621,30.273,22.461,30.273,-9.766
1532385279.476,40.527,32.227,28.809,34.668,50.781
1532385279.480,25.391,29.297,32.227,27.344,64.453
1532385279.484,36.621,26.855,22.949,11.230,20.996
1532385279.488,45.410,35.156,36.621,12.695,-1.953
1532385279.492,47.363,39.551,39.062,16.602,7.812
1532385279.496,44.434,40.527,20.020,11.230,67.871
1532385279.500,29.785,38.086,33.203,11.719,61.523
1532385279.504,27.832,30.273,51.758,20.508,22.461
1532385279.508,27.344,27.344,45.898,24.902,9.277
1532385279.511,17.090,38.574,41.016,27.344,48.340
1532385279.515,11.719,36.621,45.410,33.203,65.918
1532385279.519,12.207,32.715,53.223,27.832,38.086
1532385279.523,20.996,32.715,62.500,32.715,11.230
1532385279.527,16.113,24.414,54.199,32.715,32.227
1532385279.531,14.160,26.367,54.688,27.832,45.410
1532385279.535,15.137,35.645,52.734,28.320,-2.441
1532385279.539,12.695,37.598,49.316,26.367,1.953
1532385279.543,8.789,27.832,57.617,21.484,37.109
1532385279.547,12.207,23.926,63.477,21.484,45.898
1532385279.550,29.297,25.879,70.312,27.832,12.695
1532385279.554,34.180,29.785,68.848,33.203,0.000
1532385279.558,31.250,34.668,65.430,34.180,29.297
1532385279.562,29.785,35.156,73.242,31.738,50.781
1532385279.566,22.461,31.738,66.895,30.273,62.988
1532385279.570,25.879,20.508,60.547,32.715,41.016
1532385279.574,31.738,23.438,66.895,35.645,11.230
1532385279.578,34.180,40.527,62.500,39.551,43.945
1532385279.582,25.391,38.574,56.641,30.273,58.594
1532385279.586,23.926,27.344,60.547,23.438,37.109
1532385279.590,26.855,15.137,76.172,25.879,16.602
1532385279.593,22.949,19.531,83.496,20.020,17.090
1532385279.597,28.809,30.273,80.566,23.926,40.039
1532385279.601,23.926,30.762,72.754,32.227,47.363
1532385279.605,20.996,27.832,64.941,29.785,23.438
1532385279.609,16.602,27.832,62.988,27.344,43.945
1532385279.613,14.160,21.973,58.594,29.785,74.219
1532385279.617,20.996,24.414,55.664,24.414,42.969
1532385279.621,33.203,41.992,66.895,36.133,-13.672
1532385279.625,35.156,41.016,62.012,35.156,-7.324
1532385279.629,36.133,27.344,56.641,23.438,54.199
1532385279.633,37.109,22.949,76.660,32.715,37.109
1532385279.636,22.949,27.344,84.961,30.762,-7.324
1532385279.640,18.555,32.227,68.848,28.809,8.301
1532385279.644,20.020,24.414,58.594,28.320,50.293
1532385279.648,22.461,15.625,57.129,18.555,58.105
1532385279.652,18.555,17.090,62.012,24.902,30.762
1532385279.656,26.367,30.273,73.242,33.691,24.414
1532385279.660,37.598,43.457,72.266,35.645,41.992
1532385279.664,32.715,38.574,60.547,27.344,44.922
1532385279.668,19.531,27.344,62.012,9.766,32.715
1532385279.672,13.184,21.973,73.242,17.578,20.020
1532385279.675,24.414,11.719,85.449,43.457,37.109
1532385279.679,48.828,3.906,85.449,55.664,61.523
1532385279.683,60.059,15.137,76.660,50.781,43.457
1532385279.687,38.574,34.668,64.941,31.738,16.602
1532385279.691,21.484,38.574,59.570,14.160,24.902
1532385279.695,22.461,39.551,66.406,5.859,74.707
1532385279.699,19.531,45.898,73.730,3.906,92.773
1532385279.703,22.461,53.711,80.566,3.418,49.805
1532385279.707,27.344,64.941,82.031,1.953,10.254
1532385279.711,31.250,72.266,82.520,17.090,33.691
1532385279.715,28.320,67.383,86.426,17.090,89.844
1532385279.718,42.969,63.477,93.262,16.113,68.848
1532385279.722,42.969,46.875,93.750,21.973,34.668
1532385279.726,11.719,37.598,103.027,17.578,42.969
1532385279.730,5.859,48.828,107.422,10.254,63.965
1532385279.734,11.230,49.316,99.609,12.207,68.359
1532385279.738,22.461,51.270,96.680,21.973,10.254
1532385279.742,16.113,45.898,92.773,12.695,1.465
1532385279.746,4.883,35.156,87.891,6.348,54.688
1532385279.750,26.367,43.945,89.844,20.020,21.973
1532385279.754,29.297,47.363,87.402,19.043,5.371
1532385279.758,11.230,38.086,79.102,15.625,18.555
1532385279.761,12.207,33.203,75.684,19.043,53.711
1532385279.765,31.738,27.832,73.730,22.949,41.992
1532385279.769,41.504,36.133,76.172,28.320,2.930
1532385279.773,37.109,45.898,88.379,26.855,18.555
1532385279.777,28.320,40.039,79.590,24.902,28.809
1532385279.781,26.855,39.551,63.477,18.555,39.551
1532385279.785,23.438,46.387,75.195,25.391,37.598
1532385279.789,31.250,38.086,86.914,43.457,41.016
1532385279.793,49.805,42.480,80.566,49.316,49.316
1532385279.797,30.273,38.574,65.430,40.527,61.035
1532385279.801,14.160,15.625,65.918,29.297,31.250
1532385279.804,30.762,19.531,71.777,31.738,15.137
1532385279.808,35.156,33.203,70.312,45.410,23.438
1532385279.812,25.391,36.133,64.453,46.387,59.570
1532385279.816,26.855,36.621,65.430,40.527,65.430
1532385279.820,28.320,38.086,71.777,33.691,21.484
1532385279.824,35.645,40.039,61.523,27.344,30.762
1532385279.828,39.062,33.691,66.406,27.344,66.406
1532385279.832,41.992,28.320,75.195,22.949,84.473
1532385279.836,41.992,27.832,69.336,24.414,63.477
1532385279.840,38.574,21.973,77.148,40.039,22.461
1532385279.843,54.199,35.156,83.008,56.641,28.320
1532385279.847,60.059,31.250,72.754,58.105,85.938
1532385279.851,45.898,11.230,62.012,43.457,85.938
1532385279.855,37.109,22.461,62.988,48.828,24.414
1532385279.859,32.227,30.273,61.523,54.199,31.250
1532385279.863,36.133,24.414,66.895,56.152,74.219
1532385279.867,41.016,22.949,80.566,52.734,52.246
1532385279.871,34.668,31.250,78.613,48.340,11.230
1532385279.875,34.668,36.133,66.895,46.875,4.395
1532385279.879,27.344,36.133,69.824,40.039,26.855
1532385279.883,33.203,37.109,73.730,42.969,49.316
1532385279.886,50.781,35.645,71.289,46.387,45.410
1532385279.890,46.387,26.855,66.895,37.109,29.297
1532385279.894,37.598,19.043,50.293,32.715,54.688
1532385279.898,44.434,22.461,53.711,26.855,52.734
1532385279.902,46.387,20.508,63.477,21.973,13.672
1532385279.906,36.133,23.926,50.781,28.320,-1.465
1532385279.910,32.227,31.250,57.129,25.879,1.953
1532385279.914,32.715,35.645,61.035,28.320,1.953
1532385279.918,29.785,30.273,64.453,34.668,3.906
1532385279.922,33.691,27.344,68.359,36.133,14.648
1532385279.926,40.039,31.250,60.547,39.551,32.715
1532385279.929,38.574,21.973,64.941,56.152,49.805
1532385279.933,30.273,15.137,67.383,57.617,28.320
1532385279.937,26.367,19.531,65.430,38.574,-5.371
1532385279.941,28.320,24.902,68.359,30.762,6.348
1532385279.945,36.621,32.227,60.059,44.922,31.250
1532385279.949,49.805,29.297,48.340,51.758,45.410
1532385279.953,45.898,24.902,51.758,33.691,15.625
1532385279.957,51.270,27.832,44.434,33.203,3.418
1532385279.961,71.777,22.461,54.199,53.711,29.785
1532385279.965,58.105,20.996,79.102,52.246,52.246
1532385279.968,34.668,33.203,75.195,34.180,26.855
1532385279.972,40.527,40.039,63.477,35.645,8.301
1532385279.976,45.410,25.391,53.711,38.574,26.855
1532385279.980,33.691,16.113,55.176,37.598,33.691
1532385279.984,27.832,30.762,59.570,39.062,45.898
1532385279.988,36.133,40.527,53.223,44.434,32.227
1532385279.992,32.715,35.156,53.711,36.133,1.465
1532385279.996,29.785,27.832,56.641,33.691,31.738
1532385280.000,35.156,26.367,53.223,30.762,50.781
1532385280.004,35.156,25.879,50.293,24.902,-0.977
1532385280.008,37.109,4.883,44.434,27.344,-7.324
1532385280.011,49.316,7.812,47.852,23.438,41.504
1532385280.015,55.176,38.574,70.801,41.992,41.992
1532385280.019,54.199,24.414,74.707,51.758,13.184
1532385280.023,44.434,16.113,59.082,39.551,14.648
1532385280.027,38.574,36.133,44.922,48.828,45.898
1532385280.031,57.129,34.668,46.875,54.199,57.129
1532385280.035,52.734,29.785,49.316,41.016,45.898
1532385280.039,39.062,34.668,52.734,44.434,5.859
1532385280.043,48.340,34.180,51.758,47.852,34.180
1532385280.047,48.340,31.738,45.898,42.969,57.617
1532385280.051,46.387,24.414,62.500,46.387,22.949
1532385280.054,54.199,11.719,63.965,43.457,-15.137
1532385280.058,57.129,7.812,55.176,36.133,-15.625
1532385280.062,51.758,25.879,60.547,31.250,35.156
1532385280.066,42.969,35.156,59.082,28.320,37.598
1532385280.070,44.434,29.785,47.363,32.227,6.348
1532385280.074,52.734,20.996,48.828,26.855,-30.273
1532385280.078,57.129,19.043,49.316,26.367,-6.348
1532385280.082,52.246,31.738,44.922,24.902,35.645
1532385280.086,58.594,36.133,45.898,23.926,7.812
1532385280.090,55.176,35.156,52.246,29.297,-11.230
1532385280.093,38.574,34.668,61.523,37.598,25.391
1532385280.097,33.203,27.344,62.988,35.156,42.480
1532385280.101,34.668,21.484,62.988,30.762,19.531
1532385280.105,40.527,21.973,62.988,40.527,14.160
1532385280.109,43.945,17.578,59.570,43.945,39.551
1532385280.113,40.527,17.090,55.176,41.504,31.738
1532385280.117,28.320,27.344,53.711,37.109,27.344
1532385280.121,30.762,26.367,54.688,33.691,31.250
1532385280.125,34.668,20.508,53.223,35.156,13.184
1532385280.129,27.344,23.926,41.016,30.762,43.945
1532385280.133,27.344,25.391,51.270,27.344,31.738
1532385280.136,28.809,19.531,56.152,35.645,-10.742
1532385280.140,20.996,24.414,47.363,29.297,-19.043
1532385280.144,15.625,23.438,43.945,27.344,16.113
1532385280.148,15.137,20.020,44.922,28.320,72.266
1532385280.152,12.695,9.766,49.805,26.367,42.969
1532385280.156,14.160,-0.977,37.109,36.133,-3.418
1532385280.160,21.484,19.043,43.457,33.691,30.273
1532385280.164,15.625,24.902,65.918,33.691,46.875
1532385280.168,3.906,19.043,59.082,30.762,30.273
1532385280.172,-0.488,23.438,38.574,9.766,11.719
1532385280.176,-9.277,23.926,27.832,-3.418,7.324
1532385280.179,-4.395,22.949,30.762,1.465,27.832
1532385280.183,13.184,20.996,38.574,4.395,41.504
1532385280.187,18.066,19.043,41.016,2.930,44.434
1532385280.191,29.785,18.555,45.410,15.625,31.250
1532385280.195,35.156,8.301,45.898,20.508,18.066
1532385280.199,29.785,3.906,47.363,23.438,67.871
1532385280.203,33.691,21.973,49.805,28.320,47.852
1532385280.207,34.180,34.180,44.434,29.785,22.949
1532385280.211,35.645,31.250,41.016,34.180,62.012
1532385280.215,25.391,29.785,41.992,33.203,50.781
1532385280.218,20.020,26.367,46.875,33.691,43.945
1532385280.222,20.508,20.508,47.363,36.133,20.020
1532385280.226,17.578,9.766,39.062,37.109,18.555
1532385280.230,9.277,8.789,42.480,29.297,42.480
1532385280.234,11.719,20.996,41.016,22.461,35.156
1532385280.238,16.602,26.367,35.645,22.949,17.578
1532385280.242,25.391,19.043,56.641,23.438,14.648
1532385280.246,39.551,10.742,59.570,28.320,53.223
1532385280.250,32.715,20.020,48.828,25.391,67.383
1532385280.254,33.203,25.391,45.410,15.625,34.180
1532385280.258,37.109,24.902,47.852,23.926,23.926
1532385280.261,48.340,36.621,45.898,28.320,38.574
1532385280.265,53.711,38.574,33.203,19.043,48.828
1532385280.269,38.086,21.973,35.645,18.066,37.598
1532385280.273,37.109,20.508,35.645,22.949,-16.113
1532385280.277,39.551,28.320,40.527,32.715,2.930
1532385280.281,25.879,27.832,52.734,38.086,43.457
1532385280.285,23.926,21.484,51.758,39.551,22.949
1532385280.289,17.578,14.160,57.617,42.969,8.301
1532385280.293,9.766,20.508,60.059,39.062,27.344
1532385280.297,14.160,23.926,53.711,38.086,45.898
1532385280.301,12.207,25.879,61.035,54.199,59.570
1532385280.304,7.324,14.160,71.289,62.012,19.043
1532385280.308,16.602,4.395,62.012,50.781,4.395
1532385280.312,20.996,11.230,53.223,48.340,41.992
1532385280.316,20.020,27.832,41.992,38.086,61.035
1532385280.320,18.066,40.039,39.062,17.578,44.434
1532385280.324,9.766,37.109,47.363,10.742,29.785
1532385280.328,15.625,32.715,48.828,10.254,38.574
1532385280.332,20.020,19.043,47.363,8.301,37.598
1532385280.336,19.043,19.531,44.922,14.648,31.738
1532385280.340,15.137,40.527,43.945,23.438,29.297
1532385280.344,20.508,40.039,40.039,17.090,56.152
1532385280.347,27.832,24.414,31.738,11.230,90.332
1532385280.351,34.180,29.785,33.691,28.809,53.711
1532385280.355,40.039,32.227,54.199,36.133,-1.465
1532385280.359,38.574,27.832,59.082,36.621,24.902
1532385280.363,38.574,34.180,50.293,41.016,77.637
1532385280.367,38.086,33.691,44.922,47.363,85.938
1532385280.371,41.992,20.508,48.828,51.758,37.598
1532385280.375,56.641,17.090,41.016,61.035,36.133
1532385280.379,62.988,29.785,46.875,63.477,65.430
1532385280.383,41.992,33.691,60.547,37.598,54.199
1532385280.386,36.133,28.320,43.457,31.250,29.297
1532385280.390,48.340,25.391,32.227,38.086,4.395
1532385280.394,41.016,25.391,44.922,39.551,9.766
1532385280.398,35.156,26.855,59.570,41.992,34.180
1532385280.402,46.387,35.156,58.105,45.898,43.945
1532385280.406,52.246,35.645,58.105,53.711,33.203
1532385280.410,52.246,29.785,47.852,47.852,63.477
1532385280.414,52.734,39.551,42.969,41.016,75.195
1532385280.418,51.270,36.133,42.480,41.016,49.805
1532385280.422,46.875,18.066,33.691,31.738,40.527
1532385280.426,42.480,14.160,40.527,31.738,25.391
1532385280.429,57.617,28.320,50.781,55.176,34.180
1532385280.433,58.105,27.832,57.129,50.781,38.574
1532385280.437,51.758,26.367,51.270,39.062,19.531
1532385280.441,49.805,26.367,43.457,48.828,40.039
1532385280.445,40.039,20.996,44.434,35.645,63.965
1532385280.449,45.410,27.344,36.621,32.715,50.293
1532385280.453,48.828,27.832,27.832,41.992,23.438
1532385280.457,54.688,23.926,32.227,44.922,14.160
1532385280.461,52.734,27.344,41.504,38.086,45.410
1532385280.465,43.457,26.855,43.945,39.551,54.199
1532385280.469,47.363,23.438,43.945,41.504,47.363
1532385280.472,48.340,16.602,46.875,33.203,35.645
1532385280.476,41.504,2.441,45.410,32.227,-3.418
1532385280.480,44.922,12.695,45.410,43.945,6.348
1532385280.484,58.594,39.551,54.688,50.293,14.160
1532385280.488,45.898,34.180,45.410,35.645,12.207
1532385280.492,39.062,20.996,21.973,37.109,4.883
1532385280.496,52.734,15.137,14.160,51.270,11.230
1532385280.500,43.457,17.578,27.344,41.016,39.551
1532385280.504,38.574,26.367,29.785,40.527,33.203
1532385280.508,40.039,24.414,26.855,43.457,17.578
1532385280.511,41.504,20.508,27.344,42.480,27.344
1532385280.515,57.129,22.949,33.203,55.176,64.941
1532385280.519,54.199,20.020,30.273,53.711,40.039
1532385280.523,46.875,20.508,16.113,49.316,14.160
1532385280.527,63.477,20.508,23.438,63.965,14.160
1532385280.531,65.918,10.254,23.926,76.172,32.227
1532385280.535,42.480,0.488,11.719,66.895,55.664
1532385280.539,36.621,11.719,16.602,48.340,24.414
1532385280.543,40.039,28.320,13.672,54.199,20.020
1532385280.547,47.363,31.250,6.348,65.918,48.828
1532385280.551,45.898,28.809,2.930,65.430,60.547
1532385280.554,38.574,28.320,11.230,66.895,47.363
1532385280.558,51.270,30.273,23.926,66.895,23.438
1532385280.562,64.941,31.250,21.973,71.777,37.109
1532385280.566,56.152,23.438,18.066,73.730,64.941
1532385280.570,48.828,20.508,4.883,60.547,35.645
1532385280.574,47.363,13.184,-4.395,63.965,12.695
1532385280.578,48.340,0.000,9.277,70.312,37.598
1532385280.582,59.082,11.719,22.461,62.012,71.777
1532385280.586,61.523,32.715,11.230,64.453,53.711
1532385280.590,50.781,42.480,-1.465,66.406,15.625
1532385280.594,53.223,45.410,-7.324,54.199,13.184
1532385280.597,58.105,42.480,-8.789,46.875,26.367
1532385280.601,52.246,41.504,2.441,41.992,29.297
1532385280.605,43.457,38.574,13.672,34.668,4.883
1532385280.609,41.504,24.902,16.113,39.062,26.367
1532385280.613,42.480,22.949,6.348,37.109,70.312
1532385280.617,44.922,34.668,3.418,29.785,49.316
1532385280.621,35.645,23.926,9.766,34.668,34.180
1532385280.625,21.484,11.719,5.859,30.762,23.926
1532385280.629,18.066,10.742,0.977,21.484,26.855
1532385280.633,24.414,16.113,-2.441,28.320,49.316
1532385280.636,19.531,27.344,-4.395,28.809,27.832
1532385280.640,-2.930,24.902,9.766,19.043,25.879
1532385280.644,1.465,22.461,16.113,13.184,65.918
1532385280.648,15.625,18.555,9.277,14.648,53.711
1532385280.652,15.625,17.090,6.836,21.484,21.973
1532385280.656,13.672,18.066,8.789,31.250,0.977
1532385280.660,16.602,18.555,16.602,34.180,29.297
1532385280.664,22.949,20.996,23.438,26.367,60.059
1532385280.668,27.344,16.602,23.926,22.949,55.176
1532385280.672,21.484,11.719,20.996,11.719,23.926
1532385280.676,9.766,-5.859,16.602,2.441,-14.160
1532385280.679,8.301,2.930,26.367,1.465,-8.301
1532385280.683,12.695,24.414,21.484,3.906,5.859
1532385280.687,6.348,18.066,13.672,9.277,8.789
1532385280.691,14.160,17.578,30.762,12.207,1.465
1532385280.695,25.391,26.855,36.621,13.184,15.137
1532385280.699,22.949,21.484,16.602,6.348,28.320
1532385280.703,26.367,12.207,15.137,1.953,16.602
1532385280.707,20.020,5.859,25.879,-7.812,2.930
1532385280.711,6.348,6.836,26.367,-3.418,0.488
1532385280.715,5.859,7.324,25.879,13.184,16.602
1532385280.719,8.301,-0.488,29.297,23.926,11.230
1532385280.722,20.508,1.465,32.715,25.879,-20.508
1532385280.726,24.902,15.625,28.320,18.066,-6.836
1532385280.730,23.438,17.090,27.344,28.809,37.598
1532385280.734,16.602,8.789,32.715,24.902,36.133
1532385280.738,17.090,15.137,37.109,26.855,0.977
1532385280.742,20.996,22.949,30.273,36.133,-8.789
1532385280.746,26.367,11.719,22.461,20.508,0.977
1532385280.750,20.508,9.277,25.879,11.719,7.812
1532385280.754,18.555,8.789,32.715,5.859,-22.949
1532385280.758,20.020,-2.441,30.273,9.766,-19.531
1532385280.761,19.531,-0.488,19.043,14.160,32.227
1532385280.765,19.531,14.648,25.879,15.625,8.789
1532385280.769,13.184,20.020,30.762,19.531,2.930
1532385280.773,12.207,19.043,36.621,12.695,16.602
1532385280.777,21.484,15.625,45.898,10.742,12.207
1532385280.781,39.062,14.160,43.457,28.809,31.250
1532385280.785,28.809,4.395,40.527,34.180,12.695
1532385280.789,16.602,3.418,39.062,24.414,-5.371
1532385280.793,27.344,18.066,33.691,26.855,25.391
1532385280.797,22.461,18.555,39.551,17.578,52.246
1532385280.801,18.555,22.461,42.480,20.020,41.992
1532385280.804,23.926,22.461,22.461,33.691,23.926
1532385280.808,30.762,5.859,18.066,31.738,22.461
1532385280.812,23.438,9.277,40.039,25.391,31.250
1532385280.816,24.902,26.367,58.105,22.461,27.344
1532385280.820,25.879,25.879,59.570,21.973,5.859
1532385280.824,11.230,17.090,53.711,18.555,-5.371
1532385280.828,8.301,20.508,48.828,19.531,23.438
1532385280.832,12.207,19.043,39.062,16.113,37.598
1532385280.836,17.578,17.578,37.598,7.812,20.508
1532385280.840,28.320,23.926,38.086,21.484,-4.883
1532385280.844,31.738,12.695,26.367,35.156,-2.441
1532385280.847,21.973,3.906,36.133,24.902,41.504
1532385280.851,31.738,11.719,66.895,25.391,45.898
1532385280.855,49.316,24.414,66.895,35.156,-1.953
1532385280.859,51.758,34.668,60.059,36.621,15.625
1532385280.863,43.945,29.297,63.965,40.039,53.223
1532385280.867,33.203,32.715,61.523,26.855,36.621
1532385280.871,20.996,38.086,56.641,23.438,16.602
1532385280.875,19.531,32.715,49.805,19.043,7.324
1532385280.879,33.691,30.273,39.551,27.344,15.625
1532385280.883,26.855,24.902,35.156,27.832,4.395
1532385280.887,23.438,26.367,48.828,21.973,-2.441
1532385280.890,42.969,32.227,65.430,30.273,23.926
1532385280.894,35.156,10.254,60.059,20.020,48.828
1532385280.898,13.184,0.488,53.223,13.184,63.965
1532385280.902,10.254,23.438,57.129,15.625,47.363
1532385280.906,24.902,34.668,49.805,26.855,23.438
1532385280.910,32.715,29.785,38.086,27.344,34.668
1532385280.914,23.438,28.809,35.645,23.438,62.988
1532385280.918,19.531,20.020,44.922,15.625,65.918
1532385280.922,25.391,11.230,52.734,12.207,35.645
1532385280.926,28.320,19.043,56.152,21.484,20.020
1532385280.929,20.020,27.832,65.918,27.344,45.898
1532385280.933,28.809,33.203,63.477,29.297,28.809
1532385280.937,33.691,27.832,59.082,26.855,-0.977
1532385280.941,22.461,7.812,59.570,29.297,-10.742
1532385280.945,23.438,6.348,58.105,35.156,13.184
1532385280.949,35.156,24.902,54.199,28.809,44.434
1532385280.953,39.551,42.969,61.523,35.156,25.391
1532385280.957,39.551,45.898,79.102,51.270,3.906
1532385280.961,37.109,45.410,70.312,43.945,15.137
1532385280.965,36.621,46.387,58.594,38.086,53.223
1532385280.969,29.297,39.062,64.941,32.227,38.086
1532385280.972,24.902,27.344,67.871,28.320,-1.465
1532385280.976,41.016,26.367,67.871,44.434,24.414
1532385280.980,42.969,28.320,63.965,43.457,60.059
1532385280.984,30.273,28.809,55.176,29.785,50.781
1532385280.988,28.809,24.414,56.641,39.062,27.832
1532385280.992,34.180,30.273,72.266,47.363,7.324
1532385280.996,35.156,26.855,64.453,45.410,46.875
1532385281.000,36.621,21.484,57.617,34.668,71.777
1532385281.004,32.227,29.785,63.477,33.203,25.879
1532385281.008,24.902,22.461,49.805,41.504,7.812
1532385281.012,22.461,20.508,54.199,36.133,17.578
1532385281.015,31.738,17.090,68.359,24.414,29.297
1532385281.019,28.320,11.719,56.641,20.996,21.484
1532385281.023,29.785,23.926,53.711,31.250,4.883
1532385281.027,31.738,35.156,61.035,31.738,30.762
1532385281.031,14.160,31.738,52.246,17.090,64.453
1532385281.035,18.555,26.367,47.363,10.254,45.410
1532385281.039,23.438,17.578,48.828,19.531,30.273
1532385281.043,28.320,16.113,35.645,23.438,50.781
1532385281.047,25.391,25.391,39.551,15.625,89.355
1532385281.051,19.043,28.320,65.918,18.555,57.617
1532385281.054,22.461,22.461,68.848,20.996,36.621
1532385281.058,36.133,19.043,62.012,20.996,44.434
1532385281.062,46.875,22.461,58.105,32.227,38.086
1532385281.066,50.293,24.902,56.152,39.551,63.965
1532385281.070,43.945,13.672,46.875,26.367,59.082
1532385281.074,41.504,13.184,25.391,21.484,42.480
1532385281.078,43.457,20.508,31.250,13.672,72.754
1532385281.082,49.316,20.996,52.246,3.906,90.820
1532385281.086,33.691,14.160,52.734,8.301,56.641
1532385281.090,18.555,13.672,42.480,12.207,20.020
1532385281.094,18.066,20.508,52.246,14.648,54.199
1532385281.097,13.672,21.484,61.035,21.484,88.867
1532385281.101,21.484,19.043,52.246,26.855,58.594
1532385281.105,34.668,20.508,62.988,42.969,36.133
1532385281.109,43.457,33.691,71.777,59.082,24.902
1532385281.113,41.504,45.898,73.730,59.570,77.637
1532385281.117,44.922,54.688,83.984,56.152,106.934
1532385281.121,62.012,66.895,87.402,61.523,63.965
1532385281.125,66.895,66.895,92.285,76.660,62.500
1532385281.129,69.824,62.012,105.957,90.332,106.934
1532385281.133,84.473,82.031,116.699,94.238,122.070
1532385281.137,83.496,80.078,126.465,86.914,68.359
1532385281.140,80.566,71.777,131.348,84.961,41.504
1532385281.144,80.566,80.078,105.469,81.543,65.918
1532385281.148,76.660,76.172,101.074,82.520,59.570
1532385281.152,61.035,61.035,104.492,73.730,57.617
1532385281.156,40.527,43.457,78.613,43.457,27.832
1532385281.160,34.668,43.945,69.336,28.809,21.973
1532385281.164,42.480,44.434,60.547,33.691,64.453
1532385281.168,45.898,36.621,52.246,31.250,64.453
1532385281.172,47.852,32.715,60.547,29.785,47.363
1532385281.176,46.387,29.297,75.684,27.344,39.551
1532385281.179,50.781,18.066,85.449,39.551,74.707
1532385281.183,55.664,30.762,78.613,43.945,105.957
1532385281.187,44.922,41.016,69.824,29.785,81.543
1532385281.191,36.621,36.133,57.129,26.367,59.082
1532385281.195,29.297,38.574,45.410,31.250,58.105
1532385281.199,13.184,28.320,54.199,28.320,63.477
1532385281.203,17.578,19.043,62.988,21.973,55.176
1532385281.207,30.762,18.066,65.918,30.273,29.785
1532385281.211,34.180,10.742,67.383,39.551,53.223
1532385281.215,32.715,20.508,63.477,32.227,52.734
1532385281.219,33.203,37.109,60.059,32.715,23.926
1532385281.222,32.715,28.809,48.828,34.180,19.043
1532385281.226,21.973,22.949,51.270,19.043,22.949
1532385281.230,18.555,29.297,53.223,12.207,62.500
1532385281.234,30.273,35.156,46.875,16.113,72.266
1532385281.238,36.621,37.109,49.316,23.926,54.688
1532385281.242,38.086,35.645,44.434,36.133,49.805
1532385281.246,47.852,39.551,37.109,37.598,81.055
1532385281.250,52.246,35.645,57.617,32.715,85.449
1532385281.254,49.316,28.320,71.289,31.250,59.570
1532385281.258,42.480,36.133,61.035,31.738,37.109
1532385281.262,43.457,42.969,62.988,34.668,40.527
1532385281.265,44.922,42.480,65.918,21.484,73.242
1532385281.269,31.250,34.668,50.293,13.184,67.383
1532385281.273,20.508,34.180,38.086,8.789,15.625
1532385281.277,20.508,38.086,43.457,13.184,22.461
1532385281.281,30.762,34.668,44.434,16.602,68.848
1532385281.285,25.391,35.156,53.223,14.160,56.152
1532385281.289,16.113,40.039,61.523,12.695,23.438
1532385281.293,31.250,41.016,55.664,20.996,26.855
1532385281.297,33.691,47.363,61.523,28.320,56.152
1532385281.301,26.855,43.945,54.688,9.277,63.477
1532385281.304,22.461,27.344,41.992,15.625,22.461
1532385281.308,32.227,14.160,48.340,33.691,22.461
1532385281.312,45.410,9.766,56.641,30.762,72.266
1532385281.316,40.039,29.785,52.246,19.043,50.293
1532385281.320,35.645,51.758,46.387,13.184,-0.488
1532385281.324,41.016,57.129,49.805,22.461,11.230
1532385281.328,43.945,61.035,55.664,35.645,63.477
1532385281.332,52.246,64.453,68.359,37.598,90.820
1532385281.336,56.641,70.312,73.242,35.645,52.734
1532385281.340,58.105,80.078,70.312,48.340,1.465
1532385281.344,71.289,83.008,86.426,57.617,28.809
1532385281.347,67.871,81.543,99.609,62.012,82.031
1532385281.351,58.105,85.449,95.703,56.641,58.594
1532385281.355,65.918,96.680,102.539,54.199,18.066
1532385281.359,71.777,90.332,115.723,66.406,28.320
1532385281.363,63.477,84.961,106.445,69.336,72.266
1532385281.367,63.477,96.191,94.727,59.570,93.262
1532385281.371,75.684,104.980,106.445,70.801,71.777
1532385281.375,78.613,108.398,105.957,76.172,25.879
1532385281.379,80.078,101.074,105.469,68.359,28.320
1532385281.383,80.566,90.332,114.258,76.172,70.312
1532385281.387,76.660,85.938,108.398,74.707,49.316
1532385281.390,59.570,64.453,89.355,59.082,35.645
1532385281.394,41.992,41.016,83.496,40.527,51.270
1532385281.398,31.738,42.969,71.289,34.668,53.711
1532385281.402,15.137,31.250,68.359,28.320,57.129
1532385281.406,24.414,30.762,64.453,27.344,25.879
1532385281.410,38.574,44.434,51.758,40.527,11.230
1532385281.414,33.203,44.434,57.129,39.551,42.969
1532385281.418,24.414,40.527,60.547,35.645,12.695
1532385281.422,5.859,28.809,51.758,13.672,-25.879
1532385281.426,-4.395,21.973,39.551,1.465,-21.484
1532385281.430,4.395,21.973,41.992,20.020,43.457
1532385281.433,-1.953,18.555,50.781,19.531,52.734
1532385281.437,-8.301,10.254,37.109,0.000,-11.719
1532385281.441,-8.789,14.160,26.855,-8.789,-13.184
1532385281.445,-2.930,16.113,27.344,-4.883,46.875
1532385281.449,5.371,16.602,21.484,-0.977,64.453
1532385281.453,12.207,28.809,31.738,10.254,29.297
1532385281.457,16.113,29.785,42.969,17.090,-1.465
1532385281.461,28.320,38.574,54.199,24.414,19.531
1532385281.465,50.293,45.898,67.383,41.016,46.387
1532385281.469,55.664,48.340,71.289,49.805,19.531
1532385281.472,59.570,62.012,81.055,57.129,-5.859
1532385281.476,67.383,68.359,78.613,72.266,0.000
1532385281.480,53.711,62.500,72.754,59.082,44.434
1532385281.484,32.227,54.199,67.871,32.227,38.086
1532385281.488,29.297,51.270,48.828,22.949,0.977
1532385281.492,30.273,44.434,51.270,19.043,-21.973
1532385281.496,30.762,43.457,63.477,23.438,-32.227
1532385281.500,19.043,46.387,54.199,21.484,-6.348
1532385281.504,9.766,49.805,38.086,9.277,-18.066
1532385281.508,17.090,53.223,30.273,13.184,-38.086
1532385281.512,22.949,46.875,39.551,13.184,0.488
1532385281.515,14.648,35.645,41.016,5.371,0.000
1532385281.519,18.066,35.156,32.715,9.766,-28.809
1532385281.523,20.996,39.062,21.973,5.859,-37.598
1532385281.527,26.367,41.992,14.648,11.719,-5.371
1532385281.531,26.367,32.715,40.039,24.902,17.578
1532385281.535,20.508,15.137,42.969,16.113,-22.949
1532385281.539,18.066,23.438,21.973,18.555,-45.898
1532385281.543,10.742,31.250,19.531,25.879,-22.461
1532385281.547,19.043,31.738,19.531,27.344,26.367
1532385281.551,16.113,27.344,9.766,19.531,24.414
1532385281.555,7.324,22.949,-1.953,4.395,-20.020
1532385281.558,5.371,33.691,-20.508,2.441,-26.855
1532385281.562,1.953,26.855,-33.203,6.348,31.250
1532385281.566,1.465,15.625,-24.902,4.883,32.227
1532385281.570,8.789,31.250,-16.602,9.277,-7.812
1532385281.574,2.441,33.691,-23.926,2.930,-14.648
1532385281.578,-8.789,22.461,-42.969,-3.906,-2.441
1532385281.582,-5.859,17.090,-49.805,2.930,9.766
1532385281.586,2.930,17.578,-46.875,6.836,21.973
1532385281.590,12.695,27.344,-60.059,7.324,5.859
1532385281.594,20.020,27.344,-66.895,15.625,-3.906
1532385281.597,20.508,27.832,-62.988,17.090,31.250
1532385281.601,21.484,36.621,-75.195,10.742,20.020
1532385281.605,27.344,41.504,-79.102,21.484,-2.441
1532385281.609,21.973,38.086,-71.777,27.832,12.695
1532385281.613,19.043,25.879,-80.566,19.043,34.180
1532385281.617,9.277,22.949,-90.332,7.812,26.367
1532385281.621,12.695,39.062,-97.168,21.484,-6.836
1532385281.625,29.297,45.410,-90.332,30.762,-2.930
1532385281.629,46.875,47.852,-75.195,46.387,34.180
1532385281.633,59.082,58.594,-73.242,65.918,31.250
1532385281.637,69.824,78.125,-68.359,67.871,3.906
1532385281.640,74.219,90.332,-76.172,75.684,7.812
1532385281.644,75.195,94.238,-73.730,80.078,34.180
1532385281.648,78.613,96.191,-59.570,91.309,33.203
1532385281.652,68.359,90.820,-64.453,78.125,-1.953
1532385281.656,77.637,95.215,-67.383,62.988,-12.207
1532385281.660,75.684,94.727,-68.359,68.359,-3.906
1532385281.664,70.801,97.656,-77.637,75.195,36.621
1532385281.668,76.172,112.305,-84.473,74.219,59.082
1532385281.672,82.031,105.469,-91.309,78.125,20.020
1532385281.676,75.195,85.449,-99.609,76.660,0.488
1532385281.680,50.293,78.125,-113.770,56.641,52.246
1532385281.683,49.316,74.707,-120.605,56.641,49.316
1532385281.687,44.434,71.777,-128.906,57.129,12.695
1532385281.691,49.805,73.730,-139.160,52.246,-13.672
1532385281.695,62.988,67.871,-135.742,60.547,-9.277
1532385281.699,44.434,58.105,-139.648,52.246,26.367
1532385281.703,32.227,55.664,-153.809,42.480,28.320
1532385281.707,43.457,56.152,-156.250,50.293,25.391
1532385281.711,47.363,60.059,-151.367,45.410,30.273
1532385281.715,37.109,43.945,-159.668,35.645,46.875
1532385281.719,38.574,39.062,-166.016,40.527,40.527
1532385281.722,39.062,54.688,-158.203,42.969,-12.695
1532385281.726,27.344,50.781,-164.062,22.461,6.836
1532385281.730,30.762,47.852,-171.875,20.996,66.406
1532385281.734,33.203,49.805,-167.480,36.133,35.645
1532385281.738,23.438,41.504,-173.340,20.508,18.555
1532385281.742,20.020,41.016,-175.293,22.461,21.973
1532385281.746,29.297,41.992,-180.664,33.691,54.688
1532385281.750,40.039,42.480,-182.617,28.320,58.105
1532385281.754,27.832,38.574,-170.898,22.461,-6.836
1532385281.758,33.691,36.133,-167.969,22.461,-32.715
1532385281.762,38.086,37.109,-173.340,24.902,3.418
1532385281.765,17.090,32.715,-170.898,25.879,63.477
1532385281.769,22.949,32.227,-171.387,18.555,45.410
1532385281.773,26.367,43.457,-177.246,18.066,-1.465
1532385281.777,17.090,49.805,-182.129,19.043,21.973
1532385281.781,19.043,45.898,-169.922,21.484,47.852
1532385281.785,42.480,55.664,-138.184,35.645,43.457
1532385281.789,40.039,60.059,-133.301,46.875,36.621
1532385281.793,37.109,57.129,-130.859,39.062,28.809
1532385281.797,50.293,61.523,-115.723,39.062,37.598
1532385281.801,69.336,74.707,-104.492,52.734,29.785
1532385281.805,84.473,79.590,-89.844,64.453,10.254
1532385281.808,76.172,86.914,-83.008,74.219,25.391
1532385281.812,84.473,102.051,-82.031,84.961,72.754
1532385281.816,95.703,103.027,-70.312,91.309,63.965
1532385281.820,105.469,101.562,-47.852,94.727,24.902
1532385281.824,106.934,96.680,-35.156,99.121,35.645
1532385281.828,98.145,85.449,-35.156,105.957,69.824
1532385281.832,94.727,80.078,-40.039,96.191,52.734
1532385281.836,77.148,70.312,-52.734,85.938,9.766
1532385281.840,73.730,55.176,-59.082,85.449,34.180
1532385281.844,68.848,54.199,-65.918,67.383,74.219
1532385281.847,50.781,51.758,-67.871,63.965,90.332
1532385281.851,57.617,43.945,-59.570,66.406,74.219
1532385281.855,60.059,40.039,-66.406,45.898,39.551
1532385281.859,41.992,33.691,-61.523,40.527,51.270
1532385281.863,39.062,33.691,-50.781,41.504,93.750
1532385281.867,34.668,33.203,-61.035,29.297,99.609
1532385281.871,39.062,34.180,-62.500,34.180,66.406
1532385281.875,52.734,35.645,-50.293,41.504,39.551
1532385281.879,41.504,26.367,-50.781,28.320,56.152
1532385281.883,35.156,22.461,-55.664,15.137,91.309
1532385281.887,49.316,20.996,-58.594,8.789,70.312
1532385281.890,57.617,17.578,-60.059,12.695,45.898
1532385281.894,56.152,10.742,-61.035,18.066,56.152
1532385281.898,59.082,4.395,-61.523,26.855,72.754
1532385281.902,48.340,9.277,-55.664,36.133,79.102
1532385281.906,37.598,11.719,-37.598,33.203,62.012
1532385281.910,34.180,3.906,-33.203,44.434,83.984
1532385281.914,15.625,1.953,-41.992,42.969,102.051
1532385281.918,13.184,11.719,-32.715,36.621,91.797
1532385281.922,17.578,13.672,-21.973,42.480,65.430
1532385281.926,5.371,5.371,-41.016,42.969,66.406
1532385281.930,-2.930,0.000,-51.270,29.297,97.656
1532385281.933,4.883,-1.953,-35.645,24.902,110.840
1532385281.937,8.301,2.930,-45.410,29.785,98.145
1532385281.941,17.090,-7.324,-46.875,25.391,82.520
1532385281.945,28.320,-17.090,-25.879,29.297,75.195
1532385281.949,18.555,-1.953,-32.227,25.879,82.520
1532385281.953,2.930,4.883,-40.527,10.742,51.758
1532385281.957,10.254,4.395,-41.016,3.418,-2.441
1532385281.961,18.555,12.695,-44.434,14.648,23.926
1532385281.965,14.648,13.672,-41.992,25.391,84.473
1532385281.969,16.602,6.836,-33.691,23.926,91.309
1532385281.973,15.137,0.977,-39.062,14.160,47.852
1532385281.976,4.883,-9.277,-62.012,12.207,35.156
1532385281.980,14.648,-7.812,-62.988,20.020,61.035
1532385281.984,27.344,-0.977,-44.922,17.578,75.684
1532385281.988,15.137,-2.930,-35.156,11.719,59.570
1532385281.992,0.488,-4.883,-33.691,2.930,31.738
1532385281.996,10.742,-8.789,-41.992,0.488,35.645
1532385282.000,25.391,-8.789,-41.992,11.719,80.078
1532385282.004,29.785,0.000,-43.945,8.789,50.293
1532385282.008,27.832,5.371,-49.316,6.348,-1.465
1532385282.012,16.113,5.371,-43.457,11.230,7.324
1532385282.015,3.418,0.000,-51.758,2.930,35.645
1532385282.019,0.000,1.465,-51.758,-4.395,44.434
1532385282.023,11.230,2.441,-60.059,6.836,18.555
1532385282.027,9.277,-3.418,-69.336,10.254,39.062
1532385282.031,11.230,0.000,-53.223,7.812,42.969
1532385282.035,12.695,5.859,-48.828,16.113,-5.859
1532385282.039,-0.488,6.836,-51.270,14.160,-12.695
1532385282.043,0.000,2.441,-51.270,5.859,2.930
1532385282.047,2.441,-9.766,-60.547,10.254,-2.930
1532385282.051,3.418,-10.742,-58.594,13.184,20.020
1532385282.055,8.789,0.977,-53.223,11.230,20.508
1532385282.058,13.184,10.742,-64.941,1.953,0.488
1532385282.062,11.719,6.836,-70.801,0.488,53.223
1532385282.066,8.301,-1.953,-63.477,12.695,54.688
1532385282.070,15.137,1.953,-71.289,12.207,21.484
1532385282.074,30.762,11.719,-78.125,6.348,5.859
1532385282.078,30.273,10.742,-77.148,8.301,23.438
1532385282.082,19.531,-3.418,-72.266,-1.465,65.918
1532385282.086,13.184,-10.742,-64.453,-14.648,56.152
1532385282.090,14.160,-9.766,-78.125,-12.207,37.598
1532385282.094,15.625,-6.348,-91.797,1.953,37.109
1532385282.098,18.066,1.953,-99.609,-0.488,65.430
1532385282.101,19.531,1.465,-93.750,-7.324,76.660
1532385282.105,20.996,-5.371,-79.590,-2.441,31.738
1532385282.109,23.438,-7.324,-81.055,9.277,21.484
1532385282.113,4.883,-4.395,-86.426,6.836,64.941
1532385282.117,7.812,-1.953,-92.773,-0.488,71.289
1532385282.121,12.207,-2.441,-97.656,1.953,66.406
1532385282.125,7.324,-6.836,-99.121,3.418,42.969
1532385282.129,18.066,-2.441,-94.727,19.043,49.316
1532385282.133,25.879,1.953,-86.914,21.973,67.383
1532385282.137,18.066,-14.648,-86.426,3.906,58.594
1532385282.140,12.207,-12.207,-93.262,-1.953,31.250
1532385282.144,14.648,9.277,-104.004,5.859,32.227
1532385282.148,4.883,4.395,-104.004,4.395,49.805
1532385282.152,0.977,-3.418,-98.145,-4.395,54.688
1532385282.156,15.625,1.465,-97.656,4.395,37.109
1532385282.160,19.043,-3.418,-98.145,16.602,42.969
1532385282.164,22.949,0.977,-105.957,26.367,81.543
1532385282.168,21.973,3.906,-112.793,19.043,71.289
1532385282.172,30.273,5.371,-88.867,15.137,24.902
1532385282.176,27.832,7.324,-68.848,25.391,14.160
1532385282.180,4.883,-5.371,-67.383,20.508,73.730
1532385282.183,3.418,-22.461,-80.078,11.719,75.684
1532385282.187,27.832,-24.414,-88.867,14.160,59.082
1532385282.191,26.855,-6.348,-86.914,17.578,36.133
1532385282.195,19.531,11.230,-90.332,13.184,24.902
1532385282.199,27.832,19.043,-88.867,15.137,53.711
1532385282.203,23.926,20.508,-88.379,23.438,14.648
1532385282.207,24.902,11.719,-82.031,33.691,-9.277
1532385282.211,27.344,5.859,-66.895,32.227,24.902
1532385282.215,25.391,1.465,-63.477,24.902,43.457
1532385282.219,10.254,-14.160,-74.707,18.555,49.316
1532385282.223,27.832,-14.160,-78.125,27.832,21.973
1532385282.226,31.738,-5.859,-71.289,32.715,8.789
1532385282.230,9.277,-17.578,-66.406,25.391,33.691
1532385282.234,10.742,-15.625,-69.336,14.648,28.320
1532385282.238,16.113,4.883,-70.801,29.785,15.625
1532385282.242,23.926,12.695,-64.941,45.410,1.953
1532385282.246,28.809,17.090,-57.129,36.621,18.066
1532385282.250,24.414,10.254,-65.918,38.574,28.320
1532385282.254,21.973,2.930,-72.266,37.598,-4.395
1532385282.258,25.879,5.859,-65.430,38.574,-16.113
1532385282.262,21.973,5.371,-74.219,41.504,36.133
1532385282.265,13.184,1.465,-76.172,38.086,58.594
1532385282.269,12.695,-6.836,-75.195,29.785,-8.301
1532385282.273,16.113,-6.348,-77.637,22.949,-19.531
1532385282.277,24.414,13.184,-74.707,30.273,13.184
1532385282.281,33.691,25.879,-65.918,37.598,17.090
1532385282.285,30.762,16.113,-56.641,34.180,-10.742
1532385282.289,23.438,3.906,-68.359,30.273,-19.531
1532385282.293,31.738,0.000,-67.871,32.715,-25.879
1532385282.297,35.645,5.859,-66.895,34.180,-12.207
1532385282.301,23.926,16.113,-80.566,27.344,-6.348
1532385282.305,18.066,4.395,-76.660,21.973,-12.207
1532385282.308,14.648,-18.555,-71.289,15.137,-3.906
1532385282.312,24.414,-4.883,-77.148,19.043,22.949
1532385282.316,35.156,17.090,-80.078,25.879,37.109
1532385282.320,30.762,17.090,-71.777,27.832,1.465
1532385282.324,31.738,6.348,-70.312,20.996,-3.906
1532385282.328,37.598,10.254,-69.336,25.391,31.738
1532385282.332,33.691,18.555,-69.824,36.133,37.109
1532385282.336,22.949,11.230,-80.078,23.926,7.812
1532385282.340,21.484,4.883,-96.191,13.184,2.441
1532385282.344,20.996,1.465,-89.844,16.602,19.043
1532385282.348,22.949,-4.395,-72.754,21.484,42.969
1532385282.351,34.668,-5.371,-65.430,32.227,34.668
1532385282.355,30.273,-8.789,-62.988,38.574,-13.184
1532385282.359,25.879,-8.301,-72.754,25.391,-3.906
1532385282.363,31.738,-1.465,-78.125,24.902,22.949
1532385282.367,33.203,4.883,-72.754,31.738,15.625
1532385282.371,38.086,9.766,-67.871,42.480,-3.418
1532385282.375,45.410,7.324,-76.660,47.363,-13.672
1532385282.379,49.805,12.207,-81.543,34.180,27.344
1532385282.383,48.828,13.672,-65.430,23.926,49.805
1532385282.387,32.227,10.254,-75.195,31.250,35.156
1532385282.390,30.762,19.531,-85.938,28.320,-4.395
1532385282.394,39.551,6.836,-69.336,21.484,9.766
1532385282.398,21.484,-1.953,-65.430,23.438,42.969
1532385282.402,13.184,13.672,-79.590,19.043,21.973
1532385282.406,16.113,15.625,-76.172,17.090,13.672
1532385282.410,31.738,11.719,-68.359,25.391,24.902
1532385282.414,50.293,14.648,-66.406,30.273,46.387
1532385282.418,47.363,20.996,-58.594,35.645,38.086
1532385282.422,36.621,20.996,-59.570,39.551,11.230
1532385282.426,45.898,25.391,-60.547,51.270,24.902
1532385282.430,46.387,18.066,-62.988,46.875,49.316
1532385282.433,45.410,11.230,-75.684,38.086,39.062
1532385282.437,48.828,12.207,-77.148,39.551,32.227
1532385282.441,38.574,6.836,-66.406,32.715,31.250
1532385282.445,36.621,4.395,-67.383,41.504,41.992
1532385282.449,48.828,7.324,-68.359,47.852,75.684
1532385282.453,42.480,18.555,-51.270,41.016,50.781
1532385282.457,45.410,36.621,-46.387,43.457,-5.371
1532385282.461,54.199,37.598,-53.223,47.363,8.789
1532385282.465,46.387,21.484,-61.035,46.875,51.758
1532385282.469,55.176,26.855,-55.176,49.316,41.016
1532385282.473,59.082,30.762,-37.598,50.781,27.344
1532385282.476,51.758,19.531,-40.527,50.293,30.762
1532385282.480,61.035,23.926,-47.852,51.270,71.289
1532385282.484,56.641,19.043,-54.199,41.016,76.660
1532385282.488,50.293,7.812,-66.406,41.016,35.156
1532385282.492,51.758,15.625,-62.500,42.969,52.246
1532385282.496,51.758,26.855,-53.223,45.898,52.246
1532385282.500,62.500,34.180,-47.852,49.805,39.551
1532385282.504,59.570,22.461,-39.062,46.875,44.922
1532385282.508,50.293,11.230,-41.992,39.062,27.832
1532385282.512,55.176,26.855,-53.223,35.645,32.715
1532385282.515,56.152,34.180,-50.293,34.668,43.945
1532385282.519,50.293,23.438,-55.664,33.691,21.484
1532385282.523,51.270,20.020,-62.500,44.922,19.531
1532385282.527,52.734,28.809,-48.828,51.270,37.598
1532385282.531,53.711,21.973,-46.875,44.922,67.871
1532385282.535,45.898,13.184,-46.875,39.551,59.570
1532385282.539,58.105,18.555,-42.969,43.457,22.461
1532385282.543,58.105,10.742,-38.574,44.434,29.297
1532385282.547,39.551,12.695,-36.621,39.551,65.430
1532385282.551,33.691,28.809,-43.945,28.809,51.758
1532385282.555,38.574,35.645,-47.363,20.996,32.715
1532385282.558,48.340,35.156,-45.898,39.062,41.504
1532385282.562,44.922,22.949,-54.199,44.922,52.246
1532385282.566,34.668,8.789,-52.246,39.551,73.242
1532385282.570,35.156,4.395,-44.434,43.457,60.547
1532385282.574,46.387,15.137,-36.621,44.922,27.344
1532385282.578,47.363,27.344,-38.086,47.363,42.480
1532385282.582,44.922,18.066,-50.781,48.828,61.523
1532385282.586,47.852,6.836,-42.969,41.504,43.457
1532385282.590,42.969,14.160,-32.715,34.668,34.180
1532385282.594,43.945,17.090,-39.551,45.410,64.453
1532385282.598,48.828,17.090,-35.156,48.340,84.961
1532385282.601,46.875,18.066,-34.180,41.504,78.613
1532385282.605,48.828,20.996,-42.969,48.828,58.105
1532385282.609,48.340,12.207,-39.062,51.270,35.156
1532385282.613,53.711,11.230,-46.387,48.828,69.336
1532385282.617,42.480,25.391,-44.922,40.527,55.664
1532385282.621,24.902,19.531,-36.621,29.297,20.020
1532385282.625,30.762,11.230,-40.527,31.738,27.832
1532385282.629,35.156,11.230,-39.062,50.293,85.449
1532385282.633,46.875,23.438,-47.363,52.246,110.352
1532385282.637,36.621,25.391,-37.598,39.062,69.824
1532385282.641,37.109,22.949,-16.602,39.062,59.082
1532385282.644,46.387,24.414,-23.438,40.039,60.059
1532385282.648,47.852,20.508,-36.621,45.898,91.309
1532385282.652,52.246,13.184,-39.062,41.016,92.285
1532385282.656,39.062,13.672,-29.297,36.133,54.688
1532385282.660,26.855,12.207,-37.598,34.668,55.176
1532385282.664,41.504,15.625,-37.109,38.574,63.477
1532385282.668,40.527,18.555,-34.668,34.180,75.195
1532385282.672,21.973,7.812,-38.574,21.484,69.824
1532385282.676,24.414,17.578,-27.832,28.320,49.316
1532385282.680,46.387,37.109,-21.973,37.109,70.801
1532385282.683,58.105,34.668,-34.668,37.109,86.914
1532385282.687,58.105,24.902,-38.086,34.668,65.430
1532385282.691,73.730,25.879,-24.414,36.621,41.992
1532385282.695,77.148,33.203,-32.227,32.227,40.039
1532385282.699,58.594,27.832,-31.250,32.227,50.781
1532385282.703,57.617,16.113,-11.230,48.828,53.223
1532385282.707,51.270,11.230,-12.207,54.688,70.801
1532385282.711,34.668,17.090,-24.414,42.480,82.031
1532385282.715,38.574,20.508,-24.414,41.016,86.914
1532385282.719,40.527,21.973,-30.273,46.875,58.594
1532385282.723,27.832,24.414,-37.598,39.551,47.852
1532385282.726,22.461,17.090,-38.086,39.062,75.684
1532385282.730,24.902,19.043,-29.785,40.039,94.238
1532385282.734,30.762,30.273,-26.367,46.387,79.590
1532385282.738,40.527,32.715,-21.484,51.758,43.457
1532385282.742,37.109,27.832,-15.625,37.109,22.461
1532385282.746,25.879,10.254,-27.344,34.668,68.848
1532385282.750,40.527,4.395,-30.273,35.156,89.355
1532385282.754,40.527,19.531,-35.156,29.297,76.172
1532385282.758,22.461,20.996,-41.992,31.250,97.168
1532385282.762,26.855,14.160,-32.227,29.785,98.633
1532385282.766,29.297,13.184,-26.855,37.598,90.332
1532385282.769,33.691,14.648,-24.902,43.457,86.426
1532385282.773,30.273,12.207,-24.902,31.250,61.523
1532385282.777,28.320,10.254,-22.949,23.926,77.637
1532385282.781,34.668,9.766,-26.855,23.438,97.656
1532385282.785,30.762,5.371,-38.086,29.785,79.102
1532385282.789,39.551,3.906,-37.109,36.133,55.176
1532385282.793,41.992,9.766,-33.203,28.809,26.367
1532385282.797,23.926,13.672,-31.738,17.090,49.316
1532385282.801,22.461,13.184,-21.484,11.719,54.688
1532385282.805,27.832,11.719,-31.250,14.160,23.438
1532385282.808,32.227,2.930,-41.016,22.949,44.922
1532385282.812,34.668,-0.488,-42.480,20.020,65.918
1532385282.816,37.109,5.859,-50.293,16.602,72.754
1532385282.820,23.926,12.207,-53.711,16.113,49.805
1532385282.824,25.391,26.367,-52.734,26.367,20.996
1532385282.828,35.156,36.621,-48.828,22.461,64.941
1532385282.832,27.344,20.508,-44.922,8.301,74.707
1532385282.836,16.602,9.766,-42.969,20.508,43.457
1532385282.840,9.277,8.789,-49.316,21.973,41.016
1532385282.844,19.531,2.441,-53.711,21.484,42.969
1532385282.848,20.996,1.953,-61.523,25.879,49.805
1532385282.851,27.832,3.418,-60.059,24.902,73.730
1532385282.855,34.668,4.883,-59.082,20.020,20.996
1532385282.859,23.438,8.301,-72.754,16.113,2.930
1532385282.863,22.461,15.625,-68.848,28.809,68.359
1532385282.867,24.414,23.438,-50.293,35.645,60.059
1532385282.871,27.832,21.484,-43.945,26.367,39.062
1532385282.875,25.879,17.578,-51.270,20.508,36.621
1532385282.879,19.531,19.043,-51.758,23.438,53.223
1532385282.883,23.438,18.066,-54.688,19.043,60.547
1532385282.887,21.973,14.648,-67.871,16.113,34.180
1532385282.891,22.949,9.277,-72.266,22.949,31.250
1532385282.894,37.109,1.953,-62.988,35.645,30.762
1532385282.898,32.227,7.324,-66.895,36.621,45.898
1532385282.902,33.203,15.625,-67.383,29.297,63.477
1532385282.906,35.645,20.508,-65.430,29.297,67.871
1532385282.910,33.203,32.227,-60.059,32.715,53.711
1532385282.914,38.086,30.273,-52.246,33.691,43.457
1532385282.918,39.062,21.973,-57.617,28.320,56.641
1532385282.922,33.691,23.438,-68.359,21.973,60.059
1532385282.926,21.973,28.320,-67.871,19.043,37.598
1532385282.930,24.414,24.414,-64.453,23.926,57.617
1532385282.933,20.996,12.207,-67.383,18.555,41.504
1532385282.937,19.043,11.230,-52.246,8.301,-24.902
1532385282.941,28.320,13.672,-51.270,13.672,-20.020
1532385282.945,34.180,8.789,-61.523,22.461,58.594
1532385282.949,30.273,9.766,-61.035,25.879,81.055
1532385282.953,33.691,18.066,-46.875,24.414,36.621
1532385282.957,44.434,23.438,-32.227,28.809,13.672
1532385282.961,30.762,11.719,-35.156,30.762,59.082
1532385282.965,24.902,17.578,-41.016,32.227,87.402
1532385282.969,24.902,29.297,-38.086,29.785,22.461
1532385282.973,14.160,12.207,-41.992,21.973,-14.648
1532385282.976,14.160,5.859,-39.551,14.160,24.414
1532385282.980,10.254,13.184,-29.297,10.742,42.969
1532385282.984,8.301,16.113,-29.297,12.207,55.176
1532385282.988,12.695,14.160,-40.527,21.973,48.340
1532385282.992,17.578,19.531,-38.086,28.320,10.742
1532385282.996,13.672,15.625,-25.391,14.160,19.531
1532385283.000,12.207,9.766,-15.137,13.672,44.434
1532385283.004,18.066,6.836,-17.090,12.695,18.066
1532385283.008,32.715,-1.465,-9.766,34.668,9.277
1532385283.012,33.203,0.488,-5.371,45.410,26.367
1532385283.016,19.043,12.695,-23.438,21.973,41.504
1532385283.019,18.555,23.926,-36.621,8.789,27.344
1532385283.023,15.137,21.973,-28.809,10.254,6.348
1532385283.027,18.555,18.066,-16.113,14.160,50.781
1532385283.031,23.926,14.648,-23.926,15.625,69.824
1532385283.035,12.695,10.742,-28.320,16.113,37.109
1532385283.039,21.484,4.883,-18.555,7.324,4.395
1532385283.043,28.320,0.488,-17.578,10.742,1.465
1532385283.047,9.277,7.812,-20.508,17.090,54.199
1532385283.051,11.230,9.277,-23.438,10.254,54.688
1532385283.055,18.066,5.859,-10.254,17.090,-23.926
1532385283.058,9.766,16.113,-0.488,22.461,-45.898
1532385283.062,5.371,16.602,-6.348,15.625,-7.324
1532385283.066,10.742,9.277,-0.488,14.160,16.113
1532385283.070,13.184,0.488,-6.836,17.578,-10.254
1532385283.074,6.836,-3.906,-5.859,22.461,-25.391
1532385283.078,3.906,-0.977,2.930,15.137,-20.020
1532385283.082,9.766,1.953,-10.254,13.672,0.977
1532385283.086,16.602,8.789,-20.020,25.391,19.531
1532385283.090,29.297,11.230,-10.742,32.227,21.484
1532385283.094,36.621,6.348,7.812,29.785,13.672
1532385283.098,18.555,-5.371,12.695,23.926,34.180
1532385283.101,10.742,-1.465,7.812,21.484,18.066
1532385283.105,12.695,14.160,6.348,15.625,-6.348
1532385283.109,17.090,21.484,6.836,25.391,9.277
1532385283.113,17.578,17.090,8.301,26.367,21.484
1532385283.117,20.020,20.508,-0.488,26.855,41.992
1532385283.121,24.902,28.320,-8.301,34.180,11.719
1532385283.125,16.602,15.137,2.930,22.461,1.953
1532385283.129,13.184,6.348,12.695,14.160,62.988
1532385283.133,13.672,11.719,10.742,13.672,56.152
1532385283.137,17.578,8.301,6.836,19.531,4.395
1532385283.141,14.648,0.977,0.000,20.996,27.344
1532385283.144,16.602,12.207,0.488,17.090,78.613
1532385283.148,23.926,20.020,8.789,9.277,93.750
1532385283.152,21.973,29.297,9.766,15.625,57.129
1532385283.156,28.320,34.180,2.930,27.344,27.832
1532385283.160,33.203,19.043,-5.371,23.438,63.965
1532385283.164,25.391,20.020,-3.906,10.742,91.797
1532385283.168,9.766,23.926,-4.883,9.766,72.754
1532385283.172,18.555,17.578,-6.348,27.344,18.555
1532385283.176,30.273,20.508,2.930,37.109,-17.090
1532385283.180,33.203,20.996,-2.930,30.273,33.203
1532385283.184,28.320,8.301,-1.465,23.438,74.707
1532385283.187,29.785,9.766,9.766,22.949,54.199
1532385283.191,25.879,26.855,15.625,15.137,21.973
1532385283.195,16.602,36.133,23.438,20.508,16.602
1532385283.199,20.508,29.297,17.090,24.414,60.059
1532385283.203,14.648,26.855,-1.953,12.207,50.293
1532385283.207,9.277,32.715,-12.207,13.672,11.719
1532385283.211,15.625,28.809,-2.441,13.672,2.930
1532385283.215,28.320,18.066,10.254,24.414,32.715
1532385283.219,25.879,7.812,13.672,24.414,51.270
1532385283.223,15.137,8.789,-0.488,12.207,27.344
1532385283.226,16.602,22.949,4.395,6.836,15.625
1532385283.230,17.090,33.203,26.855,15.625,39.551
1532385283.234,14.160,27.344,23.438,23.926,51.758
1532385283.238,23.926,28.809,24.414,35.645,27.832
1532385283.242,33.691,35.645,22.461,35.156,11.230
1532385283.246,27.344,18.555,-3.418,19.531,33.691
1532385283.250,22.949,13.184,-0.977,25.879,50.293
1532385283.254,21.973,31.738,15.137,20.508,9.766
1532385283.258,18.555,28.809,20.508,15.137,-0.977
1532385283.262,9.277,14.160,9.766,7.812,45.410
1532385283.266,1.953,8.789,-10.742,-1.953,57.617
1532385283.269,6.348,25.879,-5.371,4.395,41.992
1532385283.273,3.906,34.668,12.695,1.953,10.742
1532385283.277,8.301,33.691,16.602,3.906,12.207
1532385283.281,19.531,34.668,6.836,21.973,67.383
1532385283.285,13.672,26.367,6.348,24.902,62.500
1532385283.289,9.766,22.461,6.836,15.137,31.250
1532385283.293,11.230,17.578,7.324,18.555,11.719
1532385283.297,14.648,9.766,8.301,20.508,9.766
1532385283.301,16.602,13.672,12.207,20.508,18.066
1532385283.305,15.137,21.973,14.160,20.996,8.789
1532385283.309,20.508,32.227,8.789,17.090,-21.973
1532385283.312,19.043,41.016,0.977,19.531,-3.418
1532385283.316,27.832,37.109,-7.324,18.066,32.715
1532385283.320,27.344,28.320,-3.418,17.090,18.555
1532385283.324,20.020,21.973,9.766,17.578,4.395
1532385283.328,23.926,14.648,18.066,17.578,32.227
1532385283.332,30.762,16.602,20.020,25.879,39.062
1532385283.336,25.391,10.742,13.184,8.789,-9.277
1532385283.340,14.160,11.719,5.371,-0.488,-4.883
1532385283.344,19.043,15.137,6.348,1.465,44.434
1532385283.348,15.625,12.695,2.441,0.977,61.523
1532385283.351,4.395,16.113,0.488,4.883,37.109
1532385283.355,9.277,21.484,8.301,13.184,-5.371
1532385283.359,11.719,20.996,4.883,13.672,-18.066
1532385283.363,11.230,18.555,-8.789,8.301,14.648
1532385283.367,15.137,18.555,-2.441,14.160,31.250
1532385283.371,30.273,19.043,6.836,15.625,-1.953
1532385283.375,40.039,17.578,13.184,26.855,-18.555
1532385283.379,18.555,15.625,14.160,26.855,20.020
1532385283.383,9.277,25.879,3.906,12.207,60.059
1532385283.387,10.742,22.949,-0.488,3.418,40.039
1532385283.391,12.695,20.508,0.488,9.766,19.531
1532385283.394,24.902,26.855,10.254,10.254,30.762
1532385283.398,22.949,26.855,19.531,-4.883,16.602
1532385283.402,22.949,25.391,19.531,-1.465,25.391
1532385283.406,20.508,24.414,16.113,15.625,45.410
1532385283.410,15.137,20.996,13.672,16.113,58.105
1532385283.414,27.832,21.484,10.742,22.949,98.145
1532385283.418,31.250,31.250,8.301,29.297,93.750
1532385283.422,24.414,31.250,17.090,22.949,58.105
1532385283.426,21.484,16.602,16.113,16.602,58.105
1532385283.430,20.508,23.926,18.066,26.855,73.242
1532385283.434,29.297,32.715,22.461,34.668,52.246
1532385283.437,25.391,21.973,11.719,23.926,20.508
1532385283.441,12.207,22.461,18.066,15.625,40.039
1532385283.445,14.648,23.926,21.484,17.578,70.312
1532385283.449,17.090,23.438,15.137,16.113,62.012
1532385283.453,2.930,23.926,7.324,6.836,29.785
1532385283.457,7.324,29.785,11.719,14.160,22.461
1532385283.461,24.414,32.715,10.254,16.602,58.105
1532385283.465,14.648,29.785,4.395,7.324,87.402
1532385283.469,9.766,31.738,4.883,18.555,60.547
1532385283.473,13.672,31.738,11.230,14.160,-3.418
1532385283.476,14.160,19.531,27.344,13.672,-3.906
1532385283.480,5.859,7.812,27.832,20.020,42.480
1532385283.484,15.625,8.789,22.461,13.672,55.664
1532385283.488,17.090,16.113,16.602,20.020,23.926
1532385283.492,3.906,30.762,15.137,18.066,-2.441
1532385283.496,20.020,47.852,24.414,22.949,0.977
1532385283.500,22.461,37.598,17.578,25.391,46.875
1532385283.504,11.719,18.555,3.418,15.625,40.527
1532385283.508,13.672,16.602,3.418,14.648,0.488
1532385283.512,10.742,18.555,-3.906,14.160,36.133
1532385283.516,11.230,18.555,-7.324,14.160,87.402
1532385283.519,23.926,18.066,12.207,15.625,65.430
1532385283.523,20.020,16.602,26.855,13.672,19.043
1532385283.527,7.324,18.066,20.996,10.254,50.781
1532385283.531,15.625,12.695,24.902,9.277,85.938
1532385283.535,20.996,12.695,23.926,11.230,71.289
1532385283.539,22.461,24.414,9.277,9.277,41.992
1532385283.543,28.320,37.598,16.602,21.973,27.344
1532385283.547,30.762,36.621,17.578,21.973,42.480
1532385283.551,19.043,21.973,-0.488,-2.930,41.016
1532385283.555,19.043,21.973,-0.977,0.000,-0.977
1532385283.559,41.504,25.879,12.695,1.465,0.977
1532385283.562,31.738,21.973,16.602,-0.488,48.340
1532385283.566,15.137,22.461,9.766,6.836,69.336
1532385283.570,18.066,15.137,10.254,12.207,37.109
1532385283.574,13.184,13.672,9.277,3.906,3.906
1532385283.578,12.207,23.438,15.137,0.977,25.391
1532385283.582,6.348,16.602,15.625,12.695,35.156
1532385283.586,-0.977,6.836,-1.465,7.324,21.973
1532385283.590,6.348,14.160,-1.465,10.254,8.789
1532385283.594,8.301,31.738,1.465,26.367,9.766
1532385283.598,5.371,33.203,0.977,20.508,45.410
1532385283.601,3.906,21.973,6.348,7.812,41.016
1532385283.605,0.000,21.484,8.789,9.766,-0.488
1532385283.609,0.977,24.414,5.371,7.812,14.160
1532385283.613,10.742,22.461,11.230,-0.488,36.621
1532385283.617,16.602,18.066,6.348,7.324,28.320
1532385283.621,9.277,17.090,0.000,7.324,11.719
1532385283.625,13.184,24.414,-5.371,6.348,11.719
1532385283.629,16.113,26.855,-14.160,6.348,46.387
1532385283.633,4.883,33.691,4.883,-0.977,41.504
1532385283.637,11.230,41.504,30.273,-3.418,-6.348
1532385283.641,14.160,39.062,21.973,-12.207,-30.762
1532385283.644,1.953,28.809,10.742,-13.184,-7.812
1532385283.648,1.465,19.531,7.812,2.441,41.504
1532385283.652,7.324,30.273,9.277,9.277,49.805
1532385283.656,8.789,36.621,14.648,13.672,9.277
1532385283.660,15.137,22.949,11.719,17.090,23.438
1532385283.664,12.207,23.926,16.113,13.672,48.340
1532385283.668,12.695,33.691,10.742,14.648,53.223
1532385283.672,16.113,21.973,12.207,7.324,42.480
1532385283.676,10.254,14.648,26.855,10.254,11.719
1532385283.680,8.301,29.785,26.367,23.438,33.691
1532385283.684,14.160,40.039,18.555,20.020,17.578
1532385283.687,16.113,34.180,13.672,13.672,6.836
1532385283.691,4.395,28.320,18.066,1.953,33.203
1532385283.695,13.672,23.438,26.367,2.930,29.297
1532385283.699,19.531,28.809,28.320,8.301,27.832
1532385283.703,14.648,21.973,16.602,15.625,16.113
1532385283.707,13.672,19.531,10.254,20.508,-3.418
1532385283.711,7.812,34.180,11.230,16.113,22.949
1532385283.715,7.812,34.668,14.160,12.695,39.062
1532385283.719,13.184,26.855,20.020,15.625,32.227
1532385283.723,9.766,23.926,18.555,9.766,19.531
1532385283.727,13.184,37.598,24.414,13.672,7.324
1532385283.730,24.414,46.387,32.715,25.879,43.457
1532385283.734,14.648,39.062,20.508,11.230,41.016
1532385283.738,6.348,32.715,9.277,3.418,-13.672
1532385283.742,8.301,21.484,15.625,0.000,-11.719
1532385283.746,3.906,17.090,18.066,1.465,19.043
1532385283.750,1.465,26.367,9.277,4.883,48.828
1532385283.754,21.973,29.785,9.277,6.348,33.203
1532385283.758,28.320,36.621,16.602,15.137,6.836
1532385283.762,13.672,38.086,24.902,14.160,12.695
