timestamps,TP9,AF7,AF8,TP10,Right AUX
1532485621.577,29.297,28.320,33.203,49.805,-558.594
1532485621.581,27.832,55.176,33.203,44.434,-122.070
1532485621.585,22.949,28.320,32.227,34.668,17.090
1532485621.589,26.367,13.672,31.250,38.086,-502.441
1532485621.592,27.344,40.527,32.715,32.227,-473.633
1532485621.596,27.832,47.363,36.133,41.992,-41.992
1532485621.600,32.227,67.383,34.668,31.250,416.016
1532485621.604,33.203,75.195,36.133,37.598,809.082
1532485621.608,41.992,9.277,38.574,46.875,-30.273
1532485621.612,42.969,21.484,33.203,32.227,-517.090
1532485621.616,37.109,39.551,30.273,42.969,-429.688
1532485621.620,28.809,37.598,30.762,45.410,-402.344
1532485621.624,29.785,34.668,32.715,33.203,-162.109
1532485621.628,35.156,33.203,32.227,30.273,-388.184
1532485621.631,33.203,35.156,31.250,35.156,-363.281
1532485621.635,30.762,33.691,32.227,32.715,-426.270
1532485621.639,31.250,41.992,32.715,27.832,-445.312
1532485621.643,33.203,50.781,32.715,33.691,229.980
1532485621.647,28.809,23.926,31.250,36.133,211.426
1532485621.651,22.461,13.184,31.738,19.531,-221.191
1532485621.655,20.020,20.996,36.621,16.113,-481.445
1532485621.659,22.949,50.781,37.598,21.484,-408.691
1532485621.663,22.461,99.609,35.156,25.391,672.852
1532485621.667,20.508,21.973,35.645,23.438,605.469
1532485621.671,23.926,-0.488,34.668,29.297,-287.598
1532485621.674,26.367,26.855,33.203,25.391,-607.422
1532485621.678,25.391,37.598,32.715,17.578,-398.926
1532485621.682,26.367,32.227,32.715,23.438,207.520
1532485621.686,25.391,14.648,32.227,17.578,-169.922
1532485621.690,24.414,55.664,32.227,19.043,-233.887
1532485621.694,30.762,42.480,34.180,27.344,102.539
1532485621.698,36.133,24.414,37.598,30.762,-178.711
1532485621.702,27.832,103.027,39.551,28.809,538.086
1532485621.706,24.414,33.203,37.109,24.902,627.441
1532485621.710,32.715,-7.812,36.621,19.531,-397.461
1532485621.714,35.156,29.297,37.109,23.438,-471.680
1532485621.717,29.785,28.809,36.621,28.809,-443.848
1532485621.721,27.832,66.406,36.621,17.090,-98.145
1532485621.725,36.133,38.574,37.598,28.809,-178.223
1532485621.729,36.133,19.531,39.062,39.062,-464.355
1532485621.733,31.738,35.645,39.062,35.156,-281.738
1532485621.737,34.180,50.781,37.109,35.156,-169.922
1532485621.741,31.250,86.426,36.621,19.043,295.898
1532485621.745,33.203,61.035,35.645,23.438,790.039
1532485621.749,39.551,0.977,39.551,36.133,-14.160
1532485621.753,31.250,15.625,41.992,30.273,-541.992
1532485621.756,26.855,30.762,38.574,28.809,-645.508
1532485621.760,34.180,63.965,37.109,30.762,-375.000
1532485621.764,41.504,43.457,36.133,42.969,-10.254
1532485621.768,42.969,24.902,35.645,43.945,-363.770
1532485621.772,41.016,42.480,35.156,34.668,-531.250
1532485621.776,38.086,37.598,34.668,27.832,-560.547
1532485621.780,37.109,47.363,35.645,33.691,-251.953
1532485621.784,34.668,50.781,34.668,26.855,394.043
1532485621.788,31.250,38.574,35.645,17.578,211.914
1532485621.792,33.203,34.668,37.598,14.648,-246.582
1532485621.796,36.133,31.250,38.086,23.438,-431.152
1532485621.799,28.320,49.316,35.645,32.227,-180.664
1532485621.803,18.555,89.355,35.156,12.695,740.234
1532485621.807,21.484,23.438,37.109,6.836,179.199
1532485621.811,28.320,11.719,36.621,20.996,-492.188
1532485621.815,31.250,26.367,37.109,16.113,-408.691
1532485621.819,23.926,33.203,35.156,5.859,-333.984
1532485621.823,18.555,40.039,33.691,-0.488,-11.230
1532485621.827,24.414,35.645,34.180,22.461,-311.523
1532485621.831,23.438,52.246,35.156,34.668,-17.578
1532485621.835,19.043,26.855,38.086,17.090,137.695
1532485621.839,17.578,29.785,35.156,8.789,-297.363
1532485621.842,18.555,90.820,31.250,16.602,590.820
1532485621.846,27.344,16.602,35.645,32.227,550.293
1532485621.850,22.461,-7.324,37.109,25.391,-347.656
1532485621.854,12.695,31.738,36.133,12.207,-575.684
1532485621.858,12.695,50.781,35.645,22.461,-595.215
1532485621.862,15.137,64.941,38.086,22.461,65.918
1532485621.866,18.066,23.438,39.551,34.180,-55.664
1532485621.870,12.207,25.879,37.109,34.668,-507.324
1532485621.874,3.906,39.551,37.598,26.855,-497.070
1532485621.878,4.395,53.223,39.062,28.809,-151.855
1532485621.881,1.953,89.844,38.086,29.785,654.785
1532485621.885,-0.488,28.809,40.039,31.250,685.547
1532485621.889,2.441,-3.906,39.551,42.969,-362.793
1532485621.893,3.906,31.738,38.574,42.969,-609.863
1532485621.897,9.277,28.809,41.016,40.527,-497.559
1532485621.901,7.324,63.965,40.527,43.945,1.953
1532485621.905,3.418,37.109,40.039,28.320,49.316
1532485621.909,12.207,24.414,39.551,20.996,-545.898
1532485621.913,16.113,38.574,38.574,33.691,-413.086
1532485621.917,12.695,21.484,41.016,40.039,-407.715
1532485621.921,7.324,54.688,39.062,30.762,-209.961
1532485621.924,9.277,64.453,34.668,21.484,285.156
1532485621.928,13.672,35.645,34.668,28.320,190.918
1532485621.932,16.602,24.414,31.738,27.832,-77.148
1532485621.936,23.438,21.484,28.320,36.133,-466.797
1532485621.940,13.672,65.918,39.551,35.645,-312.012
1532485621.944,-3.418,82.031,41.992,16.602,729.004
1532485621.948,0.000,-1.465,40.039,21.973,229.492
1532485621.952,4.395,7.324,41.016,23.926,-465.820
1532485621.956,-0.488,29.785,39.551,19.043,-585.449
1532485621.960,-6.836,32.227,40.527,20.508,-458.008
1532485621.963,-2.930,19.043,40.039,28.320,26.367
1532485621.967,3.906,15.137,41.504,28.320,-248.535
1532485621.971,3.906,55.176,43.945,13.672,-82.520
1532485621.975,4.395,23.438,38.574,17.578,-40.039
1532485621.979,6.836,28.809,35.156,31.250,-222.168
1532485621.983,2.930,84.961,38.086,19.531,728.027
1532485621.987,3.418,4.395,39.551,9.766,262.695
1532485621.991,9.766,3.418,40.039,20.508,-612.305
1532485621.995,13.672,32.715,38.574,25.391,-565.918
1532485621.999,15.625,36.133,39.551,20.508,-332.031
1532485622.003,15.137,30.762,38.574,14.648,83.984
1532485622.006,14.160,16.602,33.691,27.832,-352.539
1532485622.010,20.996,32.227,34.180,39.551,-550.293
1532485622.014,24.902,26.855,39.551,33.203,-339.355
1532485622.018,18.066,53.223,37.109,28.320,-70.312
1532485622.022,8.301,91.797,38.086,27.344,752.930
1532485622.026,14.160,1.465,40.527,35.645,519.043
1532485622.030,22.461,-17.578,40.039,40.039,-323.730
1532485622.034,22.461,8.301,40.527,27.344,-452.637
1532485622.038,18.555,19.531,36.133,14.648,-561.523
1532485622.042,18.555,61.035,32.715,32.227,-93.750
1532485622.046,24.414,26.855,33.203,37.109,-127.441
1532485622.049,22.461,16.113,35.645,33.203,-413.574
1532485622.053,21.484,29.785,38.574,44.434,-433.594
1532485622.057,26.855,37.109,41.016,36.133,-602.051
1532485622.061,30.273,70.312,41.504,41.504,-84.961
1532485622.065,29.297,45.410,36.621,39.551,395.020
1532485622.069,25.879,8.301,34.668,34.668,2.441
1532485622.073,25.391,25.879,35.156,29.297,-381.836
1532485622.077,28.320,26.367,38.086,29.785,-553.223
1532485622.081,26.367,70.801,39.062,41.016,32.715
1532485622.085,28.320,65.918,41.504,24.902,805.664
1532485622.088,27.832,11.230,41.992,20.508,26.367
1532485622.092,27.344,20.996,37.598,35.645,-488.770
1532485622.096,34.180,23.438,38.574,41.504,-459.961
1532485622.100,33.691,42.480,37.598,33.203,-204.590
1532485622.104,35.156,28.320,37.598,29.297,-86.914
1532485622.108,41.016,26.855,38.086,34.668,-486.328
1532485622.112,42.969,67.871,34.668,27.344,-4.395
1532485622.116,49.805,32.715,39.062,25.879,174.316
1532485622.120,46.387,37.109,41.016,22.461,-88.867
1532485622.124,38.086,87.891,41.016,1.953,698.242
1532485622.128,45.410,13.184,44.922,37.598,215.820
1532485622.131,48.340,-0.488,42.969,41.016,-443.359
1532485622.135,42.480,24.414,41.016,28.809,-497.559
1532485622.139,44.434,37.109,44.434,34.668,-520.508
1532485622.143,51.758,29.297,44.434,35.156,-84.961
1532485622.147,52.246,19.043,40.527,34.668,-243.652
1532485622.151,50.781,24.902,42.480,29.785,-407.715
1532485622.155,53.223,19.531,42.969,30.762,-525.879
1532485622.159,55.176,62.500,39.551,38.574,-138.672
1532485622.163,52.246,91.797,37.598,46.387,833.984
1532485622.167,48.828,-2.930,38.574,44.922,379.395
1532485622.171,45.410,-2.441,41.992,36.621,-482.422
1532485622.174,48.340,37.109,43.457,40.527,-664.062
1532485622.178,48.340,36.621,39.551,50.293,-475.586
1532485622.182,51.270,37.109,36.621,40.039,151.367
1532485622.186,52.734,20.508,39.062,24.902,-210.938
1532485622.190,47.852,35.645,39.062,36.133,-603.027
1532485622.194,47.852,34.668,33.203,59.082,-479.980
1532485622.198,52.246,37.598,32.227,51.270,-331.055
1532485622.202,49.805,58.105,33.691,41.016,206.055
1532485622.206,47.363,53.223,32.227,39.551,287.109
1532485622.210,54.199,41.016,30.273,47.852,112.305
1532485622.213,56.641,17.578,30.762,49.805,-47.852
1532485622.217,51.270,24.414,31.738,38.086,-427.246
1532485622.221,44.922,100.098,31.250,38.574,221.191
1532485622.225,49.805,46.875,27.832,30.762,750.000
1532485622.229,55.176,-11.230,26.367,38.574,-153.320
1532485622.233,54.199,20.020,29.297,33.203,-425.293
1532485622.237,56.641,26.855,32.227,32.227,-523.926
1532485622.241,54.199,64.453,29.785,46.387,-281.250
1532485622.245,51.758,39.551,29.785,37.598,-79.590
1532485622.249,50.293,15.137,29.785,37.598,-333.008
1532485622.253,46.387,50.293,29.297,29.297,47.363
1532485622.256,46.875,29.297,28.320,18.066,-76.660
1532485622.260,50.293,55.664,26.367,29.785,-90.332
1532485622.264,55.664,66.406,28.320,32.227,777.832
1532485622.268,55.176,-9.766,31.738,26.855,87.402
1532485622.272,49.805,17.090,27.344,20.996,-625.977
1532485622.276,57.129,31.738,26.367,23.438,-614.746
1532485622.280,64.453,35.156,35.645,37.598,-347.656
1532485622.284,60.059,24.414,33.203,39.551,-6.836
1532485622.288,53.711,21.484,28.809,28.809,-403.809
1532485622.292,55.664,35.645,29.297,22.949,-560.547
1532485622.296,57.617,31.250,27.832,28.320,-442.871
1532485622.299,54.688,56.152,26.367,31.738,117.676
1532485622.303,64.941,68.359,27.832,26.367,864.746
1532485622.307,83.496,3.906,29.297,45.410,113.770
1532485622.311,76.172,10.742,26.367,51.758,-511.719
1532485622.315,59.082,25.879,25.879,38.086,-444.824
1532485622.319,61.035,28.809,27.344,31.250,-386.230
1532485622.323,68.359,39.551,23.438,33.691,-56.152
1532485622.327,70.801,30.762,16.602,29.297,-355.469
1532485622.331,77.148,35.645,17.090,27.832,-406.738
1532485622.335,77.637,30.762,20.020,33.691,-383.301
1532485622.338,73.242,45.898,17.578,27.344,-446.777
1532485622.342,77.148,55.664,18.555,20.508,69.824
1532485622.346,77.148,54.199,23.438,28.320,325.195
1532485622.350,76.172,35.645,21.973,39.062,254.883
1532485622.354,78.613,8.789,22.949,32.715,-234.863
1532485622.358,80.566,40.039,21.484,31.250,-548.340
1532485622.362,81.543,106.934,20.020,32.715,513.672
1532485622.366,89.844,23.438,25.391,38.086,700.684
1532485622.370,89.355,-4.883,24.414,39.551,-316.406
1532485622.374,83.008,33.691,20.996,39.551,-599.121
1532485622.378,84.961,40.527,20.020,32.715,-515.625
1532485622.381,83.984,70.312,20.508,24.902,105.469
1532485622.385,80.078,29.297,24.414,27.344,-44.922
1532485622.389,77.637,34.668,26.367,44.434,-558.105
1532485622.393,77.637,75.684,25.391,49.805,-15.625
1532485622.397,78.613,51.758,25.391,48.828,222.168
1532485622.401,74.707,75.684,26.367,40.039,384.277
1532485622.405,73.730,60.059,25.879,31.738,743.164
1532485622.409,79.102,5.859,24.414,39.062,-202.637
1532485622.413,75.684,30.762,22.949,39.062,-536.133
1532485622.417,71.289,27.832,22.949,32.227,-443.848
1532485622.420,65.918,50.293,21.484,27.832,-313.965
1532485622.424,69.824,42.969,22.461,23.926,-196.289
1532485622.428,70.801,32.227,24.414,17.578,-435.059
1532485622.432,63.965,30.273,26.367,22.949,-342.285
1532485622.436,60.059,22.949,25.391,18.555,-468.750
1532485622.440,57.617,82.031,22.461,23.926,-54.199
1532485622.444,59.570,89.355,22.949,26.855,817.383
1532485622.448,65.918,1.953,31.250,28.320,170.898
1532485622.452,65.430,8.301,31.738,30.273,-477.051
1532485622.456,69.824,39.062,30.762,29.785,-617.188
1532485622.460,73.242,42.480,34.180,39.062,-499.512
1532485622.463,70.801,22.949,31.250,27.344,-3.906
1532485622.467,67.383,14.648,30.762,22.949,-264.160
1532485622.471,63.965,36.133,31.250,36.133,-522.949
1532485622.475,64.453,38.574,31.250,48.828,-570.312
1532485622.479,63.965,36.133,32.715,43.457,-316.895
1532485622.483,64.941,29.297,35.156,34.668,184.082
1532485622.487,63.477,34.668,38.086,39.551,131.836
1532485622.491,59.570,26.855,35.156,30.762,-98.145
1532485622.495,62.012,12.695,29.297,28.809,-367.676
1532485622.499,59.082,41.504,27.832,26.855,-254.395
1532485622.503,49.316,89.844,24.902,9.277,711.914
1532485622.506,51.270,16.602,26.855,18.066,372.559
1532485622.510,53.711,12.695,29.785,36.133,-321.289
1532485622.514,55.176,21.484,34.180,35.156,-292.969
1532485622.518,52.734,21.973,34.180,33.691,-374.023
1532485622.522,47.852,52.246,30.762,24.414,69.824
1532485622.526,50.293,26.367,35.645,16.113,-234.863
1532485622.530,55.664,29.297,30.762,37.109,-424.316
1532485622.534,54.199,37.598,25.879,40.039,45.898
1532485622.538,49.805,39.062,32.227,19.531,-7.812
1532485622.542,49.316,91.797,33.203,26.367,476.074
1532485622.545,54.688,32.715,33.203,39.551,717.285
1532485622.549,47.363,-18.555,32.715,30.762,-180.176
1532485622.553,35.156,25.391,33.691,20.508,-541.992
1532485622.557,32.715,41.992,33.203,19.531,-648.926
1532485622.561,31.250,63.965,32.715,31.738,-186.035
1532485622.565,33.691,23.438,34.668,41.016,-34.668
1532485622.569,38.574,15.625,35.156,33.691,-439.941
1532485622.573,40.527,40.527,37.109,13.184,-515.625
1532485622.577,41.992,33.691,37.109,20.020,-558.105
1532485622.581,41.016,71.289,35.156,40.039,192.383
1532485622.585,44.434,50.781,36.621,44.922,857.910
1532485622.588,56.641,-3.906,41.504,51.758,-137.695
1532485622.592,55.664,25.391,36.621,38.574,-631.348
1532485622.596,41.016,35.156,29.785,17.090,-484.375
1532485622.600,35.156,49.805,30.762,18.555,-261.719
1532485622.604,47.363,38.086,35.156,28.809,-115.723
1532485622.608,49.316,30.273,38.574,33.203,-503.418
1532485622.612,47.363,42.480,36.621,35.645,-453.613
1532485622.616,45.410,31.250,33.203,39.062,-350.586
1532485622.620,43.945,30.762,36.621,24.414,-306.152
1532485622.624,40.527,34.668,33.691,11.230,-69.336
1532485622.628,33.203,46.387,28.320,23.926,120.117
1532485622.631,39.062,23.438,30.762,33.203,176.758
1532485622.635,37.598,-1.953,28.809,26.855,-337.891
1532485622.639,28.809,40.527,26.367,15.625,-379.395
1532485622.643,31.250,92.285,29.297,13.672,704.590
1532485622.647,34.180,2.441,30.273,31.738,370.605
1532485622.651,33.203,-13.184,30.762,30.762,-393.066
1532485622.655,32.227,28.320,34.180,19.531,-560.547
1532485622.659,32.715,40.039,33.691,22.949,-506.348
1532485622.663,37.598,37.109,35.156,26.367,102.539
1532485622.667,39.551,7.812,38.574,23.926,-159.668
1532485622.670,35.156,31.738,33.691,18.555,-478.516
1532485622.674,39.551,52.734,31.738,13.184,-167.969
1532485622.678,41.992,42.480,32.715,23.438,4.883
1532485622.682,38.574,68.359,32.227,24.414,698.730
1532485622.686,35.645,0.488,38.086,26.367,518.555
1532485622.690,37.109,-7.812,38.086,23.438,-477.051
1532485622.694,40.039,23.926,32.715,24.414,-580.566
1532485622.698,37.598,25.879,36.133,37.109,-391.602
1532485622.702,30.762,49.805,35.156,33.691,128.418
1532485622.706,23.926,24.414,33.203,29.297,-211.426
1532485622.710,23.926,30.273,36.621,31.738,-569.336
1532485622.713,25.879,26.367,34.180,32.715,-319.824
1532485622.717,22.949,21.484,33.691,29.297,-405.762
1532485622.721,18.066,83.008,36.133,19.531,300.781
1532485622.725,22.461,34.180,39.551,6.836,633.789
1532485622.729,31.250,0.000,39.551,21.973,-229.980
1532485622.733,31.250,15.625,36.133,42.480,-380.371
1532485622.737,32.227,14.648,35.645,32.715,-525.391
1532485622.741,35.156,62.012,35.156,18.555,-220.703
1532485622.745,44.922,38.086,38.574,36.621,105.957
1532485622.749,45.410,14.648,40.527,47.852,-279.297
1532485622.752,42.480,31.250,43.457,36.133,-376.953
1532485622.756,45.410,32.227,47.363,35.156,-527.832
1532485622.760,43.945,47.852,41.016,27.832,-279.297
1532485622.764,46.875,36.621,39.062,22.949,114.746
1532485622.768,45.410,39.062,40.527,25.391,204.590
1532485622.772,42.969,33.203,41.504,25.391,55.664
1532485622.776,48.340,8.789,41.992,23.438,-447.266
1532485622.780,47.852,46.875,41.504,30.762,-181.641
1532485622.784,44.434,72.266,39.062,22.461,785.156
1532485622.788,46.875,-2.930,39.551,21.484,138.184
1532485622.792,48.340,5.371,41.016,27.344,-586.914
1532485622.795,54.199,28.809,41.504,26.855,-473.145
1532485622.799,53.711,19.043,38.086,26.367,-263.184
1532485622.803,51.758,19.531,38.574,17.090,26.855
1532485622.807,57.617,29.297,42.480,24.902,-405.273
1532485622.811,64.453,44.434,41.016,37.109,-444.824
1532485622.815,68.848,38.086,40.527,39.551,44.434
1532485622.819,59.082,32.227,42.480,41.016,178.223
1532485622.823,54.199,81.543,42.480,27.832,727.539
1532485622.827,67.383,19.043,42.969,23.926,337.891
1532485622.831,68.359,-2.930,41.016,35.156,-374.023
1532485622.835,63.965,28.809,41.992,29.785,-462.891
1532485622.838,60.059,45.410,41.016,22.461,-512.695
1532485622.842,61.523,54.688,35.645,22.949,-10.254
1532485622.846,64.453,25.391,37.109,33.203,-174.316
1532485622.850,58.594,29.785,42.969,32.715,-376.953
1532485622.854,50.293,36.621,42.480,26.855,-454.590
1532485622.858,50.781,55.176,36.133,34.180,-552.246
1532485622.862,50.293,90.332,34.180,44.922,401.855
1532485622.866,46.387,35.156,37.109,36.133,449.707
1532485622.870,42.480,27.344,38.086,24.414,-329.102
1532485622.874,39.062,47.363,37.109,17.090,-456.543
1532485622.877,37.109,44.922,36.133,27.832,-493.652
1532485622.881,30.273,88.867,33.203,34.668,341.797
1532485622.885,27.832,19.043,37.598,19.043,574.707
1532485622.889,25.879,5.859,41.992,19.531,-376.953
1532485622.893,23.438,43.457,37.109,29.785,-522.461
1532485622.897,25.391,25.391,35.156,25.391,-374.512
1532485622.901,24.414,50.781,35.156,24.902,-21.484
1532485622.905,19.531,38.086,36.621,22.949,-81.543
1532485622.909,19.043,42.480,37.598,24.414,-112.793
1532485622.913,28.809,27.832,34.668,38.574,118.652
1532485622.917,39.062,-0.977,35.645,30.762,-325.195
1532485622.920,37.109,63.965,37.109,32.715,-86.914
1532485622.924,37.109,75.684,33.203,26.855,778.809
1532485622.928,35.156,-1.465,33.691,23.438,56.641
1532485622.932,35.156,21.973,39.062,41.504,-270.996
1532485622.936,38.574,21.973,38.086,23.926,-325.195
1532485622.940,33.691,36.133,34.180,2.930,-453.125
1532485622.944,36.621,36.133,32.227,21.973,-77.637
1532485622.948,46.875,13.672,33.691,37.598,-278.809
1532485622.952,45.410,35.156,37.109,34.668,-365.234
1532485622.956,43.457,45.898,35.645,25.391,-171.875
1532485622.960,54.199,47.852,35.156,24.902,9.766
1532485622.963,56.152,77.637,33.203,30.762,736.328
1532485622.967,55.664,5.859,33.203,33.203,265.625
1532485622.971,54.199,3.906,34.180,24.414,-547.852
1532485622.975,61.523,41.504,34.668,12.207,-635.254
1532485622.979,65.918,41.016,36.621,31.250,-390.625
1532485622.983,61.035,28.320,38.086,40.039,107.910
1532485622.987,58.105,23.438,39.062,26.855,-307.129
1532485622.991,62.012,41.016,40.039,28.809,-572.754
1532485622.995,62.500,31.250,37.598,26.855,-479.492
1532485622.999,58.105,40.527,37.109,25.879,-287.598
1532485623.002,56.152,62.012,39.062,24.902,382.324
1532485623.006,59.082,35.645,39.551,32.227,126.953
1532485623.010,60.059,27.832,39.062,29.297,-358.887
1532485623.014,56.641,19.043,40.527,21.484,-281.250
1532485623.018,59.570,36.621,44.922,29.297,-327.148
1532485623.022,57.617,108.398,43.457,32.715,562.500
1532485623.026,61.523,27.832,40.527,29.297,617.188
1532485623.030,68.359,-3.418,39.062,26.855,-266.113
1532485623.034,71.289,21.973,39.062,29.297,-398.438
1532485623.038,69.824,28.320,40.039,20.020,-490.723
1532485623.042,62.500,57.617,37.109,19.531,-59.082
1532485623.045,61.035,25.391,37.598,32.715,-76.660
1532485623.049,61.035,35.645,36.621,33.691,29.785
1532485623.053,52.246,21.973,33.691,25.391,131.348
1532485623.057,59.570,12.695,35.645,27.832,-549.316
1532485623.061,66.895,91.309,36.133,34.180,43.945
1532485623.065,63.965,41.504,38.574,36.621,825.684
1532485623.069,61.523,-21.973,41.504,35.645,-121.094
1532485623.073,61.523,22.461,42.969,31.250,-617.676
1532485623.077,68.359,25.391,41.992,32.227,-580.566
1532485623.081,68.848,39.062,41.504,45.410,-184.082
1532485623.085,67.871,20.020,40.527,38.086,17.578
1532485623.088,71.777,13.184,39.551,17.578,-476.074
1532485623.092,74.219,39.551,40.527,34.180,-498.535
1532485623.096,76.660,46.387,40.039,48.340,-34.668
1532485623.100,76.172,51.758,38.086,41.992,417.969
1532485623.104,68.848,55.664,36.621,21.484,809.570
1532485623.108,82.031,3.418,37.109,28.320,-6.348
1532485623.112,88.867,13.184,41.016,60.547,-537.109
1532485623.116,75.684,21.484,43.945,48.340,-430.176
1532485623.120,67.383,22.461,39.551,20.996,-384.277
1532485623.124,59.570,19.043,36.133,20.508,-154.297
1532485623.127,64.453,12.695,36.621,41.504,-396.973
1532485623.131,63.965,17.578,36.133,51.758,-375.977
1532485623.135,58.105,14.648,34.668,42.969,-412.598
1532485623.139,57.617,27.344,33.691,26.367,-436.523
1532485623.143,57.617,42.969,33.691,38.086,218.262
1532485623.147,57.129,26.367,32.715,44.434,404.785
1532485623.151,52.246,2.441,35.645,30.273,2.930
1532485623.155,42.480,7.812,36.133,16.602,-459.473
1532485623.159,40.527,42.969,35.156,26.367,-443.848
1532485623.163,41.992,83.496,32.227,24.414,665.527
1532485623.167,42.969,-5.859,33.203,14.160,486.328
1532485623.170,37.109,-10.742,38.086,16.602,-423.828
1532485623.174,37.598,25.391,35.645,11.230,-608.887
1532485623.178,43.457,32.715,31.738,18.066,-435.547
1532485623.182,42.480,37.598,33.203,24.414,201.660
1532485623.186,39.062,20.508,36.621,17.090,-142.578
1532485623.190,40.527,53.711,41.016,13.672,-167.969
1532485623.194,47.363,25.391,43.457,23.926,81.543
1532485623.198,50.781,13.672,40.039,31.738,-309.082
1532485623.202,45.898,91.309,40.527,25.391,478.516
1532485623.206,43.945,31.250,45.410,23.926,664.551
1532485623.209,50.781,1.465,43.945,34.668,-376.953
1532485623.213,52.734,26.367,39.551,35.156,-477.539
1532485623.217,47.852,18.066,38.086,28.809,-427.246
1532485623.221,45.410,63.477,39.551,30.762,-115.234
1532485623.225,51.270,41.992,40.527,41.504,-180.664
1532485623.229,58.594,26.367,39.551,53.711,-469.238
1532485623.233,57.129,37.109,36.621,48.340,-270.996
1532485623.237,52.734,45.410,38.574,38.574,-169.434
1532485623.241,54.199,83.984,40.527,36.621,254.883
1532485623.245,66.406,67.383,41.992,39.062,795.410
1532485623.249,75.684,0.488,43.457,36.621,26.367
1532485623.252,68.848,12.207,35.645,34.180,-505.371
1532485623.256,63.965,29.785,28.320,40.527,-629.883
1532485623.260,68.359,54.688,29.297,42.969,-414.551
1532485623.264,67.871,39.062,32.227,43.457,-20.508
1532485623.268,62.500,20.996,34.180,40.527,-340.332
1532485623.272,54.199,38.086,35.156,29.785,-518.066
1532485623.276,50.293,38.086,36.133,27.832,-568.359
1532485623.280,49.316,47.363,36.621,41.504,-287.109
1532485623.284,41.504,43.945,36.621,35.645,384.766
1532485623.288,40.039,18.555,36.621,17.090,38.574
1532485623.292,50.293,34.668,35.156,35.156,-433.594
1532485623.295,53.223,25.879,34.668,42.969,-431.152
1532485623.299,47.852,42.969,34.668,28.809,-173.828
1532485623.303,46.875,92.285,27.344,29.297,745.605
1532485623.307,51.270,15.625,27.832,34.668,202.637
1532485623.311,53.223,5.859,34.180,37.598,-500.000
1532485623.315,51.758,27.832,34.180,27.344,-408.203
1532485623.319,48.828,31.738,31.250,17.578,-314.941
1532485623.323,51.758,38.086,31.738,29.785,-2.441
1532485623.327,59.082,30.273,34.668,42.969,-308.594
1532485623.331,58.594,53.223,33.203,48.340,-37.109
1532485623.334,58.105,33.691,32.715,39.062,215.820
1532485623.338,59.082,29.297,34.668,37.109,-138.184
1532485623.342,53.223,93.750,32.715,28.320,610.352
1532485623.346,50.781,17.090,35.156,31.250,571.777
1532485623.350,46.875,-11.230,36.133,40.039,-329.590
1532485623.354,48.340,37.598,34.668,33.203,-418.457
1532485623.358,57.617,43.457,36.133,32.715,-476.562
1532485623.362,56.641,53.223,35.156,44.922,17.090
1532485623.366,56.152,20.996,35.645,44.922,-58.594
1532485623.370,54.688,24.414,33.691,34.668,-490.234
1532485623.374,65.430,44.434,35.645,48.828,-541.016
1532485623.377,71.289,68.359,42.480,62.988,-149.902
1532485623.381,49.316,62.500,44.922,49.805,560.059
1532485623.385,40.039,12.207,43.945,40.039,155.273
1532485623.389,39.062,26.855,43.945,28.809,-511.719
1532485623.393,37.598,46.875,39.551,18.066,-432.617
1532485623.397,35.645,26.367,38.086,24.902,-463.867
1532485623.401,28.809,76.660,38.086,42.480,115.234
1532485623.405,26.855,58.105,38.574,38.574,779.785
1532485623.409,35.156,-2.930,40.039,40.527,-175.781
1532485623.413,35.645,28.320,39.551,46.875,-502.441
1532485623.417,30.762,24.902,41.992,36.621,-407.227
1532485623.420,24.414,53.223,41.992,33.203,-297.852
1532485623.424,26.855,68.359,39.062,33.691,219.238
1532485623.428,38.574,25.879,40.527,32.715,54.199
1532485623.432,40.527,16.602,40.039,26.367,-219.238
1532485623.436,38.086,19.043,37.598,16.113,-482.422
1532485623.440,37.598,62.500,35.156,10.742,-357.422
1532485623.444,39.551,93.262,32.715,26.367,708.008
1532485623.448,44.922,8.789,32.715,35.645,234.863
1532485623.452,43.457,6.348,33.203,27.344,-476.074
1532485623.456,38.574,35.645,31.250,15.625,-602.539
1532485623.459,39.551,42.480,32.227,11.230,-500.000
1532485623.463,45.410,30.273,30.762,31.738,-8.301
1532485623.467,36.621,24.414,26.855,28.320,-248.047
1532485623.471,27.344,65.430,25.879,10.742,-86.914
1532485623.475,33.203,44.922,25.879,26.855,-34.668
1532485623.479,34.668,38.574,26.855,40.039,-214.844
1532485623.483,31.250,90.332,27.832,35.156,714.355
1532485623.487,30.273,14.160,31.250,20.996,296.875
1532485623.491,29.297,8.789,27.344,16.602,-607.422
1532485623.495,27.832,38.086,29.785,31.250,-593.262
1532485623.499,25.879,31.738,33.203,35.645,-359.863
1532485623.502,21.484,33.203,31.738,20.020,93.750
1532485623.506,17.090,22.949,30.762,15.625,-338.867
1532485623.510,23.926,41.016,32.227,19.531,-580.078
1532485623.514,29.297,38.574,37.109,39.062,-346.680
1532485623.518,23.438,51.270,37.109,44.434,-28.809
1532485623.522,20.508,93.262,37.109,27.344,757.812
1532485623.526,25.391,20.508,39.551,30.762,552.734
1532485623.530,28.809,-5.371,38.574,32.715,-308.105
1532485623.534,28.320,22.461,38.086,31.250,-450.195
1532485623.538,28.320,31.738,36.621,29.785,-545.898
1532485623.542,31.250,69.824,35.645,27.344,-120.605
1532485623.545,39.062,33.203,35.156,36.621,-126.465
1532485623.549,41.016,18.555,33.691,27.832,-397.461
1532485623.553,37.109,30.273,32.227,14.648,-401.367
1532485623.557,36.621,37.598,34.180,20.996,-586.426
1532485623.561,41.016,67.871,35.645,30.273,-117.188
1532485623.565,43.945,53.223,34.180,38.086,386.719
1532485623.569,32.227,41.016,33.691,16.602,300.781
1532485623.573,20.508,31.738,36.133,-0.488,47.363
1532485623.577,23.438,14.648,35.156,5.371,-479.980
1532485623.581,25.879,67.871,33.203,18.555,-40.039
1532485623.584,25.391,63.477,36.621,27.344,822.754
1532485623.588,25.391,-3.906,37.598,20.508,-75.195
1532485623.592,28.809,20.508,32.227,13.672,-639.648
1532485623.596,33.203,31.738,31.250,25.879,-487.305
1532485623.600,30.273,42.969,35.156,25.391,-244.629
1532485623.604,28.320,32.715,38.086,18.066,-86.426
1532485623.608,27.832,30.762,34.668,15.625,-494.141
1532485623.612,28.320,65.918,33.691,17.090,-29.297
1532485623.616,29.785,28.320,34.180,41.016,199.219
1532485623.620,22.461,34.180,33.691,25.879,-106.445
1532485623.624,17.090,87.402,31.738,20.020,687.988
1532485623.627,28.320,13.672,33.203,40.527,221.191
1532485623.631,27.832,-0.488,33.203,41.504,-450.684
1532485623.635,21.973,15.625,32.715,30.762,-486.328
1532485623.639,20.996,29.297,32.715,19.531,-513.672
1532485623.643,23.926,31.250,32.715,14.648,-84.473
1532485623.647,26.855,20.508,33.203,27.344,-246.582
1532485623.651,24.414,25.879,33.691,23.926,-399.414
1532485623.655,22.949,25.879,34.668,21.973,-496.582
1532485623.659,23.438,68.848,33.203,31.738,-127.441
1532485623.663,27.344,87.402,31.250,28.809,825.684
1532485623.666,32.715,-8.789,35.645,33.691,419.922
1532485623.670,28.809,-6.836,37.109,29.785,-453.125
1532485623.674,26.855,25.391,37.109,29.297,-664.062
1532485623.678,30.273,34.180,37.598,34.668,-510.254
1532485623.682,23.926,42.969,35.156,33.691,137.207
1532485623.686,19.531,12.207,37.598,38.086,-172.852
1532485623.690,20.996,28.809,36.621,30.273,-595.215
1532485623.694,23.438,34.668,33.691,26.367,-486.328
1532485623.698,27.832,34.668,33.203,34.180,-357.910
1532485623.702,30.273,62.012,33.203,38.574,185.059
1532485623.706,32.227,57.129,33.691,29.297,274.414
1532485623.709,37.109,48.828,34.180,27.344,58.594
1532485623.713,41.016,21.973,37.598,32.227,-11.230
1532485623.717,44.922,11.230,39.551,35.645,-384.277
1532485623.721,42.480,89.844,31.250,24.414,172.852
1532485623.725,40.039,52.734,27.344,18.555,762.695
1532485623.729,48.340,-7.324,31.250,36.133,-127.441
1532485623.733,48.828,19.043,31.738,38.086,-418.945
1532485623.737,46.387,27.344,32.227,31.250,-489.746
1532485623.741,44.922,66.406,31.738,34.668,-309.570
1532485623.745,47.852,34.668,30.762,47.852,-107.422
1532485623.749,45.410,18.066,34.668,38.086,-325.195
1532485623.752,37.109,60.547,34.180,32.715,87.402
1532485623.756,31.250,25.391,33.691,35.645,-92.773
1532485623.760,28.809,53.223,32.227,33.691,-186.523
1532485623.764,26.367,84.961,33.691,27.832,767.578
1532485623.768,23.438,-3.418,36.621,31.738,137.207
1532485623.772,20.996,17.090,33.203,39.062,-608.398
1532485623.776,24.414,60.059,36.133,27.832,-474.609
1532485623.780,23.926,41.992,37.109,32.227,-239.258
1532485623.784,22.949,17.090,39.062,41.992,2.441
1532485623.788,21.484,28.809,40.527,33.691,-375.488
1532485623.791,20.996,45.410,33.691,26.367,-569.824
1532485623.795,29.785,37.598,34.668,44.922,-474.609
1532485623.799,30.273,66.895,38.086,43.945,63.965
1532485623.803,23.438,93.262,37.109,29.785,857.910
1532485623.807,33.691,18.555,38.086,27.832,137.695
1532485623.811,41.016,15.137,36.621,24.902,-534.180
1532485623.815,45.898,33.691,37.109,25.391,-466.309
1532485623.819,47.363,35.645,37.598,37.109,-376.953
1532485623.823,45.410,43.457,33.203,37.109,-35.156
1532485623.827,52.246,31.738,31.738,26.367,-358.887
1532485623.831,60.059,33.691,31.250,31.738,-422.852
1532485623.834,62.500,29.785,33.203,41.504,-363.770
1532485623.838,59.082,45.898,36.133,28.320,-438.477
1532485623.842,61.035,55.176,33.691,18.066,59.570
1532485623.846,68.848,53.711,36.621,33.203,306.641
1532485623.850,73.242,46.387,38.574,38.574,285.645
1532485623.854,71.777,16.602,34.668,28.809,-146.973
1532485623.858,68.359,36.133,33.691,24.902,-563.477
1532485623.862,71.777,105.469,37.109,32.715,436.523
1532485623.866,85.938,24.414,41.992,42.480,727.539
1532485623.870,79.102,-9.766,37.598,30.762,-284.668
1532485623.874,72.266,40.039,38.086,25.391,-599.121
1532485623.877,64.453,46.875,38.574,33.691,-554.199
1532485623.881,58.105,67.383,38.574,23.926,28.809
1532485623.885,69.824,32.227,43.457,28.320,-43.457
1532485623.889,62.012,44.434,38.574,17.090,-544.434
1532485623.893,44.434,72.266,38.086,-0.488,-91.309
1532485623.897,37.109,26.367,46.875,-5.859,-17.090
1532485623.901,19.531,68.848,48.340,-19.531,190.430
1532485623.905,5.371,63.965,47.363,-22.461,778.320
1532485623.909,6.348,4.883,46.875,-25.879,-155.273
1532485623.913,0.488,33.203,48.340,-28.320,-531.738
1532485623.916,-14.160,27.832,52.734,-37.109,-403.320
1532485623.920,-30.762,55.176,57.617,-43.945,-272.949
1532485623.924,-38.086,50.293,56.152,-47.852,-134.277
1532485623.928,-41.016,34.180,51.758,-61.035,-390.625
1532485623.932,-42.969,40.527,50.293,-68.848,-318.359
1532485623.936,-47.363,35.156,50.781,-70.312,-396.973
1532485623.940,-59.082,79.590,49.805,-71.777,6.836
1532485623.944,-62.988,87.402,51.270,-80.078,830.566
1532485623.948,-56.641,7.324,55.664,-75.684,207.520
1532485623.952,-62.988,9.766,56.152,-82.520,-432.129
1532485623.956,-74.219,41.016,50.293,-78.613,-582.520
1532485623.959,-78.125,43.457,50.781,-70.312,-498.047
1532485623.963,-71.777,27.832,52.734,-76.660,1.465
1532485623.967,-67.383,18.555,52.246,-80.078,-238.281
1532485623.971,-73.242,30.273,54.199,-68.359,-489.746
1532485623.975,-68.848,35.645,53.711,-66.895,-557.617
1532485623.979,-57.617,45.410,48.340,-62.012,-335.938
1532485623.983,-53.223,33.203,47.363,-54.199,205.078
1532485623.987,-52.734,38.574,49.316,-61.035,229.004
1532485623.991,-45.410,49.316,47.363,-49.805,86.914
1532485623.995,-25.391,20.508,48.340,-20.996,-254.395
1532485623.998,-14.160,37.109,44.922,-21.973,-271.973
1532485624.002,-12.695,91.797,34.668,-20.020,711.426
1532485624.006,0.977,22.949,36.133,9.277,434.570
1532485624.010,20.508,12.207,38.086,16.602,-470.215
1532485624.014,28.320,26.855,31.738,20.020,-460.938
1532485624.018,31.738,26.855,31.250,35.156,-384.766
1532485624.022,34.668,56.152,28.320,22.949,46.875
1532485624.026,41.992,24.414,25.879,25.879,-252.930
1532485624.030,50.781,26.855,22.461,53.711,-472.656
1532485624.034,52.734,47.363,17.090,57.129,113.281
1532485624.038,58.105,39.062,12.695,61.035,102.539
1532485624.041,61.035,80.566,5.371,49.805,417.969
1532485624.045,68.359,31.738,3.418,50.293,717.285
1532485624.049,74.707,-17.090,7.324,69.824,-154.785
1532485624.053,70.801,15.625,7.812,71.289,-535.156
1532485624.057,77.148,29.785,5.371,72.754,-664.062
1532485624.061,89.355,62.012,5.859,84.473,-257.324
1532485624.065,93.750,26.855,5.859,83.496,-45.898
1532485624.069,90.332,14.160,2.441,77.148,-421.875
1532485624.073,90.820,33.203,1.953,80.566,-528.320
1532485624.077,95.703,25.879,0.977,88.867,-590.332
1532485624.081,98.145,70.801,0.977,98.145,166.016
1532485624.084,98.145,56.641,4.395,92.773,872.070
1532485624.088,101.074,-8.301,4.395,84.961,-99.609
1532485624.092,104.980,19.531,2.441,84.473,-638.184
1532485624.096,103.516,26.855,3.418,97.168,-504.883
1532485624.100,99.121,27.832,6.348,94.727,-277.344
1532485624.104,98.633,21.484,9.277,87.891,-95.703
1532485624.108,98.633,20.996,7.324,94.727,-480.957
1532485624.112,103.027,36.133,6.836,103.027,-473.145
1532485624.116,104.004,30.762,7.812,101.074,-351.074
1532485624.120,96.191,33.203,7.324,85.938,-282.715
1532485624.123,95.215,34.668,10.254,81.055,-65.430
1532485624.127,100.586,53.711,9.766,76.172,112.793
1532485624.131,104.004,36.621,12.207,90.332,263.672
1532485624.135,100.586,1.465,15.625,94.238,-253.418
1532485624.139,94.238,46.387,14.648,78.125,-377.930
1532485624.143,88.379,97.168,11.719,75.684,695.801
1532485624.147,90.820,10.254,13.184,73.730,395.508
1532485624.151,92.773,-2.441,23.438,82.031,-363.281
1532485624.155,90.332,26.367,26.367,83.984,-530.273
1532485624.159,92.285,34.180,25.879,78.125,-511.230
1532485624.163,94.727,37.598,26.855,83.496,97.168
1532485624.166,92.773,9.766,26.855,73.730,-126.465
1532485624.170,86.914,27.832,27.344,61.523,-440.918
1532485624.174,82.031,48.828,25.391,75.195,-150.391
1532485624.178,88.379,52.246,22.461,75.684,93.262
1532485624.182,92.285,74.707,22.461,55.176,775.391
1532485624.186,87.891,0.488,26.855,53.223,556.641
1532485624.190,84.961,-10.742,25.391,53.223,-457.031
1532485624.194,83.496,21.484,20.996,66.406,-620.605
1532485624.198,83.984,37.109,20.996,68.359,-298.340
1532485624.202,83.496,47.852,20.020,51.270,169.434
1532485624.206,80.078,15.625,19.531,47.363,-230.957
1532485624.209,78.613,24.414,20.996,46.875,-592.773
1532485624.213,80.078,21.973,22.949,45.898,-366.211
1532485624.217,78.613,14.160,24.414,50.781,-427.734
1532485624.221,73.730,82.520,22.461,39.062,250.000
1532485624.225,78.125,41.016,19.531,35.645,766.602
1532485624.229,86.914,-15.137,23.438,53.223,-162.109
1532485624.233,86.914,17.578,25.391,48.828,-434.082
1532485624.237,83.008,18.555,20.996,31.738,-510.254
1532485624.241,79.590,46.387,20.020,32.715,-369.141
1532485624.245,79.102,22.949,18.555,33.203,-139.648
1532485624.248,79.590,0.977,20.020,36.621,-349.121
1532485624.252,81.055,13.184,23.438,39.062,-389.648
1532485624.256,79.590,21.484,26.367,36.621,-544.922
1532485624.260,77.148,41.992,23.926,38.086,-344.238
1532485624.264,80.566,30.273,21.973,40.527,64.453
1532485624.268,77.148,35.156,26.855,18.555,207.031
1532485624.272,72.266,27.832,27.832,26.367,56.152
1532485624.276,77.637,6.836,26.855,51.758,-472.656
1532485624.280,80.078,50.781,30.762,44.922,-242.676
1532485624.284,75.195,83.008,32.227,30.762,768.555
1532485624.288,70.312,7.812,31.250,36.133,171.875
1532485624.291,72.754,13.672,28.320,36.133,-594.238
1532485624.295,69.824,39.062,25.879,33.203,-508.789
1532485624.299,57.129,29.297,25.879,38.574,-278.320
1532485624.303,46.875,22.461,24.414,31.250,54.688
1532485624.307,45.410,19.531,24.902,20.508,-394.043
1532485624.311,47.363,38.086,24.414,30.762,-474.121
1532485624.315,45.410,35.645,22.949,44.922,61.523
1532485624.319,40.527,21.973,24.414,43.945,178.223
1532485624.323,44.922,66.895,25.879,39.551,715.332
1532485624.327,48.828,4.395,22.949,34.180,368.652
1532485624.331,32.715,-13.184,20.508,29.297,-368.652
1532485624.334,21.484,14.160,22.461,16.602,-442.871
1532485624.338,12.207,27.832,21.484,10.742,-496.094
1532485624.342,11.719,41.992,20.020,20.020,-10.742
1532485624.346,17.578,18.066,20.020,19.043,-173.340
1532485624.350,14.160,19.043,20.020,24.414,-374.512
1532485624.354,13.184,23.926,20.996,20.508,-420.410
1532485624.358,15.625,41.992,20.996,22.461,-553.711
1532485624.362,15.625,76.172,19.043,34.180,350.098
1532485624.366,18.555,37.109,19.531,33.203,628.906
1532485624.370,22.949,6.348,23.438,20.996,-138.672
1532485624.373,18.555,20.508,20.996,18.555,-445.312
1532485624.377,15.625,27.832,17.578,28.320,-519.531
1532485624.381,19.043,75.684,20.508,38.086,270.020
1532485624.385,23.926,16.113,21.973,26.367,599.609
1532485624.389,22.949,-9.766,21.973,9.277,-345.215
1532485624.393,30.762,27.832,20.996,15.137,-545.410
1532485624.397,38.086,25.391,23.926,14.648,-399.902
1532485624.401,38.574,47.852,23.926,25.879,-57.617
1532485624.405,42.480,33.691,21.973,21.484,-68.848
1532485624.409,44.434,52.734,21.484,12.695,-92.773
1532485624.413,50.293,55.176,22.949,31.738,336.426
1532485624.416,58.594,3.906,27.832,44.434,-91.797
1532485624.420,56.152,60.059,30.762,36.133,-123.047
1532485624.424,55.176,80.566,29.297,28.809,763.184
1532485624.428,62.012,-1.465,27.832,35.156,66.895
1532485624.432,61.523,8.301,27.832,23.926,-443.848
1532485624.436,52.246,21.484,28.320,20.996,-457.031
1532485624.440,50.293,34.180,31.250,33.691,-478.516
1532485624.444,59.082,30.273,32.227,29.785,-117.676
1532485624.448,60.547,16.602,27.344,40.039,-274.902
1532485624.452,53.711,28.809,29.297,38.574,-360.840
1532485624.455,49.805,41.992,32.715,27.344,-190.430
1532485624.459,53.711,59.570,29.297,27.344,148.926
1532485624.463,57.129,73.730,32.227,22.949,817.383
1532485624.467,56.641,-2.441,36.621,28.320,259.277
1532485624.471,48.828,-6.348,33.203,30.273,-525.391
1532485624.475,43.945,24.414,32.227,20.508,-660.156
1532485624.479,46.875,26.855,36.621,24.414,-446.777
1532485624.483,43.457,16.113,38.086,25.391,86.426
1532485624.487,39.551,7.324,37.109,25.391,-288.574
1532485624.491,39.062,27.832,34.668,19.531,-571.777
1532485624.495,35.645,24.414,36.133,19.043,-508.301
1532485624.498,28.320,34.668,39.551,30.273,-315.918
1532485624.502,25.391,54.199,38.086,27.344,536.621
1532485624.506,22.949,13.184,38.086,16.113,178.223
1532485624.510,21.484,16.113,38.086,24.902,-445.312
1532485624.514,24.414,19.043,39.062,30.273,-304.688
1532485624.518,22.949,28.320,42.969,35.645,-332.031
1532485624.522,12.695,93.750,37.598,40.039,487.793
1532485624.526,18.066,20.996,37.598,28.809,425.781
1532485624.530,27.344,-5.859,41.016,35.156,-338.867
1532485624.534,28.320,20.020,41.016,43.945,-345.703
1532485624.538,27.344,33.691,38.574,25.391,-449.219
1532485624.541,39.062,72.266,35.645,32.715,-59.082
1532485624.545,37.109,36.621,41.504,43.945,-50.293
1532485624.549,8.789,38.086,49.316,35.156,73.730
1532485624.553,-0.488,25.879,50.781,32.715,159.668
1532485624.557,-2.441,12.207,47.363,20.996,-525.391
1532485624.561,-2.930,89.844,44.922,24.414,11.230
1532485624.565,1.465,54.688,42.480,22.461,835.449
1532485624.569,1.953,-18.066,42.480,7.812,-62.500
1532485624.573,3.418,26.855,41.992,14.160,-602.051
1532485624.577,11.230,34.180,42.480,24.902,-595.703
1532485624.580,11.719,49.805,44.434,37.598,-223.145
1532485624.584,10.254,28.809,42.969,32.715,29.297
1532485624.588,5.859,12.695,41.992,15.625,-457.031
1532485624.592,8.789,45.898,43.945,20.508,-512.695
1532485624.596,15.625,55.664,41.016,35.645,-59.570
1532485624.600,10.254,57.617,38.574,27.344,374.023
1532485624.604,1.953,61.035,39.551,13.184,804.199
1532485624.608,4.395,3.906,37.109,18.066,19.043
1532485624.612,12.207,7.812,38.086,31.738,-546.875
1532485624.616,19.531,23.438,45.410,20.020,-430.176
1532485624.620,17.578,38.086,44.922,7.324,-261.230
1532485624.623,18.066,25.879,41.504,24.414,-97.168
1532485624.627,22.461,14.648,41.016,29.785,-430.664
1532485624.631,25.879,21.973,41.016,15.137,-375.488
1532485624.635,27.344,19.043,41.992,20.996,-404.785
1532485624.639,28.809,38.086,41.992,14.160,-417.480
1532485624.643,34.668,52.734,42.969,8.789,217.285
1532485624.647,33.203,40.527,43.457,17.090,324.219
1532485624.651,26.855,18.066,44.922,17.090,43.945
1532485624.655,22.949,6.348,46.875,23.926,-400.391
1532485624.659,25.879,40.039,49.805,31.250,-481.445
1532485624.663,31.250,95.703,49.805,33.691,645.996
1532485624.666,31.250,6.348,47.852,31.738,532.715
1532485624.670,23.926,-11.719,45.410,18.555,-394.531
1532485624.674,23.926,29.785,43.945,27.344,-597.656
1532485624.678,24.414,37.109,46.875,32.227,-451.172
1532485624.682,20.020,34.668,46.875,25.391,185.547
1532485624.686,16.113,14.160,47.363,28.809,-106.934
1532485624.690,11.230,57.129,47.363,31.250,-140.137
1532485624.694,17.090,45.898,47.363,36.133,110.352
1532485624.698,26.367,21.484,45.410,45.898,-291.992
1532485624.702,21.484,88.867,43.457,38.574,417.480
1532485624.705,17.090,26.367,42.480,24.414,694.336
1532485624.709,22.461,-15.137,40.527,22.949,-361.816
1532485624.713,19.531,21.484,39.551,27.344,-495.117
1532485624.717,19.043,18.555,37.598,21.973,-423.828
1532485624.721,26.855,57.129,37.598,29.297,-158.691
1532485624.725,37.598,36.133,41.992,36.133,-187.012
1532485624.729,41.504,15.625,37.109,29.785,-470.703
1532485624.733,43.945,29.297,35.156,24.414,-273.926
1532485624.737,48.340,38.574,40.527,14.648,-152.344
1532485624.741,51.270,69.336,39.551,5.371,216.797
1532485624.745,58.594,52.246,36.133,15.625,790.527
1532485624.748,60.059,-10.742,41.016,23.438,67.871
1532485624.752,60.547,15.137,40.039,33.203,-478.027
1532485624.756,61.035,27.832,35.156,30.273,-604.492
1532485624.760,67.383,42.480,37.598,22.461,-452.637
1532485624.764,71.777,33.691,37.109,29.785,-39.551
1532485624.768,63.965,19.531,36.621,25.879,-303.711
1532485624.772,61.035,34.668,34.668,15.625,-495.117
1532485624.776,68.848,31.738,32.715,18.066,-555.664
1532485624.780,69.824,32.715,33.203,26.855,-314.941
1532485624.784,66.895,40.039,33.691,23.926,387.207
1532485624.787,64.453,36.133,37.109,15.137,331.055
1532485624.791,66.895,26.367,36.133,32.715,-222.656
1532485624.795,77.148,20.020,31.250,37.598,-454.102
1532485624.799,77.148,43.945,32.227,31.250,-185.059
1532485624.803,68.848,85.938,32.227,28.809,744.629
1532485624.807,73.242,14.648,33.691,25.391,214.844
1532485624.811,79.102,7.324,36.133,21.484,-513.672
1532485624.815,79.102,27.832,34.668,22.461,-429.688
1532485624.819,77.148,30.762,32.227,21.973,-319.824
1532485624.823,74.219,39.551,33.203,25.391,24.902
1532485624.827,78.125,29.297,34.668,38.574,-316.895
1532485624.830,81.055,61.523,35.645,42.969,-5.859
1532485624.834,79.102,45.410,36.621,41.504,357.910
1532485624.838,73.242,26.367,35.645,32.715,-107.910
1532485624.842,70.801,87.891,30.273,20.020,573.730
1532485624.846,71.289,16.113,33.203,21.484,605.469
1532485624.850,68.359,-8.301,38.086,28.809,-307.617
1532485624.854,66.895,26.367,39.062,44.434,-550.781
1532485624.858,68.359,37.109,39.551,48.828,-650.391
1532485624.862,70.312,77.637,37.598,42.969,195.801
1532485624.866,71.777,24.902,33.691,44.922,171.387
1532485624.870,72.754,13.672,34.180,29.297,-500.000
1532485624.873,68.359,42.969,35.645,25.879,-507.324
1532485624.877,65.918,53.711,34.668,38.086,-238.281
1532485624.881,67.383,83.984,34.180,41.016,541.504
1532485624.885,65.918,29.785,35.645,37.109,749.512
1532485624.889,65.430,-9.277,37.598,38.086,-299.805
1532485624.893,66.406,33.691,38.574,33.691,-657.227
1532485624.897,63.477,38.086,34.180,28.809,-509.766
1532485624.901,58.105,58.594,32.715,26.367,-171.387
1532485624.905,56.641,34.668,34.668,21.484,-155.273
1532485624.909,57.129,25.879,33.203,20.996,-576.660
1532485624.912,59.082,42.969,33.203,33.691,-434.082
1532485624.916,56.152,25.879,32.227,41.504,-393.555
1532485624.920,51.270,53.711,32.227,34.180,-236.328
1532485624.924,48.828,68.359,35.156,29.785,309.570
1532485624.928,45.410,38.574,34.668,37.109,202.148
1532485624.932,47.852,21.973,33.203,30.273,-105.957
1532485624.936,51.758,13.672,37.109,36.133,-436.523
1532485624.940,44.434,60.059,37.109,35.156,-338.867
1532485624.944,49.316,94.727,32.715,20.020,706.055
1532485624.948,58.594,8.301,37.598,40.527,270.508
1532485624.952,47.363,3.906,41.016,32.227,-430.664
1532485624.955,43.457,36.133,41.992,22.949,-565.430
1532485624.959,45.410,42.969,38.086,46.875,-480.469
1532485624.963,46.387,27.344,40.527,44.434,16.602
1532485624.967,47.363,26.367,41.992,39.062,-215.332
1532485624.971,44.434,58.105,37.598,32.227,-69.336
1532485624.975,44.434,22.949,36.621,30.762,-150.879
1532485624.979,44.922,34.180,38.574,43.945,-326.172
1532485624.983,42.969,89.355,39.551,43.457,714.844
1532485624.987,41.504,6.348,39.551,32.227,354.492
1532485624.991,43.945,6.836,39.062,32.715,-570.801
1532485624.995,46.875,39.062,36.621,35.645,-590.820
1532485624.998,44.434,37.109,38.086,40.039,-356.445
1532485625.002,37.109,38.574,37.598,28.809,138.672
1532485625.006,34.180,26.367,36.621,23.438,-280.762
1532485625.010,40.039,41.016,38.574,20.996,-570.801
1532485625.014,41.992,37.109,40.039,37.109,-336.426
1532485625.018,36.621,53.223,39.551,40.039,-64.453
1532485625.022,35.156,96.191,35.645,27.344,707.031
1532485625.026,41.504,20.020,35.645,25.879,590.332
1532485625.030,43.457,-12.207,34.668,27.344,-301.270
1532485625.034,41.504,19.043,33.691,27.832,-443.848
1532485625.037,39.062,36.621,35.156,26.367,-546.875
1532485625.041,34.668,71.289,36.621,25.391,-169.922
1532485625.045,44.434,34.668,38.574,36.621,-131.348
1532485625.049,46.387,24.902,38.086,37.109,-405.273
1532485625.053,37.109,38.574,39.551,27.832,-401.367
1532485625.057,36.133,42.480,40.039,23.926,-599.609
1532485625.061,37.109,79.590,37.598,22.949,-186.523
1532485625.065,39.062,59.570,37.109,29.785,394.531
1532485625.069,40.039,11.230,36.621,26.855,44.434
1532485625.073,39.551,26.367,37.598,33.691,-381.836
1532485625.077,45.898,29.785,36.133,44.922,-567.871
1532485625.080,48.340,69.336,38.086,40.039,-76.660
1532485625.084,44.434,70.312,40.039,26.855,806.152
1532485625.088,38.086,-1.953,37.598,27.344,-12.207
1532485625.092,38.574,21.484,36.133,34.180,-614.746
1532485625.096,46.875,41.016,37.598,37.598,-472.656
1532485625.100,41.016,40.527,38.574,26.855,-233.398
1532485625.104,35.645,29.297,40.039,31.738,-55.176
1532485625.108,38.086,37.109,40.039,37.109,-446.289
1532485625.112,45.898,69.824,38.574,40.039,-91.309
1532485625.116,48.828,40.039,36.621,39.551,190.918
1532485625.120,41.016,33.691,36.621,20.996,81.543
1532485625.123,36.621,84.473,37.109,20.508,731.934
1532485625.127,42.480,14.160,39.062,36.133,212.402
1532485625.131,44.434,-3.418,39.062,43.457,-432.617
1532485625.135,41.016,22.949,37.109,35.645,-471.680
1532485625.139,39.551,33.691,36.621,27.344,-494.629
1532485625.143,42.480,39.062,34.668,40.039,-65.918
1532485625.147,43.457,28.320,34.180,40.527,-244.141
1532485625.151,41.992,24.414,34.668,17.578,-396.484
1532485625.155,40.527,31.250,33.691,25.391,-485.352
1532485625.159,39.551,72.266,29.785,39.551,-145.508
1532485625.162,38.086,89.844,28.320,36.621,814.941
1532485625.166,43.457,-4.395,31.250,36.621,458.984
1532485625.170,43.945,-7.324,31.250,34.180,-438.477
1532485625.174,46.875,32.715,28.809,33.203,-676.270
1532485625.178,51.270,39.551,28.320,29.785,-537.109
1532485625.182,49.316,45.898,28.320,21.973,129.395
1532485625.186,45.898,15.137,30.273,20.020,-160.645
1532485625.190,41.504,29.785,29.785,23.438,-615.723
1532485625.194,44.922,34.668,29.785,23.438,-518.555
1532485625.198,48.828,29.297,31.738,30.273,-397.949
1532485625.202,44.434,57.617,30.273,34.180,144.043
1532485625.205,41.016,57.129,24.902,32.715,281.738
1532485625.209,41.016,42.480,24.902,31.250,0.488
1532485625.213,41.992,21.973,28.320,29.785,-107.910
1532485625.217,41.992,16.113,28.320,23.438,-408.691
1532485625.221,35.645,88.867,27.344,18.066,113.770
1532485625.225,34.180,60.547,26.367,14.160,766.602
1532485625.229,41.016,-6.836,30.273,23.438,-107.910
1532485625.233,43.457,17.090,34.180,31.250,-430.664
1532485625.237,37.598,24.902,28.809,21.973,-495.117
1532485625.241,39.551,56.641,24.414,20.996,-349.609
1532485625.244,45.410,33.203,25.879,20.020,-105.469
1532485625.248,43.945,13.184,26.855,20.020,-328.125
1532485625.252,36.133,50.293,25.879,25.391,50.781
1532485625.256,33.203,42.969,26.855,28.320,108.887
1532485625.260,39.551,51.270,27.832,25.879,-24.414
1532485625.264,43.457,70.312,24.414,26.367,734.863
1532485625.268,44.922,-2.441,22.461,29.297,156.738
1532485625.272,38.574,5.859,25.391,30.273,-613.770
1532485625.276,35.645,33.203,25.879,31.738,-646.484
1532485625.280,40.039,31.738,26.855,28.320,-407.227
1532485625.284,35.645,9.766,31.250,20.996,3.418
1532485625.287,37.109,14.160,30.273,28.809,-364.746
1532485625.291,40.527,37.109,29.785,36.621,-587.891
1532485625.295,35.156,29.785,32.715,34.180,-493.652
1532485625.299,41.504,60.059,32.227,24.414,47.363
1532485625.303,40.039,84.961,27.344,33.691,856.445
1532485625.307,37.109,11.719,28.809,42.480,153.320
1532485625.311,36.621,4.395,27.832,34.180,-544.922
1532485625.315,41.016,21.973,28.320,38.086,-469.727
1532485625.319,43.457,29.785,32.715,33.691,-373.047
1532485625.323,38.086,40.527,31.250,31.738,-20.020
1532485625.327,41.016,25.879,32.715,44.434,-356.934
1532485625.330,47.363,35.156,33.203,45.898,-438.477
1532485625.334,46.875,29.785,31.738,37.598,-366.211
1532485625.338,40.039,41.016,33.691,38.574,-442.871
1532485625.342,37.109,57.617,33.203,31.738,54.688
1532485625.346,41.992,40.039,29.785,46.387,255.859
1532485625.350,43.457,12.207,30.273,50.781,137.207
1532485625.354,39.062,4.883,31.738,28.809,-260.254
1532485625.358,40.039,35.645,31.250,27.832,-580.566
1532485625.362,41.504,101.074,31.250,32.715,390.625
1532485625.366,37.109,26.367,29.785,35.156,758.301
1532485625.369,30.273,-15.137,32.715,21.973,-237.793
1532485625.373,23.438,30.273,33.691,16.602,-581.543
1532485625.377,27.344,34.180,29.785,34.668,-555.664
1532485625.381,29.297,60.547,28.320,36.621,9.766
1532485625.385,27.832,25.391,31.738,24.414,1.465
1532485625.389,24.902,26.367,32.227,26.367,-517.090
1532485625.393,26.367,68.359,29.297,21.484,-99.609
1532485625.397,26.855,39.062,29.785,24.414,94.727
1532485625.401,23.926,58.105,30.762,20.020,234.375
1532485625.405,26.855,62.500,30.762,18.555,765.137
1532485625.409,35.645,7.324,33.691,32.715,-130.859
1532485625.412,35.645,20.020,30.273,22.949,-558.105
1532485625.416,34.668,17.090,23.438,15.137,-426.270
1532485625.420,36.133,40.527,25.879,22.461,-317.383
1532485625.424,40.527,36.133,30.273,18.066,-165.039
1532485625.428,42.969,26.367,29.297,17.578,-417.969
1532485625.432,40.527,31.738,27.344,18.555,-341.309
1532485625.436,37.109,23.438,29.785,12.207,-412.109
1532485625.440,33.691,71.777,29.297,17.090,-42.969
1532485625.444,33.691,92.285,27.832,22.949,814.941
1532485625.448,45.898,12.207,35.156,24.902,218.750
1532485625.452,49.805,9.277,41.504,31.250,-432.617
1532485625.455,47.852,36.133,39.551,30.273,-589.355
1532485625.459,52.246,48.828,38.574,31.250,-529.297
1532485625.463,57.129,52.246,40.527,43.457,108.398
1532485625.467,57.129,28.809,40.039,42.969,-123.535
1532485625.471,53.223,41.016,39.062,30.762,-479.980
1532485625.475,52.246,44.922,39.062,36.621,-554.688
1532485625.479,54.688,42.480,41.016,55.664,-357.910
1532485625.483,52.734,39.551,40.039,50.293,207.031
1532485625.487,47.363,54.199,39.551,42.480,268.555
1532485625.491,47.852,54.199,41.504,44.434,53.711
1532485625.494,50.293,28.809,41.992,29.785,-329.590
1532485625.498,50.293,51.270,40.039,38.086,-317.871
1532485625.502,47.363,102.051,38.086,48.828,685.059
1532485625.506,53.223,25.391,39.062,39.062,483.398
1532485625.510,61.523,10.742,39.062,37.598,-441.406
1532485625.514,56.641,40.527,38.574,44.434,-437.012
1532485625.518,61.523,40.527,37.109,51.270,-359.863
1532485625.522,60.547,69.336,35.156,47.852,62.988
1532485625.526,63.477,41.016,39.062,47.852,-224.609
1532485625.530,71.777,41.992,39.062,56.152,-450.684
1532485625.534,72.754,58.105,37.598,52.246,79.102
1532485625.537,61.035,51.270,36.133,39.551,26.367
1532485625.541,53.711,97.656,33.691,32.227,381.348
1532485625.545,62.012,46.387,37.109,51.758,746.582
1532485625.549,60.059,-11.719,41.016,54.688,-117.676
1532485625.553,55.176,26.367,39.062,39.062,-506.348
1532485625.557,56.152,41.016,38.086,30.273,-638.184
1532485625.561,57.129,72.754,37.598,39.551,-296.387
1532485625.565,59.570,44.922,37.109,53.711,-40.527
1532485625.569,57.617,28.320,40.527,35.645,-380.859
1532485625.573,56.641,46.387,41.992,25.879,-505.371
1532485625.577,58.594,42.480,38.086,33.691,-577.148
1532485625.580,55.176,86.914,39.062,40.527,125.488
1532485625.584,52.246,76.172,38.086,33.203,866.211
1532485625.588,50.781,2.930,40.527,24.902,-56.152
1532485625.592,51.758,29.297,44.434,40.527,-644.043
1532485625.596,51.270,48.340,41.016,46.875,-520.508
1532485625.600,46.387,44.922,36.621,34.668,-285.156
1532485625.604,41.504,40.039,36.133,20.508,-76.172
1532485625.608,40.527,39.551,36.133,19.043,-481.445
1532485625.612,41.992,46.875,39.062,28.809,-502.930
1532485625.616,39.062,36.133,38.086,24.414,-366.211
1532485625.619,37.598,38.086,39.551,17.090,-277.344
1532485625.623,42.480,47.852,43.457,22.461,-28.809
1532485625.627,48.828,60.059,40.039,10.254,106.445
1532485625.631,51.758,36.621,39.551,14.648,158.203
1532485625.635,49.316,12.207,40.527,37.598,-284.180
1532485625.639,45.410,51.270,38.086,32.227,-370.605
1532485625.643,45.898,106.934,32.715,23.438,681.641
1532485625.647,50.781,25.879,35.645,29.785,431.152
1532485625.651,33.203,0.977,43.457,26.367,-333.496
1532485625.655,28.809,35.156,42.480,19.043,-513.184
1532485625.659,41.992,49.805,38.574,19.043,-518.066
1532485625.662,44.434,50.293,35.645,28.809,109.375
1532485625.666,45.410,22.949,38.086,38.086,-87.891
1532485625.670,43.945,45.898,44.922,40.039,-417.969
1532485625.674,44.434,68.848,45.410,33.203,-156.250
1532485625.678,45.410,67.383,39.551,25.879,69.336
1532485625.682,47.852,88.379,41.992,37.109,746.094
1532485625.686,53.711,17.578,49.805,42.969,596.680
1532485625.690,49.316,0.977,49.805,53.711,-414.551
1532485625.694,47.363,36.133,45.898,49.316,-605.957
1532485625.698,49.805,43.457,48.828,32.227,-436.523
1532485625.701,49.805,66.406,49.316,24.902,75.195
1532485625.705,47.852,31.250,46.387,32.227,-169.434
1532485625.709,50.293,37.109,43.457,37.598,-583.984
1532485625.713,55.176,45.410,42.969,36.133,-354.980
1532485625.717,52.246,35.645,40.527,31.250,-398.438
1532485625.721,41.016,93.750,37.598,14.160,244.629
1532485625.725,40.039,64.453,41.992,11.230,792.969
1532485625.729,42.969,4.883,43.945,33.691,-135.742
1532485625.733,39.551,30.273,41.504,32.227,-439.941
1532485625.737,33.691,33.691,41.016,21.484,-490.234
1532485625.741,32.227,65.430,43.457,29.297,-371.582
1532485625.744,37.598,49.805,41.016,32.227,-124.023
1532485625.748,35.156,26.855,37.598,20.508,-331.055
1532485625.752,30.273,39.062,37.598,21.484,-374.512
1532485625.756,24.414,49.316,32.715,18.555,-537.598
1532485625.760,25.391,60.547,36.133,18.555,-375.488
1532485625.764,35.156,36.133,40.527,47.852,45.410
1532485625.768,33.203,45.898,36.621,46.387,181.641
1532485625.772,30.273,64.453,34.668,25.391,248.535
1532485625.776,32.715,27.344,35.645,25.391,-291.016
1532485625.780,36.133,53.711,33.691,40.039,-273.438
1532485625.784,38.086,94.727,35.645,27.344,770.020
1532485625.787,36.621,20.996,38.574,15.625,210.449
1532485625.791,39.062,24.414,36.133,27.832,-576.172
1532485625.795,45.898,49.316,36.621,40.527,-519.043
1532485625.799,49.316,45.898,38.086,43.457,-278.809
1532485625.803,45.898,36.621,40.039,41.016,85.938
1532485625.807,47.363,34.180,40.527,36.133,-377.930
1532485625.811,51.758,53.223,41.504,39.551,-498.535
1532485625.815,47.852,57.617,43.457,49.805,62.500
1532485625.819,45.898,62.500,45.898,51.270,315.430
1532485625.823,41.504,98.633,48.340,46.387,842.773
1532485625.826,47.363,22.949,47.852,51.270,579.590
1532485625.830,57.129,4.395,51.270,58.594,-306.152
1532485625.834,47.363,27.832,52.734,48.340,-498.047
1532485625.838,42.969,43.457,52.734,34.668,-521.973
1532485625.842,48.340,68.848,48.340,37.598,-59.570
1532485625.846,48.828,36.133,46.387,49.805,-212.891
1532485625.850,48.828,34.668,48.828,43.945,-414.551
1532485625.854,47.363,35.156,48.340,27.832,-441.406
1532485625.858,49.805,52.246,51.270,31.250,-592.285
1532485625.862,53.711,96.191,53.223,43.457,267.578
1532485625.866,57.129,54.199,51.270,41.992,512.695
1532485625.869,57.617,19.531,49.316,40.527,-206.055
1532485625.873,55.664,39.551,48.828,34.180,-456.543
1532485625.877,60.547,54.688,51.758,35.645,-583.496
1532485625.881,58.105,99.609,48.340,31.738,157.715
1532485625.885,52.246,45.410,44.922,30.762,724.609
1532485625.889,51.758,6.836,48.340,32.715,-240.723
1532485625.893,53.711,43.457,45.898,29.297,-606.934
1532485625.897,62.500,44.434,39.551,35.645,-447.266
1532485625.901,67.383,62.988,45.410,41.992,-116.699
1532485625.905,55.176,46.387,51.270,28.320,-72.266
1532485625.909,50.781,57.617,49.805,20.020,-51.270
1532485625.912,59.082,52.734,50.293,34.668,168.945
1532485625.916,62.988,14.648,53.711,35.645,-296.875
1532485625.920,57.617,65.918,53.711,30.762,-191.406
1532485625.924,49.316,104.492,51.270,26.855,785.156
1532485625.928,62.012,20.020,50.781,36.621,168.945
1532485625.932,69.336,13.672,50.293,44.922,-462.402
1532485625.936,62.500,40.039,49.316,32.227,-484.375
1532485625.940,60.059,40.527,47.852,27.344,-507.324
1532485625.944,60.059,35.645,45.898,34.668,-151.367
1532485625.948,60.059,31.738,44.922,38.086,-308.105
1532485625.951,56.152,42.969,45.410,31.250,-371.582
1532485625.955,55.176,60.547,46.387,28.809,-182.129
1532485625.959,57.129,75.195,46.875,37.598,86.914
1532485625.963,59.082,89.844,49.316,43.945,794.922
1532485625.967,59.570,14.648,52.734,44.922,284.668
1532485625.971,55.664,11.230,50.781,38.574,-520.508
1532485625.975,56.641,44.922,46.875,33.691,-680.176
1532485625.979,59.570,47.363,44.922,41.992,-479.980
1532485625.983,57.129,36.621,45.898,40.039,103.027
1532485625.987,53.711,28.809,50.293,38.574,-268.555
1532485625.991,51.758,41.504,49.316,41.992,-590.820
1532485625.994,53.711,33.203,45.410,36.133,-520.020
1532485625.998,53.223,41.992,49.805,41.504,-337.402
1532485626.002,43.945,60.059,49.805,41.992,339.355
1532485626.006,40.039,35.156,44.922,34.668,119.629
1532485626.010,45.898,35.645,45.898,44.922,-417.969
1532485626.014,50.293,29.785,44.922,50.781,-315.430
1532485626.018,53.223,30.762,38.574,35.645,-346.680
1532485626.022,54.199,109.375,41.504,28.320,478.027
1532485626.026,53.223,42.480,45.410,21.973,663.574
1532485626.030,51.270,-8.789,41.504,25.391,-261.719
1532485626.033,49.805,21.484,38.086,41.992,-394.043
1532485626.037,50.293,35.645,39.551,34.668,-464.844
1532485626.041,52.734,70.801,40.039,31.250,-142.090
1532485626.045,61.523,41.504,39.062,37.109,-94.727
1532485626.049,59.082,50.293,40.039,32.227,39.062
1532485626.053,51.270,49.316,42.480,28.809,207.520
1532485626.057,50.781,26.855,42.969,30.273,-483.887
1532485626.061,51.758,91.797,39.062,30.762,-93.750
1532485626.065,56.641,69.824,39.062,24.414,827.148
1532485626.069,55.176,-0.977,40.527,25.879,-22.949
1532485626.073,51.758,33.691,38.574,29.297,-606.934
1532485626.076,56.641,48.340,37.598,30.273,-612.305
1532485626.080,58.105,58.105,37.109,26.367,-277.344
1532485626.084,57.617,36.621,39.551,30.762,25.391
1532485626.088,55.664,31.250,40.039,26.855,-429.199
1532485626.092,55.664,57.617,37.598,19.043,-525.391
1532485626.096,57.129,60.547,37.109,25.391,-136.230
1532485626.100,47.852,69.824,37.598,20.996,333.496
1532485626.104,39.551,73.730,36.133,7.812,825.684
1532485626.108,49.316,20.508,35.156,14.160,41.992
1532485626.112,56.641,26.367,36.133,25.879,-555.664
1532485626.116,54.199,31.738,36.621,26.855,-436.035
1532485626.119,47.363,33.691,36.621,17.578,-351.562
1532485626.123,42.480,36.133,39.062,18.066,-112.305
1532485626.127,45.410,38.574,36.621,26.367,-400.879
1532485626.131,41.992,45.410,34.668,20.508,-383.789
1532485626.135,38.574,37.109,35.645,17.090,-365.234
1532485626.139,34.668,48.340,31.738,22.461,-420.898
1532485626.143,31.250,64.941,29.785,21.973,215.332
1532485626.147,35.156,46.387,31.738,22.461,379.395
1532485626.151,40.039,24.414,33.203,23.926,-38.086
1532485626.155,36.621,21.484,30.273,16.602,-420.410
1532485626.158,42.480,55.176,24.414,18.066,-472.168
1532485626.162,41.504,110.840,25.391,28.320,616.211
1532485626.166,33.203,21.484,39.062,26.367,583.008
1532485626.170,30.762,8.301,42.480,11.230,-359.863
1532485626.174,33.203,43.945,33.203,3.906,-592.773
1532485626.178,37.598,49.805,26.367,17.090,-482.910
1532485626.182,37.598,63.477,30.762,22.461,174.805
1532485626.186,42.480,34.668,36.621,15.625,-67.871
1532485626.190,43.457,66.406,31.738,10.254,-195.801
1532485626.194,45.898,64.941,27.832,21.973,177.734
1532485626.198,48.828,27.344,29.785,32.227,-195.801
1532485626.201,39.062,95.703,27.832,18.066,357.910
1532485626.205,32.227,45.410,24.414,6.836,720.703
1532485626.209,33.203,0.977,24.902,14.648,-346.680
1532485626.213,38.574,43.945,27.344,32.715,-530.273
1532485626.217,41.016,37.109,29.297,27.832,-425.293
1532485626.221,37.109,67.871,32.227,18.555,-172.852
1532485626.225,37.598,51.270,34.180,36.621,-181.641
1532485626.229,39.551,33.691,32.715,43.457,-487.305
1532485626.233,41.504,41.016,32.715,38.574,-285.645
1532485626.237,39.062,42.969,34.668,33.203,-97.168
1532485626.241,34.668,74.707,35.645,33.691,214.355
1532485626.244,42.480,67.383,34.180,37.109,775.879
1532485626.248,47.852,0.000,35.645,42.969,88.867
1532485626.252,38.574,18.066,33.691,42.480,-475.586
1532485626.256,36.621,41.992,35.156,29.297,-603.516
1532485626.260,37.598,54.688,38.086,25.391,-490.723
1532485626.264,38.086,32.227,34.668,37.109,-58.105
1532485626.268,39.062,14.648,32.715,32.715,-292.969
1532485626.272,34.180,31.738,27.832,22.461,-486.328
1532485626.276,36.621,41.016,27.832,26.855,-575.195
1532485626.280,42.969,51.270,30.273,31.250,-336.426
1532485626.283,37.598,43.945,26.367,30.762,386.719
1532485626.287,32.715,23.926,28.320,32.227,79.590
1532485626.291,33.203,38.086,27.344,22.461,-437.500
1532485626.295,36.621,23.438,24.414,26.367,-454.102
1532485626.299,34.668,36.621,20.996,31.738,-202.148
1532485626.303,23.926,97.168,16.602,20.020,728.516
1532485626.307,25.879,40.039,22.461,17.090,422.363
1532485626.311,34.668,14.648,24.902,20.508,-342.285
1532485626.315,37.109,34.180,22.461,19.531,-433.594
1532485626.319,37.109,39.551,23.438,21.973,-299.805
1532485626.323,39.062,39.062,26.855,22.949,52.246
1532485626.326,40.039,36.133,30.762,30.273,-297.852
1532485626.330,38.574,66.406,30.762,35.645,-73.730
1532485626.334,38.574,47.363,34.668,34.180,211.914
1532485626.338,39.551,40.527,30.762,28.320,-89.844
1532485626.342,44.922,74.707,22.461,33.691,395.996
1532485626.346,46.387,33.691,31.250,39.062,115.234
1532485626.350,34.180,20.996,36.621,29.785,-353.516
1532485626.354,31.738,31.738,35.645,31.250,-332.031
1532485626.358,37.109,44.434,35.645,32.227,-584.961
1532485626.362,31.738,110.352,33.691,29.297,322.266
1532485626.366,28.320,33.691,34.668,28.320,785.645
1532485626.369,27.832,-15.625,37.598,25.879,-227.539
1532485626.373,26.367,42.969,33.203,18.066,-537.598
1532485626.377,28.809,53.711,30.273,21.973,-257.324
1532485626.381,33.691,80.078,33.203,27.832,430.176
1532485626.385,34.668,34.668,33.691,16.113,761.230
1532485626.389,34.668,-4.395,34.668,17.090,-267.090
1532485626.393,41.016,31.250,32.227,20.020,-695.312
1532485626.397,46.387,36.133,28.809,17.578,-546.387
1532485626.401,39.062,57.617,33.203,20.508,-207.520
1532485626.405,38.574,39.062,36.133,16.602,-148.438
1532485626.408,44.922,30.273,33.691,20.020,-582.031
1532485626.412,48.828,40.527,35.645,25.391,-470.215
1532485626.416,51.758,25.879,31.738,21.973,-401.855
1532485626.420,47.363,49.805,25.391,6.348,-267.578
1532485626.424,45.898,65.430,29.297,6.836,245.117
1532485626.428,51.758,31.738,30.273,25.391,51.758
1532485626.432,51.758,18.555,26.367,29.297,-216.309
1532485626.436,47.363,16.602,32.715,23.438,-411.133
1532485626.440,37.598,51.270,27.832,8.301,-349.121
1532485626.444,40.039,84.473,25.391,12.207,696.777
1532485626.448,48.340,3.418,32.715,23.926,295.898
1532485626.451,42.480,-5.859,31.738,16.602,-409.668
1532485626.455,36.621,26.367,29.297,18.066,-543.945
1532485626.459,39.551,38.574,29.785,17.578,-485.352
1532485626.463,44.922,26.855,30.273,22.949,23.926
1532485626.467,41.992,13.672,27.832,32.227,-192.383
1532485626.471,37.598,50.293,27.832,24.414,-19.531
1532485626.475,41.504,22.949,28.320,28.320,-69.824
1532485626.479,46.387,33.691,22.949,29.297,-326.172
1532485626.483,41.992,91.797,27.344,22.949,694.824
1532485626.487,46.875,3.906,36.133,26.855,403.809
1532485626.490,52.246,2.441,34.180,33.691,-553.711
1532485626.494,53.223,32.227,28.320,30.273,-607.910
1532485626.498,55.176,32.715,29.297,37.109,-378.906
1532485626.502,51.270,37.598,27.832,39.062,138.184
1532485626.506,44.922,17.090,24.414,28.320,-263.672
1532485626.510,42.480,30.762,25.879,29.785,-592.773
1532485626.514,47.852,33.203,26.367,34.180,-351.562
1532485626.518,50.293,48.828,24.902,36.621,-26.367
1532485626.522,46.387,90.332,24.902,28.320,712.402
1532485626.526,49.316,27.832,27.344,26.855,609.863
1532485626.530,48.828,0.977,26.367,38.086,-296.387
1532485626.533,39.551,27.344,26.855,32.227,-451.660
1532485626.537,31.250,31.738,27.832,21.484,-530.273
1532485626.541,30.762,69.336,28.809,20.020,-199.707
1532485626.545,36.133,43.457,28.809,23.926,-144.531
1532485626.549,34.180,25.879,26.367,22.949,-390.625
1532485626.553,24.902,29.297,22.461,19.531,-372.559
1532485626.557,22.461,35.156,24.902,22.949,-577.637
1532485626.561,21.484,70.801,26.855,17.578,-221.680
1532485626.565,19.043,58.105,25.879,20.020,402.344
1532485626.569,18.066,30.273,27.344,25.391,318.359
1532485626.573,13.672,21.973,29.785,19.043,-161.621
1532485626.576,18.066,17.578,26.855,21.484,-581.055
1532485626.580,21.484,62.500,22.461,27.344,-125.488
1532485626.584,19.043,62.500,21.973,16.602,798.340
1532485626.588,20.996,-11.719,23.926,17.578,23.438
1532485626.592,23.438,14.160,24.902,20.020,-629.883
1532485626.596,27.344,29.297,22.949,22.949,-503.418
1532485626.600,30.762,27.344,22.949,26.855,-258.789
1532485626.604,25.879,16.113,25.879,20.508,-37.598
1532485626.608,24.902,20.020,26.855,24.414,-455.078
1532485626.612,28.809,59.082,23.926,27.344,-75.684
1532485626.615,33.691,17.090,25.879,30.762,101.562
1532485626.619,32.715,30.762,25.391,21.973,-177.246
1532485626.623,32.227,101.562,22.949,13.672,693.848
1532485626.627,41.504,17.578,25.879,33.203,230.957
1532485626.631,40.527,0.977,25.879,46.387,-460.938
1532485626.635,38.574,25.391,25.879,35.645,-464.355
1532485626.639,35.156,33.691,27.344,31.250,-499.512
1532485626.643,32.227,35.645,29.297,35.645,-77.637
1532485626.647,40.527,20.020,32.715,44.434,-254.395
1532485626.651,43.457,24.902,32.227,41.016,-397.949
1532485626.655,38.574,26.367,27.344,18.066,-460.449
1532485626.658,41.016,66.895,25.879,20.508,-224.121
1532485626.662,43.945,100.586,25.879,27.344,758.789
1532485626.666,48.828,0.000,27.344,32.715,524.414
1532485626.670,46.387,-9.766,26.367,29.785,-392.090
1532485626.674,47.852,32.715,22.461,27.344,-651.855
1532485626.678,57.617,39.551,27.344,34.180,-565.918
1532485626.682,55.176,55.664,31.250,34.668,95.703
1532485626.686,48.828,20.996,28.809,22.461,-120.605
1532485626.690,46.875,33.691,32.715,25.391,-583.008
1532485626.694,47.363,47.852,30.762,28.809,-508.301
1532485626.698,48.828,42.480,25.879,29.297,-403.809
1532485626.701,46.875,62.012,24.902,27.832,125.000
1532485626.705,43.945,55.664,25.391,24.414,291.016
1532485626.709,47.852,46.875,29.297,28.809,22.461
1532485626.713,51.270,27.832,31.738,32.715,-105.469
1532485626.717,52.246,17.578,31.738,38.086,-402.344
1532485626.721,49.805,81.543,28.809,30.762,85.449
1532485626.725,53.223,65.918,26.367,12.207,758.789
1532485626.729,57.617,15.137,25.879,40.039,71.777
1532485626.733,54.688,20.508,23.438,55.176,-265.625
1532485626.737,54.688,29.785,22.949,33.691,-468.262
1532485626.740,50.781,68.359,26.367,31.250,-359.375
1532485626.744,44.434,41.016,24.902,36.621,-122.559
1532485626.748,51.270,26.855,25.391,37.598,-326.660
1532485626.752,61.035,56.641,26.855,47.852,51.270
1532485626.756,55.664,26.367,23.438,37.598,-167.969
1532485626.760,48.828,55.176,20.996,22.461,-320.312
1532485626.764,54.199,91.309,21.973,39.062,734.375
1532485626.768,61.523,7.324,29.297,48.340,206.055
1532485626.772,54.688,15.625,29.297,34.668,-582.031
1532485626.776,49.316,45.898,23.926,26.367,-645.996
1532485626.780,54.199,45.898,26.855,26.855,-422.363
1532485626.783,52.734,24.414,29.297,36.621,34.668
1532485626.787,45.410,20.508,25.391,40.039,-320.801
1532485626.791,45.410,37.598,23.926,38.086,-574.219
1532485626.795,51.758,31.738,27.344,44.434,-495.605
1532485626.799,45.410,62.988,26.367,29.785,98.145
1532485626.803,33.203,83.984,27.832,22.461,889.648
1532485626.807,40.039,13.672,33.203,39.062,187.012
1532485626.811,44.434,10.254,30.762,32.227,-531.738
1532485626.815,38.086,29.297,31.250,37.109,-475.098
1532485626.819,33.691,31.738,35.156,45.410,-357.910
1532485626.822,31.250,38.086,30.273,34.180,12.695
1532485626.826,34.180,25.391,27.344,22.949,-343.750
1532485626.830,33.691,31.738,28.809,41.016,-454.590
1532485626.834,31.738,21.973,28.809,41.016,-346.191
1532485626.838,32.227,36.621,26.367,25.391,-424.805
1532485626.842,34.668,62.500,25.391,14.648,54.688
1532485626.846,36.133,49.316,24.414,37.109,259.766
1532485626.850,35.645,25.391,25.391,52.734,135.742
1532485626.854,35.156,15.625,27.344,34.180,-233.887
1532485626.858,31.738,34.668,26.367,30.273,-579.590
1532485626.862,27.832,97.168,24.414,33.691,320.801
1532485626.865,27.832,26.855,25.391,23.926,780.762
1532485626.869,29.297,-16.113,27.344,15.625,-192.383
1532485626.873,24.902,32.227,28.809,15.625,-570.312
1532485626.877,29.785,40.527,26.855,8.301,-570.801
1532485626.881,34.180,65.918,25.879,21.484,-38.574
1532485626.885,34.180,27.344,29.785,35.645,16.113
1532485626.889,37.598,20.996,31.738,27.832,-488.770
1532485626.893,41.016,65.430,32.227,30.273,-53.711
1532485626.897,43.457,45.410,33.691,33.203,176.270
1532485626.901,35.645,51.758,29.785,21.484,244.629
1532485626.905,26.855,56.152,30.762,19.531,771.484
1532485626.908,31.738,7.812,38.574,24.902,-101.074
1532485626.912,37.109,30.762,42.480,29.785,-582.520
1532485626.916,38.086,31.738,42.480,33.691,-423.340
1532485626.920,31.250,44.922,40.527,25.391,-326.172
1532485626.924,25.879,44.922,37.109,33.691,-176.758
1532485626.928,30.273,36.621,38.574,36.133,-430.176
1532485626.932,29.297,36.133,37.598,23.926,-368.652
1532485626.936,21.484,26.855,31.250,16.113,-402.344
1532485626.940,19.043,73.242,32.227,25.879,-33.691
1532485626.944,20.996,88.867,33.203,28.320,816.406
1532485626.947,29.297,9.766,28.809,33.691,243.164
1532485626.951,31.738,5.371,31.738,43.457,-408.203
1532485626.955,33.691,31.738,35.645,28.320,-570.801
1532485626.959,44.922,46.387,34.180,27.832,-520.996
1532485626.963,38.086,41.016,30.762,26.855,2.441
1532485626.967,27.832,27.832,29.297,29.785,-204.102
1532485626.971,28.320,34.180,25.879,25.391,-458.984
1532485626.975,32.715,37.598,25.391,28.809,-558.594
1532485626.979,38.086,52.246,26.855,39.062,-376.465
1532485626.983,33.691,45.898,28.320,27.832,211.426
1532485626.987,25.879,47.363,27.832,21.484,280.762
1532485626.990,27.344,42.480,29.297,26.855,57.129
1532485626.994,36.621,19.043,33.203,35.645,-320.801
1532485626.998,41.016,41.992,30.762,30.273,-329.590
1532485627.002,35.645,93.750,30.762,20.020,667.969
1532485627.006,31.250,18.066,33.691,23.438,528.809
1532485627.010,34.180,1.953,28.809,32.715,-433.105
1532485627.014,40.527,33.691,28.320,31.250,-448.242
1532485627.018,36.621,35.156,29.785,30.273,-352.539
1532485627.022,29.297,69.336,27.344,37.598,72.266
1532485627.026,40.527,40.527,32.715,40.039,-197.754
1532485627.030,47.852,39.551,35.156,38.574,-459.473
1532485627.033,41.016,52.734,29.785,22.461,99.609
1532485627.037,37.598,33.691,29.785,16.113,-18.066
1532485627.041,37.109,83.496,31.738,16.602,230.469
1532485627.045,42.969,40.527,30.762,18.555,762.695
1532485627.049,42.969,-17.578,31.738,28.809,-62.500
1532485627.053,37.109,22.461,33.691,23.438,-475.098
1532485627.057,37.109,31.738,33.691,18.066,-604.004
1532485627.061,41.504,59.082,31.738,38.086,-310.547
1532485627.065,44.922,30.762,33.203,43.457,-20.996
1532485627.069,41.016,11.719,30.273,23.926,-339.355
1532485627.072,36.621,33.203,29.297,13.672,-477.539
1532485627.076,41.016,30.762,31.738,17.578,-560.059
1532485627.080,43.457,72.754,27.832,34.668,100.586
1532485627.084,41.504,69.824,27.344,27.344,897.461
1532485627.088,43.945,-3.418,31.738,18.066,46.875
1532485627.092,44.922,19.043,29.297,26.855,-595.215
1532485627.096,51.758,36.133,27.832,29.297,-559.082
1532485627.100,52.246,41.016,31.250,26.855,-233.398
1532485627.104,48.340,23.926,28.809,26.367,324.707
1532485627.108,55.664,19.043,24.414,29.297,-323.730
1532485627.112,58.594,43.945,24.902,39.062,-558.594
1532485627.115,55.664,30.273,25.879,33.691,-378.906
1532485627.119,57.129,26.855,27.344,16.602,-306.641
1532485627.123,61.523,38.086,28.320,31.250,-42.480
1532485627.127,66.895,53.711,25.391,40.527,19.531
1532485627.131,69.336,34.180,24.902,36.621,57.129
1532485627.135,65.918,10.254,28.320,38.574,-310.547
1532485627.139,62.500,51.758,30.762,39.551,-403.809
1532485627.143,58.594,108.398,27.832,31.738,655.273
1532485627.147,61.523,28.809,22.949,31.738,434.082
1532485627.151,58.105,20.020,24.902,29.297,-218.262
1532485627.155,54.199,36.133,30.762,17.090,-400.391
1532485627.158,58.105,44.434,32.715,26.855,-556.641
1532485627.162,65.918,55.176,31.738,35.645,69.336
1532485627.166,68.359,18.555,31.250,39.062,-115.723
1532485627.170,59.570,32.715,28.809,34.180,-456.543
1532485627.174,57.617,58.594,30.273,32.715,-168.457
1532485627.178,63.965,61.523,31.738,34.668,14.648
1532485627.182,65.918,93.750,34.180,31.738,696.289
1532485627.186,60.059,15.137,35.156,34.668,625.000
1532485627.190,58.594,-7.324,30.273,28.320,-436.523
1532485627.194,55.664,37.109,30.273,26.367,-647.949
1532485627.197,52.246,37.598,32.715,39.551,-487.305
1532485627.201,50.781,64.453,30.273,32.227,-9.766
1532485627.205,53.711,38.086,31.738,25.879,-197.266
1532485627.209,55.664,36.133,33.203,33.203,-611.328
1532485627.213,55.664,40.527,30.762,25.391,-389.648
1532485627.217,52.734,25.391,30.762,32.227,-416.992
1532485627.221,44.434,82.031,28.809,37.109,190.430
1532485627.225,45.410,64.941,27.832,27.344,798.828
1532485627.229,55.664,9.766,28.809,34.180,-119.141
1532485627.233,58.594,30.273,28.320,35.156,-464.355
1532485627.237,58.594,34.180,24.902,21.484,-501.953
1532485627.240,57.129,63.965,23.438,17.578,-419.922
1532485627.244,57.617,51.270,26.367,24.414,-145.996
1532485627.248,62.988,32.227,28.809,34.668,-338.379
1532485627.252,59.570,38.086,29.785,35.645,-391.602
1532485627.256,53.223,41.504,29.297,33.691,-539.062
1532485627.260,57.129,55.176,27.832,35.645,-405.762
1532485627.264,66.406,46.875,29.297,43.945,50.293
1532485627.268,58.105,46.875,26.367,35.645,218.262
1532485627.272,42.969,39.551,22.461,14.160,54.199
1532485627.276,48.828,26.855,23.926,21.484,-475.098
1532485627.279,55.664,56.152,24.414,34.180,-293.457
1532485627.283,52.734,87.402,25.879,28.320,759.766
1532485627.287,51.270,18.066,24.902,21.484,221.680
1532485627.291,50.293,15.625,20.996,19.531,-587.402
1532485627.295,54.199,34.180,23.438,24.414,-538.086
1532485627.299,55.176,31.250,24.414,22.949,-288.574
1532485627.303,45.898,28.320,24.414,13.184,108.887
1532485627.307,44.434,26.855,26.855,23.438,-354.492
1532485627.311,48.340,47.363,23.438,28.320,-508.789
1532485627.315,50.781,54.688,22.949,22.949,21.973
1532485627.319,53.711,60.547,23.926,26.367,312.988
1532485627.322,51.758,83.984,25.391,25.879,803.223
1532485627.326,57.129,15.137,25.879,25.879,395.020
1532485627.330,59.570,1.953,22.461,28.809,-372.070
1532485627.334,56.641,25.391,28.320,36.133,-461.914
1532485627.338,55.664,40.039,29.297,25.879,-520.508
1532485627.342,55.664,62.988,17.090,20.020,-32.227
1532485627.346,58.105,31.738,19.043,31.738,-176.758
1532485627.350,56.641,19.531,26.367,25.879,-412.109
1532485627.354,51.270,21.973,27.832,16.113,-413.086
1532485627.358,50.781,38.086,27.832,27.832,-617.188
1532485627.362,51.270,85.938,24.902,36.133,299.316
1532485627.365,52.246,26.855,30.273,41.016,715.332
1532485627.369,52.734,-6.836,32.227,35.156,-212.402
1532485627.373,54.199,29.785,29.785,29.785,-567.383
1532485627.377,62.012,41.016,30.273,39.062,-604.492
1532485627.381,61.523,69.824,29.297,32.715,-4.883
1532485627.385,58.105,31.738,24.902,36.621,162.109
1532485627.389,59.082,25.879,26.367,34.668,-468.750
1532485627.393,63.965,47.852,27.832,30.273,-518.066
1532485627.397,67.871,40.527,26.367,44.922,-412.109
1532485627.401,63.477,58.105,28.320,46.387,-75.684
1532485627.404,59.570,47.363,28.320,37.109,8.789
1532485627.408,57.617,52.734,24.414,21.484,-17.090
1532485627.412,58.105,56.152,27.832,26.367,244.141
1532485627.416,58.105,19.531,30.273,41.016,-177.734
1532485627.420,50.293,60.547,27.832,24.902,-175.781
1532485627.424,43.945,91.309,25.391,10.742,749.023
1532485627.428,54.688,16.113,27.344,28.320,129.883
1532485627.432,58.105,17.090,28.320,43.457,-428.711
1532485627.436,52.734,32.227,31.250,30.762,-423.340
1532485627.440,52.734,43.457,32.227,30.762,-460.449
1532485627.444,52.246,41.016,30.762,35.645,-90.332
1532485627.447,52.734,29.297,32.227,21.973,-266.113
1532485627.451,46.875,41.992,33.203,20.996,-332.031
1532485627.455,42.480,50.781,34.668,26.367,-121.094
1532485627.459,44.922,58.105,36.621,15.625,-25.391
1532485627.463,48.828,97.168,37.598,25.879,717.773
1532485627.467,50.293,19.043,35.156,33.691,360.352
1532485627.471,45.410,9.766,28.320,29.785,-480.469
1532485627.475,46.875,47.852,28.809,28.320,-641.113
1532485627.479,48.828,55.664,36.133,26.855,-451.172
1532485627.483,48.340,47.363,37.109,29.785,153.320
1532485627.487,44.922,20.020,35.156,38.086,-208.984
1532485627.490,43.457,46.875,33.691,28.809,-558.594
1532485627.494,51.758,51.270,32.227,32.715,-493.652
1532485627.498,50.293,49.805,28.809,39.551,-330.566
1532485627.502,40.039,73.730,27.832,24.414,521.973
1532485627.506,40.527,35.156,29.297,25.879,273.926
1532485627.510,46.875,30.273,27.832,31.250,-419.434
1532485627.514,49.805,35.645,31.738,46.875,-304.688
1532485627.518,51.270,33.203,33.691,46.875,-342.773
1532485627.522,47.363,90.820,33.691,27.832,402.344
1532485627.526,49.316,29.785,35.156,26.855,481.934
1532485627.529,60.059,8.301,36.621,48.828,-311.035
1532485627.533,58.105,26.367,35.156,44.434,-333.008
1532485627.537,50.293,26.855,28.320,20.508,-431.152
1532485627.541,52.734,67.871,25.879,24.414,-143.555
1532485627.545,60.547,36.621,27.832,33.691,-51.270
1532485627.549,60.059,31.250,27.344,40.039,71.777
1532485627.553,56.152,28.320,23.926,25.879,126.465
1532485627.557,54.199,19.043,22.461,26.855,-516.602
1532485627.561,55.176,85.938,22.949,33.691,-89.844
1532485627.565,56.641,63.477,26.367,26.855,831.543
1532485627.569,58.105,-8.789,25.391,26.855,40.527
1532485627.572,55.176,39.551,20.996,24.902,-405.762
1532485627.576,56.641,40.039,22.949,19.043,-429.199
1532485627.580,60.547,42.480,22.949,33.203,-253.418
1532485627.584,61.035,21.973,19.043,39.551,84.961
1532485627.588,62.500,11.719,16.602,25.391,-373.535
1532485627.592,65.918,45.898,17.578,23.438,-494.141
1532485627.596,70.801,45.898,20.020,42.480,-82.031
1532485627.600,75.195,38.574,18.555,35.156,215.332
1532485627.604,72.266,68.848,17.578,6.348,760.742
1532485627.608,75.195,13.672,19.043,24.902,95.703
1532485627.612,78.613,10.254,20.508,41.016,-548.828
1532485627.615,78.125,29.785,18.555,25.391,-431.641
1532485627.619,74.219,29.785,18.066,20.020,-353.027
1532485627.623,74.707,28.809,20.508,34.180,-84.961
1532485627.627,77.148,20.996,17.578,48.340,-383.789
1532485627.631,73.242,26.367,18.555,41.504,-383.301
1532485627.635,76.172,29.785,28.809,48.340,-360.840
1532485627.639,78.613,48.828,37.598,55.176,-409.668
1532485627.643,82.031,72.754,41.992,53.711,271.973
1532485627.647,89.844,44.434,44.434,64.453,218.262
1532485627.651,87.891,34.668,46.387,66.406,-215.332
1532485627.654,82.520,39.062,45.410,55.664,-396.484
1532485627.658,80.566,59.570,39.062,40.527,-484.863
1532485627.662,73.730,110.352,34.180,35.156,591.309
1532485627.666,70.312,18.555,36.621,38.086,623.535
1532485627.670,64.453,-1.465,34.180,34.180,-335.938
1532485627.674,57.617,39.062,29.297,31.250,-586.426
1532485627.678,62.500,45.898,26.367,26.855,-479.980
1532485627.682,62.500,54.199,27.344,19.043,162.109
1532485627.686,56.152,24.902,29.785,33.691,-62.500
1532485627.690,61.523,55.664,25.879,36.621,-141.602
1532485627.694,60.547,38.574,26.367,28.809,61.035
1532485627.697,46.875,20.508,28.809,33.691,-365.723
1532485627.701,38.086,90.332,30.273,23.438,299.316
1532485627.705,38.574,42.969,31.738,26.367,748.535
1532485627.709,42.969,0.000,28.809,32.715,-299.316
1532485627.713,44.434,25.879,27.344,34.180,-519.531
1532485627.717,47.363,26.855,29.297,39.551,-412.109
1532485627.721,46.875,63.477,24.902,22.949,-202.148
1532485627.725,45.898,42.480,22.949,3.418,-174.316
1532485627.729,55.664,25.391,24.902,24.414,-469.238
1532485627.733,62.500,39.551,21.973,38.086,-291.016
1532485627.736,57.129,48.340,19.043,25.391,-41.016
1532485627.740,52.734,73.730,20.020,13.184,273.926
1532485627.744,56.641,66.895,20.508,16.113,787.109
1532485627.748,60.547,1.465,19.043,35.645,112.793
1532485627.752,56.152,12.207,19.531,29.297,-461.426
1532485627.756,52.246,29.785,19.531,28.320,-593.750
1532485627.760,55.664,43.457,18.066,26.367,-499.023
1532485627.764,61.523,30.762,18.555,21.973,-49.316
1532485627.768,59.570,17.578,20.508,29.297,-274.414
1532485627.772,55.664,36.621,21.973,20.996,-489.258
1532485627.776,57.129,45.410,23.926,13.184,-563.965
1532485627.779,59.570,48.828,22.949,39.062,-339.355
1532485627.783,58.594,47.852,18.066,35.156,309.570
1532485627.787,54.199,48.828,18.066,10.254,341.309
1532485627.791,49.805,36.621,19.531,21.973,-6.348
1532485627.795,53.223,19.043,20.508,39.551,-373.535
1532485627.799,54.688,43.945,24.414,27.344,-229.980
1532485627.803,46.875,89.844,24.902,17.090,744.141
1532485627.807,50.293,15.137,27.832,28.320,275.879
1532485627.811,56.152,8.789,28.809,28.809,-498.047
1532485627.815,57.129,28.320,26.367,23.438,-458.008
1532485627.819,55.176,36.621,28.320,22.949,-324.707
1532485627.822,46.875,58.105,30.273,24.902,380.859
1532485627.826,49.805,29.785,33.203,28.809,-102.051
1532485627.830,50.781,56.641,34.180,24.902,-77.148
1532485627.834,50.293,44.434,37.109,33.203,332.520
1532485627.838,39.551,26.855,40.527,34.668,-291.992
1532485627.842,31.738,94.238,36.621,7.324,444.336
1532485627.846,46.875,22.949,37.598,21.973,682.129
1532485627.850,48.828,-13.184,37.598,28.809,-289.062
1532485627.854,44.434,21.973,36.133,17.578,-543.945
1532485627.858,48.340,36.133,35.156,22.461,-654.785
1532485627.861,52.734,72.266,32.715,29.785,-124.023
1532485627.865,53.223,28.320,37.109,32.715,-52.246
1532485627.869,37.109,9.277,42.969,27.832,-475.586
1532485627.873,25.879,34.668,38.086,13.672,-493.652
1532485627.877,33.203,43.457,35.645,13.184,-233.398
1532485627.881,40.039,64.941,38.086,23.926,415.527
1532485627.885,40.039,28.809,36.621,23.438,777.344
1532485627.889,44.434,-14.648,37.109,25.879,-204.590
1532485627.893,51.270,22.461,40.527,31.738,-668.945
1532485627.897,54.688,26.855,39.551,44.434,-534.668
1532485627.901,55.664,44.434,40.527,49.805,-214.844
1532485627.904,55.664,34.668,41.504,40.039,-122.559
1532485627.908,59.082,28.809,36.621,32.715,-571.289
1532485627.912,63.965,44.922,37.109,43.945,-488.770
1532485627.916,62.988,32.227,36.621,39.062,-410.156
1532485627.920,60.547,48.340,36.621,28.809,-276.367
1532485627.924,61.523,57.129,39.551,33.691,212.402
1532485627.928,63.477,25.391,40.527,43.945,-33.203
1532485627.932,59.082,25.391,40.527,39.551,-256.348
1532485627.936,54.199,18.555,41.504,25.391,-390.625
1532485627.940,51.270,52.734,43.457,18.555,-345.703
1532485627.944,53.223,99.121,41.504,29.785,694.336
1532485627.947,57.129,13.672,38.086,36.133,308.105
1532485627.951,56.152,8.301,38.574,31.250,-407.227
1532485627.955,56.641,38.574,37.598,31.738,-554.688
1532485627.959,62.988,42.480,37.598,25.391,-501.953
1532485627.963,68.359,35.645,40.039,31.738,31.250
1532485627.967,63.477,22.461,42.969,35.156,-196.777
1532485627.971,53.223,58.105,40.527,19.531,-87.402
1532485627.975,46.387,45.898,40.039,9.277,-10.742
1532485627.979,44.434,42.969,41.016,26.855,-262.695
1532485627.983,41.504,96.680,41.504,42.480,667.480
1532485627.986,38.574,9.766,41.504,25.391,441.406
1532485627.990,31.738,-1.465,41.992,11.230,-565.430
1532485627.994,30.762,49.316,43.457,31.250,-496.582
1532485627.998,39.551,39.551,45.898,33.203,-282.715
1532485628.002,36.133,42.480,46.875,25.879,134.277
1532485628.006,32.715,31.250,40.039,20.996,-249.023
1532485628.010,39.062,39.062,39.062,24.414,-634.766
1532485628.014,42.969,42.969,40.527,27.344,-365.723
1532485628.018,43.945,55.664,39.551,27.344,-47.852
1532485628.022,42.480,96.680,36.621,28.320,628.418
1532485628.026,51.758,35.645,36.621,19.531,635.254
1532485628.029,64.941,0.488,41.016,25.879,-283.203
1532485628.033,64.941,27.344,42.480,40.527,-464.844
1532485628.037,60.059,35.645,39.062,30.762,-542.480
1532485628.041,56.641,77.637,35.645,32.715,-267.090
1532485628.045,59.570,47.852,39.551,49.316,-166.992
1532485628.049,63.965,29.785,44.922,49.316,-398.438
1532485628.053,62.500,38.574,43.945,47.363,-377.930
1532485628.057,56.152,39.062,41.992,45.898,-584.961
1532485628.061,55.176,77.148,41.992,53.711,-265.625
1532485628.065,57.617,69.336,41.992,65.430,409.668
1532485628.068,59.570,22.949,42.480,64.453,173.828
1532485628.072,59.570,36.621,40.039,57.617,-331.055
1532485628.076,62.500,39.062,39.551,54.199,-578.613
1532485628.080,63.965,75.195,40.527,53.223,-161.133
1532485628.084,61.035,95.215,39.551,33.203,789.551
1532485628.088,59.082,17.578,40.527,41.016,75.195
1532485628.092,60.059,30.762,36.133,45.410,-608.887
1532485628.096,61.523,47.852,34.180,40.527,-491.699
1532485628.100,60.547,44.434,36.621,53.223,-244.629
1532485628.104,62.012,33.691,40.039,43.945,3.418
1532485628.108,59.570,36.621,38.574,35.645,-418.457
1532485628.111,57.129,73.242,35.156,43.945,-98.633
1532485628.115,57.129,36.133,37.598,49.805,188.477
1532485628.119,51.758,34.180,41.992,41.504,-62.500
1532485628.123,51.758,103.027,43.945,26.855,696.289
1532485628.127,57.129,30.273,44.434,36.133,259.766
1532485628.131,56.152,10.254,42.969,41.992,-440.918
1532485628.135,54.688,32.227,41.504,42.969,-454.102
1532485628.139,55.664,44.922,42.480,30.762,-473.145
1532485628.143,60.547,54.199,40.527,30.762,-30.273
1532485628.147,62.012,40.039,39.551,51.270,-222.656
1532485628.151,56.641,36.133,39.062,39.062,-379.395
1532485628.154,53.223,41.992,41.992,25.391,-419.434
1532485628.158,50.781,83.984,40.527,33.203,-149.902
1532485628.162,44.922,102.051,35.156,43.945,782.715
1532485628.166,49.316,14.648,37.598,33.691,559.082
1532485628.170,50.781,10.254,39.551,22.949,-356.445
1532485628.174,47.852,44.922,37.598,27.832,-635.742
1532485628.178,54.199,53.223,36.133,22.949,-557.129
1532485628.182,56.152,72.266,38.574,42.480,103.516
1532485628.186,53.223,32.715,38.086,49.805,-83.008
1532485628.190,45.410,37.598,39.062,34.180,-567.383
1532485628.193,44.922,52.734,40.039,23.438,-504.883
1532485628.197,50.293,50.293,36.621,35.156,-409.668
1532485628.201,47.363,70.801,36.133,37.598,105.469
1532485628.205,45.410,62.988,35.645,21.484,329.102
1532485628.209,48.828,52.246,36.621,24.414,97.168
1532485628.213,51.270,35.645,33.691,24.414,-76.172
1532485628.217,51.758,21.484,34.668,39.062,-395.996
1532485628.221,50.293,83.496,36.621,38.574,42.969
1532485628.225,51.758,73.730,33.691,18.555,780.762
1532485628.229,56.152,5.859,37.598,27.832,-57.617
1532485628.233,56.152,23.438,39.551,33.203,-440.918
1532485628.236,57.129,32.227,38.086,25.879,-454.102
1532485628.240,50.781,61.035,37.598,25.879,-374.512
1532485628.244,51.758,46.875,38.086,27.832,-104.980
1532485628.248,57.129,30.273,40.039,47.852,-304.688
1532485628.252,54.199,60.547,41.016,49.316,10.742
1532485628.256,53.711,44.434,41.016,33.203,-68.848
1532485628.260,58.594,63.965,40.039,42.480,-234.863
1532485628.264,60.059,92.285,36.133,45.410,714.844
1532485628.268,62.012,6.348,38.086,35.645,239.258
1532485628.272,62.012,15.625,37.109,38.086,-567.383
1532485628.276,61.523,45.898,33.691,39.062,-646.484
1532485628.279,60.547,42.969,36.133,39.551,-426.758
1532485628.283,58.105,26.855,37.598,50.293,50.781
1532485628.287,52.246,23.438,37.109,39.551,-304.199
1532485628.291,48.828,39.062,34.180,19.531,-574.219
1532485628.295,54.688,34.180,33.691,31.738,-492.676
1532485628.299,53.223,65.430,33.691,47.852,54.199
1532485628.303,44.434,90.332,33.203,37.598,870.605
1532485628.307,45.410,12.695,32.715,23.926,234.375
1532485628.311,47.852,15.137,31.738,27.344,-522.461
1532485628.315,49.316,38.086,32.227,44.434,-475.586
1532485628.318,48.340,37.109,31.250,45.410,-357.910
1532485628.322,44.434,47.363,26.855,33.691,29.785
1532485628.326,49.316,33.691,26.855,39.551,-313.477
1532485628.330,51.270,39.551,27.344,30.762,-449.707
1532485628.334,45.898,30.273,27.344,33.203,-317.871
1532485628.338,42.969,46.875,28.320,46.875,-410.156
1532485628.342,42.480,75.684,27.344,38.086,70.312
1532485628.346,46.875,54.688,26.367,37.109,291.016
1532485628.350,54.199,36.621,28.809,40.527,221.680
1532485628.354,54.199,17.090,29.785,40.527,-90.332
1532485628.358,50.781,31.250,21.484,44.434,-567.871
1532485628.361,51.758,105.957,22.461,52.246,244.629
1532485628.365,59.570,41.992,28.809,48.828,801.758
1532485628.369,60.547,-9.277,34.668,46.875,-146.484
1532485628.373,58.594,31.738,34.668,38.574,-552.246
1532485628.377,63.965,35.156,32.715,43.457,-558.594
1532485628.381,65.430,61.523,36.133,47.363,-70.312
1532485628.385,67.383,32.715,41.016,39.062,32.227
1532485628.389,67.383,30.273,39.062,38.574,-439.453
1532485628.393,65.918,67.871,33.691,45.410,-120.605
1532485628.397,67.871,46.875,36.133,63.477,102.539
1532485628.401,66.895,60.059,40.039,66.406,370.117
1532485628.404,59.082,67.871,39.062,52.734,820.312
1532485628.408,60.547,7.324,37.109,49.316,-84.961
1532485628.412,63.477,26.367,39.062,40.039,-571.289
1532485628.416,61.035,48.340,40.039,28.320,-282.227
1532485628.420,55.176,41.504,41.016,35.156,-198.730
1532485628.424,49.316,32.715,38.574,32.227,-172.852
1532485628.428,51.758,32.715,39.551,31.738,-427.246
1532485628.432,51.270,33.203,41.992,41.992,-379.395
1532485628.436,45.410,23.926,39.551,35.156,-400.391
1532485628.440,39.551,69.824,40.527,28.809,-31.250
1532485628.443,42.480,91.797,42.969,20.020,819.824
1532485628.447,48.340,4.883,44.922,36.621,248.535
1532485628.451,49.316,-0.977,46.875,43.945,-400.879
1532485628.455,41.992,28.320,47.852,21.484,-560.547
1532485628.459,38.574,34.668,43.457,12.695,-529.297
1532485628.463,44.434,30.762,39.551,32.715,6.836
1532485628.467,45.898,17.578,37.109,45.410,-200.195
1532485628.471,43.457,28.320,37.598,35.156,-458.984
1532485628.475,43.945,34.668,40.039,16.602,-558.105
1532485628.479,42.480,43.457,37.109,27.344,-408.203
1532485628.483,42.969,34.180,38.086,40.039,223.145
1532485628.486,44.434,33.203,41.504,29.785,274.902
1532485628.490,47.363,41.504,39.551,29.785,38.574
1532485628.494,54.688,14.160,35.645,25.879,-263.672
1532485628.498,51.270,25.879,34.668,36.133,-358.887
1532485628.502,43.945,92.773,35.645,30.273,625.000
1532485628.506,45.898,20.508,36.621,21.973,568.848
1532485628.510,48.340,0.977,39.551,29.297,-437.012
1532485628.514,47.852,30.762,39.062,37.598,-481.934
1532485628.518,45.898,28.320,37.109,40.527,-388.672
1532485628.522,43.945,59.570,40.039,38.574,25.391
1532485628.525,48.828,28.809,42.969,40.527,-200.684
1532485628.529,52.734,29.297,39.551,43.945,-493.164
1532485628.533,49.805,53.223,37.109,35.156,125.488
1532485628.537,45.410,36.133,38.086,31.250,132.812
1532485628.541,45.410,77.637,40.527,32.715,235.352
1532485628.545,54.199,44.922,41.504,34.180,747.070
1532485628.549,57.617,-18.555,41.992,38.086,-56.641
1532485628.553,46.875,16.602,39.062,35.156,-514.648
1532485628.557,43.945,33.203,39.551,39.551,-646.973
1532485628.561,46.387,62.012,39.551,42.480,-396.973
1532485628.565,43.457,35.156,33.691,38.086,-64.941
1532485628.568,46.387,12.695,35.156,37.109,-363.281
1532485628.572,45.898,30.762,37.109,27.832,-518.066
1532485628.576,47.363,28.809,35.156,15.625,-609.375
1532485628.580,49.805,66.895,32.227,33.203,37.109
1532485628.584,49.805,64.941,32.227,36.621,852.539
1532485628.588,53.223,-0.977,36.621,28.809,6.836
1532485628.592,52.246,20.996,34.668,33.203,-657.227
1532485628.596,51.270,35.156,33.691,27.832,-565.430
1532485628.600,51.758,29.785,34.180,29.785,-332.031
1532485628.604,48.828,23.438,33.203,28.809,-68.359
1532485628.608,47.852,29.785,35.156,30.273,-472.656
1532485628.611,53.711,43.945,33.691,40.527,-541.504
1532485628.615,51.758,35.645,29.297,32.715,-400.879
1532485628.619,47.363,32.227,27.344,27.344,-270.508
1532485628.623,47.363,32.227,31.250,26.855,18.066
1532485628.627,52.246,50.293,30.273,26.367,102.539
1532485628.631,49.805,39.062,27.832,28.320,278.320
1532485628.635,50.293,-3.418,30.762,36.133,-150.391
1532485628.639,52.246,35.156,29.785,32.227,-393.555
1532485628.643,49.805,96.191,27.832,28.809,658.203
1532485628.647,56.152,9.766,30.762,43.457,471.680
1532485628.650,59.570,-6.836,32.227,42.480,-331.543
1532485628.654,50.293,25.879,33.691,33.691,-509.277
1532485628.658,46.387,39.062,32.715,28.320,-556.152
1532485628.662,53.223,49.316,31.250,34.180,82.520
1532485628.666,55.664,13.184,31.738,36.621,-75.684
1532485628.670,50.293,28.320,29.297,27.832,-423.340
1532485628.674,47.852,57.617,31.250,33.203,-66.895
1532485628.678,48.828,51.758,28.809,30.762,36.133
1532485628.682,47.363,82.520,26.855,16.602,603.027
1532485628.686,45.410,14.648,30.762,35.156,678.711
1532485628.690,45.410,-11.230,32.715,41.504,-356.934
1532485628.693,51.758,30.273,34.180,39.551,-633.301
1532485628.697,54.688,29.785,35.156,49.316,-486.328
1532485628.701,50.293,53.223,33.203,49.316,2.930
1532485628.705,46.875,24.902,29.785,40.527,-131.348
1532485628.709,52.734,27.344,31.738,34.180,-579.590
1532485628.713,59.082,41.016,31.738,39.551,-398.438
1532485628.717,57.617,24.414,29.297,41.504,-387.207
1532485628.721,55.664,75.195,29.297,34.180,206.055
1532485628.725,58.105,63.477,30.762,32.715,814.453
1532485628.729,61.523,-3.906,33.691,53.711,-82.031
1532485628.733,60.547,7.324,33.203,56.641,-433.594
1532485628.736,59.082,14.160,28.809,48.340,-444.336
1532485628.740,55.176,42.969,26.855,54.688,-392.578
1532485628.744,55.176,32.227,28.320,57.617,-125.977
1532485628.748,58.594,14.160,27.344,50.781,-310.059
1532485628.752,52.246,19.531,27.832,37.598,-342.285
1532485628.756,41.504,26.367,25.879,34.668,-486.816
1532485628.760,43.945,40.039,24.902,29.297,-411.621
1532485628.764,51.758,30.762,25.879,47.852,45.410
1532485628.768,53.223,36.621,28.320,53.711,280.762
1532485628.772,54.199,22.949,31.250,37.598,104.004
1532485628.775,57.129,15.137,27.832,36.621,-461.426
1532485628.779,58.105,42.480,28.320,38.574,-246.582
1532485628.783,60.059,24.414,30.273,42.480,471.191
1532485628.787,60.059,11.719,28.320,30.762,-50.293
1532485628.791,65.430,45.898,20.996,41.504,-440.918
1532485628.795,78.613,34.668,19.531,54.199,-390.137
1532485628.799,65.430,40.527,29.297,41.016,-189.941
1532485628.803,40.039,91.797,33.691,31.738,763.184
1532485628.807,46.875,16.602,35.645,40.527,335.938
1532485628.811,55.664,12.695,34.668,48.828,-441.895
1532485628.815,58.594,50.293,34.180,42.969,22.949
1532485628.818,57.129,44.434,35.156,37.109,227.539
1532485628.822,48.340,83.984,30.273,37.109,752.930
1532485628.826,52.246,16.602,28.809,36.621,440.430
1532485628.830,58.594,-3.906,29.785,46.387,-406.738
1532485628.834,55.176,19.043,31.738,57.129,-481.934
1532485628.838,47.363,46.875,29.297,32.715,-378.418
1532485628.842,50.781,57.129,26.855,27.344,29.785
1532485628.846,54.688,20.020,30.273,47.363,-226.074
1532485628.850,54.199,24.414,30.762,40.039,-424.316
1532485628.854,55.664,24.902,30.762,30.762,-401.367
1532485628.858,58.594,38.574,33.691,41.016,-631.836
1532485628.861,66.895,97.656,36.133,50.781,228.516
1532485628.865,70.801,26.367,37.598,57.617,615.234
1532485628.869,66.895,-10.254,36.133,57.617,-291.016
1532485628.873,67.871,32.227,38.086,43.457,-580.078
1532485628.877,71.289,36.133,40.039,40.039,-655.273
1532485628.881,70.312,65.918,41.016,56.152,-104.492
1532485628.885,71.289,31.738,41.016,63.477,147.461
1532485628.889,71.777,20.996,42.480,56.152,-453.613
1532485628.893,74.219,41.992,41.992,43.945,-555.664
1532485628.897,77.148,35.645,38.574,43.945,-466.797
1532485628.900,75.195,46.875,35.645,56.152,-112.305
1532485628.904,72.266,32.715,35.156,66.406,12.695
1532485628.908,76.660,48.340,34.180,61.035,-28.809
1532485628.912,79.102,53.711,33.203,57.129,285.156
1532485628.916,80.078,4.395,35.645,42.480,-122.070
1532485628.920,77.148,44.922,36.133,43.945,-186.035
1532485628.924,70.801,88.867,34.668,42.969,745.605
1532485628.928,74.707,13.672,34.180,53.223,131.348
1532485628.932,76.172,8.301,35.645,62.012,-456.543
1532485628.936,74.219,23.926,33.691,47.852,-428.711
1532485628.940,70.312,32.227,33.203,48.340,-450.684
1532485628.943,70.801,30.762,34.668,48.828,-103.516
1532485628.947,75.684,21.484,34.180,40.527,-283.691
1532485628.951,64.941,32.715,33.691,49.316,-338.867
1532485628.955,58.105,50.293,32.715,55.176,-129.883
1532485628.959,64.453,75.684,30.762,42.480,167.969
1532485628.963,61.035,85.938,30.762,33.691,825.684
1532485628.967,62.988,-0.488,34.180,52.734,348.145
1532485628.971,60.059,-0.488,37.598,41.504,-449.707
1532485628.975,56.641,37.598,36.621,39.551,-661.133
1532485628.979,58.594,44.434,36.621,40.039,-510.254
1532485628.982,60.059,40.039,39.551,48.340,126.953
1532485628.986,59.570,17.578,38.574,50.293,-196.289
1532485628.990,54.688,40.527,34.668,54.199,-566.406
1532485628.994,52.246,36.621,29.297,52.246,-521.484
1532485628.998,49.805,40.039,30.762,36.621,-412.598
1532485629.002,47.852,92.285,35.645,25.391,577.148
1532485629.006,48.340,22.949,32.715,13.672,437.500
1532485629.010,52.246,3.906,29.785,17.090,-500.488
1532485629.014,57.129,27.832,32.227,34.180,-468.262
1532485629.018,58.594,25.879,35.156,52.734,-395.996
1532485629.022,60.547,71.777,33.203,38.086,166.016
1532485629.025,64.453,38.086,34.180,23.438,-23.438
1532485629.029,67.871,27.832,37.598,41.992,-485.840
1532485629.033,73.730,35.156,37.109,39.551,-302.246
1532485629.037,68.848,36.133,31.738,27.344,-409.180
1532485629.041,64.941,70.312,33.691,47.852,-150.391
1532485629.045,71.777,49.316,40.039,56.152,-57.129
1532485629.049,68.359,45.898,39.551,51.270,37.598
1532485629.053,66.895,42.480,37.109,39.062,274.414
1532485629.057,71.289,16.113,37.109,27.344,-361.328
1532485629.061,71.777,75.195,37.109,43.945,-163.574
1532485629.065,76.172,71.777,35.645,52.246,818.359
1532485629.068,81.055,-8.301,35.156,45.898,93.750
1532485629.072,76.660,19.043,35.645,50.293,-538.086
1532485629.076,78.125,35.645,35.645,43.945,-583.008
1532485629.080,83.496,40.527,37.109,42.969,-321.777
1532485629.084,86.914,22.949,38.086,48.828,62.500
1532485629.088,83.496,16.602,33.203,34.668,-339.355
1532485629.092,78.613,45.898,32.715,46.387,-506.836
1532485629.096,84.473,49.316,33.203,56.152,-131.836
1532485629.100,86.426,51.758,34.180,50.781,321.289
1532485629.104,81.055,69.336,35.156,43.457,833.008
1532485629.107,80.566,11.230,32.715,34.180,101.562
1532485629.111,85.938,9.766,30.762,40.039,-547.852
1532485629.115,83.496,25.391,29.785,56.641,-442.383
1532485629.119,71.777,23.926,28.809,50.293,-312.500
1532485629.123,75.195,27.344,28.320,45.898,-35.156
1532485629.127,73.730,29.297,28.320,58.105,-389.648
1532485629.131,77.148,40.527,29.785,47.363,-401.855
1532485629.135,80.566,28.809,30.762,23.926,-329.102
1532485629.139,69.824,41.992,25.879,35.156,-397.461
1532485629.143,68.359,73.242,25.879,37.109,274.902
1532485629.147,71.289,36.621,26.855,27.832,293.945
1532485629.150,73.242,17.090,27.832,39.062,-174.805
1532485629.154,75.195,24.414,22.949,46.387,-370.117
1532485629.158,87.891,53.223,17.578,54.688,-495.605
1532485629.162,86.426,109.375,26.855,48.340,548.828
1532485629.166,66.895,13.672,37.598,28.320,671.387
1532485629.170,58.105,-11.719,38.086,25.391,-289.062
1532485629.174,61.523,28.809,33.691,43.945,-564.941
1532485629.178,66.406,38.574,37.109,59.570,-513.672
1532485629.182,58.105,57.129,39.551,52.734,106.445
1532485629.186,51.270,21.973,40.039,33.691,-25.391
1532485629.190,43.457,41.504,44.434,38.086,-110.840
1532485629.193,41.016,26.855,43.457,32.715,-47.363
1532485629.197,49.316,5.371,42.480,17.090,-457.031
1532485629.201,52.734,74.707,43.457,29.785,233.887
1532485629.205,52.734,37.598,42.480,48.340,760.254
1532485629.209,56.641,-14.648,41.504,39.062,-285.645
1532485629.213,55.664,16.113,41.992,43.945,-560.547
1532485629.217,52.734,9.766,46.875,48.828,-431.152
1532485629.221,51.758,41.504,45.898,38.574,-227.051
1532485629.225,59.570,29.785,39.062,21.484,-185.547
1532485629.229,65.918,12.695,38.574,24.414,-509.766
1532485629.232,64.941,25.391,37.598,40.039,-334.961
1532485629.236,63.477,33.203,37.598,33.691,-104.004
1532485629.240,51.758,62.500,37.109,20.020,186.035
1532485629.244,46.875,65.430,36.621,30.273,771.973
1532485629.248,55.176,-0.977,41.504,42.480,123.535
1532485629.252,56.152,3.906,43.457,42.480,-474.609
1532485629.256,48.828,28.320,37.598,34.668,-598.145
1532485629.260,48.340,53.223,33.691,34.180,-442.383
1532485629.264,55.664,26.855,36.133,44.922,-51.270
1532485629.268,61.523,14.648,39.062,39.551,-310.547
1532485629.272,73.242,41.992,33.203,33.691,-486.328
1532485629.275,78.613,43.945,37.109,50.293,-603.027
1532485629.279,65.918,41.992,47.852,50.781,-402.832
1532485629.283,59.570,40.527,47.363,39.062,317.871
1532485629.287,63.477,30.762,46.387,44.434,217.773
1532485629.291,58.105,19.043,47.852,32.227,-309.082
1532485629.295,60.547,20.996,52.246,66.406,-526.855
1532485629.299,62.500,34.180,56.152,88.379,-213.379
1532485629.303,52.246,20.996,60.547,54.199,475.098
1532485629.307,49.316,0.000,65.918,48.828,-120.605
1532485629.311,51.758,25.879,65.918,67.383,-501.953
1532485629.314,52.734,11.719,67.871,72.754,-314.453
1532485629.318,46.875,16.602,72.754,45.410,-277.832
1532485629.322,43.457,78.613,74.219,47.363,645.508
1532485629.326,45.898,5.371,80.566,68.848,508.789
1532485629.330,44.922,-2.441,81.543,57.617,47.363
1532485629.334,45.898,-2.441,83.008,64.941,127.930
1532485629.338,36.133,-7.324,85.938,58.105,-452.637
1532485629.342,30.273,82.520,84.473,46.387,373.535
1532485629.346,41.504,12.695,85.938,79.102,688.965
1532485629.350,50.293,-32.715,86.426,86.914,-290.039
1532485629.354,44.434,0.488,88.867,66.406,-535.156
1532485629.357,41.504,11.719,87.402,54.199,-653.809
1532485629.361,44.922,43.457,85.938,68.848,-186.035
1532485629.365,45.898,11.230,88.867,60.547,-59.570
1532485629.369,43.945,-2.930,90.332,46.875,-433.105
1532485629.373,45.410,23.926,93.750,72.754,-479.492
1532485629.377,52.734,36.621,94.238,83.496,-231.445
1532485629.381,60.059,58.594,85.938,71.777,443.848
1532485629.385,61.035,20.020,90.820,69.824,811.523
1532485629.389,55.664,-29.297,101.074,71.289,-165.527
1532485629.393,50.293,7.324,97.656,67.871,-676.758
1532485629.397,57.617,14.648,93.262,83.496,-563.965
1532485629.400,57.617,26.367,94.238,99.121,-246.094
1532485629.404,54.688,15.137,92.285,79.590,-86.914
1532485629.408,61.523,14.160,88.379,73.242,-532.227
1532485629.412,63.477,28.809,87.891,66.895,-498.047
1532485629.416,62.012,17.578,84.473,54.199,-393.555
1532485629.420,58.105,31.250,83.008,74.219,-266.113
1532485629.424,50.781,41.016,81.055,68.359,264.648
1532485629.428,50.781,10.254,77.148,61.523,71.289
1532485629.432,55.664,10.254,74.219,62.988,-226.562
1532485629.436,59.082,5.859,72.266,52.734,-383.301
1532485629.439,60.059,38.086,71.777,45.410,-333.008
1532485629.443,60.547,91.797,70.312,46.387,692.383
1532485629.447,68.359,11.719,71.289,57.617,314.453
1532485629.451,69.336,-6.348,71.289,50.293,-392.578
1532485629.455,63.965,22.949,66.895,52.734,-528.320
1532485629.459,59.082,34.668,64.941,62.500,-503.906
1532485629.463,59.082,27.832,65.918,61.523,41.016
1532485629.467,65.918,12.207,64.453,63.965,-159.668
1532485629.471,62.012,48.340,59.570,62.988,-27.344
1532485629.475,48.828,34.668,58.594,49.805,144.043
1532485629.479,49.805,23.926,58.594,30.273,-204.102
1532485629.482,65.918,78.125,58.105,57.617,640.137
1532485629.486,65.918,-0.488,56.152,78.125,514.160
1532485629.490,59.082,-10.254,50.781,64.453,-491.699
1532485629.494,65.430,22.461,50.293,56.152,-610.840
1532485629.498,69.824,29.297,50.781,50.293,-406.738
1532485629.502,68.848,46.875,49.316,43.945,169.922
1532485629.506,66.895,21.973,46.387,57.129,-185.547
1532485629.510,70.312,27.832,46.875,54.199,-610.840
1532485629.514,71.289,34.180,49.316,48.340,-360.352
1532485629.518,66.406,40.527,48.340,53.711,-33.203
1532485629.522,55.664,72.754,45.410,54.199,620.117
1532485629.525,47.363,20.996,43.457,45.898,661.133
1532485629.529,52.734,-9.277,38.086,54.199,-259.277
1532485629.533,53.223,16.602,41.016,55.664,-444.824
1532485629.537,48.828,23.438,43.945,42.480,-493.164
1532485629.541,47.363,62.988,41.016,33.203,-258.789
1532485629.545,50.781,36.133,40.039,42.480,-152.832
1532485629.549,48.828,19.043,41.504,51.758,-384.277
1532485629.553,44.434,23.926,41.016,47.852,-339.844
1532485629.557,45.410,22.461,41.016,38.086,-557.129
1532485629.561,45.898,59.570,40.039,49.316,-299.316
1532485629.564,49.316,51.270,41.016,45.410,389.648
1532485629.568,48.828,3.906,44.922,35.645,125.977
1532485629.572,40.527,19.043,42.969,32.227,-335.449
1532485629.576,47.363,25.391,41.016,54.199,-562.988
1532485629.580,54.688,53.711,44.434,55.664,-215.820
1532485629.584,46.387,68.848,43.945,29.297,775.879
1532485629.588,37.598,-10.742,41.992,30.762,128.418
1532485629.592,29.785,-2.930,47.852,32.715,-596.680
1532485629.596,42.480,18.066,54.199,46.875,-515.625
1532485629.600,53.711,19.531,42.969,46.875,-253.418
1532485629.604,43.945,9.766,35.156,37.598,21.973
1532485629.607,24.902,18.066,39.062,10.254,-407.227
1532485629.611,23.438,52.246,38.086,-6.836,-95.215
1532485629.615,31.738,4.883,46.387,14.648,41.992
1532485629.619,19.043,14.160,46.875,1.953,-180.176
1532485629.623,7.812,87.891,37.109,-15.137,713.867
1532485629.627,8.789,17.578,40.039,-2.930,281.250
1532485629.631,1.465,4.395,42.969,-2.441,-431.641
1532485629.635,-12.695,27.344,34.180,-20.996,-408.203
1532485629.639,-27.344,36.621,33.203,-50.781,-405.273
1532485629.643,-29.785,42.969,37.109,-71.289,29.785
1532485629.647,-28.809,23.438,33.691,-62.988,-179.688
1532485629.650,-27.832,29.297,31.738,-42.480,-345.703
1532485629.654,-46.387,34.668,34.180,-62.500,-346.680
1532485629.658,-56.641,68.848,36.621,-78.613,-123.535
1532485629.662,-52.246,104.980,35.156,-81.055,761.719
1532485629.666,-60.547,18.066,33.691,-89.355,623.535
1532485629.670,-62.012,0.977,33.203,-89.355,-277.344
1532485629.674,-61.035,41.992,30.273,-94.238,-578.125
1532485629.678,-61.035,51.270,29.297,-85.449,-549.805
1532485629.682,-52.246,74.219,26.367,-65.918,117.188
1532485629.686,-49.316,33.203,20.508,-76.172,15.137
1532485629.689,-54.688,38.086,18.066,-96.191,-503.418
1532485629.693,-34.180,58.105,17.578,-80.566,-484.375
1532485629.697,-18.555,53.223,7.812,-83.008,-411.621
1532485629.701,-17.090,75.195,5.859,-76.660,75.195
1532485629.705,-8.301,68.359,11.230,-48.340,348.145
1532485629.709,2.441,53.711,4.883,-58.105,41.504
1532485629.713,15.137,43.457,-1.953,-59.082,-173.340
1532485629.717,36.621,30.273,-6.836,-38.086,-366.699
1532485629.721,40.527,86.914,-13.672,-31.738,42.480
1532485629.725,41.016,85.449,-18.066,-14.160,783.691
1532485629.729,57.617,16.113,-15.137,6.836,-23.438
1532485629.732,67.383,33.203,-18.066,18.555,-434.570
1532485629.736,70.801,37.598,-24.902,12.207,-423.828
1532485629.740,75.684,62.012,-30.273,-9.277,-369.629
1532485629.744,83.008,52.246,-35.156,-5.371,-102.051
1532485629.748,85.938,40.039,-33.691,6.836,-301.758
1532485629.752,88.379,68.848,-41.016,2.930,49.316
1532485629.756,97.656,43.457,-41.992,19.531,-71.777
1532485629.760,103.027,68.848,-37.598,22.461,-315.918
1532485629.764,116.211,112.305,-39.551,22.461,706.055
1532485629.768,128.906,26.367,-37.109,39.551,288.574
1532485629.771,121.582,20.508,-41.016,35.156,-524.414
1532485629.775,119.141,51.758,-47.363,29.297,-639.648
1532485629.779,125.488,55.176,-44.434,38.574,-451.172
1532485629.783,128.906,41.016,-41.016,34.180,59.570
1532485629.787,128.418,37.109,-39.062,31.250,-274.902
1532485629.791,128.906,55.664,-34.180,50.293,-566.406
1532485629.795,129.395,51.758,-27.344,61.523,-520.020
1532485629.799,120.117,75.684,-25.391,63.477,0.000
1532485629.803,109.863,92.773,-26.855,50.293,862.793
1532485629.807,110.840,15.625,-22.461,15.137,264.160
1532485629.811,109.375,14.160,-20.996,8.789,-552.246
1532485629.814,110.840,35.156,-20.996,62.012,-525.879
1532485629.818,110.840,35.645,-16.602,55.664,-383.789
1532485629.822,101.074,51.758,-13.672,31.738,36.621
1532485629.826,103.027,30.273,-12.207,51.270,-350.098
1532485629.830,107.910,35.645,-11.230,36.621,-542.969
1532485629.834,102.539,31.250,-9.766,56.152,-376.953
1532485629.838,94.727,36.621,-6.836,75.195,-457.520
1532485629.842,87.402,68.848,-6.836,42.480,17.578
1532485629.846,93.750,58.594,-6.348,41.504,295.410
1532485629.850,100.098,29.785,0.000,52.246,180.176
1532485629.854,92.773,6.836,-0.488,30.762,-171.875
1532485629.857,89.355,19.531,0.000,26.855,-643.066
1532485629.861,86.914,89.844,2.441,48.340,113.770
1532485629.865,88.867,32.715,5.859,49.805,788.086
1532485629.869,87.891,-26.367,9.766,51.270,-166.992
1532485629.873,79.102,18.066,11.230,61.035,-626.465
1532485629.877,81.055,29.297,11.719,63.477,-666.992
1532485629.881,88.379,53.223,11.230,57.617,-206.543
1532485629.885,87.402,19.043,9.766,59.570,-26.855
1532485629.889,80.078,15.625,15.137,51.270,-504.883
1532485629.893,69.824,66.895,19.043,38.574,-114.746
1532485629.896,58.594,35.156,12.695,27.344,28.809
1532485629.900,48.828,47.363,8.789,9.277,50.781
1532485629.904,41.016,67.383,12.695,23.926,757.812
1532485629.908,42.480,3.418,19.531,41.992,-72.754
1532485629.912,41.992,19.043,19.531,34.180,-655.273
1532485629.916,37.598,27.344,13.184,36.621,-475.098
1532485629.920,26.367,29.297,15.625,40.039,-369.629
1532485629.924,16.602,24.414,21.484,39.062,-189.453
1532485629.928,21.973,23.438,21.484,37.598,-470.215
1532485629.932,25.879,27.832,21.973,33.691,-415.527
1532485629.936,19.043,17.090,25.391,34.668,-404.785
1532485629.939,8.789,57.617,22.949,36.133,-92.285
1532485629.943,5.859,85.449,20.020,31.738,794.922
1532485629.947,10.254,3.906,22.949,28.809,252.930
1532485629.951,10.254,-2.441,24.902,36.133,-411.133
1532485629.955,12.207,25.879,24.902,34.668,-559.082
1532485629.959,11.230,35.156,23.438,41.504,-552.246
1532485629.963,11.230,29.297,24.902,46.387,-7.812
1532485629.967,23.926,10.742,29.297,54.199,-200.195
1532485629.971,24.902,34.668,30.762,56.641,-454.590
1532485629.975,-2.930,39.062,25.879,17.090,-553.711
1532485629.979,-11.719,39.551,20.020,3.418,-421.387
1532485629.982,1.465,43.457,22.949,36.621,245.117
1532485629.986,15.625,43.945,22.949,47.363,376.465
1532485629.990,20.996,42.480,17.090,30.273,164.062
1532485629.994,21.973,17.578,15.625,31.738,-268.555
1532485629.998,23.438,34.180,17.090,24.414,-406.250
1532485630.002,18.555,94.727,19.043,15.625,594.238
1532485630.006,15.625,25.879,21.484,40.527,610.352
1532485630.010,19.531,-6.348,20.996,43.457,-418.945
1532485630.014,25.391,21.484,20.020,32.715,-490.234
1532485630.018,27.832,25.391,21.973,38.086,-376.953
1532485630.021,26.855,62.988,23.926,30.762,26.367
1532485630.025,30.762,36.133,23.438,22.461,-178.223
1532485630.029,33.691,34.668,22.949,49.805,-482.422
1532485630.033,34.180,56.152,22.949,47.852,92.285
1532485630.037,34.668,43.457,22.461,10.254,147.949
1532485630.041,39.062,62.012,22.949,15.137,175.781
1532485630.045,44.434,32.715,24.902,32.715,277.344
1532485630.049,42.969,11.719,25.391,44.922,-235.352
1532485630.053,39.551,23.926,27.832,45.410,-319.824
1532485630.057,43.945,22.461,28.809,29.297,-572.754
1532485630.061,42.480,76.172,26.367,17.090,-207.520
1532485630.064,41.016,50.781,24.414,28.320,677.246
1532485630.068,43.457,-8.301,22.461,36.133,3.418
1532485630.072,39.062,25.391,21.484,25.391,-518.555
1532485630.076,39.062,32.227,23.438,33.691,-574.219
1532485630.080,44.434,68.359,22.461,33.691,-4.883
1532485630.084,42.480,70.312,22.461,21.484,852.051
1532485630.088,39.551,0.000,23.438,30.273,52.734
1532485630.092,39.062,20.508,20.996,38.086,-648.438
1532485630.096,45.410,36.133,20.996,38.574,-589.844
1532485630.100,47.363,35.645,22.461,47.363,-341.309
1532485630.103,38.086,37.598,19.043,16.602,93.262
1532485630.107,37.109,23.926,19.531,2.930,-343.750
1532485630.111,39.062,35.645,19.531,21.484,-547.363
1532485630.115,39.062,36.621,18.555,44.922,-387.695
1532485630.119,37.598,35.156,21.484,43.457,-258.789
1532485630.123,33.203,39.551,23.926,25.879,44.434
1532485630.127,34.180,56.152,23.438,34.668,103.516
1532485630.131,34.668,50.781,22.949,24.902,250.000
1532485630.135,39.062,0.977,24.414,11.719,-94.238
1532485630.139,39.551,31.738,23.926,25.391,-389.648
1532485630.143,37.598,107.910,19.531,25.879,629.883
1532485630.146,48.340,16.602,20.020,38.574,506.348
1532485630.150,48.828,-8.301,25.391,36.621,-322.266
1532485630.154,45.410,24.902,28.320,16.602,-499.023
1532485630.158,51.270,34.668,28.320,25.879,-566.406
1532485630.162,51.270,52.246,30.273,31.250,52.734
1532485630.166,47.363,16.602,31.250,32.715,-71.777
1532485630.170,42.480,24.902,27.344,24.414,-423.340
1532485630.174,40.039,55.664,26.855,24.902,-41.016
1532485630.178,38.574,44.434,28.809,55.664,26.367
1532485630.182,38.086,75.684,26.855,51.758,515.625
1532485630.186,41.504,17.090,29.297,23.926,703.125
1532485630.189,37.598,-15.137,32.715,17.578,-336.426
1532485630.193,33.691,17.578,28.809,40.039,-657.715
1532485630.197,37.598,20.508,28.320,31.250,-524.902
1532485630.201,37.109,51.270,28.809,1.953,-65.430
1532485630.205,39.062,22.949,25.391,12.695,-131.348
1532485630.209,42.969,15.625,25.391,36.621,-584.961
1532485630.213,46.387,25.391,28.320,29.785,-437.500
1532485630.217,44.434,13.672,28.809,5.371,-406.738
1532485630.221,34.180,69.336,31.250,16.113,181.152
1532485630.225,32.227,64.453,30.273,35.645,823.242
1532485630.228,36.133,3.418,29.785,43.945,-80.078
1532485630.232,33.691,11.230,29.297,36.621,-470.703
1532485630.236,34.668,11.719,30.762,28.809,-458.984
1532485630.240,36.133,41.016,28.809,31.738,-434.082
1532485630.244,39.062,31.250,24.902,17.090,-163.574
1532485630.248,41.504,16.113,27.344,19.043,-326.172
1532485630.252,37.598,24.902,31.250,33.691,-344.238
1532485630.256,34.180,28.809,32.227,43.457,-470.215
1532485630.260,33.203,37.598,32.227,35.156,-422.363
1532485630.264,31.738,30.762,31.250,20.996,31.738
1532485630.268,30.762,38.574,30.762,26.855,274.414
1532485630.271,36.133,23.926,33.203,9.766,105.469
1532485630.275,42.969,8.789,36.133,9.277,-462.891
1532485630.279,45.410,46.387,39.551,26.367,-310.547
1532485630.283,39.062,83.496,37.109,29.785,755.859
1532485630.287,41.504,6.836,38.086,42.480,309.082
1532485630.291,43.945,1.953,36.621,39.551,-519.043
1532485630.295,45.410,31.250,36.133,20.508,-540.527
1532485630.299,46.875,30.762,40.527,24.414,-288.574
1532485630.303,46.875,28.320,39.551,46.875,197.754
1532485630.307,50.293,15.137,36.621,45.410,-265.625
1532485630.311,56.152,39.551,37.598,38.086,-510.254
1532485630.314,61.523,49.316,39.062,50.293,38.574
1532485630.318,63.477,47.852,42.969,43.457,334.473
1532485630.322,59.082,80.078,40.527,20.996,800.781
1532485630.326,62.988,14.648,36.133,26.855,478.516
1532485630.330,66.406,-3.906,38.574,31.250,-342.285
1532485630.334,58.594,20.020,39.062,22.949,-424.805
1532485630.338,55.176,35.645,34.668,24.414,-474.121
1532485630.342,54.199,74.219,32.715,18.066,-52.734
1532485630.346,59.082,32.227,35.156,25.879,-164.551
1532485630.350,62.500,23.438,39.062,39.062,-388.672
1532485630.353,59.082,29.785,37.598,26.367,-337.891
1532485630.357,56.152,40.527,37.109,22.461,-566.406
1532485630.361,57.617,89.844,36.133,23.926,219.727
1532485630.365,59.570,22.461,37.109,18.555,651.367
1532485630.369,57.617,-10.254,37.598,23.438,-201.660
1532485630.373,53.223,29.785,35.156,29.297,-504.883
1532485630.377,52.246,35.156,36.133,29.297,-585.449
1532485630.381,57.617,67.871,33.203,31.250,-86.914
1532485630.385,58.594,35.645,32.715,34.668,208.496
1532485630.389,55.664,15.625,32.227,12.207,-370.117
1532485630.393,53.223,35.156,29.297,18.555,-501.465
1532485630.396,58.105,32.715,27.832,36.133,-406.250
1532485630.400,62.012,42.969,29.297,27.832,-85.449
1532485630.404,59.082,35.645,34.668,16.113,66.406
1532485630.408,57.617,47.363,35.156,26.855,30.273
1532485630.412,64.453,41.992,31.250,28.320,129.395
1532485630.416,62.500,12.695,32.715,28.320,-227.539
1532485630.420,54.199,55.664,31.250,35.645,-143.555
1532485630.424,53.711,98.145,27.832,20.508,746.582
1532485630.428,60.059,21.973,31.738,12.207,182.129
1532485630.432,57.617,20.020,31.250,25.879,-405.273
1532485630.436,55.664,33.691,26.855,26.855,-377.930
1532485630.439,56.641,33.691,28.809,8.789,-408.691
1532485630.443,56.152,30.762,29.297,17.090,-62.988
1532485630.447,62.500,18.555,28.809,33.203,-263.184
1532485630.451,59.082,31.738,29.785,34.668,-309.082
1532485630.455,55.176,42.969,26.855,22.461,-71.777
1532485630.459,62.988,43.945,23.438,21.973,-67.871
1532485630.463,65.430,80.566,21.973,27.344,677.734
1532485630.467,67.871,6.348,23.926,21.973,430.664
1532485630.471,68.359,-6.348,26.367,26.367,-443.359
1532485630.475,67.383,26.367,26.855,22.461,-660.645
1532485630.478,65.918,33.691,26.367,35.156,-542.480
1532485630.482,62.988,35.156,25.391,20.996,94.238
1532485630.486,57.129,9.277,24.414,13.184,-205.078
1532485630.490,54.199,30.273,24.902,16.113,-603.516
1532485630.494,56.152,33.203,22.461,13.184,-558.105
1532485630.498,59.570,33.203,21.973,40.527,-468.750
