timestamps,TP9,AF7,AF8,TP10,Right AUX
1532485828.701,56.641,23.926,37.598,53.223,-358.398
1532485828.705,51.270,21.484,32.715,41.992,-145.020
1532485828.709,55.664,24.902,32.227,51.758,-481.934
1532485828.713,53.223,30.762,33.203,56.152,-458.008
1532485828.717,44.922,22.949,34.180,44.922,-399.902
1532485828.721,43.945,56.152,32.715,34.180,-33.691
1532485828.725,46.387,79.102,32.227,31.738,829.590
1532485828.729,50.781,9.766,30.762,41.016,261.719
1532485828.733,52.734,1.465,32.715,38.574,-408.691
1532485828.737,49.316,21.484,33.203,32.715,-581.543
1532485828.741,47.363,33.691,31.250,37.109,-624.512
1532485828.744,50.781,40.527,30.273,40.527,-14.160
1532485828.748,47.363,16.113,32.715,38.086,-183.105
1532485828.752,41.016,24.902,37.109,33.691,-475.586
1532485828.756,39.062,39.062,34.180,29.785,-604.980
1532485828.760,39.062,46.387,30.273,32.715,-532.715
1532485828.764,39.062,50.781,32.715,36.621,200.684
1532485828.768,36.133,44.922,36.133,31.250,330.566
1532485828.772,32.227,49.316,32.227,30.273,170.410
1532485828.776,38.086,32.227,32.715,38.086,-208.008
1532485828.780,42.969,31.250,35.645,44.922,-458.984
1532485828.783,38.086,73.730,36.133,44.434,513.184
1532485828.787,37.598,31.738,38.086,41.992,651.855
1532485828.791,40.527,19.531,38.086,39.551,-241.211
1532485828.795,40.039,33.691,35.156,36.133,-351.074
1532485828.799,37.598,22.461,34.668,35.156,-410.156
1532485828.803,35.645,53.223,34.180,31.250,-34.180
1532485828.807,38.574,39.551,36.133,35.645,-203.613
1532485828.811,38.574,36.621,35.156,37.598,-576.660
1532485828.815,40.039,62.500,36.621,44.922,105.469
1532485828.819,42.969,40.527,35.156,41.016,179.688
1532485828.823,39.062,59.570,28.809,31.250,106.445
1532485828.826,37.109,64.453,32.715,37.598,749.023
1532485828.830,43.945,11.230,38.086,43.457,4.395
1532485828.834,33.691,17.578,35.156,37.109,-527.832
1532485828.838,21.973,23.438,37.109,29.297,-651.367
1532485828.842,27.344,44.922,40.527,32.227,-524.902
1532485828.846,27.832,36.621,36.621,25.879,-90.332
1532485828.850,26.367,23.438,34.668,31.250,-310.059
1532485828.854,24.414,36.621,33.203,39.551,-512.207
1532485828.858,26.855,41.016,30.273,33.691,-648.438
1532485828.862,31.738,65.918,29.785,33.691,-41.016
1532485828.866,28.320,68.359,29.785,20.508,861.816
1532485828.869,24.902,14.648,31.250,14.160,108.887
1532485828.873,22.461,15.137,31.738,17.578,-685.059
1532485828.877,25.879,30.273,29.297,21.484,-668.945
1532485828.881,26.855,32.715,28.320,23.926,-352.539
1532485828.885,21.973,28.320,30.762,20.508,54.199
1532485828.889,20.020,24.414,32.227,15.625,-437.500
1532485828.893,25.391,33.203,29.785,22.949,-610.352
1532485828.897,33.203,34.668,30.762,39.062,-426.270
1532485828.901,33.203,37.598,35.645,34.668,-241.211
1532485828.905,29.785,35.645,35.645,25.391,128.906
1532485828.908,33.203,44.922,34.180,37.109,145.020
1532485828.912,39.551,45.898,31.250,42.969,261.230
1532485828.916,38.574,13.672,29.297,32.227,-76.172
1532485828.920,32.227,34.180,31.738,23.926,-426.270
1532485828.924,30.762,78.613,30.273,20.996,597.168
1532485828.928,39.062,11.230,32.227,33.203,565.430
1532485828.932,37.598,-2.930,36.133,43.457,-309.082
1532485828.936,31.738,24.414,35.645,40.527,-493.652
1532485828.940,32.227,40.039,33.691,24.902,-619.141
1532485828.944,35.645,64.453,33.691,27.832,29.785
1532485828.948,43.945,29.785,33.203,36.133,-23.438
1532485828.951,43.457,26.855,35.156,31.738,-434.570
1532485828.955,34.668,57.129,38.086,27.832,-38.574
1532485828.959,32.227,50.781,32.227,29.297,114.746
1532485828.963,37.109,74.219,30.762,32.227,486.816
1532485828.967,38.574,35.156,33.691,25.391,745.117
1532485828.971,31.738,-7.324,30.762,15.625,-290.527
1532485828.975,31.250,29.297,28.320,16.113,-726.074
1532485828.979,33.691,37.598,29.785,29.297,-587.891
1532485828.983,32.715,50.781,29.297,34.668,-123.047
1532485828.987,29.297,38.574,27.832,25.391,-102.051
1532485828.990,30.762,33.691,30.762,26.367,-607.910
1532485828.994,35.645,40.039,33.203,34.668,-501.465
1532485828.998,36.133,30.762,34.180,34.180,-413.086
1532485829.002,28.320,54.688,35.156,30.273,152.344
1532485829.006,25.391,56.641,34.668,26.367,831.055
1532485829.010,32.715,8.789,31.250,22.461,-61.523
1532485829.014,37.598,21.484,35.156,28.320,-506.348
1532485829.018,36.133,33.203,37.598,28.320,-467.285
1532485829.022,32.227,45.410,33.691,24.902,-487.305
1532485829.026,43.457,43.457,33.691,32.227,-195.801
1532485829.030,53.223,28.320,35.156,36.133,-368.164
1532485829.033,50.293,30.273,37.109,38.086,-394.043
1532485829.037,44.434,32.227,40.527,36.133,-529.785
1532485829.041,45.410,42.969,41.016,42.969,-504.395
1532485829.045,47.852,38.086,37.598,54.688,15.137
1532485829.049,42.969,41.504,38.574,52.246,274.414
1532485829.053,41.992,38.086,42.969,45.410,183.594
1532485829.057,41.504,24.414,43.945,46.875,-461.914
1532485829.061,45.410,42.969,44.434,50.781,-429.199
1532485829.065,49.316,72.754,46.387,47.363,729.980
1532485829.069,49.805,21.973,52.246,45.898,362.305
1532485829.073,43.945,11.230,50.293,42.969,-570.312
1532485829.076,43.945,28.809,45.410,48.340,-648.438
1532485829.080,48.828,36.621,44.922,44.434,-374.023
1532485829.084,43.457,32.715,43.945,31.738,217.285
1532485829.088,39.062,16.602,43.457,36.621,-275.879
1532485829.092,46.387,36.133,44.434,48.340,-618.652
1532485829.096,53.223,53.711,45.410,50.781,7.812
1532485829.100,53.223,49.316,41.992,48.340,307.617
1532485829.104,46.387,69.336,39.551,31.738,763.672
1532485829.108,44.434,29.785,41.016,34.180,531.250
1532485829.112,52.734,17.578,42.969,45.898,-390.137
1532485829.115,48.340,41.992,45.410,44.434,-476.562
1532485829.119,38.086,38.086,38.574,38.086,-519.531
1532485829.123,38.574,58.594,36.133,33.691,-130.371
1532485829.127,45.898,42.480,41.016,42.969,-207.031
1532485829.131,44.922,33.203,40.039,51.270,-456.055
1532485829.135,38.086,35.645,37.109,37.109,-368.164
1532485829.139,35.156,37.598,37.109,29.785,-650.879
1532485829.143,37.598,82.520,39.062,39.062,91.309
1532485829.147,38.086,58.594,40.527,42.969,846.680
1532485829.151,39.062,7.812,41.992,39.551,-82.031
1532485829.155,36.621,33.691,41.504,31.738,-625.488
1532485829.158,39.062,39.551,43.945,32.227,-708.984
1532485829.162,40.527,56.152,43.457,38.574,-317.871
1532485829.166,40.527,43.945,43.945,40.039,9.766
1532485829.170,38.574,31.250,44.922,34.668,-446.289
1532485829.174,37.109,40.527,40.039,31.250,-611.328
1532485829.178,44.922,40.039,40.039,46.387,-534.180
1532485829.182,43.457,41.992,40.527,52.246,-198.242
1532485829.186,37.109,33.203,39.062,36.133,41.016
1532485829.190,41.016,47.852,37.598,34.180,54.199
1532485829.194,50.781,45.898,39.551,40.039,137.695
1532485829.198,53.711,20.020,39.551,47.852,-268.555
1532485829.201,44.434,43.945,37.109,46.387,-209.473
1532485829.205,37.598,79.590,33.691,35.645,738.281
1532485829.209,43.457,28.320,35.645,44.434,146.484
1532485829.213,43.457,30.762,35.645,51.270,-345.215
1532485829.217,39.062,37.598,38.086,39.062,-300.781
1532485829.221,38.086,38.086,38.574,33.691,-444.336
1532485829.225,43.457,44.434,32.227,49.805,-37.109
1532485829.229,49.316,29.297,36.621,56.641,-296.387
1532485829.233,42.969,38.086,39.062,51.270,-365.723
1532485829.237,37.109,51.270,37.109,45.410,-16.113
1532485829.240,40.039,62.500,36.133,41.992,185.547
1532485829.244,43.945,78.125,37.109,39.062,792.969
1532485829.248,45.410,15.625,39.551,40.527,457.031
1532485829.252,45.410,1.953,39.551,37.109,-416.504
1532485829.256,39.062,23.926,38.086,34.180,-708.008
1532485829.260,31.738,39.551,37.598,32.715,-622.559
1532485829.264,38.574,46.875,34.668,35.156,105.469
1532485829.268,45.410,21.973,33.691,35.156,-138.672
1532485829.272,40.527,36.621,35.645,25.391,-617.188
1532485829.276,41.016,36.621,33.203,29.785,-586.914
1532485829.280,40.039,35.645,32.227,39.062,-496.094
1532485829.283,36.621,72.754,35.645,34.180,466.309
1532485829.287,34.668,25.879,39.062,28.320,479.980
1532485829.291,34.180,5.859,37.598,38.086,-520.996
1532485829.295,43.945,29.785,35.645,47.852,-520.996
1532485829.299,42.480,26.367,37.598,41.992,-437.988
1532485829.303,30.762,53.223,39.062,34.180,16.113
1532485829.307,30.762,38.086,38.574,35.156,-19.043
1532485829.311,36.621,26.855,38.574,42.969,-510.742
1532485829.315,35.156,33.203,40.039,42.969,-330.078
1532485829.319,30.762,34.668,41.016,36.621,-399.902
1532485829.322,27.832,52.246,38.086,34.180,-246.094
1532485829.326,34.668,34.668,35.645,43.457,-66.406
1532485829.330,39.062,43.457,39.551,54.199,124.023
1532485829.334,37.598,48.828,40.039,48.340,435.547
1532485829.338,40.527,21.484,38.574,40.527,-276.367
1532485829.342,42.480,58.105,39.062,40.039,-313.477
1532485829.346,46.387,74.219,39.551,32.227,779.297
1532485829.350,50.781,12.207,41.992,33.691,191.406
1532485829.354,46.875,26.367,42.969,44.922,-551.270
1532485829.358,44.434,47.852,42.969,43.945,-657.227
1532485829.362,46.875,42.969,37.598,44.434,-433.594
1532485829.365,47.363,27.832,38.086,45.898,67.383
1532485829.369,45.410,23.438,38.574,44.434,-326.660
1532485829.373,40.527,48.828,36.133,42.969,-572.266
1532485829.377,41.992,56.152,37.598,53.711,-119.141
1532485829.381,50.293,48.828,40.039,58.594,235.840
1532485829.385,47.852,75.195,40.527,49.316,781.738
1532485829.389,47.363,23.438,39.062,51.270,154.785
1532485829.393,54.688,19.531,39.551,57.129,-603.516
1532485829.397,60.059,44.922,39.062,57.129,-513.672
1532485829.401,57.129,41.504,37.598,49.805,-330.566
1532485829.405,47.363,46.387,41.016,50.293,37.109
1532485829.408,50.781,38.086,43.945,51.270,-405.273
1532485829.412,53.223,44.434,43.457,54.688,-479.980
1532485829.416,44.434,37.109,41.016,53.223,-347.168
1532485829.420,41.016,46.387,44.434,34.668,-443.848
1532485829.424,41.504,73.242,44.922,27.344,407.715
1532485829.428,45.410,53.711,40.039,36.621,533.691
1532485829.432,47.363,23.438,38.086,36.133,-87.402
1532485829.436,43.457,21.973,35.645,27.832,-359.863
1532485829.440,41.992,42.480,36.621,34.180,-581.055
1532485829.444,42.480,82.520,39.062,41.992,365.723
1532485829.447,46.387,32.715,40.527,42.969,570.801
1532485829.451,42.969,13.672,39.062,36.133,-327.637
1532485829.455,41.992,43.945,34.668,32.227,-578.125
1532485829.459,48.340,49.805,37.109,36.133,-596.680
1532485829.463,44.434,62.988,41.016,35.156,27.832
1532485829.467,37.598,30.762,36.621,21.484,44.922
1532485829.471,33.691,43.945,32.227,24.414,-66.406
1532485829.475,34.668,52.246,35.156,40.039,259.766
1532485829.479,39.062,20.996,39.551,44.434,-234.863
1532485829.483,33.691,62.012,34.180,40.527,91.797
1532485829.487,31.250,61.523,32.227,28.809,818.848
1532485829.490,36.621,15.625,35.645,32.715,-217.285
1532485829.494,40.039,33.691,32.715,45.898,-625.488
1532485829.498,37.598,38.574,31.738,36.133,-439.453
1532485829.502,30.762,47.363,29.785,25.879,-279.297
1532485829.506,29.785,42.969,26.855,27.344,-155.273
1532485829.510,34.668,34.180,28.809,32.715,-505.859
1532485829.514,38.574,46.387,31.250,36.133,-368.164
1532485829.518,39.062,57.617,35.156,36.621,9.277
1532485829.522,36.133,62.500,30.762,34.180,254.395
1532485829.526,38.086,63.477,28.809,29.785,775.879
1532485829.530,47.363,16.602,36.133,42.480,185.547
1532485829.533,49.316,16.602,38.086,45.410,-448.730
1532485829.537,42.969,36.621,36.621,31.738,-612.793
1532485829.541,41.992,38.574,39.551,31.250,-589.355
1532485829.545,45.410,28.809,40.039,41.016,-45.410
1532485829.549,46.875,17.578,38.574,43.457,-238.281
1532485829.553,47.852,30.273,39.062,36.133,-488.281
1532485829.557,47.363,37.598,39.551,31.738,-625.488
1532485829.561,43.945,41.504,38.086,37.109,-458.008
1532485829.565,46.387,51.270,38.574,48.340,393.066
1532485829.569,46.387,42.969,40.039,48.340,448.730
1532485829.572,42.969,27.344,39.062,37.598,-190.430
1532485829.576,44.434,21.973,33.691,40.527,-514.160
1532485829.580,45.410,44.434,34.668,52.246,-332.520
1532485829.584,41.016,85.938,40.039,42.969,692.383
1532485829.588,40.527,30.762,41.016,31.738,435.547
1532485829.592,40.527,16.602,41.992,38.086,-536.621
1532485829.596,39.551,37.598,40.527,40.527,-516.602
1532485829.600,34.180,41.016,38.574,43.945,-349.609
1532485829.604,28.320,54.688,36.621,32.715,105.957
1532485829.608,30.762,38.574,34.180,25.879,-263.184
1532485829.612,29.785,56.641,28.809,38.086,-113.281
1532485829.615,28.809,47.852,31.250,39.551,389.648
1532485829.619,29.785,28.320,36.621,28.320,-297.363
1532485829.623,32.227,84.473,31.250,19.531,197.754
1532485829.627,36.621,50.293,31.250,15.625,770.020
1532485829.631,40.527,11.230,34.668,32.715,-202.148
1532485829.635,40.039,50.781,34.180,41.992,-390.137
1532485829.639,37.598,42.969,30.762,28.320,-556.152
1532485829.643,40.039,57.617,28.320,23.926,-323.730
1532485829.647,41.504,43.457,29.785,26.367,-29.785
1532485829.651,35.156,27.832,29.785,33.203,-407.715
1532485829.655,29.297,48.340,27.832,36.621,-516.113
1532485829.658,34.180,55.664,28.320,26.367,-268.066
1532485829.662,39.062,70.312,31.738,27.832,357.910
1532485829.666,35.156,59.570,31.250,30.762,842.773
1532485829.670,34.668,12.695,30.273,25.391,-96.191
1532485829.674,36.133,34.668,29.297,23.926,-734.863
1532485829.678,40.527,52.734,32.227,29.785,-612.793
1532485829.682,39.062,42.480,33.691,38.086,-306.641
1532485829.686,36.621,34.668,32.227,37.109,-72.754
1532485829.690,39.551,43.945,32.715,37.598,-543.457
1532485829.694,44.434,43.457,32.227,41.504,-560.059
1532485829.697,45.898,32.227,34.180,43.457,-399.902
1532485829.701,39.062,42.480,34.668,44.434,-292.969
1532485829.705,36.621,58.105,35.645,43.457,279.785
1532485829.709,40.039,49.316,34.180,39.551,283.203
1532485829.713,40.527,30.762,33.691,43.457,-76.172
1532485829.717,40.039,26.367,36.133,40.039,-373.535
1532485829.721,34.180,48.828,37.598,28.320,-382.324
1532485829.725,34.180,82.031,36.621,26.855,665.039
1532485829.729,45.898,30.273,41.016,34.180,375.977
1532485829.733,47.852,15.137,42.969,39.062,-395.508
1532485829.737,37.109,31.250,37.598,35.645,-564.941
1532485829.740,32.715,43.457,33.203,30.273,-567.871
1532485829.744,36.133,40.039,30.762,34.180,60.059
1532485829.748,37.598,17.578,35.156,31.250,-132.812
1532485829.752,26.855,39.551,30.273,20.508,-24.414
1532485829.756,23.926,31.738,27.344,21.484,175.781
1532485829.760,33.203,23.438,33.691,27.832,-302.246
1532485829.764,29.785,77.148,32.227,30.762,552.246
1532485829.768,27.832,20.020,31.250,24.414,623.535
1532485829.772,28.320,-2.930,28.809,11.719,-520.996
1532485829.776,31.250,33.203,24.414,10.742,-710.938
1532485829.779,33.691,35.156,28.809,27.832,-516.113
1532485829.783,29.297,49.316,33.203,29.297,81.543
1532485829.787,27.832,32.227,34.668,17.578,-183.594
1532485829.791,30.273,30.273,36.621,18.555,-683.594
1532485829.795,36.621,39.551,36.133,32.715,-416.016
1532485829.799,38.574,47.363,36.621,39.551,-62.500
1532485829.803,30.762,68.359,32.715,23.926,513.672
1532485829.807,29.297,40.527,25.391,17.090,735.840
1532485829.811,37.109,1.465,27.344,31.250,-212.891
1532485829.815,40.527,22.461,29.297,30.273,-500.488
1532485829.819,35.645,37.598,30.273,26.367,-541.992
1532485829.822,29.297,60.547,29.785,24.902,-403.320
1532485829.826,33.203,45.898,31.250,26.855,-171.875
1532485829.830,37.598,35.645,34.180,27.344,-394.531
1532485829.834,34.668,44.434,33.691,20.996,-387.695
1532485829.838,34.180,38.574,32.715,24.902,-604.492
1532485829.842,35.645,51.270,35.156,33.691,-415.527
1532485829.846,37.598,52.734,38.574,41.504,355.957
1532485829.850,33.691,38.086,36.621,40.039,405.273
1532485829.854,25.391,31.250,34.668,30.273,47.363
1532485829.858,28.809,22.461,35.156,23.926,-520.996
1532485829.862,30.762,48.340,33.691,29.785,-333.984
1532485829.865,24.902,68.359,32.227,35.645,761.230
1532485829.869,26.367,17.090,34.668,28.320,169.434
1532485829.873,28.809,19.531,35.645,25.391,-662.598
1532485829.877,32.227,30.762,34.668,35.156,-609.375
1532485829.881,30.762,35.645,35.645,40.039,-302.246
1532485829.885,30.273,35.156,36.133,28.809,79.590
1532485829.889,32.715,34.180,38.086,31.250,-432.129
1532485829.893,33.691,63.965,38.574,44.922,-150.391
1532485829.897,33.691,44.922,35.645,45.898,287.598
1532485829.901,33.691,28.809,38.086,40.527,-58.105
1532485829.904,34.668,78.125,41.504,28.809,659.668
1532485829.908,43.945,29.297,41.016,32.227,355.469
1532485829.912,47.852,15.625,41.016,47.363,-468.750
1532485829.916,45.410,35.645,42.969,44.922,-484.375
1532485829.920,44.922,40.039,41.992,36.133,-525.879
1532485829.924,48.340,58.594,38.086,32.227,-20.020
1532485829.928,54.199,35.645,40.039,38.574,-208.984
1532485829.932,51.270,34.668,41.992,38.574,-444.824
1532485829.936,43.457,39.551,40.039,36.621,-407.227
1532485829.940,40.527,51.758,39.551,54.199,-287.109
1532485829.944,41.016,80.566,39.551,52.734,576.660
1532485829.947,44.434,29.785,40.527,50.293,693.848
1532485829.951,42.969,6.836,40.039,54.199,-291.992
1532485829.955,39.551,38.086,42.480,45.898,-686.035
1532485829.959,42.969,45.410,43.457,45.410,-685.547
1532485829.963,44.434,65.430,43.457,52.246,-72.266
1532485829.967,42.480,36.621,47.363,49.805,-37.109
1532485829.971,41.504,34.668,47.852,34.668,-583.496
1532485829.975,44.922,48.828,43.457,37.598,-589.355
1532485829.979,43.945,38.086,41.504,49.805,-504.883
1532485829.983,40.527,55.664,37.109,46.875,-46.387
1532485829.987,36.133,58.105,34.668,42.480,390.625
1532485829.990,33.203,45.898,35.645,43.945,216.309
1532485829.994,37.598,32.227,35.156,45.410,-49.316
1532485829.998,39.551,20.508,34.668,40.039,-394.531
1532485830.002,24.902,61.035,31.738,28.809,-116.211
1532485830.006,25.391,81.055,33.203,23.926,757.324
1532485830.010,42.480,20.996,38.086,33.691,20.020
1532485830.014,39.551,21.973,36.621,29.785,-486.816
1532485830.018,31.250,29.785,35.156,31.738,-454.102
1532485830.022,32.715,38.086,34.180,34.180,-479.004
1532485830.026,39.551,40.039,35.156,39.062,-145.508
1532485830.029,43.457,37.598,36.621,45.410,-314.941
1532485830.033,37.598,58.105,34.668,42.969,52.246
1532485830.037,33.691,41.992,34.668,40.039,165.039
1532485830.041,35.645,37.598,33.203,36.133,-208.984
1532485830.045,34.668,72.754,32.715,35.156,669.434
1532485830.049,32.227,12.695,33.203,33.691,334.961
1532485830.053,31.738,8.789,35.645,31.738,-571.777
1532485830.057,36.621,47.363,34.180,29.785,-597.168
1532485830.061,35.156,41.504,33.691,36.133,-383.301
1532485830.065,35.645,36.133,36.621,42.969,108.398
1532485830.069,35.645,32.715,37.598,33.691,-254.883
1532485830.072,35.156,41.016,39.062,37.109,-660.156
1532485830.076,38.574,38.574,36.133,43.945,-579.590
1532485830.080,41.992,58.105,33.203,45.410,-17.578
1532485830.084,44.922,79.102,33.691,48.828,865.234
1532485830.088,30.762,18.555,40.039,36.621,374.023
1532485830.092,21.484,16.113,46.387,22.949,-557.129
1532485830.096,24.902,41.504,48.340,21.484,-573.242
1532485830.100,17.578,44.434,50.293,13.672,-425.293
1532485830.104,9.277,64.941,59.082,7.324,38.574
1532485830.108,14.160,48.340,62.012,5.859,-317.383
1532485830.111,12.207,53.711,54.199,1.953,-577.148
1532485830.115,3.906,48.828,60.547,1.465,-344.727
1532485830.119,-9.766,44.922,68.848,-4.883,-478.516
1532485830.123,-17.578,73.730,68.359,-20.020,-41.992
1532485830.127,-18.066,65.918,71.777,-10.742,370.605
1532485830.131,-29.785,48.340,76.172,-20.508,373.535
1532485830.135,-42.480,33.203,81.055,-41.992,60.547
1532485830.139,-55.176,32.227,84.961,-40.039,-590.820
1532485830.143,-52.246,83.984,86.426,-47.852,-39.062
1532485830.147,-42.969,71.777,89.355,-46.875,836.914
1532485830.151,-32.227,13.672,94.727,-39.551,-23.926
1532485830.154,-41.016,34.180,104.004,-44.434,-606.934
1532485830.158,-50.293,44.434,104.492,-50.293,-666.016
1532485830.162,-44.922,56.641,105.469,-37.109,-253.418
1532485830.166,-40.039,49.805,111.816,-36.621,75.684
1532485830.170,-35.156,52.246,117.188,-30.273,-434.570
1532485830.174,-33.691,86.426,124.023,-18.066,-48.340
1532485830.178,-26.367,66.406,128.418,-14.160,239.746
1532485830.182,-25.391,62.500,121.582,-5.859,68.848
1532485830.186,-27.832,87.891,117.188,-8.789,741.211
1532485830.190,-21.973,37.109,125.000,-8.789,9.766
1532485830.194,-6.348,40.039,138.184,9.766,-682.617
1532485830.197,-4.395,54.199,137.207,21.973,-516.113
1532485830.201,-20.996,40.527,114.258,13.672,-393.555
1532485830.205,-22.461,32.227,113.281,15.625,-145.508
1532485830.209,-7.812,33.691,124.512,31.738,-483.887
1532485830.213,11.230,40.039,126.953,43.945,-470.215
1532485830.217,7.324,14.160,117.676,33.691,-429.688
1532485830.221,-0.488,36.133,110.352,29.297,-81.543
1532485830.225,15.625,63.965,104.004,48.828,820.801
1532485830.229,39.062,3.418,98.633,62.012,289.062
1532485830.233,43.457,-3.906,97.656,71.777,-427.734
1532485830.236,44.434,16.113,91.797,75.195,-623.047
1532485830.240,49.805,27.832,83.984,70.312,-654.297
1532485830.244,58.594,36.133,79.590,83.008,-13.184
1532485830.248,75.195,15.137,75.684,90.332,-186.523
1532485830.252,85.938,24.414,63.965,84.473,-502.930
1532485830.256,96.191,39.551,62.500,92.773,-610.840
1532485830.260,99.121,46.875,57.617,104.492,-543.457
1532485830.264,92.773,43.945,34.668,104.492,203.613
1532485830.268,102.539,37.598,28.809,108.887,434.082
1532485830.272,108.887,42.969,26.367,107.910,209.961
1532485830.276,118.652,32.227,23.438,125.488,-233.887
1532485830.279,125.977,32.715,22.461,135.254,-500.977
1532485830.283,118.652,79.590,16.602,123.535,437.012
1532485830.287,119.141,44.922,14.648,118.164,694.824
1532485830.291,133.789,20.020,11.719,126.465,-426.270
1532485830.295,141.602,49.316,6.348,136.719,-579.590
1532485830.299,141.602,48.340,7.812,135.742,-442.383
1532485830.303,143.066,78.125,8.301,126.465,-116.211
1532485830.307,143.555,64.941,3.906,121.582,-215.332
1532485830.311,142.090,54.688,-0.488,118.652,-556.641
1532485830.315,141.113,79.102,3.418,124.512,106.445
1532485830.319,139.160,66.406,8.301,122.559,181.152
1532485830.322,133.789,82.031,6.836,103.516,42.480
1532485830.326,137.207,85.938,6.348,114.746,742.188
1532485830.330,140.625,36.133,3.906,121.582,62.500
1532485830.334,130.859,46.875,2.441,101.562,-520.996
1532485830.338,117.188,57.617,1.465,96.680,-646.973
1532485830.342,116.699,67.383,-0.977,97.656,-530.273
1532485830.346,120.117,56.641,2.441,93.262,-63.477
1532485830.350,114.258,49.316,6.836,101.074,-281.738
1532485830.354,104.980,59.082,7.812,94.727,-509.766
1532485830.358,98.145,54.688,8.301,72.754,-630.859
1532485830.361,96.191,78.613,7.324,82.031,-21.484
1532485830.365,89.844,83.008,6.348,81.543,871.582
1532485830.369,86.426,30.273,11.719,65.430,122.070
1532485830.373,90.820,39.551,15.137,67.383,-673.828
1532485830.377,95.703,62.500,16.113,80.566,-663.574
1532485830.381,96.191,59.570,12.695,77.637,-355.957
1532485830.385,85.938,47.363,11.719,66.406,55.176
1532485830.389,78.125,42.480,16.113,62.012,-442.383
1532485830.393,81.543,54.199,16.113,73.242,-617.676
1532485830.397,80.078,49.805,12.695,85.938,-424.805
1532485830.401,73.730,52.246,15.137,70.801,-264.160
1532485830.404,65.918,55.664,15.625,56.152,115.723
1532485830.408,60.547,56.641,12.695,65.918,173.828
1532485830.412,64.453,42.480,13.672,81.543,178.223
1532485830.416,67.383,19.531,19.531,68.848,-167.969
1532485830.420,59.570,42.480,18.555,51.270,-440.918
1532485830.424,56.152,93.262,12.207,50.293,568.359
1532485830.428,59.082,36.133,16.602,64.941,626.953
1532485830.432,60.547,9.277,20.020,65.918,-276.855
1532485830.436,55.664,32.715,20.020,44.434,-493.652
1532485830.440,51.758,40.039,23.438,50.293,-630.371
1532485830.443,55.176,61.035,24.902,62.012,-11.719
1532485830.447,61.035,36.133,23.926,56.152,-15.137
1532485830.451,56.641,33.691,20.020,55.664,-425.781
1532485830.455,55.176,58.594,22.461,53.711,-36.133
1532485830.459,67.383,55.176,23.926,54.199,71.777
1532485830.463,72.754,76.172,25.879,51.758,396.973
1532485830.467,68.848,45.410,23.438,44.922,763.672
1532485830.471,58.105,6.348,20.996,57.129,-261.719
1532485830.475,55.664,39.551,19.531,57.129,-748.047
1532485830.479,59.082,53.223,20.996,55.176,-462.891
1532485830.483,52.734,53.711,23.438,56.152,-31.250
1532485830.486,42.969,31.738,27.344,51.758,-119.629
1532485830.490,41.992,31.250,28.809,39.062,-603.027
1532485830.494,47.852,42.480,28.809,38.086,-508.301
1532485830.498,47.363,33.691,31.738,39.551,-414.062
1532485830.502,42.969,59.570,28.809,30.273,123.047
1532485830.506,45.410,68.359,27.832,26.367,823.242
1532485830.510,51.270,20.996,30.762,29.785,-36.133
1532485830.514,53.223,26.367,26.367,32.715,-518.066
1532485830.518,50.781,32.715,20.996,17.578,-491.211
1532485830.522,45.898,41.016,23.438,18.555,-524.414
1532485830.526,50.293,45.898,28.809,43.945,-194.336
1532485830.529,52.734,41.504,25.879,47.852,-339.844
1532485830.533,50.293,41.992,22.949,34.668,-383.301
1532485830.537,47.363,44.434,29.297,20.020,-531.250
1532485830.541,41.016,54.688,33.203,25.879,-494.141
1532485830.545,45.410,45.898,36.133,40.039,44.922
1532485830.549,45.898,42.480,32.227,40.039,224.609
1532485830.553,38.574,46.875,29.297,28.809,288.086
1532485830.557,38.574,25.879,31.738,26.855,-303.223
1532485830.561,46.387,47.852,31.738,44.434,-438.965
1532485830.565,44.922,87.402,29.785,37.109,727.539
1532485830.568,41.504,21.484,34.668,28.320,386.719
1532485830.572,42.480,17.090,32.715,33.203,-571.289
1532485830.576,45.410,44.434,30.273,27.344,-647.949
1532485830.580,47.852,44.434,35.156,33.203,-382.812
1532485830.584,44.922,52.246,36.133,27.344,221.191
1532485830.588,41.504,37.598,34.668,21.973,-266.602
1532485830.592,39.551,44.922,31.738,31.250,-629.395
1532485830.596,41.992,58.105,28.809,37.598,43.945
1532485830.600,42.969,39.062,28.320,41.992,87.402
1532485830.604,33.691,81.055,29.297,32.715,536.133
1532485830.608,37.109,50.781,32.227,29.785,757.812
1532485830.611,59.082,6.836,31.738,56.641,-259.277
1532485830.615,58.594,40.527,22.949,54.688,-481.445
1532485830.619,30.273,53.711,16.113,17.578,-520.020
1532485830.623,29.297,72.266,17.578,20.996,-173.340
1532485830.627,50.293,51.758,17.090,44.922,-172.363
1532485830.631,47.363,43.457,13.672,36.621,-423.340
1532485830.635,37.109,50.293,11.230,20.996,-361.816
1532485830.639,38.086,52.246,11.230,24.902,-643.555
1532485830.643,39.062,89.355,11.230,29.297,61.035
1532485830.647,37.598,62.500,10.742,15.137,855.469
1532485830.651,34.668,10.742,13.672,7.812,-61.035
1532485830.654,27.344,34.668,17.578,16.113,-643.555
1532485830.658,21.973,44.434,14.648,7.324,-706.055
1532485830.662,24.414,54.199,13.672,6.836,-327.148
1532485830.666,26.855,38.086,17.090,14.648,28.809
1532485830.670,19.043,30.762,16.602,4.883,-421.875
1532485830.674,17.578,48.340,12.695,3.906,-598.633
1532485830.678,22.461,47.363,14.648,8.301,-515.625
1532485830.682,21.484,44.922,16.602,10.742,-212.891
1532485830.686,20.020,35.645,14.160,10.254,38.086
1532485830.690,19.043,51.758,15.625,6.348,54.199
1532485830.693,22.949,50.293,17.090,10.254,193.848
1532485830.697,27.832,19.043,18.555,21.973,-213.867
1532485830.701,23.926,41.992,20.508,21.973,-233.887
1532485830.705,21.973,81.055,19.043,7.812,735.352
1532485830.709,32.227,29.297,20.508,9.766,179.688
1532485830.713,40.527,25.391,20.020,20.996,-485.840
1532485830.717,41.016,48.828,20.508,22.461,-452.637
1532485830.721,36.133,45.410,21.484,13.672,-468.262
1532485830.725,35.645,47.363,19.531,17.090,-33.203
1532485830.729,40.527,39.551,20.996,33.691,-284.668
1532485830.733,37.109,42.969,23.926,32.715,-369.141
1532485830.736,33.203,55.176,23.926,22.949,-72.266
1532485830.740,32.227,63.965,26.367,21.484,48.828
1532485830.744,34.180,82.031,26.367,29.785,752.930
1532485830.748,38.086,27.832,25.391,32.715,507.812
1532485830.752,34.668,17.578,26.367,34.668,-410.156
1532485830.756,34.180,45.410,24.414,35.156,-695.312
1532485830.760,40.527,52.734,23.926,36.133,-610.840
1532485830.764,43.945,61.035,26.855,38.574,120.605
1532485830.768,46.875,36.133,29.785,33.691,-101.074
1532485830.772,48.828,48.828,28.809,31.250,-602.051
1532485830.776,50.293,53.223,24.902,33.691,-563.965
1532485830.779,47.852,50.293,25.879,41.016,-480.957
1532485830.783,40.039,83.008,28.809,37.598,444.336
1532485830.787,41.016,45.410,31.250,22.461,491.699
1532485830.791,43.945,28.320,30.273,28.320,-527.344
1532485830.795,41.504,47.852,30.762,33.203,-533.203
1532485830.799,40.039,42.480,31.250,32.715,-447.754
1532485830.803,35.156,66.406,30.273,35.645,-27.832
1532485830.807,34.668,53.711,33.203,36.133,-4.395
1532485830.811,37.598,46.387,32.715,35.645,-487.793
1532485830.815,41.016,48.828,33.203,44.922,-325.684
1532485830.818,38.086,43.457,34.180,48.828,-396.973
1532485830.822,33.691,58.594,30.762,31.738,-273.926
1532485830.826,44.434,55.176,32.715,37.109,-48.828
1532485830.830,47.363,55.176,34.668,47.363,189.941
1532485830.834,41.504,39.062,33.203,34.180,315.918
1532485830.838,41.016,22.949,34.180,32.715,-423.340
1532485830.842,43.945,62.012,35.645,41.504,-346.191
1532485830.846,44.434,81.055,33.203,35.156,767.090
1532485830.850,43.945,19.531,32.227,40.527,224.121
1532485830.854,43.457,22.461,29.785,42.969,-539.551
1532485830.858,46.875,45.898,30.762,41.016,-641.113
1532485830.861,52.246,49.805,30.273,46.387,-412.109
1532485830.865,52.246,41.016,26.855,47.852,109.863
1532485830.869,48.340,33.691,27.832,34.180,-277.832
1532485830.873,43.945,48.340,27.344,24.414,-557.129
1532485830.877,42.969,54.199,28.320,48.828,-118.652
1532485830.881,47.363,61.035,32.227,55.176,413.574
1532485830.885,47.363,74.219,33.203,40.527,883.789
1532485830.889,52.246,22.461,40.039,64.453,155.273
1532485830.893,66.895,23.438,42.480,87.891,-588.379
1532485830.897,52.246,48.828,35.156,58.594,-528.320
1532485830.900,33.203,61.035,33.691,36.621,-192.871
1532485830.904,43.457,53.711,31.250,46.387,147.949
1532485830.908,56.152,42.480,25.391,40.527,-416.504
1532485830.912,57.129,54.688,23.438,49.805,-486.816
1532485830.916,52.246,41.504,23.438,53.711,-346.680
1532485830.920,45.410,56.641,20.508,42.480,-481.934
1532485830.924,47.852,91.797,21.484,43.457,450.684
1532485830.928,54.688,43.457,23.926,49.316,478.027
1532485830.932,53.223,30.273,23.438,49.805,-262.207
1532485830.936,51.758,43.945,25.391,48.340,-393.066
1532485830.940,47.363,49.316,26.855,41.504,-608.398
1532485830.943,45.898,86.426,23.438,44.434,253.906
1532485830.947,50.293,37.598,24.414,57.129,421.387
1532485830.951,40.039,15.625,24.902,50.293,-356.445
1532485830.955,32.715,37.598,23.926,41.504,-540.527
1532485830.959,36.621,41.504,26.367,39.551,-588.867
1532485830.963,38.086,65.918,28.320,47.363,-12.695
1532485830.967,39.551,44.922,31.250,51.758,58.105
1532485830.971,32.715,41.992,31.738,37.598,-34.180
1532485830.975,36.621,54.688,29.297,35.156,228.027
1532485830.979,46.875,30.762,29.297,51.758,-243.652
1532485830.983,44.434,63.965,30.762,60.059,54.199
1532485830.986,41.016,66.406,30.273,43.945,818.359
1532485830.990,43.457,16.602,33.691,30.762,-173.340
1532485830.994,41.504,33.203,33.203,27.344,-618.164
1532485830.998,38.574,36.133,31.250,33.203,-434.570
1532485831.002,38.574,47.363,36.621,41.016,-291.504
1532485831.006,39.551,49.316,34.668,32.715,-140.137
1532485831.010,43.457,41.504,30.762,36.133,-479.492
1532485831.014,44.922,43.945,33.691,47.852,-357.910
1532485831.018,41.016,42.480,32.227,42.969,13.672
1532485831.022,39.551,57.129,34.180,35.156,250.977
1532485831.025,40.039,70.312,35.645,36.621,779.297
1532485831.029,41.992,18.066,34.668,42.480,208.008
1532485831.033,39.551,15.625,33.691,39.551,-443.848
1532485831.037,35.156,41.016,33.691,28.809,-616.211
1532485831.041,36.621,48.340,35.645,29.785,-593.750
1532485831.045,40.527,45.410,37.109,47.852,-38.086
1532485831.049,36.621,31.738,33.203,46.875,-234.863
1532485831.053,33.203,38.086,29.785,31.738,-474.121
1532485831.057,33.203,38.086,32.227,29.297,-645.508
1532485831.061,39.551,50.293,31.738,38.086,-450.684
1532485831.065,43.457,57.617,32.715,53.223,577.637
1532485831.068,37.598,21.973,34.668,47.363,166.504
1532485831.072,32.715,32.227,32.227,33.691,-534.668
1532485831.076,34.668,40.527,30.273,35.156,-513.672
1532485831.080,37.598,34.668,30.762,44.434,-333.496
1532485831.084,28.320,69.824,30.273,33.691,642.090
1532485831.088,23.438,26.855,28.809,25.879,294.922
1532485831.092,31.738,20.020,26.855,28.320,-553.711
1532485831.096,36.621,41.016,29.297,31.738,-451.172
1532485831.100,33.691,39.062,24.902,31.738,-311.035
1532485831.104,25.391,59.082,21.484,26.367,156.250
1532485831.108,20.508,45.410,24.414,18.066,-192.383
1532485831.111,31.738,62.012,26.367,24.414,-113.770
1532485831.115,38.574,49.316,29.297,34.668,452.148
1532485831.119,31.250,10.742,28.809,26.367,-170.898
1532485831.123,26.367,67.871,26.855,15.137,171.875
1532485831.127,33.203,47.363,26.855,25.879,786.621
1532485831.131,36.133,-1.953,25.391,39.551,-126.953
1532485831.135,36.133,22.949,24.902,25.391,-487.793
1532485831.139,37.109,38.574,25.391,19.531,-637.207
1532485831.143,34.668,58.105,25.879,28.320,-326.172
1532485831.147,33.203,31.738,24.414,29.297,-9.277
1532485831.150,35.156,20.020,22.461,33.203,-360.352
1532485831.154,33.691,47.363,22.461,32.227,-481.445
1532485831.158,34.180,61.035,21.484,28.809,-205.566
1532485831.162,38.086,64.453,19.043,37.598,360.840
1532485831.166,35.156,50.293,20.020,33.203,834.473
1532485831.170,34.668,9.277,24.414,25.879,-39.062
1532485831.174,35.645,25.879,24.414,25.879,-711.426
1532485831.178,45.898,36.133,25.391,30.273,-616.211
1532485831.182,57.617,36.133,27.832,49.316,-321.289
1532485831.186,42.480,34.180,26.855,29.297,-50.781
1532485831.190,28.809,40.039,24.902,3.906,-514.160
1532485831.193,41.992,50.293,18.066,21.973,-579.102
1532485831.197,51.758,42.969,17.578,32.715,-406.250
1532485831.201,46.387,45.410,20.020,34.668,-286.133
1532485831.205,45.898,57.617,20.996,26.367,236.328
1532485831.209,51.758,52.246,23.438,29.785,235.840
1532485831.213,50.293,41.016,25.391,46.875,-103.516
1532485831.217,47.363,29.785,25.879,35.156,-357.422
1532485831.221,39.551,45.898,24.414,25.391,-365.234
1532485831.225,39.062,90.820,23.926,20.996,660.156
1532485831.229,50.293,30.273,25.391,24.902,402.344
1532485831.232,44.434,12.695,24.902,38.086,-369.629
1532485831.236,35.156,37.598,24.414,35.645,-527.832
1532485831.240,42.969,49.805,25.879,24.414,-566.895
1532485831.244,44.922,50.293,23.926,35.645,53.711
1532485831.248,41.992,31.738,19.531,41.016,-116.211
1532485831.252,35.156,55.176,19.531,31.250,-6.836
1532485831.256,31.738,41.504,20.020,33.203,205.566
1532485831.260,39.551,29.785,21.484,43.457,-318.359
1532485831.264,37.598,78.125,22.461,36.621,501.953
1532485831.268,34.668,30.273,25.391,30.273,672.363
1532485831.272,33.203,7.812,23.926,27.832,-468.750
1532485831.275,32.227,34.668,22.949,24.902,-703.125
1532485831.279,33.691,34.668,26.855,33.691,-527.344
1532485831.283,33.691,54.199,27.832,40.039,69.824
1532485831.287,31.250,36.133,27.832,31.738,-137.207
1532485831.291,31.250,27.832,25.879,28.320,-674.316
1532485831.295,44.922,41.992,28.320,30.762,-426.758
1532485831.299,45.410,48.340,31.738,29.297,-41.992
1532485831.303,35.645,59.082,29.297,33.203,469.727
1532485831.307,36.133,43.945,27.832,37.109,740.723
1532485831.311,38.086,11.719,30.762,51.270,-196.777
1532485831.315,45.410,25.391,32.715,55.664,-516.113
1532485831.318,44.434,31.250,34.180,56.641,-509.766
1532485831.322,38.086,48.340,30.273,56.641,-392.578
1532485831.326,41.016,41.504,29.785,51.758,-187.988
1532485831.330,42.480,27.832,32.227,48.828,-397.949
1532485831.334,40.039,32.227,31.738,45.410,-360.352
1532485831.338,38.086,39.551,33.691,46.387,-561.523
1532485831.342,41.504,53.223,35.156,46.387,-458.496
1532485831.346,42.480,55.664,34.180,55.176,347.168
1532485831.350,40.527,42.969,36.133,50.781,416.504
1532485831.354,41.016,37.109,39.551,35.156,-158.691
1532485831.357,44.434,41.992,39.062,34.180,-612.305
1532485831.361,42.969,61.523,34.668,46.387,-335.449
1532485831.365,31.250,85.938,31.738,48.828,746.094
1532485831.369,35.645,27.832,31.738,40.527,215.332
1532485831.373,37.598,21.973,29.297,39.551,-641.602
1532485831.377,35.645,46.875,27.344,42.969,-627.441
1532485831.381,38.086,42.480,28.809,35.645,-308.594
1532485831.385,36.133,37.109,31.250,30.762,126.953
1532485831.389,35.645,38.574,32.227,26.855,-390.137
1532485831.393,36.621,67.383,28.809,20.508,-166.504
1532485831.397,37.598,50.293,27.832,21.484,282.227
1532485831.400,36.133,30.762,28.320,26.855,-60.059
1532485831.404,26.367,78.125,26.855,20.020,652.832
1532485831.408,33.691,33.691,29.297,28.320,390.625
1532485831.412,44.922,20.020,31.738,41.504,-473.145
1532485831.416,41.016,40.527,29.297,35.645,-469.727
1532485831.420,33.203,46.875,26.855,29.297,-491.211
1532485831.424,31.250,69.824,27.832,37.109,-2.441
1532485831.428,37.598,41.504,28.320,42.480,-200.195
1532485831.432,37.109,35.156,27.832,33.203,-437.012
1532485831.436,32.227,42.969,30.273,23.926,-354.492
1532485831.440,33.203,53.711,31.250,25.879,-257.812
1532485831.443,38.086,85.449,28.809,30.273,546.875
1532485831.447,43.457,38.086,31.250,31.250,725.586
1532485831.451,41.504,5.859,32.227,16.113,-240.234
1532485831.455,38.086,34.180,27.344,19.043,-655.762
1532485831.459,37.598,42.480,26.367,25.879,-693.359
1532485831.463,34.180,59.570,26.855,30.273,-131.836
1532485831.467,37.109,34.668,29.297,40.039,-10.742
1532485831.471,43.457,33.203,33.691,34.668,-524.414
1532485831.475,41.016,48.828,31.738,30.762,-572.754
1532485831.479,37.598,43.945,28.809,28.809,-519.043
1532485831.482,41.504,61.035,28.809,25.391,-63.965
1532485831.486,37.598,58.594,31.738,26.855,438.965
1532485831.490,30.762,45.410,33.203,20.508,233.398
1532485831.494,39.551,41.016,33.203,22.949,-87.891
1532485831.498,45.410,21.484,32.715,28.809,-395.508
1532485831.502,38.086,44.922,31.250,20.020,-137.695
1532485831.506,34.180,70.801,32.227,19.043,745.117
1532485831.510,41.016,17.578,33.203,27.344,38.574
1532485831.514,42.480,20.020,31.250,29.297,-505.859
1532485831.518,39.062,35.645,29.785,33.203,-448.242
1532485831.522,35.156,44.434,25.879,22.949,-465.332
1532485831.525,34.668,41.016,23.926,22.461,-157.227
1532485831.529,44.434,37.598,28.320,38.086,-318.359
1532485831.533,42.969,59.082,27.344,34.668,46.875
1532485831.537,31.738,46.875,27.344,25.879,192.383
1532485831.541,34.668,46.387,29.785,26.855,14.160
1532485831.545,42.480,80.078,27.832,28.809,734.863
1532485831.549,44.922,20.508,30.273,36.133,319.336
1532485831.553,42.480,12.207,31.738,30.762,-520.996
1532485831.557,32.227,41.992,28.320,27.344,-730.469
1532485831.561,29.785,44.922,28.809,28.809,-559.570
1532485831.564,32.715,41.016,28.809,33.691,113.770
1532485831.568,30.762,27.832,30.273,33.691,-214.355
1532485831.572,31.250,39.062,31.738,32.227,-637.207
1532485831.576,37.598,39.062,32.227,44.922,-575.195
1532485831.580,40.527,53.223,36.621,53.711,-35.156
1532485831.584,34.668,70.801,37.109,37.598,861.328
1532485831.588,35.645,16.113,35.156,23.926,427.246
1532485831.592,44.922,10.742,33.691,28.320,-550.781
1532485831.596,46.387,32.715,34.180,45.410,-591.309
1532485831.600,39.062,29.785,33.691,48.828,-430.176
1532485831.604,33.691,53.223,32.715,41.016,54.199
1532485831.607,37.109,32.715,35.156,38.086,-280.762
1532485831.611,35.645,26.367,31.250,40.527,-585.938
1532485831.615,33.203,33.203,32.715,45.410,-339.355
1532485831.619,30.762,35.645,35.156,37.598,-461.914
1532485831.623,28.809,64.941,30.273,28.320,-100.586
1532485831.627,36.621,63.965,29.785,27.832,290.039
1532485831.631,37.109,44.434,32.227,30.273,290.039
1532485831.635,33.691,27.344,32.227,33.691,-18.066
1532485831.639,35.645,30.273,31.738,32.715,-615.234
1532485831.643,34.180,76.172,29.297,27.344,-116.211
1532485831.647,36.133,64.453,27.344,29.785,821.777
1532485831.650,41.016,9.766,28.809,31.738,28.320
1532485831.654,32.715,27.344,29.785,26.367,-585.449
1532485831.658,32.715,38.574,29.785,32.715,-662.109
1532485831.662,37.598,47.852,27.832,33.691,-309.570
1532485831.666,36.621,31.250,30.273,35.156,49.316
1532485831.670,36.621,28.320,29.297,41.504,-397.461
1532485831.674,31.250,50.293,25.879,31.250,-107.422
1532485831.678,37.598,24.902,30.762,25.391,-23.438
1532485831.682,37.598,37.598,30.762,29.785,-114.258
1532485831.686,27.344,67.871,27.832,23.926,750.488
1532485831.689,30.762,15.137,30.273,22.461,64.941
1532485831.693,35.156,20.020,29.785,30.273,-647.461
1532485831.697,34.668,33.691,32.227,25.391,-480.957
1532485831.701,31.738,29.785,31.738,26.367,-332.520
1532485831.705,29.785,32.227,29.785,21.484,-71.289
1532485831.709,34.180,31.250,30.273,20.508,-437.988
1532485831.713,34.180,32.715,27.832,33.691,-455.078
1532485831.717,30.273,25.879,30.273,42.480,-360.840
1532485831.721,25.879,60.059,37.109,32.227,-1.953
1532485831.725,31.738,83.496,39.062,34.180,837.891
1532485831.729,42.969,17.090,39.062,51.270,336.426
1532485831.732,41.016,5.859,33.691,49.805,-367.188
1532485831.736,40.039,26.367,32.715,47.363,-558.105
1532485831.740,41.992,43.945,34.180,52.246,-621.582
1532485831.744,40.039,52.246,31.738,52.246,66.895
1532485831.748,41.992,23.438,32.227,59.082,-85.938
1532485831.752,41.016,30.273,32.227,57.129,-466.309
1532485831.756,48.340,43.457,25.879,50.781,-573.242
1532485831.760,67.871,51.270,27.344,62.012,-548.340
1532485831.764,54.688,54.199,38.574,60.547,185.059
1532485831.768,25.391,39.551,39.551,40.527,468.262
1532485831.772,24.902,30.762,41.504,40.039,180.176
1532485831.775,37.598,20.508,44.434,50.293,-281.250
1532485831.779,42.480,28.809,41.504,54.688,-493.652
1532485831.783,36.621,75.195,38.574,45.410,384.277
1532485831.787,36.621,40.039,39.062,48.828,730.957
1532485831.791,43.945,8.789,38.574,53.711,-361.816
1532485831.795,49.316,35.645,34.180,52.734,-563.477
1532485831.799,47.852,30.762,33.691,54.199,-411.133
1532485831.803,38.574,47.363,31.738,41.504,-120.605
1532485831.807,39.062,35.645,29.785,38.574,-202.637
1532485831.811,43.457,33.691,30.273,47.852,-521.973
1532485831.814,41.992,54.688,33.203,52.734,28.320
1532485831.818,34.668,34.180,35.645,44.922,123.535
1532485831.822,25.879,47.363,32.715,38.574,220.215
1532485831.826,29.297,56.641,30.762,39.062,791.504
1532485831.830,37.598,8.789,33.691,35.156,53.223
1532485831.834,36.621,16.113,35.645,29.297,-496.094
1532485831.838,34.668,32.715,31.738,31.250,-629.395
1532485831.842,38.086,41.504,31.738,38.574,-564.453
1532485831.846,42.969,33.203,31.738,40.527,-104.492
1532485831.850,44.434,27.344,32.715,35.156,-279.785
1532485831.854,37.109,39.062,35.645,38.086,-502.930
1532485831.857,35.645,37.598,32.715,42.480,-633.789
1532485831.861,41.992,55.176,28.809,53.223,-42.480
1532485831.865,45.410,69.824,34.180,41.504,867.676
1532485831.869,49.805,20.020,38.574,32.227,159.668
1532485831.873,49.805,29.785,35.645,40.039,-643.066
1532485831.877,50.781,46.875,37.109,44.434,-667.969
1532485831.881,54.688,45.410,38.086,48.828,-357.910
1532485831.885,52.246,48.340,37.109,48.340,102.539
1532485831.889,49.805,40.039,40.039,45.898,-400.879
1532485831.893,54.688,47.852,38.086,46.387,-613.770
1532485831.897,55.664,44.434,35.156,50.293,-428.223
1532485831.900,49.805,45.410,38.574,48.828,-270.508
1532485831.904,48.340,54.688,41.504,41.504,151.367
1532485831.908,45.898,60.547,35.645,39.062,200.195
1532485831.912,50.781,50.781,33.203,44.922,144.531
1532485831.916,51.270,28.809,36.621,39.062,-164.062
1532485831.920,43.945,45.898,35.645,41.992,-442.871
1532485831.924,42.969,96.680,35.156,43.457,527.832
1532485831.928,50.293,44.434,38.086,41.504,647.461
1532485831.932,54.199,15.137,39.062,41.992,-264.648
1532485831.936,46.875,38.086,39.551,34.180,-475.098
1532485831.939,43.457,51.270,38.086,34.180,-624.512
1532485831.943,46.875,75.684,37.598,44.434,-54.688
1532485831.947,46.875,37.109,37.109,49.316,-21.484
1532485831.951,48.828,35.645,34.668,39.551,-414.551
1532485831.955,47.363,68.359,35.156,41.504,-55.176
1532485831.959,48.340,55.664,33.691,39.551,95.215
1532485831.963,54.199,65.918,33.691,30.762,437.012
1532485831.967,57.617,48.828,39.062,26.855,788.086
1532485831.971,54.688,16.113,43.945,22.949,-222.656
1532485831.975,49.805,40.527,40.039,23.438,-731.445
1532485831.979,54.688,41.504,38.574,36.621,-596.680
1532485831.982,57.129,49.805,39.551,46.387,-191.406
1532485831.986,55.664,44.434,42.480,41.504,-87.402
1532485831.990,54.199,46.875,42.969,38.086,-578.613
1532485831.994,53.711,61.523,42.480,44.434,-525.391
1532485831.998,52.246,45.410,46.875,50.781,-403.320
1532485832.002,53.223,72.754,48.828,58.105,125.000
1532485832.006,58.594,86.914,45.410,56.641,827.148
1532485832.010,50.293,37.598,41.992,42.969,-0.977
1532485832.014,38.086,39.551,40.039,46.875,-496.582
1532485832.018,32.227,43.945,41.992,39.551,-456.543
1532485832.021,29.297,48.340,42.969,21.484,-485.840
1532485832.025,35.645,49.316,43.945,42.480,-160.156
1532485832.029,40.039,42.480,45.898,44.922,-328.125
1532485832.033,40.039,41.504,43.457,35.156,-365.234
1532485832.037,40.039,39.551,39.062,44.434,-489.746
1532485832.041,40.527,53.223,36.621,30.273,-484.375
1532485832.045,41.504,51.270,36.621,31.738,66.895
1532485832.049,38.574,46.875,38.086,46.387,323.242
1532485832.053,36.621,40.527,39.551,41.016,195.312
1532485832.057,37.598,22.949,38.086,31.738,-438.477
1532485832.061,39.551,47.852,31.738,41.992,-458.008
1532485832.064,35.645,81.543,30.273,49.805,705.566
1532485832.068,39.551,18.066,34.180,39.551,450.684
1532485832.072,40.039,15.625,37.109,26.367,-523.926
1532485832.076,38.574,41.016,34.180,32.227,-647.949
1532485832.080,41.992,42.969,30.273,47.852,-401.855
1532485832.084,41.016,49.316,29.785,49.805,241.211
1532485832.088,38.574,31.738,29.297,43.457,-200.684
1532485832.092,40.039,49.316,27.344,43.945,-616.699
1532485832.096,44.434,56.641,29.785,45.410,33.203
1532485832.100,42.480,33.691,30.273,44.922,273.926
1532485832.104,33.691,62.500,25.391,24.902,644.043
1532485832.107,37.109,33.203,25.879,14.160,608.887
1532485832.111,42.969,5.859,26.367,32.227,-341.797
1532485832.115,42.969,24.902,26.367,33.691,-480.469
1532485832.119,38.574,33.691,27.832,36.133,-516.113
1532485832.123,31.738,61.035,27.344,39.551,-206.055
1532485832.127,34.668,38.086,24.902,39.551,-191.406
1532485832.131,39.062,30.762,22.949,41.016,-429.199
1532485832.135,34.668,33.691,28.809,28.320,-345.215
1532485832.139,27.832,26.855,28.809,26.367,-606.445
1532485832.143,28.320,71.289,24.902,30.273,32.227
1532485832.146,37.109,62.500,28.809,30.273,853.027
1532485832.150,36.621,6.836,29.785,28.809,-11.230
1532485832.154,26.367,23.926,26.855,26.855,-600.586
1532485832.158,26.855,38.086,28.809,33.691,-695.801
1532485832.162,27.344,48.828,25.879,33.203,-396.484
1532485832.166,24.902,41.992,20.508,31.250,178.223
1532485832.170,25.879,19.531,20.508,31.738,-234.863
1532485832.174,29.785,28.320,20.020,36.621,-614.746
1532485832.178,35.645,40.039,20.996,34.180,-548.828
1532485832.182,31.250,33.691,22.461,24.902,-242.188
1532485832.186,22.461,26.855,24.902,30.762,57.617
1532485832.189,17.578,45.898,24.414,33.203,81.543
1532485832.193,22.461,42.480,20.508,25.391,109.863
1532485832.197,28.320,16.113,20.508,20.508,-279.785
1532485832.201,25.879,38.574,22.461,28.809,-221.191
1532485832.205,20.508,80.078,21.484,19.531,738.281
1532485832.209,27.832,25.879,20.020,22.949,182.617
1532485832.213,36.133,15.137,23.438,32.227,-501.953
1532485832.217,34.180,34.180,24.414,34.180,-445.801
1532485832.221,27.832,36.621,20.508,31.250,-438.965
1532485832.225,27.832,41.992,20.508,25.879,-22.949
1532485832.229,28.809,28.809,20.508,28.809,-293.457
1532485832.232,26.367,31.250,21.484,28.809,-377.930
1532485832.236,24.902,46.387,20.508,26.367,-6.348
1532485832.240,25.391,52.246,19.531,32.715,169.434
1532485832.244,28.320,71.289,20.508,30.762,768.555
1532485832.248,32.715,22.461,22.461,34.668,537.598
1532485832.252,32.715,6.836,24.414,36.133,-364.258
1532485832.256,28.809,38.574,24.414,37.109,-687.500
1532485832.260,32.715,51.270,24.902,43.457,-663.086
1532485832.264,32.227,58.594,25.879,47.363,59.082
1532485832.268,32.715,29.297,23.926,32.715,-91.309
1532485832.271,30.762,33.691,23.438,27.832,-589.844
1532485832.275,35.156,44.434,26.855,30.762,-590.332
1532485832.279,45.410,46.875,29.785,26.367,-541.016
1532485832.283,37.109,75.195,28.320,31.738,390.137
1532485832.287,33.203,32.227,27.344,30.273,556.641
1532485832.291,37.598,16.113,28.809,33.203,-494.141
1532485832.295,41.992,40.527,29.297,34.668,-574.219
1532485832.299,42.480,35.156,29.785,36.621,-456.543
1532485832.303,33.203,48.828,26.855,41.992,-54.688
1532485832.307,34.668,34.180,27.344,28.809,-0.488
1532485832.311,44.434,31.250,28.809,26.855,-511.230
1532485832.314,49.316,38.574,29.297,41.504,-364.258
1532485832.318,45.410,32.227,29.297,36.621,-375.000
1532485832.322,38.086,44.922,29.785,29.297,-276.367
1532485832.326,36.133,40.527,32.227,41.016,-62.500
1532485832.330,38.574,49.316,31.250,37.598,173.340
1532485832.334,38.574,41.992,31.250,27.832,319.336
1532485832.338,34.668,19.043,29.785,21.484,-397.461
1532485832.342,32.227,60.547,28.320,26.367,-387.695
1532485832.346,33.203,83.008,29.297,37.598,743.652
1532485832.350,33.691,8.301,25.391,35.645,266.113
1532485832.353,29.297,11.719,22.949,29.785,-492.676
1532485832.357,30.762,41.992,24.902,28.809,-635.742
1532485832.361,36.621,43.457,27.832,30.273,-452.637
1532485832.365,34.180,38.086,28.320,24.902,103.027
1532485832.369,27.832,29.785,30.273,28.809,-256.836
1532485832.373,28.809,43.945,30.762,26.367,-545.898
1532485832.377,36.621,56.641,25.391,21.973,-120.117
1532485832.381,33.203,59.082,21.484,23.926,375.977
1532485832.385,26.367,67.871,21.484,7.324,877.930
1532485832.389,27.344,13.184,20.508,4.883,203.125
1532485832.393,25.391,13.672,19.531,6.836,-592.285
1532485832.396,35.156,32.715,21.484,20.996,-558.105
1532485832.400,41.016,33.691,20.508,23.438,-351.074
1532485832.404,25.391,47.363,13.184,-0.488,82.520
1532485832.408,20.996,31.250,10.742,3.906,-367.188
1532485832.412,28.320,29.785,13.184,18.555,-525.391
1532485832.416,26.367,20.996,12.695,13.184,-326.172
1532485832.420,22.461,26.855,13.184,17.090,-449.219
1532485832.424,21.973,69.824,15.137,20.508,470.703
1532485832.428,32.227,21.484,21.973,29.297,509.277
1532485832.432,39.062,2.441,23.926,46.387,-307.617
1532485832.436,36.133,25.391,22.461,46.875,-425.781
1532485832.439,35.156,29.297,21.973,37.109,-625.000
1532485832.443,38.574,55.664,21.973,33.203,64.941
1532485832.447,42.480,30.273,23.926,48.828,154.297
1532485832.451,36.133,21.973,24.414,38.086,-385.254
1532485832.455,33.203,32.227,23.926,18.066,-486.328
1532485832.459,38.574,36.133,24.414,32.227,-604.980
1532485832.463,42.480,50.781,22.461,45.410,-48.340
1532485832.467,43.457,28.809,22.461,36.133,105.957
1532485832.471,38.086,40.527,21.973,20.996,14.648
1532485832.475,34.180,56.152,21.973,15.625,277.832
1532485832.478,38.574,24.414,23.926,18.555,-220.215
1532485832.482,34.668,48.828,21.973,22.949,23.438
1532485832.486,31.738,60.059,22.949,19.531,834.961
1532485832.490,34.668,12.207,24.902,7.812,-121.582
1532485832.494,33.691,20.020,21.484,2.441,-630.859
1532485832.498,35.645,29.297,22.461,14.648,-433.105
1532485832.502,34.180,39.062,22.949,18.555,-280.762
1532485832.506,28.809,28.809,22.949,9.277,-125.488
1532485832.510,31.738,21.484,23.926,14.160,-483.398
1532485832.514,36.133,34.668,22.949,24.414,-381.836
1532485832.518,33.203,38.086,25.391,26.855,33.691
1532485832.521,29.785,50.781,28.320,29.785,299.316
1532485832.525,26.855,65.918,23.438,20.020,794.922
1532485832.529,30.762,11.719,20.508,15.137,225.586
1532485832.533,36.621,4.395,25.391,33.203,-392.578
1532485832.537,33.203,27.344,24.414,23.926,-555.176
1532485832.541,31.738,34.668,23.438,18.555,-564.941
1532485832.545,36.621,26.855,23.438,37.109,-20.020
1532485832.549,41.992,16.113,22.949,34.668,-202.637
1532485832.553,41.992,30.762,26.367,30.762,-437.500
1532485832.557,36.621,32.715,26.367,25.879,-588.867
1532485832.561,36.133,39.551,24.414,20.508,-510.742
1532485832.564,28.809,57.129,23.438,16.113,395.508
1532485832.568,23.438,30.273,22.461,9.766,348.633
1532485832.572,24.902,20.020,20.508,10.742,-378.418
1532485832.576,27.832,31.738,20.508,10.742,-524.414
1532485832.580,31.738,38.086,23.926,17.090,-366.699
1532485832.584,31.738,79.590,23.438,28.320,632.324
1532485832.588,27.832,38.086,21.973,27.832,724.121
1532485832.592,25.879,7.324,20.508,21.973,-303.711
1532485832.596,27.832,21.973,21.484,28.320,-532.227
1532485832.600,26.855,28.320,24.414,28.809,-350.586
1532485832.603,24.902,50.293,26.367,22.461,100.586
1532485832.607,25.879,33.203,27.344,32.715,-222.168
1532485832.611,28.320,47.852,22.461,37.598,-142.578
1532485832.615,32.227,45.898,24.414,36.133,393.555
1532485832.619,31.738,14.648,33.203,32.227,-271.973
1532485832.623,25.879,65.918,32.715,33.691,61.035
1532485832.627,29.785,49.316,29.785,37.598,788.574
1532485832.631,39.551,1.953,31.738,41.016,-122.070
1532485832.635,37.598,27.344,31.250,32.715,-500.977
1532485832.639,34.668,33.203,29.785,28.809,-641.113
1532485832.643,37.109,60.547,26.855,35.645,-396.973
1532485832.646,44.434,44.922,30.762,37.598,-41.992
1532485832.650,43.945,26.367,36.621,33.203,-354.492
1532485832.654,35.645,43.945,30.273,29.785,-474.609
1532485832.658,37.598,51.758,27.832,33.203,-205.078
1532485832.662,38.086,66.406,32.227,31.250,322.754
1532485832.666,34.180,60.059,33.691,20.020,830.566
1532485832.670,31.738,4.395,32.227,14.160,7.324
1532485832.674,31.738,19.043,32.715,26.855,-707.031
1532485832.678,38.086,36.133,31.250,38.086,-650.879
1532485832.682,39.062,33.691,29.785,35.156,-355.957
1532485832.685,37.109,26.367,29.297,30.273,-40.527
1532485832.689,38.574,24.414,31.738,29.297,-498.047
1532485832.693,41.992,35.156,31.738,37.109,-606.934
1532485832.697,43.457,32.715,31.738,39.551,-441.406
1532485832.701,35.645,36.133,32.227,39.551,-284.180
1532485832.705,24.902,50.293,25.391,39.551,250.977
1532485832.709,29.785,47.363,26.367,38.574,266.602
1532485832.713,35.156,33.203,29.785,47.363,-48.340
1532485832.717,27.832,25.391,26.855,52.246,-332.031
1532485832.721,23.438,37.109,24.414,29.297,-360.352
1532485832.725,25.879,84.961,25.391,13.672,654.297
1532485832.728,33.203,34.180,28.320,38.574,427.734
1532485832.732,37.109,12.695,22.461,33.203,-354.004
1532485832.736,29.785,32.715,22.949,15.625,-503.418
1532485832.740,23.926,40.527,28.809,15.625,-563.477
1532485832.744,25.391,44.922,25.879,23.926,46.875
1532485832.748,24.414,29.297,25.391,29.785,-106.445
1532485832.752,24.414,50.781,28.809,22.949,-2.441
1532485832.756,26.367,43.457,31.738,26.367,219.727
1532485832.760,31.250,30.273,28.320,27.344,-361.328
1532485832.764,29.297,85.938,25.391,30.762,432.129
1532485832.768,31.738,36.621,30.273,27.832,715.820
1532485832.771,34.180,3.906,27.344,19.531,-441.895
1532485832.775,31.738,35.645,23.926,26.367,-730.957
1532485832.779,37.109,34.668,23.438,34.180,-563.965
1532485832.783,41.016,52.734,22.949,32.227,35.156
1532485832.787,38.086,31.738,25.879,28.320,-95.703
1532485832.791,37.109,28.320,25.391,32.227,-643.555
1532485832.795,42.969,39.551,21.484,34.180,-480.469
1532485832.799,44.922,43.945,25.879,47.852,-19.531
1532485832.803,43.945,47.852,29.297,48.828,485.840
1532485832.807,46.387,18.555,21.484,31.250,237.305
1532485832.810,51.270,20.508,21.484,36.621,-465.820
1532485832.814,52.246,36.133,26.855,43.457,-350.586
1532485832.818,49.316,23.438,24.902,31.250,-468.750
1532485832.822,43.457,58.594,23.438,22.461,-239.746
1532485832.826,44.434,55.176,26.855,27.344,629.395
1532485832.830,52.246,10.742,30.762,37.598,-38.086
1532485832.834,48.828,29.297,26.367,34.668,-450.195
1532485832.838,41.992,39.551,18.555,21.973,-545.410
1532485832.842,51.758,50.293,20.508,19.043,-532.227
1532485832.846,58.105,57.129,27.344,35.156,285.156
1532485832.850,41.992,35.645,30.273,35.645,395.508
1532485832.853,26.855,21.973,30.762,21.484,-171.387
1532485832.857,20.508,23.926,34.180,18.066,-644.531
1532485832.861,27.832,46.387,31.738,23.438,-399.902
1532485832.865,29.785,73.730,21.973,18.066,728.027
1532485832.869,25.391,15.625,27.832,17.578,246.094
1532485832.873,25.391,13.184,33.203,24.414,-636.719
1532485832.877,26.855,35.156,30.762,32.715,-673.340
1532485832.881,28.809,38.574,29.297,31.738,-359.375
1532485832.885,30.762,40.039,31.250,19.043,122.070
1532485832.889,28.320,26.855,33.691,20.996,-365.723
1532485832.893,27.832,49.316,33.691,29.785,-214.355
1532485832.896,34.668,42.969,36.133,34.668,157.227
1532485832.900,27.344,28.320,34.180,24.902,-113.770
1532485832.904,7.324,73.242,28.320,21.484,647.949
1532485832.908,17.578,30.273,29.785,28.320,412.598
1532485832.912,39.551,17.578,29.785,27.344,-504.883
1532485832.916,40.527,33.691,24.414,19.531,-499.023
1532485832.920,39.062,39.062,22.461,21.484,-509.766
1532485832.924,39.551,64.453,25.879,25.391,-32.715
1532485832.928,43.457,38.086,25.391,25.391,-224.609
1532485832.932,44.434,30.762,24.414,28.320,-477.539
1532485832.935,43.945,41.016,28.320,23.926,-375.977
1532485832.939,39.062,54.688,26.367,20.020,-242.188
1532485832.943,38.086,79.102,21.973,27.344,540.527
1532485832.947,40.039,33.203,21.973,38.574,745.605
1532485832.951,35.645,0.977,27.344,38.574,-214.844
1532485832.955,28.809,29.785,30.762,29.297,-663.574
1532485832.959,37.109,39.551,31.738,33.203,-741.211
1532485832.963,45.410,59.570,32.715,41.016,-221.191
1532485832.967,37.598,33.691,35.156,40.039,-33.691
1532485832.971,29.297,28.320,36.133,32.715,-536.621
1532485832.975,35.645,42.480,35.645,39.062,-617.188
1532485832.978,44.434,32.227,33.203,51.270,-574.707
1532485832.982,44.922,47.852,32.715,42.480,-127.441
1532485832.986,42.969,53.223,32.227,33.691,428.223
1532485832.990,48.340,42.969,30.273,42.969,242.676
1532485832.994,53.223,31.250,27.344,50.781,-113.770
1532485832.998,50.293,20.996,26.367,49.805,-410.156
1532485833.002,45.898,42.969,27.344,45.898,-158.203
1532485833.006,43.945,68.359,26.855,36.133,715.820
1532485833.010,49.805,33.691,30.273,43.457,191.895
1532485833.014,51.270,31.738,35.156,50.781,-336.914
1532485833.018,59.082,39.551,41.504,47.852,-429.199
1532485833.021,56.152,44.922,39.551,47.363,-442.871
1532485833.025,36.133,39.551,33.203,21.973,-144.531
1532485833.029,33.691,37.598,31.738,21.484,-363.281
1532485833.033,23.438,57.617,31.250,25.391,48.340
1532485833.037,16.113,40.527,31.738,10.254,152.832
1532485833.041,24.902,44.434,30.762,12.207,-269.043
1532485833.045,28.320,84.473,29.297,29.785,648.438
1532485833.049,34.180,24.902,32.715,37.109,385.254
1532485833.053,35.645,19.043,35.645,19.531,-512.695
1532485833.057,27.344,44.922,28.320,21.484,-723.633
1532485833.060,29.785,49.805,24.414,30.273,-590.332
1532485833.064,33.691,49.316,26.367,30.762,93.262
1532485833.068,29.297,21.484,26.855,20.996,-202.148
1532485833.072,27.832,32.715,29.297,16.602,-633.301
1532485833.076,33.203,42.969,31.250,20.020,-591.309
1532485833.080,33.203,55.176,29.297,17.090,-83.008
1532485833.084,25.391,71.289,27.832,21.484,838.379
1532485833.088,24.414,13.184,33.691,21.973,484.375
1532485833.092,30.273,2.441,34.668,18.555,-543.945
1532485833.096,33.691,26.855,28.809,29.785,-626.465
1532485833.100,35.645,26.855,29.785,32.227,-458.008
1532485833.103,29.785,44.434,28.809,21.484,10.742
1532485833.107,31.738,33.691,27.832,21.973,-285.156
1532485833.111,43.945,38.086,33.203,23.438,-617.676
1532485833.115,43.457,37.598,29.785,18.555,-357.910
1532485833.119,35.156,31.250,30.273,14.160,-447.754
1532485833.123,30.762,57.617,34.668,24.414,-149.902
1532485833.127,35.156,59.570,31.738,31.250,254.395
1532485833.131,38.574,45.410,33.203,41.016,276.367
1532485833.135,36.621,30.273,35.156,42.969,-14.648
1532485833.139,38.574,20.508,34.668,36.133,-603.027
1532485833.142,44.922,66.895,35.645,30.762,-180.664
1532485833.146,45.410,67.383,35.156,24.414,807.617
1532485833.150,43.457,8.789,38.086,39.551,60.059
1532485833.154,41.016,29.785,40.039,41.992,-576.172
1532485833.158,41.504,48.340,38.086,38.086,-671.875
1532485833.162,44.922,56.641,35.645,42.969,-378.418
1532485833.166,47.852,42.480,34.668,51.270,33.203
1532485833.170,44.922,39.551,34.180,45.898,-363.281
1532485833.174,41.992,61.523,33.691,41.016,-171.387
1532485833.178,47.363,41.992,35.645,43.457,38.574
1532485833.182,45.898,42.969,31.738,47.852,6.836
1532485833.185,38.574,66.895,27.344,50.293,745.605
1532485833.189,43.945,16.113,27.832,41.992,81.055
1532485833.193,51.758,20.020,29.785,41.992,-684.570
1532485833.197,45.410,43.457,29.297,40.527,-533.691
1532485833.201,36.621,44.922,30.762,33.691,-340.332
1532485833.205,37.109,40.039,32.715,31.250,-54.199
1532485833.209,38.086,36.133,32.227,36.621,-471.191
1532485833.213,38.574,40.527,32.227,44.434,-505.371
1532485833.217,39.551,27.344,34.180,40.039,-378.418
1532485833.221,34.180,52.246,34.668,22.949,-56.641
1532485833.225,31.738,74.707,34.668,15.625,813.477
1532485833.228,38.086,13.184,35.645,24.414,352.539
1532485833.232,38.086,6.836,34.180,31.250,-385.742
1532485833.236,30.762,25.879,32.715,21.484,-558.594
1532485833.240,28.320,37.598,32.227,19.043,-633.789
1532485833.244,35.156,54.199,31.250,21.973,-3.418
1532485833.248,37.598,28.320,27.344,26.855,-137.695
1532485833.252,31.738,31.250,27.344,25.391,-455.566
1532485833.256,31.250,41.992,28.320,17.578,-558.594
1532485833.260,29.785,39.062,25.879,20.996,-599.121
1532485833.264,26.855,54.199,25.391,26.367,158.691
1532485833.267,26.367,47.852,26.855,24.414,417.480
1532485833.271,21.973,47.363,28.809,11.230,241.211
1532485833.275,23.438,34.668,28.809,13.184,45.898
1532485833.279,30.762,26.367,26.367,25.879,-429.688
1532485833.283,27.344,76.660,25.391,7.324,288.574
1532485833.287,22.949,47.852,22.949,0.488,775.391
1532485833.291,26.367,9.766,21.484,9.766,-352.539
1532485833.295,31.738,37.598,24.902,13.672,-625.000
1532485833.299,35.645,40.527,29.297,32.715,-446.777
1532485833.303,25.879,47.363,25.879,29.785,-145.996
1532485833.307,22.461,34.180,22.949,24.902,-184.570
1532485833.310,30.762,33.203,26.367,28.320,-577.148
1532485833.314,33.691,54.688,27.832,38.574,53.223
1532485833.318,43.457,32.227,27.832,50.781,217.773
1532485833.322,43.945,47.852,26.367,44.922,-13.672
1532485833.326,27.832,71.289,26.367,26.367,713.379
1532485833.330,26.367,18.066,29.297,28.320,101.074
1532485833.334,27.832,18.066,31.738,31.250,-511.230
1532485833.338,20.996,30.273,34.668,22.949,-603.516
1532485833.342,24.414,42.969,32.227,24.414,-581.543
1532485833.346,35.156,33.203,30.762,30.273,-112.793
1532485833.350,36.621,17.578,28.809,32.227,-266.602
1532485833.353,36.621,29.785,27.344,27.832,-477.051
1532485833.357,37.598,31.250,27.344,26.855,-624.512
1532485833.361,38.574,57.617,28.809,36.621,-79.102
1532485833.365,40.527,71.289,28.809,43.457,861.816
1532485833.369,37.598,17.578,31.250,33.691,192.871
1532485833.373,29.297,11.719,29.785,24.902,-630.371
1532485833.377,35.645,30.762,27.344,37.109,-693.848
1532485833.381,38.086,37.109,31.250,44.922,-399.414
1532485833.385,30.762,28.809,28.320,38.574,111.328
1532485833.389,27.832,23.926,25.879,32.227,-377.441
1532485833.392,27.832,41.016,29.297,26.855,-646.484
1532485833.396,35.156,37.598,29.785,34.180,-466.309
1532485833.400,33.691,31.738,26.367,30.762,-288.086
1532485833.404,32.715,45.410,27.344,20.508,167.480
1532485833.408,37.109,44.922,28.320,28.320,220.215
1532485833.412,35.156,27.344,27.344,28.320,116.211
1532485833.416,32.227,15.137,27.832,19.531,-166.504
1532485833.420,27.344,34.668,26.855,21.484,-435.547
1532485833.424,26.367,86.914,26.367,17.090,490.234
1532485833.428,36.133,39.062,26.855,21.973,653.809
1532485833.432,38.086,20.508,24.902,40.039,-83.496
1532485833.435,32.715,29.785,25.391,37.109,-275.879
1532485833.439,28.320,27.344,23.926,26.855,-611.816
1532485833.443,30.273,63.477,24.414,27.344,-115.723
1532485833.447,38.574,39.062,28.809,30.273,-35.645
1532485833.451,36.621,29.785,33.691,33.691,-405.762
1532485833.455,31.250,51.758,35.156,30.762,-9.766
1532485833.459,34.668,35.156,31.250,32.227,69.824
1532485833.463,36.621,58.594,31.738,36.133,266.602
1532485833.467,37.598,48.828,29.785,31.738,784.180
1532485833.471,36.133,-3.418,26.367,24.414,-154.297
1532485833.474,31.250,26.367,26.367,22.461,-731.445
1532485833.478,35.156,41.504,28.809,30.762,-633.789
1532485833.482,34.180,46.875,26.855,31.738,-232.422
1532485833.486,25.391,30.273,26.855,22.461,-57.129
1532485833.490,28.320,24.414,27.344,19.043,-556.152
1532485833.494,33.691,33.691,27.344,27.832,-564.453
1532485833.498,29.297,27.344,30.273,41.992,-426.270
1532485833.502,24.414,55.176,30.762,34.668,125.000
1532485833.506,25.391,68.359,27.832,29.297,833.496
1532485833.510,33.691,14.160,24.414,33.691,-1.953
1532485833.514,36.621,12.207,24.902,34.668,-534.180
1532485833.517,32.227,29.785,29.297,30.273,-460.449
1532485833.521,24.414,30.762,30.762,22.461,-463.867
1532485833.525,25.879,24.902,32.715,26.367,-158.691
1532485833.529,32.715,23.438,32.227,41.504,-363.770
1532485833.533,32.227,28.320,34.180,37.109,-376.953
1532485833.537,28.809,29.297,36.621,23.438,-461.426
1532485833.541,28.320,37.109,29.785,33.203,-473.633
1532485833.545,32.715,39.062,26.855,44.922,70.312
1532485833.549,36.621,40.527,28.809,43.945,331.543
1532485833.553,36.621,31.250,29.785,39.062,216.309
1532485833.557,38.086,20.508,31.250,37.109,-395.996
1532485833.560,40.039,40.039,28.809,40.039,-502.441
1532485833.564,40.039,81.543,26.855,41.504,687.012
1532485833.568,43.945,19.531,33.691,37.598,643.066
1532485833.572,38.574,-2.930,35.156,35.645,-437.012
1532485833.576,38.574,30.762,30.762,22.949,-680.176
1532485833.580,43.457,36.133,32.227,32.227,-440.918
1532485833.584,38.574,44.922,33.691,38.574,224.609
1532485833.588,40.527,27.344,35.156,31.250,-174.805
1532485833.592,44.922,35.645,34.668,32.715,-633.301
1532485833.596,46.387,50.293,32.715,35.156,-59.082
1532485833.599,46.875,45.410,37.109,38.086,254.395
1532485833.603,41.504,64.941,37.109,31.250,684.082
1532485833.607,38.574,25.391,33.691,30.762,630.859
1532485833.611,45.410,2.441,33.691,35.645,-345.215
1532485833.615,49.316,26.855,36.621,38.086,-489.258
1532485833.619,47.363,21.973,35.156,40.039,-506.348
1532485833.623,45.898,53.223,35.156,40.039,-252.441
1532485833.627,54.688,46.875,38.574,51.270,-212.891
1532485833.631,58.105,40.527,38.086,57.617,-433.105
1532485833.635,50.293,47.363,38.574,56.641,-335.449
1532485833.639,44.434,41.016,41.016,51.270,-588.867
1532485833.642,43.945,75.684,37.598,41.992,-0.488
1532485833.646,49.316,62.012,38.086,46.387,852.051
1532485833.650,51.270,7.812,43.457,51.758,31.738
1532485833.654,44.434,19.531,43.457,39.551,-584.473
1532485833.658,43.945,30.762,40.039,35.645,-706.543
1532485833.662,49.805,41.992,40.039,50.781,-437.012
1532485833.666,50.781,29.785,41.992,56.152,15.625
1532485833.670,38.574,25.879,42.969,40.527,-360.352
1532485833.674,29.785,37.109,42.480,41.504,-606.445
1532485833.678,35.645,42.480,39.551,55.664,-564.453
1532485833.682,37.109,39.062,41.504,50.293,-253.418
1532485833.685,28.320,20.020,40.039,40.527,104.980
1532485833.689,25.879,37.109,31.250,35.645,78.613
1532485833.693,29.297,44.922,28.809,34.180,174.805
1532485833.697,35.156,13.184,38.574,36.133,-136.230
1532485833.701,33.203,26.367,37.598,38.086,-197.266
1532485833.705,24.902,65.918,37.109,29.785,743.164
1532485833.709,32.227,16.602,40.527,35.156,205.078
1532485833.713,38.086,11.230,36.621,39.062,-495.117
1532485833.717,35.645,30.762,36.621,39.551,-429.688
1532485833.721,31.738,39.062,36.621,39.551,-416.992
1532485833.724,29.297,42.969,33.203,40.039,-1.465
1532485833.728,38.574,30.273,31.250,40.039,-290.039
1532485833.732,44.922,46.875,29.297,28.809,-374.023
1532485833.736,29.297,54.199,28.320,27.832,47.852
1532485833.740,32.227,46.875,28.320,25.879,-52.246
1532485833.744,48.828,76.660,26.367,21.973,591.309
1532485833.748,50.781,28.809,32.715,30.762,625.977
1532485833.752,42.480,8.789,36.621,37.109,-322.266
1532485833.756,39.551,35.156,29.785,38.574,-637.207
1532485833.760,46.387,43.457,29.297,41.992,-645.996
1532485833.764,46.875,59.570,31.250,44.922,63.477
1532485833.767,42.969,28.809,34.668,42.480,-31.250
1532485833.771,43.945,30.762,35.645,38.086,-540.527
1532485833.775,44.434,37.109,34.180,44.434,-564.453
1532485833.779,45.898,36.133,35.645,47.852,-530.273
1532485833.783,41.504,67.383,34.180,46.875,363.770
1532485833.787,37.109,28.809,31.250,38.574,573.242
1532485833.791,38.574,11.719,30.273,28.320,-453.613
1532485833.795,39.551,36.133,29.785,32.715,-562.500
1532485833.799,39.062,29.785,30.273,32.715,-438.965
1532485833.803,34.668,47.852,27.832,30.762,-81.055
1532485833.806,35.156,37.598,27.832,32.227,6.348
1532485833.810,40.039,31.738,29.785,32.715,-488.770
1532485833.814,42.969,37.109,32.227,44.922,-362.305
1532485833.818,43.457,35.645,34.668,42.969,-353.516
1532485833.822,40.039,49.805,28.320,25.879,-276.855
1532485833.826,45.898,44.922,26.855,32.715,-65.918
1532485833.830,48.828,50.781,28.320,41.016,125.000
1532485833.834,43.457,48.340,28.320,35.156,434.570
1532485833.838,41.504,19.043,29.785,28.809,-208.984
1532485833.842,40.527,46.875,29.297,23.438,-380.371
1532485833.846,41.016,75.195,29.297,31.250,732.910
1532485833.849,43.945,14.160,31.738,35.156,281.250
1532485833.853,38.086,18.555,30.273,30.273,-342.773
1532485833.857,37.598,32.715,28.809,36.133,-502.441
1532485833.861,40.039,29.785,26.855,35.645,-476.562
1532485833.865,37.109,20.508,25.879,40.039,94.727
1532485833.869,36.621,15.137,24.902,45.410,-255.371
1532485833.873,33.691,38.574,22.949,36.133,-557.617
1532485833.877,30.273,47.363,21.484,33.691,-213.867
1532485833.881,30.762,55.176,24.902,41.992,211.426
1532485833.885,30.273,70.801,28.809,37.598,847.168
1532485833.889,30.762,14.160,29.297,33.691,255.859
1532485833.892,32.715,12.695,31.250,36.621,-599.121
1532485833.896,31.250,31.738,27.832,42.480,-574.219
1532485833.900,28.320,34.180,27.344,38.086,-361.816
1532485833.904,25.391,44.434,29.785,18.555,88.379
1532485833.908,24.414,30.762,29.785,20.020,-359.863
1532485833.912,25.879,39.062,27.832,21.973,-551.758
1532485833.916,26.367,33.203,27.344,21.973,-343.750
1532485833.920,23.438,34.180,31.250,23.438,-425.293
1532485833.924,22.949,67.383,33.691,16.113,347.656
1532485833.928,31.738,39.551,34.668,21.484,333.984
1532485833.931,36.133,26.367,36.133,34.668,-270.020
1532485833.935,23.438,30.273,37.109,21.973,-270.996
1532485833.939,21.973,27.344,39.551,20.020,-562.500
1532485833.943,30.273,75.195,33.203,31.250,160.645
1532485833.947,25.391,37.598,35.645,28.809,635.742
1532485833.951,7.324,2.441,48.828,15.137,-196.777
1532485833.955,-0.488,25.879,48.828,2.441,-516.113
1532485833.959,-3.906,32.227,52.734,-4.883,-602.539
1532485833.963,-9.766,45.410,56.641,0.488,-118.652
1532485833.967,-9.766,25.391,57.129,-0.488,105.469
1532485833.971,-16.602,41.504,58.105,-12.695,117.188
1532485833.974,-22.949,44.922,60.547,-20.508,173.828
1532485833.978,-21.973,13.672,64.453,-24.902,-387.207
1532485833.982,-30.762,47.363,62.012,-25.879,-35.156
1532485833.986,-38.086,60.547,64.941,-34.180,829.102
1532485833.990,-41.504,11.230,69.336,-43.457,-68.848
1532485833.994,-39.062,29.297,70.801,-36.621,-628.418
1532485833.998,-34.668,40.039,68.848,-45.410,-428.711
1532485834.002,-44.922,33.691,67.871,-55.664,-253.906
1532485834.006,-47.852,33.691,71.777,-51.758,-72.754
1532485834.010,-42.480,33.691,74.707,-57.129,-471.680
1532485834.014,-45.410,41.504,75.684,-52.734,-395.508
1532485834.017,-55.176,43.457,78.613,-47.363,98.633
1532485834.021,-57.617,51.270,77.148,-54.199,359.375
1532485834.025,-54.688,72.266,76.660,-59.082,802.246
1532485834.029,-45.410,25.879,78.125,-46.387,212.891
1532485834.033,-40.039,15.137,70.801,-27.832,-417.480
1532485834.037,-40.527,23.926,68.359,-24.902,-554.199
1532485834.041,-38.574,31.738,68.359,-25.879,-571.777
1532485834.045,-23.926,37.109,65.430,-11.719,-16.602
1532485834.049,-13.184,21.973,66.406,13.672,-208.496
1532485834.053,-16.113,28.320,65.430,13.184,-437.988
1532485834.056,-9.277,31.738,56.641,12.207,-594.238
1532485834.060,3.418,38.574,52.734,18.555,-544.434
1532485834.064,11.230,47.852,47.363,23.438,526.855
1532485834.068,13.672,21.973,33.691,33.691,564.453
1532485834.072,18.555,10.254,37.598,37.109,-284.668
1532485834.076,23.438,16.113,43.945,34.180,-583.008
1532485834.080,31.250,27.832,37.109,38.574,-445.312
1532485834.084,42.969,54.199,27.344,59.082,564.453
1532485834.088,44.434,0.488,20.020,58.594,372.559
1532485834.092,54.688,-3.906,24.414,55.664,-576.660
1532485834.096,73.242,21.973,25.391,67.383,-544.434
1532485834.099,70.312,23.438,19.043,67.383,-376.953
1532485834.103,72.754,42.969,16.113,80.078,90.820
1532485834.107,91.309,26.367,16.113,89.355,-201.660
1532485834.111,91.797,40.039,11.719,87.891,-166.992
1532485834.115,89.844,39.551,9.766,82.031,397.461
1532485834.119,101.074,10.742,16.113,92.773,-232.422
1532485834.123,97.168,47.852,9.277,92.285,18.555
1532485834.127,96.680,38.574,2.441,92.773,793.457
1532485834.131,107.910,-1.953,3.418,105.469,-85.938
1532485834.135,109.375,16.113,4.395,93.262,-486.328
1532485834.139,104.980,23.926,10.742,98.145,-622.559
1532485834.142,103.027,41.992,10.254,98.633,-438.477
1532485834.146,104.004,30.273,5.371,94.727,-67.871
1532485834.150,104.004,15.625,9.766,91.309,-343.750
1532485834.154,99.121,30.762,13.672,83.984,-454.590
1532485834.158,96.191,43.457,8.301,82.031,-190.430
1532485834.162,99.609,55.176,7.324,77.637,293.945
1532485834.166,93.262,56.152,8.789,71.777,824.219
1532485834.170,89.355,8.789,9.277,69.336,58.594
1532485834.174,83.984,18.555,10.742,63.477,-689.453
1532485834.178,81.055,37.109,11.719,65.430,-668.945
1532485834.181,85.449,35.645,12.207,75.684,-371.094
1532485834.185,72.754,28.809,15.137,72.754,-7.812
1532485834.189,69.824,24.902,13.672,53.223,-464.355
1532485834.193,77.148,36.621,15.137,58.594,-613.281
1532485834.197,82.031,41.016,22.949,73.242,-443.848
1532485834.201,78.125,26.367,11.719,63.965,-266.602
1532485834.205,71.777,38.086,6.836,60.059,296.875
1532485834.209,77.148,49.316,17.090,65.430,302.734
1532485834.213,75.684,32.715,21.973,67.871,-57.129
1532485834.217,69.824,21.484,23.438,64.453,-322.266
1532485834.221,60.547,42.480,19.531,59.082,-356.934
1532485834.224,56.641,86.914,19.043,49.316,639.648
1532485834.228,70.801,30.762,25.391,59.082,455.078
1532485834.232,73.242,12.695,24.902,67.871,-348.145
1532485834.236,64.453,34.668,22.461,53.711,-484.863
1532485834.240,60.059,43.457,22.949,51.270,-559.570
1532485834.244,62.988,56.152,24.414,53.223,28.320
1532485834.248,64.453,41.504,26.367,55.664,-92.285
1532485834.252,57.129,48.828,27.832,56.641,-50.781
1532485834.256,53.711,48.340,28.320,42.969,129.883
1532485834.260,62.012,42.969,28.320,43.945,-391.113
1532485834.263,62.500,88.867,26.855,55.176,379.395
1532485834.267,61.523,43.457,28.809,56.152,751.953
1532485834.271,59.570,14.160,30.762,47.852,-390.137
1532485834.275,57.617,55.664,31.250,40.527,-578.125
1532485834.279,59.570,45.410,34.180,51.758,-454.102
1532485834.283,60.059,56.152,36.621,62.012,-32.227
1532485834.287,55.176,38.086,34.180,47.363,-87.891
1532485834.291,47.852,30.762,30.273,38.086,-656.250
1532485834.295,52.246,54.688,33.691,47.363,-502.441
1532485834.299,55.176,53.711,34.668,47.852,-55.176
1532485834.303,51.758,61.035,29.785,30.762,458.984
1532485834.306,48.828,57.617,30.762,30.273,776.855
1532485834.310,51.270,17.578,34.668,47.363,-167.969
1532485834.314,45.898,30.273,35.645,44.922,-546.387
1532485834.318,37.598,35.645,37.598,39.551,-481.934
1532485834.322,33.691,46.387,35.645,33.691,-437.988
1532485834.326,36.133,46.387,31.738,37.598,-218.262
1532485834.330,41.016,31.738,31.738,43.457,-425.781
1532485834.334,38.086,30.273,33.203,41.504,-373.535
1532485834.338,34.668,38.086,32.227,26.367,-513.184
1532485834.342,36.133,51.270,31.738,24.414,-504.395
1532485834.346,37.598,55.664,31.250,44.434,272.461
1532485834.349,37.109,38.574,32.227,53.711,395.996
1532485834.353,33.203,25.879,31.250,49.805,-131.836
1532485834.357,38.086,27.344,33.691,47.852,-604.492
1532485834.361,55.664,55.664,41.992,63.477,-404.785
1532485834.365,44.434,84.961,35.645,39.551,725.586
1532485834.369,34.180,21.973,29.297,21.973,293.945
1532485834.373,42.969,19.531,29.297,34.668,-589.844
1532485834.377,55.176,47.363,29.297,45.410,-666.016
1532485834.381,67.383,48.828,30.273,58.594,-357.910
1532485834.385,65.430,41.992,33.203,61.035,172.852
1532485834.388,56.152,34.668,36.133,53.711,-319.336
1532485834.392,58.594,65.430,36.133,49.805,-169.434
1532485834.396,63.477,50.781,37.109,58.594,253.906
1532485834.400,60.059,36.133,38.086,59.570,-93.262
1532485834.404,49.805,82.520,34.668,45.410,637.207
1532485834.408,45.898,36.133,34.668,36.133,470.215
1532485834.412,53.711,20.996,35.645,43.945,-492.676
1532485834.416,55.176,44.434,35.645,54.688,-490.723
1532485834.420,47.363,46.387,38.086,46.875,-478.516
1532485834.424,43.457,67.383,36.621,45.410,-27.832
1532485834.428,49.316,41.504,30.273,51.758,-218.750
1532485834.431,49.805,30.762,30.762,48.828,-483.398
1532485834.435,43.945,35.156,35.645,24.414,-322.266
1532485834.439,42.969,48.340,36.133,17.578,-201.172
1532485834.443,45.410,75.684,33.203,40.039,449.707
1532485834.447,50.781,37.109,26.367,49.316,757.324
1532485834.451,50.293,1.953,23.926,41.016,-145.020
1532485834.455,45.410,27.344,22.461,30.273,-619.141
1532485834.459,44.922,37.598,21.973,30.273,-727.051
1532485834.463,42.480,51.758,22.461,32.227,-285.645
1532485834.467,42.480,30.762,24.902,34.668,-21.484
1532485834.471,42.969,24.902,25.879,29.297,-475.098
1532485834.474,43.945,47.363,27.344,29.785,-595.703
1532485834.478,48.340,43.945,28.809,39.551,-584.473
1532485834.482,45.898,42.480,23.438,32.715,-150.391
1532485834.486,39.551,39.062,20.508,27.344,444.824
1532485834.490,35.645,33.203,22.949,26.855,275.391
1532485834.494,38.574,29.297,24.902,31.738,-0.488
1532485834.498,49.805,21.484,27.832,46.875,-343.750
1532485834.502,42.969,48.340,27.832,35.645,-178.711
1532485834.506,27.832,71.777,27.832,24.902,744.141
1532485834.510,32.715,25.391,28.809,30.762,62.012
1532485834.513,39.062,27.832,33.691,37.109,-551.270
1532485834.517,31.250,30.273,33.203,34.180,-444.824
1532485834.521,18.066,28.320,24.902,12.207,-420.898
1532485834.525,17.578,27.832,24.902,11.230,-131.836
1532485834.529,23.438,26.367,28.809,14.648,-375.000
1532485834.533,21.973,48.828,27.344,18.555,47.852
1532485834.537,16.602,34.180,26.367,18.066,206.055
1532485834.541,13.672,37.109,25.391,11.230,-261.719
1532485834.545,18.555,74.219,26.855,18.555,633.789
1532485834.549,25.391,11.719,34.668,26.367,433.105
1532485834.553,19.531,2.441,33.691,23.438,-458.008
1532485834.556,14.160,35.156,28.809,13.184,-692.871
1532485834.560,17.578,40.527,29.785,20.508,-613.281
1532485834.564,19.531,40.039,30.273,26.855,98.633
1532485834.568,20.508,22.949,29.297,20.508,-144.043
1532485834.572,14.648,30.273,28.320,18.066,-591.797
1532485834.576,17.578,40.039,28.809,22.461,-586.914
1532485834.580,26.367,50.781,26.855,23.926,-151.855
1532485834.584,27.344,66.406,27.832,24.414,793.945
1532485834.588,29.297,17.090,32.227,24.414,545.898
1532485834.592,33.691,9.277,37.109,26.367,-516.113
1532485834.595,35.156,31.738,32.715,27.344,-635.742
1532485834.599,39.062,31.250,28.809,23.438,-456.543
1532485834.603,36.621,55.664,29.785,29.297,6.348
1532485834.607,32.227,39.551,31.738,31.738,-260.254
1532485834.611,37.598,33.691,34.180,27.832,-631.348
1532485834.615,42.480,37.109,34.668,34.668,-365.723
1532485834.619,39.062,34.668,34.180,33.203,-437.012
1532485834.623,37.598,59.570,34.668,31.738,-145.020
1532485834.627,48.340,59.570,37.598,44.434,278.809
1532485834.631,61.035,49.316,37.109,46.875,314.941
1532485834.635,63.965,33.203,37.109,46.387,232.910
1532485834.638,59.082,25.879,41.992,47.852,-465.332
1532485834.642,51.758,69.336,39.062,37.598,-249.512
1532485834.646,49.316,62.012,35.645,31.250,797.363
1532485834.650,51.758,4.883,38.574,45.898,104.980
1532485834.654,43.457,24.902,38.086,40.039,-550.781
1532485834.658,42.969,46.875,39.551,25.879,-675.781
1532485834.662,48.828,50.781,40.039,37.109,-427.734
1532485834.666,45.410,32.227,42.480,47.363,24.414
1532485834.670,43.945,24.902,45.410,42.480,-338.379
1532485834.674,40.039,58.105,43.457,36.133,-92.773
1532485834.678,42.480,46.875,43.457,41.016,129.883
1532485834.681,48.340,39.551,46.387,47.852,-20.508
1532485834.685,39.551,71.289,44.434,27.832,735.352
1532485834.689,30.273,24.902,41.504,22.461,127.930
1532485834.693,34.180,23.438,44.922,33.203,-707.520
1532485834.697,44.434,48.828,46.387,36.133,-448.730
1532485834.701,41.504,36.133,41.504,23.926,-195.801
1532485834.705,36.133,33.203,39.551,23.438,1.953
1532485834.709,39.062,37.109,41.992,36.133,-456.543
1532485834.713,44.922,41.504,42.480,40.527,-545.898
1532485834.717,43.945,35.645,43.945,38.086,-372.070
1532485834.720,33.203,57.129,41.992,26.855,-14.160
1532485834.724,28.809,77.637,36.621,17.090,818.848
1532485834.728,35.156,17.578,37.598,30.273,371.582
1532485834.732,34.668,7.812,37.598,30.762,-385.254
1532485834.736,31.738,28.320,34.180,11.719,-540.039
1532485834.740,32.715,39.062,30.762,21.484,-635.742
1532485834.744,39.062,54.688,29.785,32.227,-52.734
1532485834.748,45.410,40.527,32.227,32.227,-158.203
1532485834.752,48.340,44.434,34.668,20.996,-456.543
1532485834.756,49.805,41.016,35.156,30.273,-534.180
1532485834.760,54.688,46.875,34.668,50.293,-623.047
1532485834.763,54.199,69.336,36.621,40.527,62.988
1532485834.767,45.898,55.176,31.738,26.855,488.770
1532485834.771,41.992,40.039,26.855,25.391,202.148
1532485834.775,42.969,37.109,30.273,29.297,-314.941
1532485834.779,48.828,40.527,34.668,41.504,-590.332
1532485834.783,45.410,76.172,35.156,40.039,222.656
1532485834.787,40.039,50.293,35.156,29.297,787.109
1532485834.791,41.992,12.207,34.668,28.320,-304.199
1532485834.795,45.898,40.527,32.715,26.855,-643.555
1532485834.799,47.852,42.480,37.109,40.527,-456.055
1532485834.803,42.480,51.270,37.598,44.922,-164.062
1532485834.806,36.133,41.016,34.180,35.645,-162.109
1532485834.810,41.992,40.039,36.133,34.180,-565.430
1532485834.814,46.387,65.430,35.156,40.039,57.617
1532485834.818,43.457,40.039,36.133,36.133,238.281
1532485834.822,35.645,46.387,39.551,39.062,-30.273
1532485834.826,37.109,72.266,39.062,41.016,704.102
1532485834.830,46.875,19.531,41.504,46.875,122.559
1532485834.834,39.551,19.531,41.504,54.199,-493.652
1532485834.838,31.250,37.109,43.457,41.992,-574.219
1532485834.842,38.086,48.340,46.387,31.250,-584.473
1532485834.845,42.969,45.410,42.969,38.086,-124.512
1532485834.849,42.480,33.691,40.527,41.992,-262.695
1532485834.853,40.527,38.086,42.480,34.668,-459.473
1532485834.857,38.086,41.992,43.945,29.785,-617.188
1532485834.861,37.598,70.801,40.039,32.227,-99.609
1532485834.865,38.086,85.449,37.109,39.062,860.840
1532485834.869,38.086,26.855,42.480,45.898,237.305
1532485834.873,44.922,20.020,44.434,45.898,-610.840
1532485834.877,51.758,46.875,37.109,45.410,-718.262
1532485834.881,49.316,53.711,35.156,46.387,-423.340
1532485834.885,45.410,41.992,41.992,43.457,141.602
1532485834.888,45.410,24.902,44.434,41.504,-327.637
1532485834.892,50.293,35.645,40.039,45.410,-644.531
1532485834.896,53.223,34.180,35.156,43.945,-489.746
1532485834.900,53.223,35.645,31.250,47.363,-281.738
1532485834.904,50.293,44.922,30.273,43.457,217.773
1532485834.908,48.340,47.852,31.250,43.457,116.699
1532485834.912,49.805,55.664,29.297,47.852,192.383
1532485834.916,50.781,30.273,29.785,49.316,218.750
1532485834.920,47.852,24.902,31.250,46.875,-344.238
1532485834.924,44.434,82.031,25.391,37.109,419.434
1532485834.927,52.734,40.039,29.297,32.715,696.777
1532485834.931,60.059,11.230,32.715,47.852,-250.488
1532485834.935,58.594,37.109,27.832,55.664,-448.242
1532485834.939,50.293,41.016,25.879,41.016,-600.098
1532485834.943,42.969,62.988,24.902,36.621,-163.574
1532485834.947,53.711,39.062,27.344,49.316,-51.270
1532485834.951,55.664,31.250,25.879,44.434,-391.113
1532485834.955,45.898,61.035,24.902,30.273,24.902
1532485834.959,50.781,45.410,28.320,37.109,-14.160
1532485834.963,52.734,53.223,23.438,40.039,95.703
1532485834.967,50.293,49.805,20.508,47.363,794.434
1532485834.970,53.711,8.301,24.902,51.758,-86.914
1532485834.974,55.664,32.715,21.973,33.691,-724.609
1532485834.978,62.988,43.457,20.508,46.387,-651.855
1532485834.982,59.570,46.387,22.949,63.477,-269.043
1532485834.986,49.316,33.691,27.344,46.875,-32.715
1532485834.990,46.875,29.785,26.367,38.574,-526.855
1532485834.994,48.340,41.504,23.438,44.434,-596.680
1532485834.998,51.758,37.109,24.414,46.387,-446.777
1532485835.002,48.340,61.523,23.926,37.598,128.906
1532485835.006,39.062,67.871,24.414,33.203,842.773
1532485835.010,42.480,12.207,26.367,43.457,4.883
1532485835.013,48.340,16.113,27.344,50.781,-526.367
1532485835.017,48.828,32.227,31.250,43.945,-487.305
1532485835.021,45.410,42.480,30.762,40.527,-391.113
1532485835.025,41.504,38.574,31.250,46.387,187.988
1532485835.029,43.945,21.484,32.715,47.363,-275.391
1532485835.033,39.062,30.762,32.715,45.410,-440.430
1532485835.037,32.227,33.691,32.715,37.598,-455.078
1532485835.041,31.250,44.434,28.320,38.574,-506.348
1532485835.045,35.645,46.875,27.344,41.992,53.223
1532485835.049,36.621,43.945,28.809,43.945,306.641
1532485835.052,36.133,30.762,29.785,43.457,195.312
1532485835.056,37.109,20.508,33.203,43.945,-417.480
1532485835.060,37.109,47.363,38.086,32.715,-560.547
1532485835.064,34.180,75.684,32.227,26.367,633.789
1532485835.068,35.645,10.254,32.227,39.551,558.105
1532485835.072,32.227,3.906,34.180,39.551,-464.844
1532485835.076,33.203,39.062,31.250,32.227,-678.223
1532485835.080,35.156,44.922,30.762,31.738,-504.883
1532485835.084,33.203,54.199,31.738,34.180,195.801
1532485835.088,33.691,29.785,31.250,31.738,-143.555
1532485835.092,40.039,43.945,30.273,39.062,-655.762
1532485835.095,44.922,65.918,30.273,45.898,-39.551
1532485835.099,44.922,41.504,27.344,32.227,221.191
1532485835.103,35.645,61.523,27.344,29.297,545.410
1532485835.107,29.785,40.039,27.344,31.250,666.992
1532485835.111,33.691,11.719,26.367,33.203,-343.262
1532485835.115,37.598,34.668,30.273,38.086,-540.527
1532485835.119,32.715,48.340,30.762,29.297,-339.844
1532485835.123,29.785,59.570,27.832,24.414,-128.418
1532485835.127,35.645,35.645,26.855,28.320,-232.910
1532485835.131,33.691,30.762,25.879,31.738,-459.961
1532485835.135,30.762,36.621,24.902,37.109,-342.285
1532485835.138,30.762,34.180,26.855,33.203,-562.500
1532485835.142,30.762,75.195,26.855,29.785,-31.250
1532485835.146,34.668,78.125,29.785,32.715,841.309
1532485835.150,41.016,13.184,36.133,41.504,68.359
1532485835.154,37.109,17.090,36.621,37.598,-548.828
1532485835.158,34.668,40.527,32.227,25.391,-687.500
1532485835.162,39.551,50.781,30.273,28.809,-484.375
1532485835.166,41.992,39.062,31.738,31.250,-3.906
1532485835.170,41.016,29.297,35.645,29.785,-330.566
1532485835.174,38.086,39.551,37.598,20.996,-591.797
1532485835.177,37.598,42.969,36.621,29.785,-588.379
1532485835.181,36.621,43.457,38.574,48.828,-283.691
1532485835.185,33.691,35.645,42.969,40.039,123.047
1532485835.189,29.785,45.898,45.898,36.133,162.109
1532485835.193,33.203,43.945,40.527,40.039,91.309
1532485835.197,40.039,18.555,41.016,43.457,-313.965
1532485835.201,37.109,33.691,41.504,34.668,-226.562
1532485835.205,34.180,75.195,37.598,25.391,746.582
1532485835.209,41.992,21.484,38.574,38.574,232.422
1532485835.213,45.898,14.648,39.551,58.105,-508.789
1532485835.217,44.434,39.062,38.086,40.527,-432.129
1532485835.220,40.039,43.945,38.574,39.551,-386.719
1532485835.224,39.551,53.711,38.574,41.504,32.227
1532485835.228,45.898,39.551,37.109,34.668,-294.922
1532485835.232,42.969,44.434,37.598,41.992,-408.203
1532485835.236,38.086,62.500,37.598,39.062,62.988
1532485835.240,35.645,70.312,35.156,31.250,158.203
1532485835.244,34.180,86.426,31.738,25.879,703.125
1532485835.248,40.039,32.715,36.621,38.086,614.746
1532485835.252,37.109,12.695,38.574,37.598,-300.293
1532485835.256,35.156,41.992,35.645,33.691,-634.277
1532485835.260,41.992,51.758,33.691,31.738,-692.871
1532485835.263,42.969,64.453,29.785,25.391,-30.273
1532485835.267,44.922,36.621,27.832,35.645,-37.109
1532485835.271,40.527,39.062,26.855,28.809,-529.297
1532485835.275,35.645,42.480,27.344,23.926,-578.613
1532485835.279,36.621,35.156,28.320,34.668,-590.332
1532485835.283,36.133,74.219,30.273,32.715,302.734
1532485835.287,35.156,49.805,32.715,36.621,810.059
1532485835.291,29.297,10.254,31.738,41.992,-325.195
1532485835.295,36.621,36.133,27.832,45.410,-676.758
1532485835.299,44.922,39.062,25.391,49.805,-488.770
1532485835.302,39.062,47.852,28.809,58.105,-198.242
1532485835.306,38.086,40.527,30.762,49.316,-164.062
1532485835.310,41.992,34.668,27.832,32.227,-581.055
1532485835.314,42.969,36.133,26.855,39.551,-437.012
1532485835.318,44.922,32.715,28.320,41.992,-382.812
1532485835.322,42.969,44.434,27.344,34.180,-313.965
1532485835.326,42.969,41.016,26.855,41.016,-106.445
1532485835.330,47.363,54.688,29.297,48.828,135.254
1532485835.334,47.852,50.293,30.762,49.316,382.324
1532485835.338,42.969,22.949,29.785,48.340,-273.926
1532485835.342,40.039,57.129,30.762,46.875,-408.691
1532485835.345,41.992,85.449,28.809,42.480,718.750
1532485835.349,46.875,22.949,26.367,48.828,316.895
1532485835.353,43.457,22.949,27.344,42.969,-458.984
1532485835.357,40.527,47.363,25.879,36.133,-634.277
1532485835.361,49.805,45.410,26.367,44.922,-501.953
1532485835.365,54.688,44.434,31.738,46.387,111.816
1532485835.369,47.852,34.180,34.180,36.621,-205.078
1532485835.373,43.457,46.387,31.738,42.969,-534.180
1532485835.377,46.875,61.035,30.762,50.781,-165.527
1532485835.381,46.875,69.824,34.668,48.340,309.082
1532485835.384,43.945,77.637,35.645,52.734,872.070
1532485835.388,45.410,25.391,33.203,38.086,301.270
1532485835.392,43.945,26.367,33.691,38.086,-594.238
1532485835.396,45.898,54.199,37.598,54.199,-609.863
1532485835.400,48.828,57.617,37.598,55.176,-361.816
1532485835.404,42.480,59.570,33.203,45.898,136.230
1532485835.408,44.434,46.387,31.250,36.621,-320.312
1532485835.412,49.316,52.246,32.715,41.016,-577.148
1532485835.416,49.805,44.922,35.156,60.059,-332.520
1532485835.420,46.875,46.387,34.180,55.664,-428.223
1532485835.424,39.551,83.984,29.785,37.109,409.180
1532485835.427,52.734,38.086,29.785,43.945,496.094
1532485835.431,63.477,18.555,34.180,55.664,-332.031
1532485835.435,55.664,35.645,31.250,56.152,-391.602
1532485835.439,51.270,39.551,28.809,49.316,-592.773
1532485835.443,56.152,75.195,30.273,42.969,-64.941
1532485835.447,59.082,49.316,34.180,49.805,139.160
1532485835.451,51.758,35.645,35.156,50.293,-333.496
1532485835.455,42.969,42.480,29.785,43.457,-422.852
1532485835.459,43.457,41.992,29.297,41.016,-593.750
1532485835.463,47.363,60.059,26.855,46.387,-158.203
1532485835.467,48.340,42.480,25.391,51.270,134.277
1532485835.470,38.574,48.828,30.273,51.758,38.086
1532485835.474,36.133,62.500,30.273,38.574,147.949
1532485835.478,44.922,31.250,26.855,25.391,-276.367
1532485835.482,39.062,56.152,23.926,39.062,-67.383
1532485835.486,30.273,77.148,25.391,24.414,820.312
1532485835.490,33.203,27.832,26.367,10.742,-23.438
1532485835.494,39.062,30.762,24.902,25.391,-647.461
1532485835.498,40.527,42.969,27.344,30.273,-461.914
1532485835.502,35.156,45.898,29.785,27.344,-258.789
1532485835.506,35.645,43.457,33.691,25.391,-46.387
1532485835.509,38.086,35.645,29.297,25.391,-463.867
1532485835.513,44.434,42.969,26.367,30.762,-420.898
1532485835.517,47.852,47.363,28.809,37.598,76.172
1532485835.521,39.062,54.688,30.273,35.645,368.652
1532485835.525,39.062,70.801,28.809,33.691,822.266
1532485835.529,49.316,22.949,28.809,46.387,228.027
1532485835.533,49.805,17.578,27.832,54.688,-392.578
1532485835.537,44.434,39.062,25.879,44.922,-521.973
1532485835.541,41.016,55.664,27.344,35.156,-389.648
1532485835.545,43.945,47.363,28.320,38.574,95.215
1532485835.549,48.340,27.344,27.832,42.969,-223.145
1532485835.552,46.387,37.109,30.762,43.945,-390.625
1532485835.556,44.434,40.527,33.203,48.340,-548.340
1532485835.560,47.852,52.734,29.297,38.086,-564.453
1532485835.564,50.293,72.266,24.414,39.551,529.785
1532485835.568,48.828,40.039,30.762,44.922,517.090
1532485835.572,51.270,37.109,40.527,38.086,-353.516
1532485835.576,38.574,41.504,29.785,41.016,-541.992
1532485835.580,32.227,37.598,22.949,44.922,-452.148
1532485835.584,39.551,70.312,25.391,38.574,529.785
1532485835.588,40.527,21.484,26.855,33.203,445.312
1532485835.592,40.527,11.719,26.855,27.832,-524.414
1532485835.595,46.875,36.621,24.902,36.621,-543.457
1532485835.599,50.781,37.598,26.367,46.387,-372.070
1532485835.603,45.410,62.988,30.762,37.109,88.379
1532485835.607,43.457,47.363,32.715,33.203,-151.855
1532485835.611,43.457,52.246,24.902,35.645,-153.809
1532485835.615,47.363,53.711,22.949,41.016,405.273
1532485835.619,46.387,22.461,27.832,42.969,-168.945
1532485835.623,36.133,68.848,25.879,34.668,14.648
1532485835.627,37.109,66.406,23.926,21.484,797.852
1532485835.631,47.363,12.207,26.855,30.762,-60.059
1532485835.634,42.480,25.879,26.367,34.668,-456.055
1532485835.638,36.621,35.156,24.902,28.320,-555.664
1532485835.642,42.480,55.664,26.855,32.227,-437.500
1532485835.646,46.875,43.945,26.855,35.645,-65.918
1532485835.650,45.898,29.785,28.809,44.434,-304.199
1532485835.654,41.504,43.945,29.297,42.480,-412.109
1532485835.658,38.574,55.664,22.949,31.250,-231.445
1532485835.662,41.504,68.359,26.855,37.109,234.375
1532485835.666,41.016,68.359,32.227,40.039,834.961
1532485835.670,36.621,20.020,30.762,33.203,115.723
1532485835.674,34.180,31.738,27.832,27.832,-648.438
1532485835.677,37.109,51.758,26.855,24.902,-681.152
1532485835.681,39.062,46.387,28.809,24.414,-390.137
1532485835.685,33.691,34.668,29.785,20.996,27.344
1532485835.689,30.273,35.645,27.344,24.414,-428.711
1532485835.693,35.645,53.711,29.785,32.227,-628.906
1532485835.697,40.527,40.039,28.809,38.086,-484.375
1532485835.701,46.875,41.504,31.738,43.457,-253.906
1532485835.705,46.875,64.453,35.645,44.434,343.750
1532485835.709,35.645,46.875,24.902,29.297,321.289
1532485835.713,41.992,27.344,22.461,37.109,76.660
1532485835.716,45.410,17.090,27.344,38.086,-234.375
1532485835.720,38.086,34.668,26.367,15.137,-359.375
1532485835.724,35.645,84.473,26.855,22.461,641.602
1532485835.728,43.945,32.227,32.227,43.945,466.797
1532485835.732,44.434,11.719,31.250,52.734,-370.117
1532485835.736,40.527,29.785,28.809,44.434,-491.211
1532485835.740,41.992,43.457,30.273,39.551,-569.336
1532485835.744,41.504,59.082,25.391,43.945,14.648
1532485835.748,40.527,31.738,26.367,43.457,-102.051
1532485835.752,44.922,51.270,38.086,48.828,-1.953
1532485835.756,39.062,44.922,34.180,40.039,248.047
1532485835.759,30.273,18.066,23.438,19.043,-326.660
1532485835.763,31.250,58.105,23.926,23.438,225.098
1532485835.767,37.109,26.855,25.879,42.480,340.332
1532485835.771,39.062,13.672,28.809,40.527,-482.422
1532485835.775,36.621,38.086,27.344,28.320,-577.148
1532485835.779,40.527,32.227,25.391,35.645,-633.789
1532485835.783,39.551,61.035,27.832,38.574,121.094
1532485835.787,38.086,34.180,32.715,34.668,603.516
1532485835.791,41.504,6.348,30.762,28.809,-428.711
1532485835.795,43.457,35.156,27.832,25.391,-604.492
1532485835.799,41.016,40.039,29.297,31.738,-93.262
1532485835.802,33.691,52.734,27.344,34.668,371.582
1532485835.806,24.902,49.805,24.414,27.832,769.531
1532485835.810,32.715,9.766,24.902,20.508,-177.734
1532485835.814,39.551,20.996,24.902,31.250,-613.281
1532485835.818,40.039,32.227,25.391,28.809,-504.395
1532485835.822,40.039,45.898,25.879,28.809,-466.309
1532485835.826,45.410,39.062,27.344,45.410,-245.117
1532485835.830,49.805,29.297,30.273,43.457,-457.031
1532485835.834,47.852,33.691,31.250,36.133,-403.320
1532485835.838,42.969,35.156,29.785,33.691,-510.254
1532485835.841,38.574,48.340,29.785,40.039,-516.113
1532485835.845,41.504,57.617,30.273,46.387,254.883
1532485835.849,41.016,43.945,27.832,31.250,403.809
1532485835.853,38.086,30.273,29.297,28.809,-126.465
1532485835.857,39.062,29.785,30.273,38.086,-609.863
1532485835.861,41.504,48.828,27.832,39.062,-444.824
1532485835.865,40.527,74.219,25.391,41.992,711.426
1532485835.869,41.504,12.695,27.344,37.598,327.637
1532485835.873,37.109,10.742,27.344,30.762,-574.219
1532485835.877,33.691,37.109,20.996,26.367,-676.270
1532485835.881,35.645,39.062,20.020,29.297,-405.762
1532485835.884,34.668,33.691,24.902,37.598,170.898
1532485835.888,31.250,25.391,28.320,32.715,-281.250
1532485835.892,24.902,54.199,23.438,23.438,-185.059
1532485835.896,24.414,41.504,22.461,25.879,236.328
1532485835.900,29.297,22.461,25.879,34.668,-130.859
1532485835.904,25.391,67.383,20.996,24.902,605.957
1532485835.908,24.414,22.461,20.996,19.531,517.578
1532485835.912,30.762,0.000,20.996,20.508,-494.629
1532485835.916,31.738,23.926,18.066,21.973,-512.695
1532485835.920,26.855,28.320,19.043,15.625,-486.816
1532485835.924,24.902,50.293,18.555,7.812,-49.316
1532485835.927,34.668,31.738,20.020,15.137,-224.609
1532485835.931,39.062,24.902,23.438,23.926,-506.836
1532485835.935,34.180,31.738,23.438,26.855,-319.824
1532485835.939,32.227,43.457,20.996,21.973,-221.680
1532485835.943,39.062,70.312,19.043,20.508,381.348
1532485835.947,48.828,38.574,19.531,21.973,765.625
1532485835.951,49.316,4.883,23.438,27.832,-123.047
1532485835.955,38.574,20.508,21.484,22.949,-597.168
1532485835.959,33.203,30.273,17.090,15.137,-706.543
1532485835.963,37.109,52.734,16.113,21.484,-332.031
1532485835.966,40.527,30.273,19.531,21.973,-34.180
1532485835.970,32.715,16.113,21.484,19.531,-432.617
1532485835.974,25.391,30.273,18.555,16.113,-563.965
1532485835.978,28.320,31.250,19.043,23.926,-576.660
1532485835.982,26.855,37.598,20.020,28.320,-201.172
1532485835.986,24.414,41.016,20.020,25.879,437.500
1532485835.990,22.949,32.227,21.484,32.715,198.242
1532485835.994,27.344,26.855,23.438,33.203,-297.363
1532485835.998,34.668,20.508,23.926,42.480,-440.918
1532485836.002,30.273,37.598,19.531,28.320,-157.715
1532485836.006,19.531,60.547,17.090,17.578,738.770
1532485836.009,26.367,10.742,21.484,38.574,108.887
1532485836.013,33.691,11.719,23.438,43.457,-523.438
1532485836.017,34.668,27.832,20.508,38.574,-428.223
1532485836.021,34.668,29.785,20.508,34.180,-372.070
1532485836.025,35.156,24.902,22.949,30.273,-67.871
1532485836.029,39.551,20.508,21.484,35.156,-362.305
1532485836.033,41.016,47.363,20.020,43.945,21.484
1532485836.037,36.621,37.109,24.414,37.109,247.559
1532485836.041,33.203,29.297,24.902,36.621,-230.469
1532485836.045,28.809,67.871,21.484,29.297,621.582
1532485836.048,26.367,11.719,20.020,21.973,459.961
1532485836.052,25.391,-3.906,23.438,25.391,-430.664
1532485836.056,20.996,29.297,25.391,23.926,-645.996
1532485836.060,20.020,41.504,25.391,23.926,-606.445
1532485836.064,20.508,38.086,25.391,20.020,78.125
1532485836.068,20.996,19.531,26.855,13.184,-127.441
1532485836.072,14.160,28.320,26.855,18.066,-560.059
1532485836.076,17.578,37.109,25.879,21.973,-560.547
1532485836.080,34.180,48.828,27.832,28.809,-156.250
1532485836.084,33.203,66.406,25.879,23.438,769.043
1532485836.088,28.320,18.555,21.484,6.348,600.586
1532485836.091,33.691,4.883,23.438,10.254,-462.891
1532485836.095,35.156,32.227,26.855,25.391,-640.137
1532485836.099,34.180,32.715,24.414,22.949,-481.934
1532485836.103,30.762,52.246,22.949,10.254,-31.250
1532485836.107,32.227,39.551,22.461,11.230,-214.844
1532485836.111,38.574,37.598,20.508,13.672,-612.793
1532485836.115,38.574,39.551,20.996,16.602,-391.113
1532485836.119,38.574,37.598,24.902,13.184,-431.641
1532485836.123,36.621,62.988,23.926,12.695,-160.645
1532485836.127,32.715,60.547,20.508,19.043,311.035
1532485836.131,33.203,44.434,20.020,30.762,296.387
1532485836.134,35.645,32.715,24.414,31.738,45.410
1532485836.138,36.133,25.391,25.391,24.414,-506.836
1532485836.142,32.227,65.918,23.926,27.344,-245.605
1532485836.146,33.691,71.777,26.367,28.320,774.902
1532485836.150,38.086,11.719,27.832,38.086,130.371
1532485836.154,35.645,31.250,27.832,33.691,-528.809
1532485836.158,32.715,45.410,26.855,19.531,-628.906
1532485836.162,33.203,38.574,24.902,39.062,-436.523
1532485836.166,37.598,29.297,26.855,49.316,14.648
1532485836.170,36.133,26.367,28.320,42.969,-301.270
1532485836.173,32.227,59.082,29.785,29.297,-68.848
1532485836.177,34.668,45.410,31.738,25.879,164.062
1532485836.181,36.133,30.762,27.832,33.203,15.137
1532485836.185,35.645,62.500,24.902,32.715,735.352
1532485836.189,37.109,21.973,27.832,35.645,174.805
1532485836.193,39.551,19.531,29.785,24.902,-650.391
1532485836.197,39.062,36.133,31.250,19.043,-583.008
1532485836.201,32.227,37.598,32.227,30.762,-360.352
1532485836.205,25.879,37.109,29.785,34.180,22.949
1532485836.209,24.902,28.809,31.738,28.809,-414.062
1532485836.213,27.344,33.691,31.738,31.250,-560.547
1532485836.216,27.344,25.879,29.297,30.762,-393.066
1532485836.220,23.926,47.363,30.762,23.438,-18.555
1532485836.224,23.926,71.777,31.250,17.578,816.895
1532485836.228,26.855,10.254,29.785,24.414,412.598
1532485836.232,26.855,-0.977,29.785,27.344,-376.953
1532485836.236,25.391,20.020,30.762,22.461,-520.020
1532485836.240,22.949,31.738,32.227,30.762,-585.938
1532485836.244,23.926,51.758,31.738,28.809,-16.602
1532485836.248,26.367,23.926,31.738,32.227,-145.020
1532485836.252,22.949,18.066,30.762,33.691,-450.195
1532485836.256,21.484,24.902,27.832,31.250,-482.910
1532485836.259,21.973,31.738,24.902,18.066,-594.727
1532485836.263,25.391,50.781,21.973,7.812,52.246
1532485836.267,27.832,38.574,23.926,27.344,424.805
1532485836.271,21.973,27.832,21.484,23.438,264.648
1532485836.275,26.367,18.066,20.508,19.531,-28.809
1532485836.279,35.156,11.230,24.902,33.203,-514.160
1532485836.283,29.297,53.223,24.414,28.320,143.555
1532485836.287,26.855,39.062,20.996,17.090,813.477
1532485836.291,28.809,2.930,19.043,28.809,-232.422
1532485836.295,36.133,32.715,18.555,28.320,-640.137
1532485836.298,47.852,29.297,17.090,23.926,-479.980
1532485836.302,47.852,37.598,14.160,25.391,-175.781
1532485836.306,45.898,35.156,14.160,31.250,-120.117
1532485836.310,48.828,33.203,20.020,33.691,-556.641
1532485836.314,49.805,60.547,24.414,40.527,10.742
1532485836.318,48.828,36.621,22.461,52.734,243.164
1532485836.322,44.922,33.203,22.461,57.617,-12.695
1532485836.326,40.527,62.012,23.438,42.480,703.613
1532485836.330,47.363,14.160,23.438,47.852,130.859
1532485836.334,48.340,13.184,25.879,62.012,-499.023
1532485836.338,40.039,31.738,26.367,38.574,-556.152
1532485836.341,37.109,40.039,27.344,40.527,-571.777
1532485836.345,45.410,34.180,29.785,51.758,-130.371
1532485836.349,50.781,24.902,31.250,52.734,-274.902
1532485836.353,42.480,29.297,30.762,46.875,-437.988
1532485836.357,37.109,28.320,32.715,36.621,-597.168
1532485836.361,38.574,57.129,34.668,42.969,-148.438
1532485836.365,35.156,73.730,31.250,43.945,846.191
1532485836.369,35.156,-1.465,28.320,35.645,283.203
1532485836.373,28.320,-2.441,30.273,25.879,-558.105
1532485836.377,23.438,26.855,30.273,25.391,-713.867
1532485836.381,27.832,33.203,28.320,39.551,-473.633
1532485836.384,25.879,35.156,27.832,35.156,228.027
1532485836.388,20.996,16.113,29.297,20.020,-228.516
1532485836.392,23.438,33.203,28.320,27.832,-661.133
1532485836.396,25.879,36.621,28.809,32.227,-527.344
1532485836.400,28.320,36.621,32.227,32.715,-330.078
1532485836.404,25.879,44.434,29.297,29.785,185.059
1532485836.408,22.949,40.527,27.344,27.344,152.832
1532485836.412,29.297,41.016,26.367,42.480,149.414
1532485836.416,34.668,15.137,24.902,41.504,-24.902
1532485836.420,34.180,18.066,25.879,25.391,-440.430
1532485836.423,29.785,77.148,27.832,18.066,386.230
1532485836.427,34.668,29.785,28.320,31.738,706.055
1532485836.431,36.621,-3.906,29.785,36.621,-239.746
1532485836.435,30.762,21.484,32.715,26.367,-444.824
1532485836.439,28.320,25.391,28.809,24.414,-579.590
1532485836.443,29.297,50.293,25.879,21.484,-221.680
1532485836.447,33.691,26.855,26.855,27.344,-75.195
1532485836.451,34.668,19.531,27.832,31.250,-381.836
1532485836.455,28.809,51.758,29.785,26.367,20.508
1532485836.459,29.297,41.992,27.832,26.367,74.707
1532485836.463,35.645,51.270,25.879,21.973,138.184
1532485836.466,42.480,49.805,28.320,25.391,784.180
1532485836.470,38.086,5.859,30.273,28.809,-33.691
1532485836.474,36.621,22.949,25.879,21.973,-708.008
1532485836.478,49.316,32.227,22.949,34.668,-671.875
1532485836.482,50.293,41.992,21.973,36.133,-323.730
1532485836.486,50.781,23.926,21.484,26.367,-33.203
1532485836.490,52.734,15.625,24.414,38.574,-494.629
1532485836.494,49.316,31.738,26.367,44.434,-630.859
1532485836.498,48.828,33.203,24.902,43.945,-479.492
1532485836.502,43.457,43.457,27.832,42.480,145.508
1532485836.505,37.598,19.043,28.809,37.598,355.469
1532485836.509,41.016,16.113,26.367,38.086,-411.621
1532485836.513,47.852,38.574,27.344,49.805,-437.988
1532485836.517,52.734,28.320,30.762,45.410,-364.746
1532485836.521,43.457,42.969,26.855,27.344,-299.316
1532485836.525,33.203,81.543,22.461,14.648,696.289
1532485836.529,42.969,29.785,24.902,18.066,277.832
1532485836.533,46.875,20.996,26.855,33.691,-411.621
1532485836.537,40.527,43.457,24.902,26.367,-453.613
1532485836.541,43.945,46.387,18.066,21.973,-507.324
1532485836.545,57.617,50.781,16.602,33.203,10.254
1532485836.548,51.758,46.875,24.414,40.527,275.879
1532485836.552,34.180,29.785,29.297,23.926,199.707
1532485836.556,30.762,15.137,30.273,16.113,-400.391
1532485836.560,36.133,41.016,29.297,27.344,-606.445
1532485836.564,40.039,82.031,25.391,28.809,590.820
1532485836.568,38.574,19.531,23.926,30.762,597.168
1532485836.572,32.715,6.348,25.879,29.785,-450.684
1532485836.576,35.156,37.598,23.438,18.066,-696.289
1532485836.580,39.551,41.016,21.484,28.320,-551.270
1532485836.584,32.227,51.758,22.949,31.250,162.598
1532485836.588,31.738,24.414,23.438,13.672,-125.977
1532485836.591,33.203,33.203,23.438,4.883,-651.367
1532485836.595,31.250,58.594,21.484,22.461,-86.914
1532485836.599,32.227,47.363,23.926,36.133,225.098
1532485836.603,27.832,57.617,24.414,23.926,591.797
1532485836.607,32.227,36.621,24.414,13.184,694.824
1532485836.611,44.434,10.742,31.250,30.273,-344.727
1532485836.615,42.480,30.273,27.832,35.156,-566.406
1532485836.619,38.086,32.227,22.949,23.438,-496.094
1532485836.623,33.691,50.781,22.949,17.578,-296.875
1532485836.627,33.203,35.645,23.926,20.508,-245.117
1532485836.630,32.715,26.367,24.902,28.320,-494.141
1532485836.634,30.762,26.367,24.902,34.180,-364.258
1532485836.638,29.785,27.344,28.320,35.645,-542.480
1532485836.642,27.344,69.336,28.320,31.738,-44.922
1532485836.646,33.203,65.918,29.297,38.574,831.543
1532485836.650,41.504,6.836,29.785,41.016,80.078
1532485836.654,37.109,21.484,30.273,30.273,-549.316
1532485836.658,35.156,40.039,33.203,28.809,-689.453
1532485836.662,36.621,41.992,29.785,33.203,-538.086
1532485836.666,34.180,33.691,28.320,29.785,-45.410
1532485836.670,29.297,28.320,30.762,27.832,-320.801
1532485836.673,28.809,40.527,33.203,18.066,-575.684
1532485836.677,34.668,41.992,33.203,22.949,-605.957
1532485836.681,36.133,40.527,31.250,41.016,-309.082
1532485836.685,31.738,34.180,33.691,41.016,126.465
1532485836.689,21.973,49.316,35.645,33.691,97.656
1532485836.693,25.391,57.617,34.668,37.109,189.453
1532485836.697,41.016,29.785,33.691,29.785,-175.781
1532485836.701,43.945,45.898,35.156,20.996,-248.535
1532485836.705,35.156,87.891,35.645,20.508,746.094
1532485836.709,32.715,35.156,33.203,15.625,259.766
1532485836.713,34.180,24.902,29.785,14.648,-542.969
1532485836.716,35.156,43.457,29.785,31.250,-464.355
1532485836.720,33.203,44.922,32.227,38.574,-391.602
1532485836.724,29.785,55.664,33.203,31.250,45.410
1532485836.728,35.156,43.457,32.715,30.273,-295.898
1532485836.732,37.109,47.363,31.250,39.551,-434.082
1532485836.736,35.156,56.641,31.738,39.062,84.473
1532485836.740,33.691,57.129,32.227,26.367,167.969
1532485836.744,35.156,83.984,31.738,30.273,670.898
1532485836.748,42.969,35.156,31.738,41.992,641.113
1532485836.752,43.945,7.812,32.715,42.969,-270.020
1532485836.755,39.551,35.156,35.156,48.340,-601.562
1532485836.759,36.621,44.434,36.133,47.852,-699.219
1532485836.763,36.133,66.406,27.832,36.621,-98.633
1532485836.767,39.062,38.086,25.879,38.574,-45.410
1532485836.771,38.086,29.785,28.809,39.551,-498.047
1532485836.775,40.039,45.410,30.273,30.762,-558.594
1532485836.779,42.969,38.574,33.691,35.645,-599.121
1532485836.783,37.109,67.871,29.297,42.969,267.090
1532485836.787,34.668,47.363,29.785,35.156,836.914
1532485836.791,38.574,10.742,33.691,24.414,-261.230
1532485836.795,41.504,36.621,30.273,35.156,-671.387
1532485836.798,44.434,39.551,30.273,50.293,-501.953
1532485836.802,46.387,51.270,31.250,40.527,-207.031
1532485836.806,40.527,51.270,29.297,32.227,12.695
1532485836.810,41.504,43.457,30.273,41.016,-440.918
1532485836.814,48.828,50.293,36.621,48.340,-458.496
1532485836.818,41.992,41.504,34.180,38.574,-365.723
1532485836.822,37.109,47.852,34.180,26.855,-294.922
1532485836.826,38.086,49.316,37.598,34.180,-94.238
1532485836.830,36.133,56.641,35.156,44.434,111.816
1532485836.834,40.527,44.434,40.039,41.504,291.504
1532485836.837,45.410,20.996,44.922,41.504,-307.129
1532485836.841,41.504,53.711,40.039,42.480,-401.367
1532485836.845,38.574,84.473,37.598,32.715,706.543
1532485836.849,37.598,15.137,35.645,35.645,326.660
1532485836.853,34.668,13.184,34.180,43.945,-431.152
1532485836.857,36.621,43.457,40.527,43.457,-610.840
1532485836.861,38.574,41.992,41.016,34.668,-518.066
1532485836.865,39.551,34.668,41.504,47.363,104.980
1532485836.869,38.574,18.555,42.480,48.340,-184.570
1532485836.873,39.062,30.273,41.504,32.227,-511.230
1532485836.877,41.504,46.875,39.551,41.992,-150.391
1532485836.880,42.480,51.758,35.156,53.223,281.250
1532485836.884,45.898,60.547,36.621,52.734,856.445
1532485836.888,54.688,11.230,39.551,55.664,360.840
1532485836.892,44.434,13.184,35.645,41.016,-566.406
1532485836.896,27.344,39.551,31.250,22.461,-636.230
1532485836.900,31.250,41.504,29.297,22.949,-399.902
1532485836.904,34.180,53.223,25.391,27.344,130.859
1532485836.908,31.250,40.039,24.414,26.367,-312.012
1532485836.912,32.227,44.434,25.879,28.809,-623.047
1532485836.916,31.250,37.109,25.879,32.227,-367.676
1532485836.920,22.949,31.738,28.320,29.297,-438.965
1532485836.923,19.043,72.754,26.855,22.461,375.488
1532485836.927,29.297,34.180,29.297,22.949,492.676
1532485836.931,33.691,11.230,36.621,30.273,-357.422
1532485836.935,29.785,35.645,33.203,35.645,-401.367
1532485836.939,34.180,37.598,30.762,31.738,-585.449
1532485836.943,29.297,60.059,30.762,32.227,-146.484
1532485836.947,22.461,41.992,29.785,39.062,100.098
1532485836.951,23.438,27.344,27.832,23.926,-339.844
1532485836.955,23.438,33.691,27.344,19.043,-417.480
1532485836.959,23.438,38.086,29.297,24.902,-587.402
1532485836.962,24.902,53.223,27.832,22.461,-235.840
1532485836.966,29.785,38.574,22.461,23.926,95.703
1532485836.970,34.668,44.922,20.996,32.227,173.340
1532485836.974,32.227,42.480,26.367,35.156,147.949
1532485836.978,27.344,18.555,31.250,42.480,-445.312
1532485836.982,35.645,51.758,28.320,47.363,-154.785
1532485836.986,34.668,66.895,24.414,35.156,807.617
1532485836.990,36.133,14.648,28.320,30.762,20.996
1532485836.994,44.922,22.949,31.250,34.180,-660.156
1532485836.998,47.852,37.109,29.785,40.527,-492.676
1532485837.002,41.992,29.297,29.297,47.363,-270.996
1532485837.005,39.062,25.391,29.297,40.039,-19.043
1532485837.009,44.922,31.738,28.320,44.434,-452.148
1532485837.013,46.875,35.645,25.391,50.293,-456.055
1532485837.017,47.852,37.598,24.414,46.875,45.410
1532485837.021,46.387,54.199,26.855,49.805,384.766
1532485837.025,45.410,68.359,29.297,43.457,838.867
1532485837.029,53.711,17.090,30.273,42.480,212.402
1532485837.033,51.270,8.789,30.762,52.734,-422.363
1532485837.037,41.992,19.531,29.297,43.945,-522.461
1532485837.041,39.551,30.762,27.832,39.551,-558.105
1532485837.045,40.039,40.527,23.926,35.645,-39.062
1532485837.048,46.387,24.414,21.973,38.574,-234.863
1532485837.052,45.410,28.320,25.879,40.039,-419.922
1532485837.056,42.480,31.738,30.762,29.297,-529.785
1532485837.060,43.945,43.457,31.250,37.109,-584.961
1532485837.064,44.434,65.918,31.250,42.969,486.816
1532485837.068,43.457,33.691,34.668,41.992,473.633
1532485837.072,39.062,22.461,35.156,41.504,-365.234
1532485837.076,38.086,35.156,33.203,37.598,-526.855
1532485837.080,45.410,42.480,31.738,40.039,-499.512
1532485837.084,45.898,77.637,30.762,38.574,471.680
1532485837.087,35.645,32.227,31.250,33.203,493.164
1532485837.091,35.645,21.973,33.203,29.785,-496.094
1532485837.095,40.039,48.340,32.227,40.039,-556.641
1532485837.099,41.504,42.480,34.180,45.898,-388.184
1532485837.103,41.504,56.641,37.109,31.250,71.777
1532485837.107,39.062,39.551,32.715,27.344,-113.770
1532485837.111,41.504,55.176,30.762,41.504,-144.043
1532485837.115,42.480,55.176,33.691,45.898,386.719
1532485837.119,46.387,19.043,36.621,45.410,-166.016
1532485837.123,41.992,62.988,36.621,34.180,-26.367
1532485837.127,41.992,65.918,35.156,30.762,795.898
1532485837.130,51.758,14.160,37.598,43.457,-44.922
1532485837.134,46.387,25.879,38.574,44.922,-460.449
1532485837.138,39.551,35.156,36.621,34.668,-521.973
1532485837.142,40.527,52.246,32.227,27.344,-442.871
1532485837.146,41.016,48.340,33.691,36.621,-72.266
1532485837.150,41.992,36.133,37.598,40.527,-294.922
1532485837.154,35.645,44.434,34.668,37.598,-388.184
1532485837.158,26.855,51.270,34.668,35.156,-193.848
1532485837.162,30.762,65.430,38.574,37.598,218.262
1532485837.166,37.109,68.848,38.574,45.898,825.195
1532485837.170,31.738,15.137,37.109,40.527,167.480
1532485837.173,25.879,21.973,34.668,25.879,-610.352
1532485837.177,32.715,44.434,31.738,26.367,-688.477
1532485837.181,36.621,42.480,32.227,32.715,-404.785
1532485837.185,34.180,32.715,33.203,21.973,65.430
1532485837.189,26.855,31.738,32.227,20.020,-373.047
1532485837.193,30.273,50.293,33.203,22.949,-605.957
1532485837.197,40.039,48.828,33.203,31.250,-481.934
1532485837.201,38.574,46.387,33.203,37.109,-263.672
1532485837.205,32.227,53.223,32.227,24.414,415.039
1532485837.209,34.180,44.922,30.273,22.949,304.199
1532485837.212,41.504,37.109,31.250,29.785,-200.195
1532485837.216,48.340,35.645,32.715,33.203,-309.570
1532485837.220,47.363,47.363,32.715,27.832,-306.641
1532485837.224,39.551,89.844,31.250,26.367,617.676
1532485837.228,46.387,42.969,31.738,40.039,614.746
1532485837.232,53.223,15.625,32.715,47.363,-232.422
1532485837.236,48.340,31.738,30.762,41.504,-443.359
1532485837.240,44.434,44.434,32.715,32.715,-522.949
1532485837.244,45.898,62.500,36.133,31.738,-0.488
1532485837.248,48.340,36.621,31.250,47.363,-104.004
1532485837.252,49.805,46.387,27.832,54.199,-11.230
1532485837.255,45.410,43.945,29.785,40.527,257.324
1532485837.259,44.434,21.973,31.250,41.016,-421.875
1532485837.263,44.922,69.824,30.273,40.527,185.059
1532485837.267,42.480,38.574,29.785,31.250,802.246
1532485837.271,38.574,0.000,31.738,33.203,-257.812
1532485837.275,41.016,30.273,32.715,46.875,-702.148
1532485837.279,50.781,35.156,29.785,48.340,-647.461
1532485837.283,51.758,52.734,28.320,44.434,-137.695
1532485837.287,43.945,30.273,29.785,43.457,-36.133
1532485837.291,41.016,17.578,25.879,37.109,-586.426
1532485837.294,42.480,39.062,22.949,41.016,-537.598
1532485837.298,38.574,42.969,20.508,45.410,-80.566
1532485837.302,33.691,54.199,19.531,30.273,410.156
1532485837.306,29.785,56.152,21.484,20.996,790.039
1532485837.310,32.227,14.648,20.508,29.785,-119.141
1532485837.314,39.062,25.879,18.066,29.785,-589.355
1532485837.318,40.039,30.273,17.578,30.762,-466.797
1532485837.322,28.320,27.832,15.625,26.367,-416.992
1532485837.326,29.785,29.297,19.043,23.926,-204.102
1532485837.330,36.133,28.320,22.949,34.668,-447.754
1532485837.334,26.855,26.855,17.090,31.738,-394.531
1532485837.337,19.531,25.391,15.625,13.184,-459.961
1532485837.341,17.578,37.109,14.648,12.207,-481.934
1532485837.345,19.531,42.480,10.254,15.625,261.230
1532485837.349,25.391,29.785,15.137,14.648,418.945
1532485837.353,25.391,17.090,18.066,23.438,-80.078
1532485837.357,20.508,15.625,16.113,25.391,-558.594
1532485837.361,21.973,36.621,18.066,20.020,-452.148
1532485837.365,24.414,65.918,19.531,19.043,696.289
1532485837.369,28.320,7.324,19.531,24.902,387.695
1532485837.373,32.715,3.906,20.508,24.902,-509.766
1532485837.377,38.574,27.832,20.020,24.902,-658.203
1532485837.380,38.574,34.180,19.043,29.297,-422.363
1532485837.384,37.598,34.180,20.996,36.133,202.148
1532485837.388,34.668,20.996,22.949,32.227,-217.773
1532485837.392,30.762,53.223,22.949,25.391,-176.758
1532485837.396,38.086,43.457,23.926,30.273,241.699
1532485837.400,41.992,20.508,23.926,31.738,-126.465
1532485837.404,37.598,71.289,20.996,23.438,584.473
1532485837.408,38.086,29.297,22.461,19.531,565.918
1532485837.412,44.434,6.348,23.438,29.785,-474.609
1532485837.416,44.922,32.715,24.902,32.715,-515.625
1532485837.419,41.016,35.156,29.297,30.762,-461.426
1532485837.423,37.598,57.129,28.320,31.250,-50.781
1532485837.427,35.645,38.574,23.926,38.086,-227.539
1532485837.431,33.203,27.344,22.461,45.410,-525.879
1532485837.435,36.133,39.551,32.227,42.969,-315.918
1532485837.439,27.344,49.316,28.320,30.762,-203.125
1532485837.443,15.137,64.453,18.066,20.996,346.680
1532485837.447,20.020,35.156,22.949,31.738,779.297
1532485837.451,26.367,-3.906,25.391,36.133,-72.266
1532485837.455,23.926,22.461,25.879,31.738,-562.500
1532485837.459,24.414,37.109,26.855,30.273,-707.031
1532485837.462,28.320,50.781,26.367,34.668,-380.859
1532485837.466,30.762,35.645,27.832,31.738,-24.414
1532485837.470,31.250,25.879,31.738,27.344,-406.250
1532485837.474,30.273,40.039,29.297,25.391,-562.988
1532485837.478,34.668,41.016,27.344,30.273,-596.191
1532485837.482,37.109,46.875,30.762,39.062,-251.953
1532485837.486,26.855,43.457,29.785,23.438,416.016
1532485837.490,22.461,37.109,28.320,17.578,281.738
1532485837.494,30.762,31.738,29.785,24.414,-229.004
1532485837.498,35.156,18.555,29.785,30.762,-470.215
1532485837.502,34.180,39.062,30.273,33.203,-185.059
1532485837.505,28.809,66.406,30.273,22.949,739.746
1532485837.509,30.273,16.602,32.227,23.926,125.488
1532485837.513,32.227,18.555,35.156,33.203,-545.898
1532485837.517,30.762,30.273,38.574,39.551,-438.965
1532485837.521,29.785,28.320,35.156,31.250,-342.285
1532485837.525,31.250,27.832,30.762,24.902,-32.715
1532485837.529,35.645,29.297,31.250,34.180,-370.117
1532485837.533,36.133,51.270,28.320,33.203,27.344
1532485837.537,34.180,24.902,28.320,29.297,87.402
1532485837.541,30.273,31.738,28.320,25.391,-400.879
1532485837.544,31.250,80.566,29.785,31.250,618.652
1532485837.548,42.480,21.973,34.668,43.457,489.258
1532485837.552,36.621,10.254,35.645,36.621,-401.855
1532485837.556,33.203,38.574,33.203,41.016,-611.328
1532485837.560,38.574,47.852,29.785,38.086,-608.887
1532485837.564,37.109,53.223,31.250,34.180,73.242
1532485837.568,40.527,29.297,33.203,43.457,-92.773
1532485837.572,37.598,32.227,30.762,40.527,-525.391
1532485837.576,36.621,42.480,30.273,35.645,-534.668
1532485837.580,43.945,57.617,31.738,41.992,-167.480
1532485837.584,46.875,74.219,33.203,39.551,731.445
1532485837.587,46.387,24.902,38.086,34.668,646.484
1532485837.591,42.480,8.789,34.180,29.297,-414.551
1532485837.595,38.574,36.133,30.762,35.156,-643.066
1532485837.599,37.109,34.180,33.691,47.852,-492.676
1532485837.603,36.133,51.758,32.715,47.363,-40.527
1532485837.607,40.527,40.527,33.203,47.852,-172.363
1532485837.611,47.363,38.574,35.645,52.246,-598.145
1532485837.615,46.387,42.480,32.715,50.293,-399.414
