timestamps,TP9,AF7,AF8,TP10,Right AUX
1532485548.692,-74.707,24.414,31.738,32.715,-451.660
1532485548.696,-68.359,15.137,30.762,30.273,-410.645
1532485548.699,-72.266,35.156,28.809,6.836,-207.520
1532485548.703,-75.684,25.391,29.297,23.438,-113.770
1532485548.707,-68.359,20.508,31.738,47.852,-473.633
1532485548.711,-63.477,62.012,32.227,52.246,4.395
1532485548.715,-62.988,23.438,31.250,48.340,141.113
1532485548.719,-63.965,30.273,32.715,34.668,-135.742
1532485548.723,-62.500,81.055,35.645,27.344,687.500
1532485548.727,-57.129,-5.371,35.156,38.574,234.375
1532485548.731,-59.570,-10.742,30.762,49.316,-420.898
1532485548.735,-58.594,20.996,31.738,31.250,-496.094
1532485548.739,-50.293,27.832,31.738,27.832,-514.648
1532485548.742,-48.340,18.555,31.250,38.086,-62.500
1532485548.746,-53.223,7.812,31.250,45.410,-202.637
1532485548.750,-56.152,21.484,28.320,36.621,-403.809
1532485548.754,-51.270,25.391,27.344,28.320,-530.762
1532485548.758,-52.246,68.848,26.855,29.785,-97.656
1532485548.762,-53.711,94.727,24.414,15.625,850.586
1532485548.766,-50.781,-14.648,26.855,33.691,337.891
1532485548.770,-49.316,-14.648,25.879,46.387,-514.160
1532485548.774,-47.363,21.484,24.414,38.086,-631.348
1532485548.778,-44.922,23.926,25.391,38.574,-409.668
1532485548.781,-48.340,24.414,26.367,34.668,150.879
1532485548.785,-48.828,5.371,28.320,42.480,-250.000
1532485548.789,-40.527,26.367,27.344,40.039,-599.121
1532485548.793,-33.691,26.855,27.832,43.945,-431.152
1532485548.797,-33.203,30.762,28.320,57.129,-285.645
1532485548.801,-38.086,54.199,27.344,33.691,187.500
1532485548.805,-41.992,51.758,26.855,14.648,262.207
1532485548.809,-35.156,46.875,22.949,37.598,157.715
1532485548.813,-30.273,12.207,20.996,43.945,-3.906
1532485548.817,-38.574,9.277,22.949,38.574,-418.945
1532485548.821,-42.480,106.934,23.438,29.297,242.676
1532485548.824,-32.227,46.875,25.879,33.691,749.023
1532485548.828,-28.809,-22.949,29.297,43.457,-117.188
1532485548.832,-35.156,10.254,28.809,33.691,-408.691
1532485548.836,-39.062,20.020,26.367,31.738,-552.246
1532485548.840,-31.738,68.848,23.926,25.879,-268.555
1532485548.844,-24.902,34.180,23.438,36.133,-45.898
1532485548.848,-33.203,4.395,24.902,41.992,-333.496
1532485548.852,-40.527,52.246,24.414,27.832,-39.551
1532485548.856,-38.574,41.016,26.855,32.227,45.410
1532485548.860,-35.645,54.688,29.297,31.250,89.355
1532485548.864,-39.551,57.129,25.879,27.832,770.020
1532485548.867,-43.457,-22.949,26.367,23.438,31.250
1532485548.871,-50.293,5.371,27.344,20.508,-653.809
1532485548.875,-53.223,22.949,30.762,30.762,-577.637
1532485548.879,-54.688,26.367,31.738,30.762,-300.293
1532485548.883,-53.223,11.719,31.250,22.949,-29.297
1532485548.887,-50.293,10.254,31.738,22.461,-437.500
1532485548.891,-44.434,26.855,29.785,28.320,-529.297
1532485548.895,-39.551,18.555,30.273,23.926,-403.809
1532485548.899,-47.363,58.105,31.738,22.461,55.176
1532485548.903,-51.758,94.727,33.691,33.203,828.125
1532485548.906,-44.434,0.000,33.691,33.203,138.184
1532485548.910,-44.922,-8.789,31.738,35.156,-471.680
1532485548.914,-47.363,16.113,30.762,30.762,-431.641
1532485548.918,-48.340,21.973,31.250,25.391,-414.062
1532485548.922,-48.340,23.438,33.691,30.273,-72.266
1532485548.926,-42.969,9.766,36.133,31.738,-313.477
1532485548.930,-43.945,19.043,35.645,29.297,-368.164
1532485548.934,-48.828,18.066,35.645,29.785,-410.156
1532485548.938,-53.223,36.133,34.180,22.949,-462.891
1532485548.942,-49.805,45.898,33.203,32.227,102.051
1532485548.946,-41.504,42.480,33.203,39.062,326.660
1532485548.949,-42.969,30.273,34.180,32.227,223.145
1532485548.953,-37.598,6.348,36.133,34.180,-255.859
1532485548.957,-40.527,38.086,36.133,34.180,-515.625
1532485548.961,-51.758,108.398,32.715,26.367,562.500
1532485548.965,-47.852,7.812,30.273,20.020,662.598
1532485548.969,-44.922,-13.184,20.508,10.254,-373.535
1532485548.973,-41.016,40.039,16.113,12.207,-608.887
1532485548.977,-29.297,34.668,25.879,32.227,-474.121
1532485548.981,-46.875,59.570,32.715,23.926,129.395
1532485548.985,-71.289,17.578,36.133,-2.441,-94.238
1532485548.988,-59.570,25.391,31.738,-4.883,-561.035
1532485548.992,-39.062,61.523,35.645,10.254,12.207
1532485548.996,-59.570,7.812,51.270,-2.930,-8.301
1532485549.000,-83.008,62.012,52.734,-28.809,212.891
1532485549.004,-81.543,51.270,50.293,-35.156,757.812
1532485549.008,-78.125,-17.090,53.223,-30.762,-156.250
1532485549.012,-91.309,9.277,64.453,-37.109,-442.383
1532485549.016,-110.352,2.930,74.707,-56.641,-416.016
1532485549.020,-114.746,39.551,81.543,-57.617,-295.410
1532485549.024,-116.211,21.484,82.031,-45.410,-145.508
1532485549.028,-127.930,1.953,82.520,-38.086,-358.398
1532485549.031,-130.371,17.090,96.191,-42.969,-315.430
1532485549.035,-127.441,16.602,109.863,-51.270,-479.004
1532485549.039,-136.719,64.453,101.562,-51.270,-20.996
1532485549.043,-137.695,58.105,96.680,-50.293,833.008
1532485549.047,-129.883,-41.504,103.516,-31.250,159.180
1532485549.051,-124.023,-26.855,104.492,-30.762,-499.512
1532485549.055,-113.281,5.371,103.516,-34.668,-621.094
1532485549.059,-94.727,8.789,99.121,-4.395,-460.938
1532485549.063,-72.754,-9.277,96.680,25.391,1.953
1532485549.067,-61.523,-16.602,95.703,22.949,-304.199
1532485549.071,-53.711,1.465,94.238,28.809,-560.059
1532485549.074,-31.250,8.789,94.238,53.223,-554.688
1532485549.078,-16.113,3.418,84.961,70.312,-292.969
1532485549.082,-19.531,-16.113,70.312,72.754,143.066
1532485549.086,-15.625,5.371,72.266,72.754,134.766
1532485549.090,-5.371,-8.789,72.754,83.496,-35.645
1532485549.094,16.113,-39.551,65.430,99.121,-334.961
1532485549.098,29.785,4.883,63.477,114.746,-262.207
1532485549.102,24.414,72.754,60.547,103.516,699.707
1532485549.106,30.762,-9.277,56.641,89.355,341.797
1532485549.110,39.551,-13.184,50.781,100.586,-325.195
1532485549.113,43.457,-7.812,46.875,121.582,-302.246
1532485549.117,43.457,-2.930,45.410,118.652,-413.574
1532485549.121,39.062,31.738,43.945,99.609,18.555
1532485549.125,43.945,-6.836,43.457,104.980,-247.070
1532485549.129,47.363,6.836,41.504,104.980,-401.367
1532485549.133,39.062,22.949,38.574,97.656,56.152
1532485549.137,34.668,8.789,36.621,95.703,-194.824
1532485549.141,30.762,83.984,36.621,93.262,347.656
1532485549.145,27.832,13.184,34.180,95.703,730.957
1532485549.149,24.414,-43.945,33.203,84.961,-228.027
1532485549.153,19.043,4.395,31.738,69.824,-583.008
1532485549.156,19.043,20.020,28.320,78.613,-639.648
1532485549.160,22.461,60.059,26.367,87.402,-125.488
1532485549.164,21.973,16.113,26.367,78.613,-28.809
1532485549.168,17.090,6.836,26.367,75.684,-467.285
1532485549.172,16.113,27.344,26.367,66.406,-529.297
1532485549.176,23.438,19.531,23.926,53.223,-537.109
1532485549.180,28.809,76.172,23.926,63.477,235.840
1532485549.184,22.461,47.852,28.809,63.965,843.750
1532485549.188,24.414,-26.367,32.715,54.688,-177.246
1532485549.192,30.273,3.418,32.227,73.730,-595.215
1532485549.196,33.691,10.254,34.180,90.332,-436.035
1532485549.199,34.180,34.668,37.109,76.172,-259.766
1532485549.203,31.250,31.250,34.668,62.012,-156.250
1532485549.207,32.715,19.531,32.227,64.453,-495.605
1532485549.211,33.691,24.902,33.691,69.824,-400.879
1532485549.215,31.738,15.625,35.156,77.637,-347.168
1532485549.219,23.926,23.926,35.645,64.453,-342.773
1532485549.223,21.484,23.926,35.156,51.270,-85.449
1532485549.227,20.508,37.109,34.180,62.012,169.922
1532485549.231,18.066,12.695,36.621,53.223,210.938
1532485549.235,18.066,-11.719,35.645,41.992,-350.586
1532485549.238,14.648,42.969,34.668,51.270,-378.906
1532485549.242,12.207,106.445,33.691,51.270,710.938
1532485549.246,21.484,5.371,34.668,53.711,378.418
1532485549.250,17.578,-17.090,35.156,43.945,-396.484
1532485549.254,9.766,29.785,35.156,29.785,-558.594
1532485549.258,15.625,35.156,36.621,33.691,-450.684
1532485549.262,16.113,23.926,31.738,50.293,142.090
1532485549.266,16.113,-1.465,33.691,56.641,-158.691
1532485549.270,10.254,32.227,41.992,40.527,-485.840
1532485549.274,9.766,57.129,42.480,36.621,-79.102
1532485549.278,12.207,40.039,43.457,48.828,129.395
1532485549.281,8.789,88.379,38.574,38.086,722.168
1532485549.285,17.090,13.672,38.086,34.180,467.773
1532485549.289,19.531,-12.207,41.016,35.645,-484.863
1532485549.293,18.066,25.391,39.062,31.250,-520.020
1532485549.297,16.602,27.832,38.574,30.762,-351.074
1532485549.301,8.789,62.500,38.086,32.715,88.867
1532485549.305,5.859,35.645,35.645,38.086,-241.211
1532485549.309,8.301,35.156,35.645,39.551,-516.602
1532485549.313,10.254,31.738,39.551,33.203,-279.785
1532485549.317,4.395,23.926,37.109,18.555,-425.293
1532485549.320,-4.883,92.285,33.691,22.461,268.555
1532485549.324,-1.953,28.320,33.691,35.645,640.625
1532485549.328,-1.465,-18.066,34.180,29.785,-173.340
1532485549.332,-6.836,17.090,34.668,27.832,-354.980
1532485549.336,-6.836,22.949,38.574,26.367,-541.504
1532485549.340,-4.395,73.730,38.574,33.691,-187.500
1532485549.344,-2.930,33.691,32.715,40.527,154.785
1532485549.348,-5.859,4.883,37.598,34.180,-261.230
1532485549.352,-11.719,30.273,44.922,23.438,-403.809
1532485549.356,-5.859,31.250,39.551,22.949,-522.461
1532485549.360,-0.488,49.805,38.574,33.203,-196.777
1532485549.363,2.930,30.762,43.457,41.992,115.723
1532485549.367,4.395,36.621,44.922,35.645,94.727
1532485549.371,0.488,34.668,45.410,18.066,51.758
1532485549.375,1.465,3.418,45.410,36.621,-387.695
1532485549.379,1.465,48.828,42.480,51.270,-145.020
1532485549.383,-3.906,83.008,43.457,35.645,785.156
1532485549.387,-4.883,1.465,44.922,29.785,99.609
1532485549.391,0.977,1.953,43.457,40.039,-553.223
1532485549.395,3.906,26.855,43.945,53.223,-412.109
1532485549.399,-3.418,25.391,39.551,49.805,-270.508
1532485549.403,-8.789,19.531,37.109,39.551,-27.344
1532485549.406,-7.324,18.555,35.156,35.645,-400.391
1532485549.410,-5.859,41.016,35.156,33.203,-375.488
1532485549.414,-6.836,36.621,37.109,21.973,32.227
1532485549.418,-8.301,37.109,39.551,21.484,113.770
1532485549.422,-8.789,90.332,39.551,39.062,722.656
1532485549.426,0.488,11.230,40.039,43.945,359.863
1532485549.430,5.371,-13.672,41.016,41.504,-344.727
1532485549.434,5.371,21.484,41.016,49.316,-479.492
1532485549.438,1.953,39.551,41.992,43.945,-536.621
1532485549.442,-5.371,45.410,41.504,40.527,-3.906
1532485549.445,0.000,16.113,38.086,54.688,-141.602
1532485549.449,8.301,27.832,36.621,56.152,-391.113
1532485549.453,8.301,28.320,37.598,48.828,-491.211
1532485549.457,0.488,50.293,38.086,58.594,-536.133
1532485549.461,-7.812,110.352,34.180,59.570,520.020
1532485549.465,-4.883,27.344,33.691,49.805,553.711
1532485549.469,-8.789,5.859,33.691,34.180,-395.996
1532485549.473,-15.137,38.086,31.738,24.902,-555.176
1532485549.477,-16.113,44.922,30.273,42.480,-457.031
1532485549.481,-20.508,80.566,33.691,36.621,253.418
1532485549.485,-20.996,25.391,40.039,27.832,89.844
1532485549.488,-19.043,15.137,36.621,43.945,-529.297
1532485549.492,-20.508,33.203,30.273,46.875,-397.461
1532485549.496,-25.391,26.855,31.250,34.180,-303.711
1532485549.500,-29.297,56.641,33.203,41.504,32.227
1532485549.504,-33.203,32.715,34.180,42.969,-49.316
1532485549.508,-32.715,45.898,31.738,25.879,-83.496
1532485549.512,-30.273,53.711,34.668,33.203,322.266
1532485549.516,-34.180,-1.465,32.227,46.387,-152.832
1532485549.520,-38.086,68.359,31.250,34.180,-86.914
1532485549.524,-36.621,82.031,35.645,38.574,790.039
1532485549.528,-31.738,-9.277,38.574,48.828,93.262
1532485549.531,-33.691,23.926,39.551,39.062,-259.277
1532485549.535,-40.039,23.926,35.645,31.250,-367.188
1532485549.539,-34.180,42.969,37.598,35.645,-455.078
1532485549.543,-30.273,39.551,40.039,39.551,-44.434
1532485549.547,-34.180,7.812,38.086,40.039,-245.605
1532485549.551,-35.156,29.785,40.527,38.574,-393.066
1532485549.555,-35.645,50.781,37.598,36.621,-179.199
1532485549.559,-27.832,66.895,41.016,31.738,227.539
1532485549.563,-28.320,77.637,45.898,33.691,828.125
1532485549.567,-31.250,-0.977,41.504,42.480,193.848
1532485549.570,-30.762,4.883,36.133,26.855,-578.125
1532485549.574,-27.832,28.320,40.039,26.855,-616.211
1532485549.578,-37.109,32.227,41.992,51.758,-351.074
1532485549.582,-38.086,26.855,39.062,44.922,72.266
1532485549.586,-28.320,20.996,39.551,31.250,-368.164
1532485549.590,-29.785,40.039,38.574,32.227,-549.316
1532485549.594,-29.297,24.902,36.133,33.203,-424.805
1532485549.598,-33.203,38.086,39.062,29.297,-258.789
1532485549.602,-44.922,71.289,38.574,19.043,513.672
1532485549.606,-41.992,28.320,34.180,23.438,138.184
1532485549.610,-37.109,23.926,34.668,31.250,-373.047
1532485549.613,-40.527,15.625,32.715,26.855,-275.391
1532485549.617,-43.945,34.180,32.227,20.020,-362.305
1532485549.621,-43.457,113.281,33.691,23.438,517.090
1532485549.625,-35.156,22.461,37.598,35.156,423.828
1532485549.629,-30.762,-5.859,39.062,41.504,-307.129
1532485549.633,-35.156,25.879,37.109,37.598,-376.465
1532485549.637,-35.645,44.922,35.645,33.691,-499.512
1532485549.641,-34.180,76.172,38.574,35.645,-15.137
1532485549.645,-35.156,30.273,41.504,38.086,-15.137
1532485549.649,-35.645,44.922,42.480,41.504,53.223
1532485549.653,-39.062,29.785,40.039,28.809,19.043
1532485549.656,-38.086,13.184,34.180,23.926,-566.406
1532485549.660,-38.574,99.121,34.668,37.598,145.996
1532485549.664,-41.504,41.992,35.645,26.855,812.988
1532485549.668,-43.457,-27.832,37.109,36.133,-179.199
1532485549.672,-41.992,20.508,38.574,43.457,-620.605
1532485549.676,-38.086,20.996,38.086,31.738,-522.461
1532485549.680,-39.062,47.363,38.086,40.039,-127.441
1532485549.684,-43.945,23.438,40.527,44.434,-20.020
1532485549.688,-51.270,13.184,38.086,30.762,-508.301
1532485549.692,-56.641,43.457,36.133,24.902,-445.801
1532485549.695,-57.617,38.574,38.574,37.598,-67.871
1532485549.699,-59.082,62.500,42.969,39.062,324.707
1532485549.703,-62.012,83.008,42.480,28.320,791.016
1532485549.707,-61.523,8.301,37.598,28.809,19.531
1532485549.711,-67.383,12.207,41.992,40.527,-468.750
1532485549.715,-74.707,28.320,44.922,29.785,-414.551
1532485549.719,-76.660,36.133,44.434,31.250,-434.570
1532485549.723,-80.566,32.715,43.945,38.574,-172.363
1532485549.727,-83.496,27.832,37.598,41.504,-341.309
1532485549.731,-84.961,29.297,37.598,37.598,-345.215
1532485549.735,-98.145,24.902,41.016,22.461,-443.848
1532485549.738,-107.422,43.457,40.039,20.996,-453.125
1532485549.742,-104.492,62.012,42.969,22.461,243.652
1532485549.746,-107.910,42.480,46.387,33.691,371.094
1532485549.750,-116.699,18.066,43.457,26.367,-105.957
1532485549.754,-119.141,23.926,34.668,21.973,-519.531
1532485549.758,-118.652,53.711,33.691,44.922,-409.180
1532485549.762,-120.605,96.191,37.598,48.340,693.359
1532485549.766,-128.418,2.930,39.551,33.691,433.105
1532485549.770,-132.324,-3.418,39.551,39.551,-484.375
1532485549.774,-131.836,37.598,40.039,45.410,-592.773
1532485549.777,-134.766,32.715,43.945,35.156,-356.445
1532485549.781,-133.789,33.203,42.480,38.574,215.332
1532485549.785,-138.184,20.996,37.109,40.527,-201.660
1532485549.789,-151.855,64.453,33.691,30.273,-224.609
1532485549.793,-151.367,50.293,32.715,24.902,239.258
1532485549.797,-145.020,9.766,32.715,30.273,-133.301
1532485549.801,-152.832,91.797,33.203,28.320,491.699
1532485549.805,-160.645,31.250,32.715,21.484,642.578
1532485549.809,-151.855,-13.184,30.762,20.996,-366.211
1532485549.813,-150.391,20.996,32.715,27.344,-451.660
1532485549.817,-156.738,22.949,35.156,24.414,-467.285
1532485549.820,-153.320,62.012,33.203,13.184,-161.621
1532485549.824,-148.438,34.180,32.715,23.438,-177.246
1532485549.828,-140.625,14.648,31.738,42.969,-434.082
1532485549.832,-139.160,24.902,31.738,27.832,-307.617
1532485549.836,-136.719,44.434,32.715,21.484,-160.156
1532485549.840,-127.930,84.473,32.227,37.109,348.633
1532485549.844,-125.488,54.688,33.203,16.113,805.176
1532485549.848,-124.023,-12.695,37.109,14.160,-8.789
1532485549.852,-123.535,17.090,37.109,33.203,-560.059
1532485549.856,-122.559,40.039,34.668,28.809,-658.691
1532485549.860,-121.094,56.152,32.227,31.250,-368.652
1532485549.863,-118.164,20.996,36.621,35.645,-4.395
1532485549.867,-116.699,4.883,41.016,31.738,-380.371
1532485549.871,-113.281,32.227,38.086,29.785,-552.734
1532485549.875,-108.887,24.414,39.551,29.297,-539.062
1532485549.879,-100.586,34.668,42.480,21.973,-237.305
1532485549.883,-95.703,40.527,34.180,32.715,360.840
1532485549.887,-101.562,14.648,30.762,30.273,-20.996
1532485549.891,-101.562,26.855,32.227,31.250,-415.039
1532485549.895,-97.168,21.484,34.180,41.504,-380.859
1532485549.899,-98.145,41.016,32.715,33.203,-176.270
1532485549.902,-102.539,90.332,30.273,16.113,729.980
1532485549.906,-92.285,10.254,35.156,21.484,206.055
1532485549.910,-87.891,-0.488,39.062,43.457,-444.336
1532485549.914,-94.238,21.484,39.551,49.316,-386.719
1532485549.918,-96.191,29.785,36.621,35.645,-360.352
1532485549.922,-89.355,33.203,34.668,34.668,-28.809
1532485549.926,-82.031,26.855,37.109,41.016,-272.949
1532485549.930,-88.867,57.129,37.598,47.363,61.035
1532485549.934,-94.727,28.320,34.668,37.598,178.223
1532485549.938,-95.215,27.344,37.598,27.344,-317.383
1532485549.942,-96.680,106.934,37.598,33.203,588.867
1532485549.945,-92.285,10.742,36.133,44.434,584.473
1532485549.949,-88.379,-19.531,38.574,49.316,-365.234
1532485549.953,-92.285,46.387,33.203,38.574,-458.496
1532485549.957,-87.402,43.945,30.762,25.879,-440.430
1532485549.961,-82.520,56.152,37.598,32.227,86.914
1532485549.965,-83.008,20.996,39.062,37.598,-60.059
1532485549.969,-81.055,19.043,39.551,26.367,-538.574
1532485549.973,-76.660,40.039,41.992,24.902,-491.211
1532485549.977,-75.684,52.246,38.574,42.969,-148.438
1532485549.981,-78.125,86.426,38.086,48.340,620.117
1532485549.985,-76.660,19.043,39.551,34.668,672.852
1532485549.988,-68.848,-16.602,37.109,31.738,-359.375
1532485549.992,-54.199,19.043,35.156,44.922,-579.590
1532485549.996,-42.480,10.254,36.621,51.270,-434.570
1532485550.000,-41.504,52.734,37.109,40.527,-134.277
1532485550.004,-37.598,30.273,34.668,42.969,-198.242
1532485550.008,-25.879,17.578,28.809,47.852,-538.574
1532485550.012,-22.461,30.762,27.344,44.434,-342.285
1532485550.016,-20.020,17.090,29.297,32.227,-401.367
1532485550.020,-17.578,56.641,28.320,27.344,-250.000
1532485550.024,-16.113,63.477,26.367,34.668,279.785
1532485550.027,-7.812,14.648,29.297,44.922,82.031
1532485550.031,-2.441,17.090,32.715,33.691,-193.359
1532485550.035,-6.836,15.137,32.227,26.367,-471.680
1532485550.039,-9.766,64.941,31.738,39.062,-313.477
1532485550.043,-4.883,106.445,33.203,36.621,740.234
1532485550.047,-2.930,0.000,32.715,40.527,248.535
1532485550.051,-5.859,3.418,28.320,33.203,-471.191
1532485550.055,1.953,43.457,24.902,38.086,-579.102
1532485550.059,7.324,43.457,25.879,42.969,-407.227
1532485550.063,1.953,16.113,29.785,32.715,25.879
1532485550.067,-0.977,13.672,32.715,28.809,-275.879
1532485550.070,-4.395,63.477,33.203,20.508,-31.250
1532485550.074,3.418,21.484,29.785,28.809,-50.781
1532485550.078,8.789,32.715,29.297,42.969,-232.422
1532485550.082,4.395,105.469,31.250,22.949,737.305
1532485550.086,1.953,7.324,33.691,13.184,248.047
1532485550.090,5.371,-3.906,35.156,17.090,-592.285
1532485550.094,8.789,30.762,26.855,20.508,-515.625
1532485550.098,4.395,28.809,25.879,23.438,-335.449
1532485550.102,4.395,37.109,34.180,17.090,45.410
1532485550.106,12.207,29.785,33.691,32.227,-342.773
1532485550.110,15.625,33.691,29.785,36.133,-500.977
1532485550.113,12.207,23.926,30.273,26.367,-340.332
1532485550.117,9.277,60.059,26.855,27.832,12.695
1532485550.121,8.301,73.730,30.762,32.715,598.145
1532485550.125,16.113,18.066,36.133,38.574,36.621
1532485550.129,19.043,17.090,33.203,35.645,-360.352
1532485550.133,14.648,20.020,33.691,27.832,-280.273
1532485550.137,11.230,37.109,37.598,31.738,-566.895
1532485550.141,13.672,125.000,36.621,39.062,284.180
1532485550.145,20.020,35.645,33.203,26.367,769.531
1532485550.149,18.555,-25.391,33.691,16.602,-160.645
1532485550.152,13.672,31.738,35.645,28.809,-514.160
1532485550.156,12.695,36.133,32.715,30.273,-590.820
1532485550.160,13.672,70.312,31.250,35.156,-100.586
1532485550.164,13.184,53.223,33.203,36.133,351.562
1532485550.168,9.766,37.109,29.785,35.645,211.914
1532485550.172,17.578,23.926,26.855,42.969,-82.520
1532485550.176,18.555,3.906,30.273,46.875,-505.371
1532485550.180,-5.371,69.336,31.250,26.367,0.000
1532485550.184,-11.230,66.406,32.227,12.207,808.594
1532485550.188,0.488,-19.043,33.691,25.879,-116.699
1532485550.192,3.418,5.859,33.691,36.621,-612.305
1532485550.195,6.348,16.602,36.133,35.156,-444.824
1532485550.199,4.395,33.691,31.738,27.832,-272.461
1532485550.203,-2.930,31.250,28.809,33.691,-151.855
1532485550.207,-2.930,24.414,32.715,47.852,-480.469
1532485550.211,-0.488,60.059,33.691,48.340,9.277
1532485550.215,-1.953,25.879,30.762,37.109,251.465
1532485550.219,-6.836,25.879,27.344,33.203,-73.242
1532485550.223,-7.324,87.402,30.273,20.020,682.129
1532485550.227,0.000,3.418,33.203,19.043,249.023
1532485550.231,-3.906,-10.742,33.691,35.156,-443.848
1532485550.234,-5.859,26.855,36.621,38.086,-521.973
1532485550.238,5.371,34.180,37.598,32.715,-525.879
1532485550.242,8.789,22.461,30.273,31.250,-62.988
1532485550.246,5.859,12.207,27.344,27.832,-229.492
1532485550.250,1.465,26.367,26.367,20.508,-438.965
1532485550.254,1.465,26.855,25.879,24.414,-556.641
1532485550.258,4.395,70.312,27.344,32.227,-160.645
1532485550.262,7.324,103.516,27.832,26.367,821.777
1532485550.266,17.090,-10.254,31.250,33.691,371.094
1532485550.270,21.973,-16.602,33.203,39.551,-518.066
1532485550.274,30.762,27.344,33.691,36.621,-650.391
1532485550.277,46.387,29.785,33.691,39.062,-439.453
1532485550.281,59.570,36.133,34.180,32.227,131.348
1532485550.285,63.477,13.184,33.203,16.113,-255.859
1532485550.289,66.895,30.762,31.738,25.391,-622.559
1532485550.293,79.590,32.715,31.738,41.016,-451.172
1532485550.297,84.961,34.180,31.738,36.621,-335.938
1532485550.301,80.566,60.547,30.273,30.273,147.949
1532485550.305,86.426,57.129,30.273,22.461,226.562
1532485550.309,96.680,42.480,23.926,34.668,35.645
1532485550.313,102.539,13.672,27.344,39.551,-68.359
1532485550.317,102.051,15.137,35.156,32.227,-445.312
1532485550.320,91.797,102.539,31.738,22.949,159.180
1532485550.324,88.379,48.340,28.809,13.184,765.625
1532485550.328,90.820,-19.043,34.668,32.715,-89.844
1532485550.332,82.520,18.555,37.109,42.480,-415.039
1532485550.336,76.660,32.715,35.156,30.273,-549.316
1532485550.340,74.219,80.566,36.133,33.691,-299.316
1532485550.344,76.660,41.992,36.133,38.574,-40.527
1532485550.348,76.172,16.113,36.621,38.086,-312.988
1532485550.352,66.895,61.523,36.621,30.273,-30.762
1532485550.356,68.848,26.367,36.133,24.414,-152.832
1532485550.359,74.219,62.012,37.598,24.902,-115.234
1532485550.363,67.383,84.473,35.156,37.109,784.180
1532485550.367,63.477,-13.672,37.109,45.898,73.730
1532485550.371,65.918,15.625,38.086,36.133,-643.066
1532485550.375,66.406,57.617,40.527,40.039,-429.199
1532485550.379,62.012,41.016,39.062,43.457,-177.246
1532485550.383,56.641,21.973,39.062,36.133,-25.391
1532485550.387,52.246,28.320,40.039,35.645,-427.734
1532485550.391,53.223,41.016,38.086,38.086,-538.574
1532485550.395,62.012,31.250,37.109,38.574,-406.250
1532485550.399,63.965,71.777,40.527,32.227,62.500
1532485550.402,58.594,101.562,42.969,27.832,833.984
1532485550.406,61.523,13.672,43.945,40.527,141.602
1532485550.410,60.547,9.277,46.875,59.082,-476.074
1532485550.414,59.082,28.320,49.316,48.340,-427.246
1532485550.418,50.293,38.086,46.875,28.320,-419.434
1532485550.422,41.016,41.992,41.992,37.109,-76.660
1532485550.426,38.574,24.414,41.016,41.016,-313.965
1532485550.430,38.086,30.762,41.504,46.875,-377.930
1532485550.434,31.250,25.879,41.992,41.504,-404.297
1532485550.438,22.461,48.340,42.480,26.855,-482.910
1532485550.442,20.508,62.500,45.410,32.715,82.520
1532485550.445,17.578,52.246,44.922,39.551,305.664
1532485550.449,10.254,48.828,37.598,20.996,229.980
1532485550.453,3.906,14.648,39.062,9.277,-93.750
1532485550.457,7.324,31.738,40.527,26.367,-489.258
1532485550.461,7.812,117.676,41.504,36.621,492.676
1532485550.465,9.766,18.555,43.945,45.898,699.219
1532485550.469,8.301,-17.090,42.480,36.621,-354.004
1532485550.473,12.207,36.621,44.922,26.855,-601.074
1532485550.477,17.578,35.156,46.387,39.551,-479.980
1532485550.481,20.508,58.594,45.410,41.016,86.426
1532485550.484,20.020,27.344,46.875,40.039,-83.008
1532485550.488,13.672,38.086,46.387,39.062,-562.012
1532485550.492,15.137,72.266,40.039,33.691,30.762
1532485550.496,19.531,17.090,38.574,40.039,60.059
1532485550.500,8.789,67.383,41.016,34.180,179.199
1532485550.504,-0.977,62.988,41.992,33.691,758.301
1532485550.508,5.371,-18.066,44.434,38.574,-135.254
1532485550.512,5.371,15.625,43.945,36.133,-472.656
1532485550.516,1.953,24.902,43.457,31.250,-433.105
1532485550.520,0.977,58.594,46.387,24.414,-347.656
1532485550.524,0.977,46.387,44.434,38.086,-169.922
1532485550.527,5.859,24.414,40.527,46.387,-361.816
1532485550.531,7.324,27.832,40.039,37.598,-328.125
1532485550.535,-1.465,24.414,40.039,24.414,-478.027
1532485550.539,-6.348,83.984,41.016,23.438,-40.039
1532485550.543,-2.441,91.309,39.551,32.227,831.055
1532485550.547,-0.977,-12.695,37.598,41.504,199.707
1532485550.551,-4.883,-4.883,38.086,26.367,-474.609
1532485550.555,-5.371,31.738,38.086,26.367,-605.957
1532485550.559,-2.930,38.574,34.668,38.086,-444.336
1532485550.563,0.488,19.043,35.645,41.992,34.180
1532485550.567,-6.348,9.766,39.062,34.668,-275.879
1532485550.570,-8.301,28.809,39.062,14.648,-530.273
1532485550.574,1.465,30.762,40.527,11.719,-515.625
1532485550.578,5.371,34.668,40.527,36.133,-267.090
1532485550.582,-6.348,22.461,39.551,37.598,176.758
1532485550.586,-13.672,39.062,39.062,20.020,168.945
1532485550.590,-5.371,48.828,41.504,30.762,101.562
1532485550.594,3.906,4.395,44.434,45.898,-192.383
1532485550.598,9.277,30.762,41.504,38.574,-259.766
1532485550.602,1.953,112.305,38.086,15.625,693.848
1532485550.606,4.883,21.484,38.574,28.809,421.387
1532485550.609,6.348,-7.812,38.574,49.805,-413.086
1532485550.613,-0.488,17.578,37.109,41.016,-410.156
1532485550.617,-7.324,27.344,38.086,25.879,-401.855
1532485550.621,-14.648,57.617,40.039,21.973,41.016
1532485550.625,-14.648,22.949,41.504,37.598,-190.430
1532485550.629,-17.090,24.414,39.062,41.992,-380.371
1532485550.633,-25.879,48.340,38.086,40.039,65.430
1532485550.637,-31.738,49.316,41.504,41.016,-0.977
1532485550.641,-38.086,93.262,38.574,39.551,423.340
1532485550.645,-37.598,21.484,35.645,29.785,729.492
1532485550.649,-40.039,-31.738,34.668,41.504,-166.992
1532485550.652,-51.758,10.254,37.109,42.969,-557.129
1532485550.656,-48.828,28.809,42.480,20.508,-625.488
1532485550.660,-43.457,65.430,40.527,28.809,-150.879
1532485550.664,-41.504,20.996,39.551,35.645,-4.395
1532485550.668,-46.387,7.324,41.016,24.902,-431.641
1532485550.672,-50.781,29.785,37.598,19.531,-501.465
1532485550.676,-45.898,26.367,35.645,39.062,-499.512
1532485550.680,-44.922,81.543,39.551,41.992,235.840
1532485550.684,-42.969,64.941,39.551,15.137,863.281
1532485550.688,-35.156,-5.371,39.551,8.301,-130.371
1532485550.691,-25.879,17.090,41.016,12.207,-587.402
1532485550.695,-18.555,14.160,39.062,23.926,-434.570
1532485550.699,-22.949,30.762,41.992,31.738,-276.855
1532485550.703,-28.320,30.273,41.992,23.926,-135.254
1532485550.707,-11.719,22.461,40.527,20.508,-460.938
1532485550.711,-3.418,30.762,39.062,30.762,-395.020
1532485550.715,-7.812,21.973,40.039,32.227,-334.961
1532485550.719,-7.324,31.738,41.992,23.438,-328.613
1532485550.723,-2.930,34.180,41.016,35.645,-74.707
1532485550.727,-4.395,45.410,43.945,43.457,178.223
1532485550.731,-6.348,24.414,41.504,36.621,292.969
1532485550.734,-10.742,-2.930,42.969,23.926,-293.945
1532485550.738,-17.090,48.340,47.852,24.902,-393.066
1532485550.742,-18.066,106.445,45.410,32.715,709.473
1532485550.746,-12.695,2.441,44.434,32.227,391.602
1532485550.750,-9.766,-16.113,44.922,19.043,-398.926
1532485550.754,-7.324,27.344,42.969,13.672,-567.871
1532485550.758,0.488,36.133,41.016,25.391,-476.074
1532485550.762,4.883,28.320,40.039,20.508,126.953
1532485550.766,5.859,-1.465,38.574,5.859,-173.340
1532485550.770,5.371,33.691,39.551,13.184,-521.484
1532485550.774,5.371,58.594,39.551,16.113,-112.305
1532485550.777,10.742,37.598,40.039,18.066,58.105
1532485550.781,13.672,79.102,37.109,22.461,680.176
1532485550.785,21.973,9.277,35.645,18.555,517.578
1532485550.789,31.250,-12.695,42.480,25.879,-488.770
1532485550.793,22.949,26.367,44.922,40.039,-566.895
1532485550.797,11.719,43.945,44.922,32.227,-251.465
1532485550.801,8.301,56.152,44.922,17.578,159.180
1532485550.805,8.301,20.020,42.969,21.973,-271.484
1532485550.809,12.207,28.320,41.992,19.531,-551.758
1532485550.813,15.625,26.367,41.504,22.949,-316.895
1532485550.816,12.695,21.484,41.992,28.809,-441.895
1532485550.820,9.766,89.844,42.480,31.738,224.121
1532485550.824,13.672,31.250,40.039,31.738,571.777
1532485550.828,16.602,-13.672,37.598,36.621,-237.305
1532485550.832,19.043,18.066,40.039,43.457,-395.996
1532485550.836,20.020,21.484,41.016,36.621,-570.312
1532485550.840,24.414,64.941,36.133,34.668,-255.859
1532485550.844,25.879,32.715,37.598,34.668,119.629
1532485550.848,20.996,1.953,37.598,30.762,-279.297
1532485550.852,17.090,22.461,30.273,28.809,-418.457
1532485550.856,15.625,28.320,32.227,34.668,-565.430
1532485550.859,13.672,45.898,35.645,48.340,-246.094
1532485550.863,9.766,22.949,39.062,50.293,257.812
1532485550.867,7.812,34.668,38.574,43.457,221.680
1532485550.871,7.812,34.668,34.668,36.621,3.906
1532485550.875,10.742,7.324,35.156,45.898,-442.871
1532485550.879,8.789,51.758,37.109,52.734,-187.500
1532485550.883,6.836,89.355,37.598,37.109,772.949
1532485550.887,12.695,4.395,38.574,40.039,124.512
1532485550.891,16.602,4.395,38.574,41.504,-577.148
1532485550.895,18.555,27.832,39.551,41.992,-443.848
1532485550.899,18.066,24.902,38.086,59.570,-276.855
1532485550.902,21.973,25.391,36.133,52.246,-6.836
1532485550.906,26.855,18.555,34.668,29.297,-414.062
1532485550.910,27.832,44.434,35.156,48.340,-415.039
1532485550.914,24.902,50.781,35.645,63.477,101.074
1532485550.918,21.484,41.992,29.297,54.199,124.512
1532485550.922,19.043,97.656,29.297,23.926,685.059
1532485550.926,24.902,17.578,34.668,36.133,388.672
1532485550.930,28.320,-7.324,35.645,65.918,-344.727
1532485550.934,23.438,15.625,36.621,52.246,-467.773
1532485550.938,20.996,32.227,36.621,37.598,-530.273
1532485550.941,25.879,50.293,34.180,27.832,-7.324
1532485550.945,29.297,17.578,34.668,32.227,-147.949
1532485550.949,28.320,25.879,35.645,45.898,-397.949
1532485550.953,27.344,25.879,32.227,39.551,-481.445
1532485550.957,29.297,41.016,32.715,35.156,-569.824
1532485550.961,28.320,107.910,35.645,43.945,468.750
1532485550.965,25.879,17.090,34.180,40.039,563.477
1532485550.969,24.414,-9.277,32.227,25.391,-399.414
1532485550.973,25.391,30.273,31.738,20.020,-575.195
1532485550.977,27.832,32.715,32.715,19.043,-508.789
1532485550.981,22.461,73.242,30.762,16.113,167.480
1532485550.984,23.926,31.738,35.645,38.574,83.984
1532485550.988,31.250,33.691,41.016,48.340,-541.016
1532485550.992,13.672,41.992,31.250,32.715,-439.941
1532485550.996,4.883,21.973,29.297,35.645,-330.078
1532485551.000,11.230,44.434,28.809,25.879,-16.602
1532485551.004,11.719,31.250,29.785,15.625,-66.406
1532485551.008,12.207,52.246,36.133,20.020,-42.480
1532485551.012,8.789,50.293,34.180,21.484,360.840
1532485551.016,9.766,-4.883,34.180,23.438,-132.812
1532485551.020,11.230,65.918,34.180,11.719,-124.512
1532485551.024,5.371,94.727,33.203,4.883,774.902
1532485551.027,7.812,-3.906,34.180,29.785,120.117
1532485551.031,21.973,1.465,36.133,36.133,-393.066
1532485551.035,25.879,21.973,38.086,23.438,-468.750
1532485551.039,22.949,44.434,37.109,24.414,-458.496
1532485551.043,25.391,36.621,35.645,30.273,-51.270
1532485551.047,25.391,3.418,33.203,34.668,-240.234
1532485551.051,23.926,26.855,33.691,23.926,-353.516
1532485551.055,22.461,52.734,32.715,11.719,-83.984
1532485551.059,17.090,50.781,31.250,18.555,93.750
1532485551.063,13.672,89.355,32.715,25.391,744.141
1532485551.066,12.207,6.348,34.180,20.508,266.113
1532485551.070,2.930,-1.465,32.715,9.766,-551.758
1532485551.074,11.719,39.062,29.785,17.090,-607.910
1532485551.078,24.414,37.109,31.738,40.527,-354.492
1532485551.082,24.902,26.367,32.715,42.969,107.422
1532485551.086,21.484,19.531,32.227,36.621,-327.637
1532485551.090,22.949,42.480,33.203,41.016,-555.176
1532485551.094,34.180,33.691,36.621,39.062,-435.547
1532485551.098,35.645,39.551,37.109,24.902,-278.320
1532485551.102,20.996,72.754,34.668,22.461,532.227
1532485551.106,18.555,32.227,38.086,26.855,252.441
1532485551.109,27.344,22.949,38.574,20.996,-344.238
1532485551.113,26.367,18.555,35.645,38.086,-269.531
1532485551.117,23.438,30.762,35.156,39.551,-340.820
1532485551.121,23.438,114.258,35.645,30.762,490.234
1532485551.125,27.832,25.391,34.668,39.062,442.871
1532485551.129,29.785,-11.230,34.180,48.340,-294.922
1532485551.133,29.785,21.484,34.180,28.809,-353.516
1532485551.137,31.250,30.273,29.785,17.578,-489.746
1532485551.141,41.016,70.312,29.297,37.598,-30.762
1532485551.145,51.270,38.086,30.273,46.387,-13.184
1532485551.148,51.270,43.945,30.273,35.645,55.176
1532485551.152,50.781,25.879,31.250,22.461,133.301
1532485551.156,58.594,10.742,30.762,26.855,-513.184
1532485551.160,63.477,100.098,29.297,34.180,71.777
1532485551.164,59.570,52.246,29.297,24.902,835.938
1532485551.168,55.664,-20.020,32.227,27.344,-111.328
1532485551.172,55.176,23.926,31.738,29.785,-601.562
1532485551.176,62.012,29.785,31.738,27.832,-526.855
1532485551.180,64.453,54.688,33.203,24.414,-153.320
1532485551.184,58.594,35.156,37.598,36.621,5.859
1532485551.188,59.570,20.996,32.715,31.738,-477.051
1532485551.191,68.848,48.828,31.738,29.785,-460.938
1532485551.195,69.336,53.711,39.551,40.527,-60.059
1532485551.199,62.500,59.082,40.039,41.016,367.676
1532485551.203,57.129,68.848,35.156,23.926,808.105
1532485551.207,60.059,3.906,33.691,24.902,28.320
1532485551.211,61.523,4.883,33.691,39.551,-489.258
1532485551.215,62.500,25.391,33.691,43.457,-408.203
1532485551.219,61.523,50.293,36.133,44.922,-294.434
1532485551.223,68.359,30.273,37.598,46.387,-113.770
1532485551.227,81.055,18.555,36.133,48.340,-379.395
1532485551.231,74.219,26.367,36.133,40.039,-338.379
1532485551.234,55.176,23.926,37.109,24.414,-424.805
1532485551.238,53.223,47.852,34.668,27.832,-444.336
1532485551.242,56.641,55.176,32.715,29.297,264.648
1532485551.246,56.152,18.066,33.203,30.762,248.535
1532485551.250,53.223,14.160,35.156,39.062,-231.934
1532485551.254,50.781,23.438,33.691,29.297,-488.770
1532485551.258,50.781,54.199,30.762,25.391,-422.363
1532485551.262,56.641,117.188,32.227,29.785,671.875
1532485551.266,58.594,8.789,34.668,30.273,494.141
1532485551.270,50.293,-7.812,35.156,28.320,-434.570
1532485551.273,51.758,39.062,36.133,36.133,-591.309
1532485551.277,55.664,45.898,35.645,39.551,-388.184
1532485551.281,50.293,41.504,33.203,33.203,195.312
1532485551.285,45.898,18.555,36.133,32.715,-160.645
1532485551.289,49.805,64.941,36.133,40.527,-176.758
1532485551.293,57.129,32.227,34.668,39.062,25.879
1532485551.297,52.734,16.602,32.227,28.320,-335.449
1532485551.301,40.527,115.234,33.203,27.832,451.660
1532485551.305,40.039,43.457,37.598,28.320,671.387
1532485551.309,44.434,-7.324,34.180,33.691,-330.566
1532485551.313,44.922,25.391,36.133,41.504,-440.430
1532485551.316,39.551,22.461,44.434,28.809,-428.711
1532485551.320,35.156,73.730,45.898,15.625,-158.203
1532485551.324,39.551,44.922,43.457,28.809,-164.551
1532485551.328,40.039,15.137,40.039,39.062,-424.805
1532485551.332,40.527,31.250,39.062,32.715,-278.320
1532485551.336,38.574,44.434,37.598,35.645,-179.199
1532485551.340,38.574,83.008,36.133,29.785,260.254
1532485551.344,43.457,59.570,35.156,32.227,807.617
1532485551.348,49.316,-18.555,40.527,38.086,39.062
1532485551.352,46.387,9.766,43.945,36.133,-518.066
1532485551.356,45.410,26.367,39.062,33.691,-626.465
1532485551.359,49.316,44.922,40.527,39.062,-387.207
1532485551.363,49.805,24.414,42.480,44.922,10.254
1532485551.367,45.898,9.277,39.062,41.992,-331.543
1532485551.371,39.551,34.668,37.598,31.738,-525.391
1532485551.375,44.434,28.320,39.062,34.180,-535.645
1532485551.379,45.898,35.156,41.504,37.598,-262.207
1532485551.383,40.039,42.969,39.062,27.344,390.625
1532485551.387,39.062,16.113,38.086,28.809,91.309
1532485551.391,49.805,24.902,37.598,31.738,-382.812
1532485551.395,49.805,23.926,37.598,35.645,-404.785
1532485551.398,38.086,33.691,38.086,28.320,-183.594
1532485551.402,33.691,97.168,40.039,30.273,732.422
1532485551.406,38.574,16.113,41.016,41.504,216.309
1532485551.410,45.410,-2.930,37.109,43.945,-464.355
1532485551.414,45.410,19.043,37.598,31.250,-399.902
1532485551.418,38.086,22.461,36.621,24.902,-348.145
1532485551.422,38.574,27.344,37.109,23.926,-14.648
1532485551.426,41.504,19.043,38.086,30.762,-295.898
1532485551.430,36.621,51.758,36.621,38.086,31.250
1532485551.434,29.785,7.812,36.621,40.527,97.656
1532485551.438,26.855,19.531,37.109,41.504,-434.570
1532485551.441,22.461,110.352,37.109,33.691,555.176
1532485551.445,27.344,11.719,36.133,33.691,624.023
1532485551.449,29.785,-15.137,38.574,36.133,-318.359
1532485551.453,23.438,28.320,38.574,27.832,-567.871
1532485551.457,28.809,35.156,37.109,18.555,-587.891
1532485551.461,28.320,54.199,33.691,2.930,50.781
1532485551.465,28.320,14.648,37.598,23.926,-28.809
1532485551.469,27.344,12.695,40.039,35.645,-500.488
1532485551.473,20.508,34.180,38.086,30.273,-483.398
1532485551.477,22.461,52.734,37.598,26.367,-144.043
1532485551.481,24.902,78.125,38.574,23.438,602.539
1532485551.484,30.762,17.578,40.039,24.902,721.191
1532485551.488,29.297,-19.043,38.086,33.691,-302.734
1532485551.492,29.785,21.484,35.645,31.738,-578.125
1532485551.496,35.156,24.414,39.551,29.785,-432.129
1532485551.500,31.250,46.387,39.062,36.133,-142.578
1532485551.504,31.250,27.344,40.527,32.715,-170.898
1532485551.508,33.691,21.973,40.527,28.809,-535.156
1532485551.512,35.156,34.180,37.109,26.367,-355.957
1532485551.516,34.668,20.508,40.039,30.762,-375.977
1532485551.520,34.180,53.223,37.598,25.391,-250.488
1532485551.523,41.992,68.848,37.598,26.367,304.688
1532485551.527,44.922,36.621,46.387,44.922,302.734
1532485551.531,41.016,8.789,47.363,46.875,-14.160
1532485551.535,32.227,5.371,42.969,32.227,-449.707
1532485551.539,28.809,59.082,42.480,23.438,-338.379
1532485551.543,34.180,88.867,42.969,27.832,716.797
1532485551.547,38.574,-5.371,43.457,28.809,277.832
1532485551.551,33.203,-3.418,41.992,23.438,-452.637
1532485551.555,26.855,27.832,37.598,26.367,-583.984
1532485551.559,27.344,40.039,34.668,17.090,-437.500
1532485551.563,23.926,25.391,36.133,26.855,55.664
1532485551.566,21.484,11.230,36.621,28.809,-237.793
1532485551.570,18.066,58.105,36.133,22.949,-142.090
1532485551.574,18.066,46.387,33.203,28.320,95.215
1532485551.578,19.043,32.227,31.250,30.273,-49.805
1532485551.582,12.695,85.938,30.762,23.438,713.379
1532485551.586,14.160,3.906,32.227,19.043,301.270
1532485551.590,19.043,-2.441,32.715,21.484,-582.520
1532485551.594,15.625,24.414,28.809,19.531,-539.551
1532485551.598,13.184,20.996,30.762,19.043,-337.402
1532485551.602,12.695,32.227,35.156,20.020,75.684
1532485551.605,14.160,21.973,35.156,12.207,-328.125
1532485551.609,15.625,31.738,36.133,38.574,-538.086
1532485551.613,15.137,23.926,36.133,46.875,-314.941
1532485551.617,5.859,53.711,34.180,34.180,-35.156
1532485551.621,-1.465,103.027,34.180,26.855,728.516
1532485551.625,9.277,15.137,39.062,32.227,583.496
1532485551.629,9.277,-20.996,41.504,43.945,-263.672
1532485551.633,1.465,6.836,36.621,36.133,-450.195
1532485551.637,-0.488,22.949,36.133,30.762,-585.938
1532485551.641,-0.488,71.777,36.621,28.320,-120.605
1532485551.645,7.812,30.762,36.133,35.156,-58.105
1532485551.648,6.348,16.602,36.133,43.457,-394.531
1532485551.652,-0.977,30.273,37.109,41.504,-443.848
1532485551.656,-1.953,32.715,37.109,40.039,-588.867
1532485551.660,-3.418,72.266,37.598,30.273,-90.820
1532485551.664,-6.836,52.246,33.203,26.367,435.059
1532485551.668,-8.301,6.348,34.668,36.133,35.156
1532485551.672,-8.301,21.484,39.062,25.391,-366.699
1532485551.676,-7.812,20.020,40.039,24.414,-505.371
1532485551.680,-9.277,67.383,40.527,33.691,15.137
1532485551.684,-18.066,69.336,36.621,24.414,817.383
1532485551.688,-18.555,-15.137,37.598,30.273,-42.480
1532485551.691,-12.695,18.066,40.039,38.086,-565.918
1532485551.695,-11.230,28.809,39.551,42.969,-403.320
1532485551.699,-17.090,24.414,38.574,36.133,-214.355
1532485551.703,-20.508,20.996,38.086,24.902,-76.172
1532485551.707,-19.043,25.879,36.133,23.926,-441.895
1532485551.711,-18.555,54.688,34.180,28.809,-5.859
1532485551.715,-20.508,5.859,37.109,28.809,91.797
1532485551.719,-28.320,23.438,36.621,22.461,-198.730
1532485551.723,-30.762,93.262,35.645,30.762,695.801
1532485551.727,-22.461,-0.488,33.203,36.133,271.484
1532485551.730,-21.484,-15.137,29.785,36.621,-406.250
1532485551.734,-29.785,23.438,29.297,23.926,-479.980
1532485551.738,-31.250,32.715,29.785,8.301,-496.094
1532485551.742,-21.484,23.438,31.250,23.926,-24.414
1532485551.746,-24.414,4.395,31.738,34.668,-191.406
1532485551.750,-34.180,13.672,33.691,31.250,-399.902
1532485551.754,-39.551,25.391,35.156,31.250,-509.766
1532485551.758,-35.645,68.848,33.691,29.785,-138.184
1532485551.762,-25.391,98.633,35.156,43.945,823.242
1532485551.766,-26.855,-5.371,30.762,27.344,433.594
1532485551.770,-40.527,-13.672,27.832,0.977,-457.031
1532485551.773,-40.039,25.391,31.250,15.137,-634.277
1532485551.777,-34.180,30.762,32.227,35.645,-450.684
1532485551.781,-26.367,43.945,38.574,32.227,154.785
1532485551.785,-19.043,20.508,44.922,33.203,-190.430
1532485551.789,-19.043,43.457,37.109,22.461,-597.656
1532485551.793,-14.648,43.457,36.621,38.086,-445.312
1532485551.797,-15.137,37.598,44.434,48.340,-327.148
1532485551.801,-20.996,73.730,41.016,26.855,150.879
1532485551.805,-18.066,69.824,34.668,24.414,245.117
1532485551.809,-12.695,60.547,38.574,35.156,108.398
1532485551.813,-10.742,24.414,39.551,41.504,43.945
1532485551.816,-12.207,11.230,36.133,28.809,-394.531
1532485551.820,-22.949,102.051,35.645,20.508,119.141
1532485551.824,-22.461,59.570,36.621,27.832,771.484
1532485551.828,-18.555,-11.230,34.668,28.809,-75.195
1532485551.832,-20.020,22.461,34.180,25.879,-416.016
1532485551.836,-20.996,34.180,39.062,29.297,-529.297
1532485551.840,-20.020,75.195,41.504,29.785,-338.379
1532485551.844,-17.578,43.945,35.645,25.879,-67.383
1532485551.848,-18.555,20.020,32.715,30.273,-294.434
1532485551.852,-23.438,62.988,32.227,38.086,-48.828
1532485551.855,-25.879,52.246,30.762,31.738,28.320
1532485551.859,-21.973,63.477,32.715,32.227,217.773
1532485551.863,-20.508,71.777,35.156,46.875,817.383
1532485551.867,-16.113,-7.324,37.109,37.109,75.684
1532485551.871,-11.230,10.742,38.086,31.738,-627.441
1532485551.875,-9.766,29.785,37.598,41.504,-610.840
1532485551.879,-5.859,25.391,32.715,41.504,-348.145
1532485551.883,0.000,14.160,33.691,34.668,-19.531
1532485551.887,-4.395,19.531,36.133,39.551,-424.316
1532485551.891,-6.836,38.574,33.203,36.133,-567.383
1532485551.895,-5.859,30.273,34.180,34.180,-427.246
1532485551.898,-12.207,64.453,36.621,41.992,110.840
1532485551.902,-18.555,96.680,35.645,37.109,864.258
1532485551.906,-14.160,9.277,38.574,39.062,144.043
1532485551.910,-8.789,-0.488,37.109,44.434,-492.676
1532485551.914,-9.277,21.484,34.180,37.109,-453.613
1532485551.918,-13.672,32.227,36.133,30.762,-418.457
1532485551.922,-13.184,37.109,32.715,28.320,-56.641
1532485551.926,-6.348,16.602,33.203,24.414,-330.078
1532485551.930,-2.930,27.832,38.086,39.551,-398.438
1532485551.934,-6.836,20.508,35.645,41.016,-398.438
1532485551.938,-10.254,36.621,31.738,39.551,-470.215
1532485551.941,-5.859,58.105,31.738,40.527,74.707
1532485551.945,0.488,49.805,33.203,47.852,293.945
1532485551.949,0.000,42.480,33.691,45.898,297.363
1532485551.953,-3.418,9.766,31.738,39.062,-163.086
1532485551.957,-2.930,28.809,30.762,30.762,-574.219
1532485551.961,-3.906,107.422,33.203,35.156,453.125
1532485551.965,0.977,19.531,37.109,38.574,725.098
1532485551.969,7.324,-18.555,35.645,34.180,-325.684
1532485551.973,5.859,29.297,33.203,29.785,-626.953
1532485551.977,3.906,27.832,29.785,29.785,-533.691
1532485551.980,2.441,59.082,27.832,33.691,26.367
1532485551.984,0.000,26.855,32.227,22.949,-79.590
1532485551.988,-1.953,30.273,30.762,32.715,-577.637
1532485551.992,0.977,76.660,30.762,39.062,-34.180
1532485551.996,3.418,38.574,33.691,37.598,201.172
1532485552.000,0.488,53.711,33.203,35.156,270.508
1532485552.004,-2.441,56.641,33.203,21.484,743.164
1532485552.008,3.906,-11.230,35.156,30.273,-131.348
1532485552.012,4.395,8.301,37.109,38.086,-529.297
1532485552.016,1.953,15.625,37.109,37.598,-459.961
1532485552.020,1.465,45.898,37.109,23.926,-391.602
1532485552.023,1.953,41.504,36.621,16.113,-199.219
1532485552.027,-7.324,26.367,35.156,42.480,-391.113
1532485552.031,-7.812,29.785,34.180,39.551,-336.426
1532485552.035,1.465,30.273,35.156,29.297,-459.473
1532485552.039,3.906,81.055,33.203,33.691,-74.707
1532485552.043,3.906,84.473,33.691,21.973,813.477
1532485552.047,3.418,-12.695,34.180,26.855,204.102
1532485552.051,-1.465,-4.395,32.715,35.645,-486.816
1532485552.055,-4.883,30.273,34.180,35.156,-615.723
1532485552.059,9.277,36.621,39.062,45.410,-498.047
1532485552.062,17.578,36.621,38.086,45.898,124.512
1532485552.066,-1.465,15.137,33.203,35.156,-123.047
1532485552.070,-10.254,27.344,33.691,22.461,-527.832
1532485552.074,0.000,38.086,33.203,23.926,-544.434
1532485552.078,4.883,37.598,29.785,35.156,-312.500
1532485552.082,-1.465,29.785,29.785,25.879,155.762
1532485552.086,-10.742,49.316,30.762,11.719,195.801
1532485552.090,-6.348,43.945,33.203,21.484,57.617
1532485552.094,5.371,12.695,36.621,39.062,-285.156
1532485552.098,3.906,40.527,32.715,30.762,-315.918
1532485552.102,-4.395,108.398,29.785,18.555,669.922
1532485552.105,1.953,22.949,33.203,30.762,458.496
1532485552.109,10.254,0.000,35.645,36.621,-432.129
1532485552.113,11.719,27.344,37.109,40.527,-436.523
1532485552.117,11.719,32.227,34.180,32.227,-420.410
1532485552.121,10.742,70.801,33.203,23.926,10.254
1532485552.125,12.695,24.414,35.156,29.297,-225.586
1532485552.129,9.766,26.367,34.668,40.527,-434.082
1532485552.133,0.000,55.176,34.668,34.668,68.848
1532485552.137,-2.441,27.832,36.133,33.691,-190.918
1532485552.141,-1.465,99.121,33.203,35.156,221.191
1532485552.145,6.348,43.457,28.809,38.574,770.996
1532485552.148,10.742,-25.391,31.250,43.457,-139.160
1532485552.152,6.348,22.949,34.668,21.484,-555.176
1532485552.156,8.789,38.574,37.598,20.996,-645.996
1532485552.160,11.230,75.195,32.227,32.715,-206.543
1532485552.164,14.160,39.062,28.809,36.133,-9.766
1532485552.168,11.230,26.367,33.691,37.598,-429.688
1532485552.172,8.789,42.969,31.738,30.273,-535.156
1532485552.176,17.578,37.109,29.297,33.203,-547.852
1532485552.180,18.555,96.680,27.832,33.691,179.199
1532485552.184,13.672,84.961,29.785,29.297,858.887
1532485552.187,18.066,0.977,32.715,28.809,-112.305
1532485552.191,16.602,25.879,28.809,35.156,-623.535
1532485552.195,15.625,34.180,26.855,51.270,-467.773
1532485552.199,17.578,36.621,30.762,45.898,-294.922
1532485552.203,17.578,26.855,32.715,31.738,-139.160
1532485552.207,21.973,25.391,29.297,35.156,-485.840
1532485552.211,24.902,36.133,29.785,36.133,-434.570
1532485552.215,27.344,22.949,35.645,40.039,-341.797
1532485552.219,26.855,37.598,38.574,40.527,-328.125
1532485552.223,25.391,48.340,38.574,40.039,-65.918
1532485552.227,26.855,56.152,39.551,41.504,158.203
1532485552.230,29.297,30.762,41.504,32.715,187.988
1532485552.234,26.367,8.789,39.551,19.531,-339.844
1532485552.238,22.949,62.500,40.039,26.367,-404.297
1532485552.242,19.531,118.652,41.504,39.062,689.941
1532485552.246,18.066,12.695,43.457,41.992,429.688
1532485552.250,13.672,-9.277,43.945,37.598,-369.141
1532485552.254,7.812,30.762,42.480,19.531,-562.500
1532485552.258,9.766,40.527,40.527,26.855,-488.281
1532485552.262,11.719,40.527,39.551,41.016,154.297
1532485552.266,9.766,8.301,41.016,37.598,-116.699
1532485552.270,7.324,31.250,40.527,35.156,-477.051
1532485552.273,9.277,57.129,41.016,32.227,-98.145
1532485552.277,15.137,53.711,38.086,51.270,187.012
1532485552.281,15.625,80.078,36.133,40.039,787.109
1532485552.285,16.113,2.441,41.992,36.621,548.340
1532485552.289,16.113,-14.648,40.527,45.898,-445.312
1532485552.293,17.090,21.973,35.645,38.574,-553.711
1532485552.297,16.113,20.020,38.574,39.062,-391.602
1532485552.301,9.766,51.270,38.086,36.133,57.129
1532485552.305,13.184,23.926,40.039,29.297,-208.984
1532485552.309,15.625,31.250,42.480,33.203,-544.922
1532485552.312,13.672,37.109,39.062,31.250,-298.828
1532485552.316,11.719,22.461,40.527,33.203,-420.410
1532485552.320,4.395,94.727,40.039,38.086,209.473
1532485552.324,9.277,53.223,38.574,38.574,790.527
1532485552.328,18.066,-16.113,41.504,48.340,-92.773
1532485552.332,12.695,15.625,40.039,43.457,-428.711
1532485552.336,9.766,26.367,41.016,36.621,-547.852
1532485552.340,15.625,69.336,44.922,41.504,-380.371
1532485552.344,19.043,44.922,43.945,43.945,-83.008
1532485552.348,14.648,14.648,43.945,29.297,-307.129
1532485552.352,9.766,25.879,43.945,20.996,-405.273
1532485552.355,11.230,31.250,43.945,28.320,-547.363
1532485552.359,17.578,48.828,41.504,51.758,-312.988
1532485552.363,19.531,31.250,40.527,57.617,87.891
1532485552.367,14.160,41.504,41.992,47.852,176.270
1532485552.371,16.602,37.598,39.062,37.598,20.996
1532485552.375,19.043,17.578,40.527,34.180,-437.988
1532485552.379,17.090,60.547,38.574,36.621,-192.383
1532485552.383,18.066,96.191,40.039,32.715,775.391
1532485552.387,16.113,12.695,44.922,35.645,164.062
1532485552.391,14.160,10.254,41.016,35.645,-564.453
1532485552.395,18.066,40.039,40.039,52.734,-450.195
1532485552.398,16.602,40.039,40.527,48.340,-259.277
1532485552.402,13.184,38.574,38.574,34.668,42.969
1532485552.406,12.207,34.668,39.551,39.551,-375.000
1532485552.410,12.207,50.781,38.086,41.504,-421.875
1532485552.414,11.230,51.758,37.598,41.504,22.949
1532485552.418,9.277,72.266,37.109,33.691,261.230
1532485552.422,5.859,107.422,33.691,41.504,802.246
1532485552.426,10.254,12.207,38.086,44.922,379.395
1532485552.430,9.277,-9.277,38.574,35.156,-330.566
1532485552.434,3.906,23.438,40.039,36.621,-465.820
1532485552.437,9.766,41.992,45.410,50.293,-534.180
1532485552.441,18.555,59.570,41.016,52.246,-10.254
1532485552.445,7.324,22.461,36.621,33.203,-143.066
1532485552.449,-8.301,28.320,36.621,13.672,-397.949
1532485552.453,-0.977,34.180,35.645,20.996,-456.543
1532485552.457,16.602,52.246,37.598,38.574,-580.078
1532485552.461,14.648,109.375,38.086,36.621,414.062
1532485552.465,8.301,17.090,36.621,21.973,576.172
1532485552.469,7.324,-2.930,38.574,32.227,-377.930
1532485552.473,13.184,43.457,40.039,36.621,-575.684
1532485552.477,15.625,35.645,39.551,34.180,-526.855
1532485552.480,13.184,75.684,38.086,33.203,98.145
1532485552.484,12.695,50.781,37.109,28.320,251.953
1532485552.488,11.719,27.344,36.133,27.344,-354.004
1532485552.492,16.113,40.039,35.645,34.180,-460.938
1532485552.496,20.020,40.039,35.645,34.180,-363.281
1532485552.500,13.184,64.453,39.062,28.320,-54.688
1532485552.504,12.695,46.387,40.039,33.691,-79.102
1532485552.508,18.066,56.641,37.109,37.598,-93.750
1532485552.512,18.555,54.199,36.133,44.434,293.457
1532485552.516,13.672,0.977,35.645,44.434,-189.453
1532485552.519,7.324,69.824,34.668,39.551,-167.480
1532485552.523,10.742,106.445,35.645,26.367,767.578
1532485552.527,13.672,13.184,34.668,34.180,138.184
1532485552.531,6.836,11.230,34.180,47.363,-401.367
1532485552.535,-1.953,31.738,33.203,36.133,-457.031
1532485552.539,-3.906,51.270,33.691,29.785,-443.359
1532485552.543,0.000,42.480,35.645,37.109,-37.598
1532485552.547,-0.977,20.996,30.273,34.668,-218.262
1532485552.551,-5.859,39.062,24.414,29.297,-337.402
1532485552.555,-6.348,55.176,28.320,33.203,-172.852
1532485552.559,-1.465,73.242,33.203,38.574,122.070
1532485552.562,2.930,92.773,33.691,44.434,809.570
1532485552.566,4.395,0.000,36.621,47.852,263.672
1532485552.570,1.465,1.465,36.621,40.039,-537.109
1532485552.574,2.930,37.109,36.621,40.039,-629.883
1532485552.578,6.348,29.297,35.645,43.457,-380.859
1532485552.582,-0.977,20.508,33.691,42.480,117.676
1532485552.586,-6.348,14.648,35.645,30.273,-292.969
1532485552.590,-5.371,37.598,34.668,31.250,-542.480
1532485552.594,-2.441,30.273,35.645,45.898,-433.105
1532485552.598,-5.371,32.227,38.086,43.457,-270.020
1532485552.602,-14.160,62.988,37.109,37.598,536.133
1532485552.605,-10.742,19.531,35.156,27.832,193.848
1532485552.609,-8.301,15.137,35.645,33.203,-385.254
1532485552.613,-11.719,16.113,37.598,42.969,-246.094
1532485552.617,-16.602,28.320,36.621,34.668,-336.914
1532485552.621,-19.531,109.863,36.621,36.621,458.984
1532485552.625,-12.207,27.344,39.062,37.109,469.238
1532485552.629,-5.859,-3.418,41.504,40.527,-284.668
1532485552.633,-6.836,22.949,45.410,47.363,-341.309
1532485552.637,-14.160,31.250,40.527,42.969,-471.191
1532485552.641,-15.625,77.637,37.109,38.086,-79.102
1532485552.644,-14.648,37.109,41.016,44.922,-8.789
1532485552.648,-13.672,37.109,42.480,45.410,89.844
1532485552.652,-10.254,24.414,43.457,39.062,73.730
1532485552.656,-5.859,12.207,41.016,40.039,-551.270
1532485552.660,-4.395,100.098,40.527,42.969,19.531
1532485552.664,-3.906,64.941,44.434,40.527,835.938
1532485552.668,-3.418,-13.184,44.922,34.668,-51.270
1532485552.672,-2.930,28.809,41.016,35.645,-579.102
1532485552.676,5.371,30.273,32.227,35.645,-528.809
1532485552.680,9.277,50.781,37.598,34.180,-194.336
1532485552.684,11.230,31.738,44.922,33.691,12.695
1532485552.687,14.648,21.484,41.016,35.156,-466.797
1532485552.691,18.555,54.688,41.504,31.250,-485.352
1532485552.695,18.555,53.223,43.457,42.480,-40.039
1532485552.699,13.672,56.152,44.922,41.016,354.004
1532485552.703,13.672,74.707,44.434,22.949,798.340
1532485552.707,20.508,7.812,41.504,26.855,41.504
1532485552.711,22.949,3.906,40.039,39.551,-510.742
1532485552.715,16.113,19.531,42.480,40.527,-422.363
1532485552.719,12.207,24.902,40.527,25.391,-403.809
1532485552.723,14.160,25.391,39.551,14.160,-146.484
1532485552.727,18.066,23.438,40.527,24.902,-359.375
1532485552.730,19.043,34.180,38.574,26.855,-350.586
1532485552.734,24.902,27.344,36.133,25.879,-409.180
1532485552.738,25.391,38.574,42.480,29.785,-437.988
1532485552.742,13.672,54.199,49.316,24.902,259.277
1532485552.746,13.672,29.785,46.387,22.461,328.613
1532485552.750,19.531,12.207,42.969,36.133,-109.375
1532485552.754,21.484,13.672,41.016,28.320,-453.125
1532485552.758,20.020,45.410,38.574,13.672,-444.824
1532485552.762,18.555,103.027,39.062,27.832,649.902
1532485552.766,21.484,3.906,45.898,39.062,541.504
1532485552.769,19.531,-13.672,46.387,35.645,-404.297
1532485552.773,21.484,28.809,42.969,28.809,-583.008
1532485552.777,26.367,37.598,42.969,39.551,-403.809
1532485552.781,23.438,41.992,42.969,50.293,207.520
1532485552.785,24.902,14.160,41.016,39.062,-119.629
1532485552.789,28.320,57.129,40.039,33.691,-168.457
1532485552.793,28.320,44.922,37.109,41.992,145.020
1532485552.797,30.762,17.578,34.668,42.480,-244.629
1532485552.801,31.250,96.191,34.668,29.785,397.461
1532485552.805,30.273,32.715,32.715,34.668,705.078
1532485552.809,33.203,-11.719,32.715,37.109,-297.363
1532485552.812,32.715,24.902,33.203,32.715,-435.547
1532485552.816,28.320,19.531,32.227,36.133,-406.738
1532485552.820,24.902,62.012,36.133,28.320,-174.805
1532485552.824,28.320,39.062,35.645,31.250,-147.461
1532485552.828,24.902,18.555,34.180,38.086,-401.855
1532485552.832,25.391,34.180,37.598,36.621,-263.672
1532485552.836,26.855,45.410,34.668,31.250,-102.539
1532485552.840,21.484,79.590,32.715,24.902,306.152
1532485552.844,24.414,60.059,34.180,19.531,810.547
1532485552.848,24.902,-20.996,37.109,35.645,83.496
1532485552.852,23.438,-1.465,37.109,37.598,-479.004
1532485552.855,22.949,20.508,34.668,23.438,-596.680
1532485552.859,23.438,39.551,35.645,25.391,-407.715
1532485552.863,27.832,24.902,35.156,34.180,5.371
1532485552.867,22.949,13.184,36.133,34.668,-299.316
1532485552.871,21.484,37.109,38.086,22.949,-502.930
1532485552.875,26.367,29.297,38.574,32.227,-521.973
1532485552.879,26.855,30.762,40.527,41.504,-257.812
1532485552.883,21.973,38.574,37.598,33.203,409.180
1532485552.887,14.648,14.648,32.715,17.578,132.812
1532485552.891,18.066,17.578,29.785,24.902,-372.070
1532485552.894,21.973,15.137,28.320,35.156,-401.367
1532485552.898,17.090,31.250,27.344,21.973,-166.504
1532485552.902,12.207,91.797,28.809,13.184,721.191
1532485552.906,20.996,30.273,30.762,26.855,377.930
1532485552.910,27.832,1.953,28.809,38.086,-302.246
1532485552.914,30.273,16.602,31.738,34.180,-394.043
1532485552.918,27.832,31.738,32.227,26.367,-342.773
1532485552.922,24.414,35.156,27.832,22.949,12.695
1532485552.926,23.438,19.043,29.785,28.809,-282.227
1532485552.930,21.484,51.758,26.855,24.902,-25.879
1532485552.934,18.066,24.902,23.438,18.066,202.148
1532485552.937,13.184,25.391,26.855,26.367,-342.773
1532485552.941,12.695,110.352,27.344,25.391,507.324
1532485552.945,14.160,13.184,30.762,22.949,660.156
1532485552.949,11.230,-20.020,32.227,34.180,-287.109
1532485552.953,7.324,26.367,31.738,37.109,-543.945
1532485552.957,4.883,37.598,34.180,15.625,-593.750
1532485552.961,2.930,70.312,30.273,16.113,7.812
1532485552.965,1.465,19.531,26.855,30.762,-32.227
1532485552.969,-1.953,10.254,27.832,21.484,-487.305
1532485552.973,-1.465,40.039,26.855,16.113,-465.332
1532485552.976,1.953,52.246,23.926,19.043,-166.016
1532485552.980,3.906,82.520,25.391,20.508,533.691
1532485552.984,1.953,29.785,32.715,16.113,746.094
1532485552.988,-0.977,-16.113,32.715,19.531,-259.766
1532485552.992,2.930,22.949,27.832,20.020,-583.496
1532485552.996,6.836,21.484,31.250,22.461,-440.430
1532485553.000,2.930,47.852,34.180,20.996,-166.016
1532485553.004,0.488,31.738,32.715,6.836,-154.785
1532485553.008,3.906,21.973,34.668,18.555,-525.391
1532485553.012,6.348,35.645,35.156,30.762,-363.281
1532485553.016,8.301,24.902,34.668,29.297,-353.516
1532485553.019,10.742,53.223,34.180,30.762,-233.887
1532485553.023,9.766,59.570,34.668,29.297,275.391
1532485553.027,15.625,33.691,32.715,47.363,220.703
1532485553.031,20.996,17.578,33.691,44.922,-36.133
1532485553.035,18.555,8.789,34.180,32.715,-419.434
1532485553.039,19.043,62.988,35.645,31.738,-343.262
1532485553.043,19.531,106.934,38.574,44.922,710.449
1532485553.047,20.996,6.348,36.621,45.410,293.945
1532485553.051,19.043,5.371,38.086,50.781,-443.848
1532485553.055,15.137,36.133,37.109,41.016,-583.496
1532485553.059,17.578,35.645,34.668,34.668,-458.496
1532485553.062,20.996,20.508,34.180,48.828,40.039
1532485553.066,17.090,15.137,29.785,29.785,-220.703
1532485553.070,11.719,59.570,34.668,25.879,-95.703
1532485553.074,15.137,31.738,36.621,31.738,-158.691
1532485553.078,16.113,34.180,31.738,38.574,-244.629
1532485553.082,15.625,42.480,32.715,49.805,507.324
1532485553.086,16.113,8.789,31.250,43.457,-52.246
1532485553.090,11.719,34.180,27.832,43.945,-549.316
1532485553.094,14.160,26.367,30.762,47.363,-410.156
1532485553.098,16.113,33.203,32.715,41.992,-288.574
1532485553.101,4.395,101.074,28.320,29.785,615.234
1532485553.105,4.883,27.832,27.344,27.832,310.547
1532485553.109,10.742,2.441,29.785,36.621,-471.680
1532485553.113,7.812,34.668,35.645,51.758,-315.918
1532485553.117,4.883,50.293,40.527,45.898,-28.320
1532485553.121,3.906,98.633,41.504,30.762,693.848
1532485553.125,9.277,21.484,48.340,29.785,600.098
1532485553.129,9.277,-14.160,50.293,29.785,-274.414
1532485553.133,6.348,19.531,49.316,33.691,-460.938
1532485553.137,4.395,32.715,50.781,28.809,-583.008
1532485553.141,1.953,77.148,52.246,23.926,-217.285
1532485553.144,9.766,37.598,51.758,30.762,-130.371
1532485553.148,12.695,17.578,52.734,27.344,-401.367
1532485553.152,6.348,33.203,55.664,29.785,-428.711
1532485553.156,7.324,36.133,55.664,24.902,-596.680
1532485553.160,9.277,71.289,54.688,33.691,-184.082
1532485553.164,7.324,59.082,53.223,39.062,415.527
1532485553.168,10.254,14.648,54.688,32.715,114.746
1532485553.172,10.742,28.809,54.688,24.414,-363.281
1532485553.176,12.207,28.809,52.246,24.414,-553.223
1532485553.180,15.625,73.242,54.688,38.574,-62.988
1532485553.184,10.742,82.031,55.664,39.551,798.340
1532485553.187,8.789,1.953,57.129,27.832,-22.949
1532485553.191,13.184,28.809,57.617,25.391,-612.305
1532485553.195,15.625,38.086,54.688,41.504,-445.801
1532485553.199,14.160,38.086,54.688,39.551,-246.582
1532485553.203,10.254,26.855,55.176,26.367,-79.590
1532485553.207,10.254,30.762,56.152,34.668,-450.684
1532485553.211,13.672,70.801,57.129,39.551,-44.434
1532485553.215,16.602,20.996,60.547,29.297,65.430
1532485553.219,11.719,34.180,59.082,28.809,-214.844
1532485553.223,8.301,112.793,56.641,33.203,689.941
1532485553.226,15.625,23.926,57.129,37.109,268.555
1532485553.230,16.602,3.906,59.082,38.086,-417.969
1532485553.234,12.207,31.250,59.082,27.344,-477.051
1532485553.238,8.301,45.410,58.105,16.113,-507.812
1532485553.242,13.672,45.410,60.547,33.691,-60.059
1532485553.246,19.043,22.461,61.035,48.340,-214.355
1532485553.250,13.184,25.391,63.477,46.387,-390.625
1532485553.254,7.324,26.855,59.570,39.062,-490.234
1532485553.258,11.230,69.824,55.176,41.016,-187.012
1532485553.262,12.207,102.051,56.641,37.109,791.016
1532485553.266,15.137,-2.441,57.617,24.902,489.746
1532485553.269,14.648,-9.277,57.129,29.785,-423.340
1532485553.273,13.672,36.621,55.664,32.715,-640.137
1532485553.277,17.578,44.922,55.176,23.926,-484.375
1532485553.281,14.160,58.105,57.129,34.668,140.625
1532485553.285,10.742,24.414,59.570,41.016,-155.762
1532485553.289,13.672,39.551,56.152,39.551,-587.402
1532485553.293,16.602,43.945,51.758,36.621,-458.496
1532485553.297,18.066,38.574,53.711,40.527,-335.938
1532485553.301,17.090,70.801,54.688,33.691,132.324
1532485553.305,16.602,65.430,51.270,29.297,256.348
1532485553.309,25.879,55.664,53.223,43.945,136.719
1532485553.312,30.762,27.344,54.199,38.086,-0.977
1532485553.316,21.484,12.695,50.781,33.691,-403.809
1532485553.320,14.648,100.586,51.758,27.832,91.309
1532485553.324,21.973,77.148,51.758,34.180,754.395
1532485553.328,26.855,7.324,50.293,45.898,77.148
1532485553.332,18.066,21.484,51.270,32.715,-238.281
1532485553.336,12.207,22.461,49.316,39.062,-495.117
1532485553.340,11.719,64.453,46.875,41.016,-360.352
1532485553.344,12.695,41.016,45.410,32.715,-80.078
1532485553.348,18.555,18.066,41.992,41.992,-312.500
1532485553.351,8.301,62.012,40.039,29.297,41.504
1532485553.355,-0.977,38.574,41.504,2.441,66.895
1532485553.359,5.371,46.387,42.480,33.203,-66.406
1532485553.363,6.348,83.008,44.434,47.852,735.840
1532485553.367,5.859,0.488,43.457,35.645,146.973
1532485553.371,3.418,7.812,41.992,21.973,-633.789
1532485553.375,5.859,38.574,43.457,27.832,-630.371
1532485553.379,11.719,39.551,45.410,35.645,-380.371
1532485553.383,10.254,18.066,42.969,27.344,-9.766
1532485553.387,6.348,14.160,41.016,25.391,-395.996
1532485553.391,7.324,34.180,41.504,24.902,-576.172
1532485553.394,10.254,26.855,42.480,24.902,-452.637
1532485553.398,8.789,62.500,43.457,42.480,55.664
1532485553.402,5.371,98.633,41.504,38.086,853.516
1532485553.406,12.695,9.766,44.922,33.203,180.176
1532485553.410,24.414,2.930,47.363,43.945,-504.395
1532485553.414,26.855,28.809,43.457,45.898,-451.660
1532485553.418,22.949,33.691,44.922,42.480,-401.367
1532485553.422,21.973,41.016,43.945,39.551,-47.363
1532485553.426,25.879,25.391,42.480,46.387,-325.684
1532485553.430,26.855,29.785,45.410,45.898,-405.273
1532485553.433,20.020,23.438,45.898,37.598,-374.023
1532485553.437,12.695,42.969,44.434,29.785,-475.586
1532485553.441,9.766,66.406,44.922,26.855,51.758
1532485553.445,12.207,46.387,49.805,43.457,274.902
1532485553.449,11.230,10.254,51.758,44.922,50.781
1532485553.453,7.812,2.441,48.340,24.414,-317.871
1532485553.457,12.207,36.133,45.898,30.273,-569.336
1532485553.461,10.254,112.305,40.527,42.480,368.164
1532485553.465,11.230,26.855,41.016,42.969,761.230
1532485553.469,10.254,-19.531,42.969,48.340,-252.441
1532485553.473,11.719,27.344,42.969,43.945,-587.891
1532485553.476,12.695,26.367,47.852,28.320,-514.160
1532485553.480,9.766,66.406,46.875,40.039,11.230
1532485553.484,9.766,34.668,46.875,41.992,-22.461
1532485553.488,7.324,33.203,48.828,19.531,-516.602
1532485553.492,6.836,74.219,47.852,44.434,-55.176
1532485553.496,9.277,34.668,46.875,48.828,112.793
1532485553.500,5.371,66.406,47.363,32.715,205.078
1532485553.504,-1.953,72.266,45.410,25.391,764.160
1532485553.508,2.441,-5.371,43.945,34.180,-73.730
1532485553.512,8.301,19.531,43.945,33.691,-492.676
1532485553.516,8.789,19.043,44.922,23.926,-401.367
1532485553.519,4.883,44.434,46.387,27.832,-348.633
1532485553.523,9.277,40.527,46.875,24.902,-168.457
1532485553.527,12.207,23.438,43.945,19.531,-366.211
1532485553.531,7.324,29.297,46.387,32.715,-323.730
1532485553.535,3.906,24.902,47.852,41.992,-428.711
1532485553.539,4.883,78.613,43.945,38.574,-53.711
1532485553.543,8.301,95.215,43.457,34.668,819.824
1532485553.547,13.184,-1.465,43.945,37.598,246.582
1532485553.551,9.766,4.395,44.922,36.133,-437.012
1532485553.555,7.324,37.598,46.387,32.227,-597.656
1532485553.558,11.230,41.992,43.457,37.598,-484.863
1532485553.562,10.742,33.203,41.504,37.109,34.180
1532485553.566,4.883,15.137,42.969,37.109,-229.980
1532485553.570,0.000,30.762,41.504,27.344,-499.512
1532485553.574,8.789,39.062,42.480,34.180,-528.809
1532485553.578,11.719,41.992,42.480,45.410,-304.688
1532485553.582,8.301,31.738,40.039,42.969,216.309
1532485553.586,4.395,42.480,40.039,34.668,218.262
1532485553.590,3.418,37.598,41.016,27.344,-43.457
1532485553.594,15.137,18.066,41.992,26.367,-322.266
1532485553.598,24.414,41.016,42.480,47.363,-287.598
1532485553.601,19.043,104.980,41.992,44.922,664.062
1532485553.605,15.137,27.344,41.992,34.180,504.883
1532485553.609,20.996,5.371,40.527,43.945,-398.926
1532485553.613,24.902,29.785,40.527,39.551,-404.785
1532485553.617,15.625,31.250,41.992,34.180,-375.977
1532485553.621,5.859,72.266,40.527,26.367,39.062
1532485553.625,8.301,37.109,38.574,33.203,-202.148
1532485553.629,12.207,34.668,38.574,31.250,-416.016
1532485553.633,11.230,52.246,35.156,18.066,143.555
1532485553.637,8.789,25.879,36.621,22.949,-164.551
1532485553.641,8.789,99.121,38.086,11.719,145.996
1532485553.644,15.137,51.270,37.598,32.227,786.621
1532485553.648,16.602,-20.996,40.527,49.316,-91.797
1532485553.652,10.254,25.879,38.086,27.832,-522.461
1532485553.656,16.113,35.156,33.203,30.273,-622.559
1532485553.660,17.090,66.895,39.551,37.598,-243.652
1532485553.664,-6.348,27.832,47.363,25.391,7.812
1532485553.668,-18.066,13.672,46.387,24.414,-367.676
1532485553.672,-9.766,37.598,46.387,14.160,-480.469
1532485553.676,-1.465,28.320,44.434,17.090,-500.000
1532485553.680,-0.488,75.684,42.480,41.016,180.176
1532485553.683,-1.953,65.918,42.480,31.738,873.047
1532485553.687,0.488,-8.301,45.410,23.926,-40.039
1532485553.691,7.812,19.531,45.410,34.668,-588.379
1532485553.695,12.695,30.762,44.922,36.621,-449.707
1532485553.699,6.836,29.297,45.410,26.367,-277.832
1532485553.703,2.930,25.391,43.945,33.691,-97.656
1532485553.707,5.371,26.855,42.969,41.992,-449.219
1532485553.711,7.324,33.691,40.527,37.109,-435.059
1532485553.715,5.859,21.973,38.086,31.250,-334.473
1532485553.719,0.488,19.043,37.109,35.645,-303.223
1532485553.723,-0.488,24.414,37.109,49.805,-26.367
1532485553.726,-2.441,51.758,37.109,50.293,149.902
1532485553.730,-10.254,33.203,35.156,31.250,208.984
1532485553.734,-16.113,-0.977,36.621,33.203,-260.742
1532485553.738,-24.414,44.434,37.109,30.762,-379.883
1532485553.742,-25.391,104.004,36.621,32.715,685.059
1532485553.746,-22.949,2.930,36.621,45.410,451.660
1532485553.750,-32.227,-6.348,36.133,30.762,-214.844
1532485553.754,-36.133,18.555,35.645,33.203,-388.672
1532485553.758,-32.715,31.250,34.180,38.086,-483.887
1532485553.762,-31.250,48.340,35.156,25.391,148.438
1532485553.766,-34.668,3.418,37.109,34.668,-74.219
1532485553.769,-40.527,21.484,36.133,47.363,-446.777
1532485553.773,-41.016,59.082,34.668,43.945,-131.836
1532485553.777,-40.039,64.941,32.715,41.504,204.590
1532485553.781,-41.016,88.379,35.645,37.598,789.062
1532485553.785,-41.992,6.836,38.574,37.598,580.078
1532485553.789,-38.086,-15.625,37.109,30.762,-413.086
1532485553.793,-35.645,21.973,36.621,26.367,-563.477
1532485553.797,-37.598,20.020,36.133,38.574,-403.320
1532485553.801,-44.434,60.059,36.621,38.086,29.785
1532485553.805,-46.387,33.691,37.598,25.391,-192.871
1532485553.808,-43.945,24.902,34.668,36.133,-541.992
1532485553.812,-45.898,27.344,30.762,44.434,-341.309
1532485553.816,-49.805,27.344,32.227,34.668,-381.836
1532485553.820,-50.781,77.637,34.180,26.367,153.809
1532485553.824,-49.316,33.203,29.785,33.203,290.039
1532485553.828,-49.316,5.371,33.203,35.645,-293.457
1532485553.832,-54.199,31.250,36.133,21.484,-243.652
1532485553.836,-54.199,21.973,34.668,22.949,-483.398
1532485553.840,-47.363,87.891,31.738,24.902,-209.473
1532485553.844,-40.527,97.168,31.738,24.414,781.738
1532485553.848,-33.691,0.000,35.645,24.902,140.137
1532485553.851,-34.180,12.695,33.691,32.227,-457.520
1532485553.855,-35.645,32.715,28.809,28.809,-562.012
1532485553.859,-29.785,50.781,25.879,30.762,-364.746
1532485553.863,-26.855,58.594,26.855,34.180,482.910
1532485553.867,-25.879,59.082,28.320,27.344,946.777
1532485553.871,-17.578,45.898,28.809,23.926,826.172
1532485553.875,-10.254,22.949,29.785,20.996,171.875
1532485553.879,-9.766,59.570,29.297,36.133,207.031
1532485553.883,-15.625,100.098,28.320,33.691,883.789
1532485553.887,-19.531,10.742,31.738,19.043,355.469
1532485553.890,-13.672,10.742,33.203,32.715,-225.586
1532485553.894,-7.812,35.156,27.832,29.785,-189.453
1532485553.898,-10.254,21.973,28.809,26.367,29.785
1532485553.902,-15.625,19.043,32.715,25.391,435.059
1532485553.906,-15.137,13.184,33.203,23.438,-93.262
1532485553.910,-8.789,36.621,33.691,32.227,-235.840
1532485553.914,-7.812,35.156,32.227,33.691,430.664
1532485553.918,-14.160,26.367,32.715,20.508,473.633
1532485553.922,-14.160,91.797,33.691,9.277,775.879
1532485553.926,-2.930,13.672,36.133,17.090,480.469
1532485553.930,-8.301,-14.160,36.621,14.160,-244.629
1532485553.933,-17.578,15.625,34.180,20.508,-405.762
1532485553.937,-18.066,26.855,33.203,16.113,-438.477
1532485553.941,-14.648,48.340,33.203,14.648,312.500
1532485553.945,-7.812,12.695,35.645,30.273,53.711
1532485553.949,-5.859,13.672,37.109,37.598,-354.980
1532485553.953,-3.906,19.043,40.527,18.555,-376.465
1532485553.957,-0.977,34.668,41.992,29.785,-523.926
1532485553.961,-2.930,100.098,42.480,40.527,504.883
1532485553.965,-2.441,19.043,42.480,28.320,749.023
1532485553.969,-4.395,-13.672,39.551,28.320,-287.109
1532485553.973,-2.441,37.598,39.062,26.367,-576.172
1532485553.976,6.348,37.598,40.039,30.762,-562.500
1532485553.980,-1.465,68.848,36.621,34.180,120.605
1532485553.984,-3.418,31.250,37.109,26.367,166.504
1532485553.988,11.230,21.973,40.039,25.391,-532.715
1532485553.992,16.113,39.062,38.574,29.297,-500.000
1532485553.996,15.625,27.344,35.645,29.785,-412.109
1532485554.000,13.184,48.828,37.598,27.344,-19.043
1532485554.004,11.719,39.551,39.551,30.762,59.082
1532485554.008,13.672,49.316,34.668,25.879,165.527
1532485554.012,15.137,31.738,33.691,40.039,419.922
1532485554.015,13.672,-10.742,36.133,41.504,-281.250
1532485554.019,10.742,58.105,33.203,20.508,-196.777
1532485554.023,9.766,94.727,33.691,20.020,785.156
1532485554.027,15.137,2.441,37.598,41.504,101.562
1532485554.031,16.602,-2.441,37.598,64.453,-481.934
1532485554.035,14.648,22.461,37.598,51.758,-553.223
1532485554.039,13.672,36.621,32.715,24.902,-505.859
1532485554.043,17.578,25.391,31.738,33.203,21.484
1532485554.047,17.090,9.277,36.621,38.574,-272.949
1532485554.051,6.348,32.715,34.180,22.461,-440.430
1532485554.055,1.953,50.293,32.715,24.414,-18.555
1532485554.058,10.254,55.664,33.203,34.180,242.676
1532485554.062,14.648,87.402,34.180,30.273,770.996
1532485554.066,11.230,5.859,38.086,29.785,244.141
1532485554.070,9.277,-4.395,33.691,25.879,-613.770
1532485554.074,14.160,30.273,27.832,17.090,-765.625
1532485554.078,20.020,35.645,29.785,24.414,-492.676
1532485554.082,21.973,29.297,32.715,23.926,207.520
1532485554.086,22.461,15.137,34.180,19.043,-307.617
1532485554.090,23.438,39.062,31.738,25.879,-679.199
1532485554.094,19.043,31.738,27.832,29.785,-545.898
1532485554.098,22.461,34.180,28.320,32.715,-427.246
1532485554.101,26.367,67.383,33.203,20.996,598.633
1532485554.105,24.414,21.973,33.691,8.789,490.723
1532485554.109,27.832,11.719,34.180,34.180,-402.344
1532485554.113,26.855,17.578,33.691,42.969,-407.715
1532485554.117,20.020,26.367,33.203,17.578,-445.312
1532485554.121,13.672,98.633,31.250,14.160,447.266
1532485554.125,21.484,27.344,34.668,22.461,474.609
1532485554.129,26.855,-3.906,37.109,23.926,-399.414
1532485554.133,18.066,20.508,35.156,28.320,-471.191
1532485554.137,14.648,31.250,38.086,37.109,-598.633
1532485554.140,8.789,68.848,34.668,34.668,-26.855
1532485554.144,8.301,24.414,33.691,35.156,15.625
1532485554.148,7.812,34.180,33.203,33.203,45.410
1532485554.152,1.465,53.711,32.715,22.949,525.391
1532485554.156,3.418,9.766,34.668,20.020,-309.082
1532485554.160,5.371,76.172,33.203,24.414,-95.215
1532485554.164,7.324,60.547,34.668,33.203,867.676
1532485554.168,10.742,-20.996,38.086,32.715,-168.457
1532485554.172,9.277,34.180,36.621,17.578,-564.941
1532485554.176,7.324,33.203,38.574,22.949,-502.441
1532485554.180,7.324,38.574,37.598,35.645,-318.359
1532485554.183,10.254,23.926,39.062,34.668,23.438
1532485554.187,8.301,12.695,43.945,38.086,-550.293
1532485554.191,6.348,42.969,42.480,41.992,-635.254
1532485554.195,3.906,49.805,39.062,34.668,38.574
1532485554.199,1.953,54.199,40.527,29.785,562.012
1532485554.203,0.977,74.219,41.504,23.438,847.168
1532485554.207,6.348,3.418,38.086,33.203,-30.273
1532485554.211,14.160,0.488,38.574,43.457,-658.691
1532485554.215,12.695,22.461,38.574,32.715,-607.910
1532485554.219,5.859,22.949,36.621,33.691,-501.465
1532485554.223,1.953,24.414,39.062,29.297,-81.543
1532485554.226,5.371,22.461,40.527,27.344,-450.195
1532485554.230,6.836,28.320,39.062,41.016,-504.883
1532485554.234,3.418,20.996,36.133,35.156,-538.086
1532485554.238,3.418,37.109,34.668,28.320,-546.875
1532485554.242,4.883,59.082,35.156,40.527,433.105
1532485554.246,2.930,33.203,35.156,35.156,441.895
1532485554.250,0.977,15.625,36.133,32.715,-233.887
1532485554.254,0.977,22.949,34.180,30.762,-573.242
1532485554.258,2.930,51.270,32.227,26.855,-575.684
1532485554.262,0.488,108.887,34.668,33.691,621.582
1532485554.265,5.371,7.324,37.109,35.156,554.199
1532485554.269,-0.488,-11.719,36.621,21.484,-500.488
1532485554.273,0.488,33.203,37.109,19.531,-723.145
1532485554.277,5.859,41.992,35.645,24.902,-530.762
1532485554.281,1.953,51.270,34.668,27.832,246.094
1532485554.285,-1.465,23.926,35.645,28.809,-109.375
1532485554.289,0.000,62.500,32.227,12.695,29.297
1532485554.293,10.742,32.227,32.715,26.855,280.273
1532485554.297,12.207,2.441,36.621,38.086,-432.617
1532485554.301,-1.953,90.332,35.156,31.250,330.566
1532485554.305,-6.836,37.109,32.715,16.113,750.977
1532485554.308,-2.441,-18.555,33.691,29.297,-382.324
1532485554.312,-0.977,18.066,32.715,32.227,-584.473
1532485554.316,0.488,13.672,34.180,18.555,-554.688
1532485554.320,-1.953,56.641,36.133,24.902,-208.008
1532485554.324,-2.441,40.527,35.156,26.855,-125.488
1532485554.328,2.441,17.090,36.133,30.762,-525.879
1532485554.332,4.883,33.691,39.551,41.016,-390.625
1532485554.336,1.465,43.945,40.527,34.668,-91.797
1532485554.340,-1.465,78.613,37.598,31.738,374.512
1532485554.344,0.488,73.242,36.621,37.109,822.754
1532485554.347,2.441,-15.625,40.039,33.691,9.766
1532485554.351,-0.488,-2.441,39.551,27.344,-618.652
1532485554.355,0.000,27.832,41.016,26.367,-748.535
1532485554.359,1.465,42.969,40.527,35.156,-522.461
1532485554.363,0.977,24.414,39.062,44.922,-13.184
1532485554.367,3.418,9.766,39.551,36.621,-397.949
1532485554.371,2.930,33.691,39.551,33.691,-627.441
1532485554.375,4.395,33.691,41.992,26.855,-654.785
1532485554.379,8.301,38.086,41.016,41.016,-366.211
1532485554.383,1.465,42.969,39.551,52.246,537.109
1532485554.387,-6.348,14.648,39.551,43.945,252.930
1532485554.390,-4.883,24.902,39.062,48.828,-425.781
1532485554.394,-0.977,24.414,38.086,47.363,-494.141
1532485554.398,-1.953,36.133,38.086,43.457,-257.324
1532485554.402,-6.836,100.098,36.621,30.762,729.004
1532485554.406,-4.883,17.578,35.645,17.090,237.793
1532485554.410,-2.930,-4.395,31.250,22.949,-542.480
1532485554.414,0.000,18.066,33.203,36.621,-513.184
1532485554.418,-0.488,25.879,36.133,38.086,-410.645
1532485554.422,-3.418,38.086,35.645,29.297,137.207
1532485554.426,2.930,25.391,34.668,29.785,-268.066
1532485554.430,4.883,60.059,31.738,37.598,-23.926
1532485554.433,-0.977,34.668,32.227,35.156,357.422
1532485554.437,-3.418,21.484,34.180,31.738,-259.766
1532485554.441,-0.488,106.934,32.715,29.297,519.043
1532485554.445,4.883,21.973,33.691,34.668,660.645
1532485554.449,5.859,-21.484,34.668,42.480,-397.461
1532485554.453,6.348,20.508,34.180,22.949,-688.477
1532485554.457,9.766,32.227,34.668,15.625,-741.699
1532485554.461,9.766,64.453,31.250,29.785,13.672
1532485554.465,12.207,20.996,32.715,31.738,-10.254
1532485554.469,7.812,15.625,32.715,22.949,-601.562
1532485554.472,5.371,46.875,30.762,19.043,-573.730
1532485554.476,5.859,62.500,30.762,30.273,-102.539
1532485554.480,6.348,83.496,29.785,24.414,602.539
1532485554.484,7.812,35.156,33.691,32.227,756.836
1532485554.488,6.836,-5.371,38.086,40.527,-320.801
1532485554.492,11.719,40.039,37.109,29.785,-740.234
1532485554.496,15.137,39.062,34.668,33.691,-602.051
1532485554.500,11.719,54.688,37.598,43.945,-231.934
1532485554.504,8.789,38.086,36.621,49.316,-129.395
1532485554.508,11.230,25.879,31.738,41.992,-618.164
1532485554.512,13.184,34.668,32.227,42.969,-480.957
1532485554.515,7.324,19.043,38.574,53.223,-471.191
1532485554.519,4.395,49.316,38.574,34.180,-324.707
1532485554.523,7.812,64.453,33.691,23.438,461.426
1532485554.527,9.766,22.461,34.668,41.504,249.512
1532485554.531,12.207,14.648,37.598,42.480,-237.793
1532485554.535,18.066,15.137,37.598,38.086,-497.559
1532485554.539,20.020,58.594,37.109,35.156,-396.973
1532485554.543,20.508,104.004,36.133,25.879,705.078
1532485554.547,26.367,1.953,40.527,40.039,274.414
1532485554.551,25.879,-7.812,42.480,33.203,-492.188
1532485554.555,26.367,30.762,40.527,25.391,-657.715
1532485554.558,30.762,37.598,39.551,36.133,-495.605
1532485554.562,30.273,18.066,38.574,44.434,147.949
1532485554.566,32.715,3.418,38.086,42.480,-229.492
1532485554.570,32.227,58.594,38.574,35.156,36.133
1532485554.574,40.039,52.246,41.992,20.996,336.914
1532485554.578,47.852,33.203,43.457,36.133,-27.344
1532485554.582,41.016,37.109,42.480,47.852,486.328
1532485554.586,38.086,0.488,41.016,24.414,-73.242
1532485554.590,42.480,28.809,37.598,33.691,-669.922
1532485554.594,44.434,42.480,37.109,50.781,-349.121
1532485554.597,47.852,37.109,40.039,42.969,-256.348
1532485554.601,44.922,99.121,41.504,32.715,628.418
1532485554.605,43.945,23.438,39.551,33.691,522.949
1532485554.609,50.293,-6.348,39.551,36.621,-527.832
1532485554.613,51.758,30.762,41.992,37.598,-495.605
1532485554.617,53.223,41.504,39.062,41.504,-139.648
1532485554.621,46.875,102.539,33.691,35.156,666.016
1532485554.625,47.363,30.273,35.645,31.250,605.469
1532485554.629,51.758,-12.207,38.574,41.992,-409.180
1532485554.633,44.434,13.184,39.551,34.180,-640.137
1532485554.637,41.992,20.020,39.551,28.809,-752.930
1532485554.640,46.875,72.266,41.992,41.504,-263.184
1532485554.644,51.758,35.645,42.969,46.875,-159.180
1532485554.648,50.781,12.207,41.504,39.551,-546.875
1532485554.652,44.922,27.832,40.527,41.504,-544.922
1532485554.656,45.410,32.227,37.109,37.598,-735.352
1532485554.660,50.293,67.871,35.156,37.109,-247.559
1532485554.664,53.223,61.035,36.621,40.527,527.832
1532485554.668,47.363,36.621,35.645,34.668,414.551
1532485554.672,45.410,33.203,36.133,35.156,-191.406
1532485554.676,51.758,24.902,38.086,41.016,-677.734
1532485554.680,46.875,69.824,36.621,34.180,-174.805
1532485554.683,42.480,81.055,35.156,33.203,794.434
1532485554.687,46.875,-0.977,39.551,42.969,-58.594
1532485554.691,43.945,17.578,40.039,37.598,-727.051
1532485554.695,43.945,35.156,36.133,27.344,-587.891
1532485554.699,43.457,36.621,34.180,21.484,-339.355
1532485554.703,39.062,30.762,33.691,18.066,-69.336
1532485554.707,49.805,41.016,38.086,32.715,-522.949
1532485554.711,63.477,74.219,35.645,35.645,-93.262
1532485554.715,54.688,37.598,32.715,36.621,121.094
1532485554.719,28.809,44.434,33.691,21.973,-215.820
1532485554.722,23.438,117.676,30.762,12.207,669.434
1532485554.726,33.203,30.273,32.715,24.414,224.121
1532485554.730,29.785,3.906,36.621,31.738,-531.738
1532485554.734,25.391,32.715,34.668,23.926,-601.074
1532485554.738,24.902,43.457,32.715,15.625,-588.867
1532485554.742,29.785,41.992,33.691,22.949,-0.488
1532485554.746,34.180,23.438,34.668,44.434,-241.211
1532485554.750,29.785,33.691,33.203,39.062,-500.488
1532485554.754,22.949,36.621,31.738,23.438,-549.316
1532485554.758,20.996,75.684,29.297,21.484,-138.184
1532485554.762,19.043,114.258,27.832,22.461,836.914
1532485554.765,23.926,12.207,33.691,31.250,481.934
1532485554.769,24.902,-0.977,35.156,22.461,-495.117
1532485554.773,24.902,40.039,33.691,32.715,-752.930
1532485554.777,31.738,46.387,37.598,50.293,-599.121
1532485554.781,28.809,64.941,40.039,48.340,157.715
1532485554.785,23.438,28.320,36.133,41.016,-145.020
1532485554.789,25.391,36.621,32.715,37.109,-679.688
1532485554.793,30.762,48.340,35.156,42.480,-538.086
1532485554.797,34.180,44.434,35.156,44.922,-438.477
1532485554.801,31.738,76.172,37.109,27.832,162.109
1532485554.804,27.832,70.801,41.016,33.691,458.496
1532485554.808,30.762,48.828,39.551,55.176,194.824
1532485554.812,30.762,29.297,39.062,58.594,-68.848
1532485554.816,29.297,12.695,41.016,52.734,-466.797
1532485554.820,24.414,89.844,40.527,40.039,52.734
1532485554.824,26.367,76.660,41.016,41.504,804.199
1532485554.828,35.156,-7.812,44.434,63.965,-83.008
1532485554.832,32.715,13.184,43.457,58.105,-479.004
1532485554.836,28.320,23.926,41.992,53.223,-569.336
1532485554.840,28.809,60.547,40.039,45.410,-383.789
1532485554.844,35.645,41.504,40.527,46.875,-28.809
1532485554.847,34.180,16.113,42.480,56.641,-342.285
1532485554.851,27.832,58.594,41.992,48.828,78.125
1532485554.855,29.785,37.598,41.992,47.852,130.371
1532485554.859,35.156,51.758,42.480,53.711,-129.883
1532485554.863,28.320,88.867,38.086,44.922,725.098
1532485554.867,22.461,-3.906,37.109,29.297,155.273
1532485554.871,21.973,10.742,41.016,30.273,-677.246
1532485554.875,24.414,44.434,40.527,30.762,-708.984
1532485554.879,27.832,41.016,37.598,41.504,-429.199
1532485554.883,30.273,27.344,36.133,42.969,59.570
1532485554.887,25.879,22.461,35.645,17.090,-393.555
1532485554.890,21.973,37.109,33.691,26.367,-642.090
1532485554.894,24.902,31.738,31.738,43.945,-514.648
1532485554.898,23.438,69.824,30.762,40.039,78.125
1532485554.902,16.113,99.121,30.273,20.996,896.973
1532485554.906,18.555,10.254,32.715,21.484,171.875
1532485554.910,26.855,7.324,36.621,30.762,-571.777
1532485554.914,24.902,26.855,35.156,30.273,-557.129
1532485554.918,23.926,29.785,28.809,16.113,-454.590
1532485554.922,33.203,44.922,30.762,12.695,54.688
1532485554.926,40.527,25.391,36.133,32.227,-332.520
1532485554.929,42.969,33.691,34.668,42.480,-504.395
1532485554.933,34.668,22.461,33.691,36.133,-417.480
1532485554.937,30.273,38.086,35.156,26.855,-518.555
1532485554.941,31.250,72.754,33.203,34.180,166.504
1532485554.945,30.273,55.664,35.156,46.387,449.219
1532485554.949,32.227,31.738,37.109,35.156,230.957
1532485554.953,29.785,9.766,34.668,33.691,-194.824
1532485554.957,32.715,27.344,33.691,40.527,-635.254
1532485554.961,34.668,104.980,31.250,41.504,325.195
1532485554.965,37.109,25.879,33.203,41.016,787.598
1532485554.969,39.062,-26.855,35.645,36.621,-281.738
1532485554.972,36.133,22.461,33.691,28.809,-660.156
1532485554.976,31.250,28.320,31.250,27.344,-626.953
1532485554.980,26.855,53.711,28.809,40.527,-41.992
1532485554.984,24.902,21.484,32.715,36.621,-5.859
1532485554.988,24.414,22.949,34.668,33.203,-578.125
1532485554.992,24.414,68.848,27.344,35.645,-62.988
1532485554.996,26.855,42.480,27.832,30.273,253.418
1532485555.000,25.391,59.082,32.715,32.715,261.230
1532485555.004,19.043,74.219,33.203,22.949,764.648
1532485555.008,21.484,-6.348,36.621,26.367,-125.000
1532485555.012,24.414,13.184,36.133,35.645,-636.230
1532485555.015,22.461,40.039,34.180,28.809,-358.887
1532485555.019,19.043,40.527,35.645,20.508,-262.207
1532485555.023,19.531,29.785,33.203,37.598,-185.059
1532485555.027,22.461,25.879,29.785,45.410,-455.078
1532485555.031,20.508,29.297,30.273,31.250,-436.523
1532485555.035,16.113,22.461,31.250,30.762,-498.535
1532485555.039,10.742,75.684,28.809,25.391,-16.113
1532485555.043,11.719,98.633,26.367,17.090,854.004
1532485555.047,15.137,0.488,27.344,29.785,177.246
1532485555.051,18.066,0.000,29.785,23.926,-532.227
1532485555.054,18.066,34.668,33.203,23.438,-723.145
1532485555.058,17.090,40.527,34.668,38.574,-599.121
1532485555.062,17.090,30.762,30.762,38.574,31.250
1532485555.066,11.719,8.301,28.320,31.250,-280.273
1532485555.070,9.277,23.438,30.762,23.438,-594.238
1532485555.074,11.230,34.180,29.785,25.879,-638.184
1532485555.078,10.742,36.621,29.785,24.902,-419.922
1532485555.082,8.301,25.391,31.738,26.367,251.953
1532485555.086,5.371,33.691,32.227,20.996,323.730
1532485555.090,5.371,46.875,30.273,9.277,117.188
1532485555.094,9.277,11.719,33.691,25.391,-247.559
1532485555.097,9.766,27.832,35.645,40.527,-393.555
1532485555.101,3.906,104.492,31.250,32.715,641.113
1532485555.105,4.883,21.973,29.297,21.484,527.344
1532485555.109,8.301,-5.371,30.273,18.066,-495.605
1532485555.113,5.371,19.531,32.715,23.438,-537.109
1532485555.117,2.930,22.949,34.668,35.156,-486.328
1532485555.121,-0.488,67.871,33.203,18.066,46.875
1532485555.125,7.324,31.250,34.180,21.484,-192.383
1532485555.129,12.207,31.738,33.203,33.203,-549.316
1532485555.133,3.906,62.500,33.691,33.691,107.422
1532485555.137,-1.953,42.969,35.645,25.391,189.453
1532485555.140,1.465,91.797,34.180,19.531,343.750
1532485555.144,9.766,52.734,34.668,30.273,746.582
1532485555.148,10.742,-22.949,34.180,34.180,-160.156
1532485555.152,3.906,17.578,33.203,26.367,-657.227
1532485555.156,4.883,36.621,36.621,19.531,-775.391
1532485555.160,5.371,68.359,34.668,22.949,-388.184
1532485555.164,5.859,34.180,32.715,28.809,-69.336
1532485555.168,7.812,16.113,33.691,34.668,-484.863
1532485555.172,3.906,40.527,32.715,32.715,-623.047
1532485555.176,8.789,34.668,32.227,29.297,-656.738
1532485555.179,10.254,79.590,31.738,17.578,79.102
1532485555.183,10.254,81.055,34.180,24.902,868.652
1532485555.187,13.184,1.465,37.598,27.832,-86.426
1532485555.191,17.578,19.043,36.621,34.180,-725.098
1532485555.195,31.250,37.109,30.762,43.457,-606.934
1532485555.199,42.969,36.133,27.344,43.945,-374.512
1532485555.203,32.715,19.531,36.133,48.340,-91.309
1532485555.207,14.160,8.789,45.410,42.480,-528.320
1532485555.211,8.789,21.973,44.922,33.691,-559.082
1532485555.215,9.766,12.207,46.875,33.691,-440.430
1532485555.219,-0.488,10.254,51.758,30.762,-351.562
1532485555.222,-3.906,12.695,50.293,28.320,40.527
1532485555.226,8.789,37.598,51.270,42.969,241.211
1532485555.230,6.836,26.855,57.129,58.594,364.258
1532485555.234,-4.883,-20.996,64.453,44.434,-236.816
1532485555.238,-11.230,19.531,65.430,30.273,-465.332
1532485555.242,-6.348,87.402,63.965,47.852,676.270
1532485555.246,3.418,-13.672,67.383,56.152,443.359
1532485555.250,3.418,-38.086,69.824,47.363,-420.410
1532485555.254,0.488,3.906,63.477,43.457,-625.000
1532485555.258,4.883,20.996,58.105,45.410,-588.379
1532485555.261,10.742,33.203,58.594,41.504,163.086
1532485555.265,10.742,-4.395,58.594,48.340,-109.863
1532485555.269,8.301,13.672,58.594,45.410,-524.902
1532485555.273,6.348,41.504,55.664,43.457,-45.410
1532485555.277,11.230,21.484,57.129,55.664,-40.527
1532485555.281,11.719,77.637,56.641,46.875,562.012
1532485555.285,9.277,10.742,58.105,37.109,655.273
1532485555.289,6.836,-24.902,60.547,32.715,-477.051
1532485555.293,4.883,19.531,56.641,29.785,-675.781
1532485555.297,8.301,18.066,51.758,32.715,-523.926
1532485555.301,8.301,50.293,48.828,38.574,6.836
1532485555.304,7.812,22.949,55.176,52.734,-181.641
1532485555.308,14.160,18.066,56.152,37.109,-637.207
1532485555.312,19.531,28.320,52.246,37.109,-413.574
1532485555.316,16.113,17.090,54.199,54.199,-462.402
1532485555.320,11.719,82.520,55.664,42.969,209.473
1532485555.324,17.578,64.941,55.176,40.527,833.984
1532485555.328,25.391,-14.160,55.176,44.434,-116.699
1532485555.332,26.367,5.859,55.176,50.781,-486.328
1532485555.336,23.926,22.949,54.199,50.781,-569.336
1532485555.340,23.438,61.035,52.246,34.668,-441.406
1532485555.344,31.250,48.828,52.246,40.527,-92.285
1532485555.347,36.133,23.926,52.734,58.594,-349.121
1532485555.351,27.832,29.297,51.270,51.270,-438.965
1532485555.355,23.438,30.762,49.316,41.992,-588.379
1532485555.359,24.902,40.039,43.457,41.992,-412.109
1532485555.363,26.367,24.902,41.016,48.340,96.191
1532485555.367,22.461,33.691,43.457,45.410,278.320
1532485555.371,20.996,29.785,43.457,35.645,88.379
1532485555.375,25.879,10.254,44.434,31.250,-486.816
1532485555.379,24.902,49.316,44.922,39.551,-288.574
1532485555.383,23.926,93.750,42.480,51.758,762.695
1532485555.386,23.926,9.766,43.457,46.387,196.289
1532485555.390,23.926,4.883,44.434,37.598,-612.305
1532485555.394,29.297,32.227,44.922,34.180,-557.129
1532485555.398,31.738,29.785,45.410,44.434,-304.688
1532485555.402,28.809,28.320,41.016,45.410,149.902
1532485555.406,35.645,20.508,34.180,44.434,-369.141
1532485555.410,49.805,46.387,31.250,44.434,-538.086
1532485555.414,38.574,45.410,32.715,42.480,58.594
1532485555.418,22.949,24.902,41.992,35.645,157.227
1532485555.422,21.973,81.055,45.898,22.949,691.406
1532485555.426,28.809,8.301,46.387,42.480,450.195
1532485555.429,31.250,-23.926,51.270,51.758,-385.254
1532485555.433,27.344,11.230,56.152,42.969,-511.230
1532485555.437,20.020,42.480,57.617,44.434,-402.832
1532485555.441,16.113,57.617,54.199,40.527,158.691
1532485555.445,15.625,6.836,54.199,41.504,-156.250
1532485555.449,11.230,5.371,53.711,42.969,-445.312
1532485555.453,9.766,6.836,48.828,31.738,-458.496
1532485555.457,11.719,23.438,42.480,34.180,-660.645
1532485555.461,14.648,84.473,44.434,28.809,304.688
1532485555.465,20.508,2.930,49.316,32.715,622.070
1532485555.469,19.043,-26.367,52.246,41.992,-354.980
1532485555.472,16.602,19.043,51.758,40.039,-620.605
1532485555.476,15.625,19.531,42.969,37.598,-649.414
1532485555.480,14.648,54.199,37.598,32.227,-31.250
1532485555.484,10.742,18.066,42.480,39.062,131.348
1532485555.488,2.930,7.324,39.551,38.086,-524.902
1532485555.492,15.625,22.461,37.109,31.250,-547.363
1532485555.496,26.367,16.602,36.621,39.062,-438.477
1532485555.500,29.785,37.598,35.645,35.645,-100.586
1532485555.504,26.855,31.738,34.180,19.043,11.719
1532485555.508,26.367,48.828,34.668,34.180,69.336
1532485555.511,29.785,34.180,38.086,49.316,188.477
1532485555.515,32.715,-5.371,40.039,42.480,-325.195
1532485555.519,27.344,54.688,42.480,41.992,-203.613
1532485555.523,18.066,94.238,43.945,41.504,753.418
1532485555.527,30.273,0.488,41.016,50.781,133.789
1532485555.531,43.457,-5.859,40.039,53.223,-452.148
1532485555.535,38.574,19.043,47.363,40.039,-488.770
1532485555.539,36.621,34.668,48.828,28.320,-492.188
1532485555.543,41.992,27.832,45.410,38.574,-32.227
1532485555.547,44.434,9.766,46.875,50.781,-255.371
1532485555.551,41.504,28.320,47.363,36.621,-395.508
1532485555.554,35.645,47.363,43.945,27.344,-125.977
1532485555.558,32.715,71.777,44.922,29.785,224.609
1532485555.562,32.227,98.145,46.387,38.574,839.355
1532485555.566,33.203,-4.883,44.922,42.969,286.133
1532485555.570,35.645,-13.184,42.969,31.738,-550.293
1532485555.574,38.574,29.297,44.434,28.809,-727.051
1532485555.578,38.086,34.668,44.922,46.387,-497.070
1532485555.582,32.227,26.855,46.387,44.434,165.527
1532485555.586,27.344,11.230,48.340,34.180,-262.207
1532485555.590,29.297,40.527,47.852,38.574,-638.672
1532485555.594,34.668,38.086,47.852,48.828,-531.250
1532485555.597,33.203,47.363,49.316,42.969,-392.578
1532485555.601,25.879,105.469,50.781,30.762,560.059
1532485555.605,27.344,43.945,49.805,41.016,309.570
1532485555.609,35.645,24.414,47.363,48.340,-492.188
1532485555.613,35.645,33.691,43.457,47.852,-370.605
1532485555.617,32.227,33.203,43.945,44.922,-407.715
1532485555.621,30.273,110.352,44.922,46.387,320.312
1532485555.625,32.715,41.992,45.898,53.711,288.086
1532485555.629,27.344,1.953,49.805,46.387,-407.715
1532485555.633,17.578,21.973,50.781,24.902,-373.535
1532485555.636,21.973,26.855,48.828,23.438,-515.137
1532485555.640,30.273,68.359,49.805,27.832,-131.348
1532485555.644,33.691,39.551,50.781,34.180,-26.367
1532485555.648,25.879,46.875,48.340,41.504,79.102
1532485555.652,14.160,46.387,46.387,32.227,304.199
1532485555.656,13.672,12.207,46.875,34.180,-422.363
1532485555.660,19.043,86.914,44.922,45.898,-128.418
1532485555.664,21.973,77.148,44.922,44.434,841.797
1532485555.668,19.531,-17.090,45.410,38.086,-14.160
1532485555.672,18.555,16.113,44.922,32.227,-643.066
1532485555.676,20.508,30.762,44.922,32.715,-627.441
1532485555.679,22.461,43.945,46.387,40.527,-294.922
1532485555.683,20.996,24.414,47.363,34.668,55.176
1532485555.687,20.508,14.160,47.363,25.391,-429.199
1532485555.691,20.996,44.434,48.828,39.551,-539.551
1532485555.695,20.508,49.805,45.410,30.273,-69.336
1532485555.699,18.555,56.152,41.992,29.785,364.258
1532485555.703,9.277,79.102,47.852,36.621,825.195
1532485555.707,13.184,5.859,50.781,27.832,63.477
1532485555.711,26.367,-3.906,44.434,33.691,-557.617
1532485555.715,24.414,19.043,43.945,41.016,-485.352
1532485555.718,21.973,25.391,51.270,39.551,-389.160
1532485555.722,36.133,31.250,50.781,43.457,-32.715
1532485555.726,45.410,35.645,40.039,56.641,-383.789
1532485555.730,33.203,39.551,38.086,43.945,-416.992
1532485555.734,19.531,21.973,43.457,24.902,-416.504
1532485555.738,16.602,44.922,41.504,19.043,-454.590
1532485555.742,16.113,65.918,37.109,22.461,359.375
1532485555.746,20.020,19.043,37.109,39.062,262.695
1532485555.750,22.949,14.160,37.598,41.504,-262.207
1532485555.754,19.043,24.902,39.551,27.344,-442.871
1532485555.758,21.484,47.852,41.992,29.297,-512.207
1532485555.761,25.391,112.305,38.574,35.156,597.656
1532485555.765,35.156,16.602,38.574,37.598,627.930
1532485555.769,29.785,-8.789,46.387,41.016,-371.094
1532485555.773,9.277,32.715,47.852,35.156,-620.605
1532485555.777,9.766,46.875,45.898,39.062,-483.887
1532485555.781,16.113,67.871,46.387,29.785,214.355
1532485555.785,17.578,31.738,46.875,24.902,-40.039
1532485555.789,17.090,60.547,40.527,36.621,-125.977
1532485555.793,14.648,41.016,37.598,40.039,40.039
1532485555.797,15.625,16.602,42.969,44.922,-414.062
1532485555.801,11.230,98.145,42.969,25.391,290.039
1532485555.804,3.906,48.828,40.039,14.648,762.207
1532485555.808,10.742,-4.395,41.504,29.785,-299.316
1532485555.812,13.184,34.668,42.969,27.832,-525.879
1532485555.816,8.301,26.855,42.480,24.414,-451.172
1532485555.820,6.348,62.012,43.945,19.531,-215.820
1532485555.824,7.812,47.363,43.945,32.227,-139.160
1532485555.828,10.254,24.414,42.480,42.969,-464.355
1532485555.832,5.371,38.086,40.039,37.598,-319.824
1532485555.836,3.906,46.875,41.016,39.551,-59.570
1532485555.840,5.371,78.125,39.062,48.828,310.547
1532485555.843,3.906,75.684,34.668,47.852,806.152
1532485555.847,8.301,-9.766,36.621,39.062,111.328
1532485555.851,8.789,-0.488,37.109,29.785,-507.812
1532485555.855,1.953,38.574,33.203,13.184,-644.043
1532485555.859,0.977,60.059,33.203,18.555,-395.020
1532485555.863,5.859,27.832,35.645,21.484,35.156
1532485555.867,3.906,9.766,36.621,17.090,-310.547
1532485555.871,-1.953,28.320,34.180,33.203,-510.742
1532485555.875,3.418,27.344,30.273,33.203,-557.617
1532485555.879,10.254,33.203,27.832,32.715,-298.340
1532485555.883,11.230,39.551,28.809,33.203,463.867
1532485555.886,9.766,34.180,35.156,22.461,359.375
1532485555.890,11.719,25.391,35.645,21.973,-207.031
1532485555.894,18.066,9.277,34.668,21.973,-424.316
1532485555.898,16.602,35.645,34.668,35.156,-210.938
1532485555.902,11.230,100.586,32.227,28.809,732.910
1532485555.906,16.113,19.043,34.180,22.461,304.688
1532485555.910,25.879,4.883,37.598,39.062,-481.934
1532485555.914,25.391,26.855,37.109,43.945,-437.012
1532485555.918,17.090,30.273,38.086,30.762,-338.379
1532485555.922,15.625,41.504,39.551,30.762,105.957
1532485555.926,25.391,26.855,40.527,39.062,-248.047
1532485555.929,27.832,61.035,39.062,41.016,-25.391
1532485555.933,26.367,39.062,40.039,42.969,371.582
1532485555.937,30.762,26.367,40.527,41.504,-263.672
1532485555.941,30.762,119.141,37.109,33.691,441.406
1532485555.945,23.926,33.691,37.598,37.598,716.309
1532485555.949,23.438,-17.578,38.574,37.598,-276.367
1532485555.953,23.438,27.832,38.574,31.738,-568.359
1532485555.957,25.879,43.457,39.062,28.809,-659.180
1532485555.961,33.203,82.031,41.016,39.062,-64.453
1532485555.965,35.156,29.297,41.016,49.805,-5.859
1532485555.968,28.809,14.648,31.250,33.203,-492.188
1532485555.972,25.879,46.875,30.273,18.066,-512.695
1532485555.976,26.367,52.246,38.086,37.598,-242.188
1532485555.980,26.367,80.078,41.016,56.152,468.262
1532485555.984,23.438,41.992,40.039,45.410,806.641
1532485555.988,24.902,-14.648,36.621,38.086,-217.773
1532485555.992,27.344,20.020,32.715,41.992,-648.926
1532485555.996,23.926,20.508,34.180,41.992,-508.789
1532485556.000,24.902,43.457,37.109,39.062,-214.844
1532485556.004,27.344,32.227,37.598,33.691,-105.957
1532485556.008,29.785,22.949,38.086,22.949,-538.574
1532485556.011,30.273,39.551,36.133,27.344,-437.500
1532485556.015,29.297,21.973,35.645,36.621,-380.371
1532485556.019,29.297,40.039,36.133,38.086,-286.133
1532485556.023,30.273,55.176,32.227,37.598,293.945
1532485556.027,37.109,18.066,35.156,43.457,151.367
1532485556.031,40.039,6.348,38.086,46.387,-195.312
1532485556.035,33.691,19.531,31.738,40.039,-422.363
1532485556.039,26.855,44.434,29.785,36.621,-318.848
1532485556.043,31.738,31.738,31.738,21.484,334.473
1532485556.047,36.621,9.277,35.645,37.598,-42.480
1532485556.051,35.645,28.809,41.504,48.340,-317.383
1532485556.054,34.180,26.367,39.062,32.227,-466.797
1532485556.058,33.203,56.641,37.598,34.180,-362.305
1532485556.062,29.785,100.586,38.086,41.992,696.289
1532485556.066,26.855,12.695,34.180,48.340,329.102
1532485556.070,26.855,35.156,36.621,31.738,-66.895
1532485556.074,33.691,51.758,41.016,15.625,35.156
1532485556.078,36.133,36.133,39.062,35.645,-213.379
1532485556.082,31.250,97.656,33.691,34.668,678.711
1532485556.086,29.297,9.766,35.645,19.531,445.312
1532485556.090,22.949,-6.348,36.133,21.484,-546.387
1532485556.093,30.273,28.809,34.180,39.551,-600.098
1532485556.097,38.086,27.832,36.621,47.363,-389.648
1532485556.101,28.809,43.457,37.109,36.133,155.762
1532485556.105,20.508,23.926,38.574,32.715,-245.605
1532485556.109,26.367,31.250,41.016,38.086,-602.539
1532485556.113,29.785,34.180,38.574,41.992,-318.848
1532485556.117,24.414,42.969,36.133,31.250,-109.863
1532485556.121,19.043,95.215,36.133,27.832,550.293
1532485556.125,18.066,30.762,34.180,29.297,666.504
1532485556.129,24.902,-9.766,36.133,32.227,-237.793
1532485556.133,27.832,20.508,38.574,31.738,-474.121
1532485556.136,18.555,22.949,38.086,17.578,-580.566
1532485556.140,13.184,65.430,39.551,12.695,-257.812
1532485556.144,14.648,36.133,38.574,37.598,-117.676
1532485556.148,12.207,11.230,31.738,44.434,-414.062
1532485556.152,11.719,25.879,32.715,29.785,-436.035
1532485556.156,14.648,30.762,38.086,26.855,-639.160
1532485556.160,20.996,65.430,38.574,38.574,-274.414
1532485556.164,23.926,50.781,37.109,34.180,406.738
1532485556.168,21.484,0.000,37.598,28.320,49.316
1532485556.172,24.414,19.531,39.551,22.461,-418.945
1532485556.175,26.855,21.484,39.551,38.086,-583.984
1532485556.179,25.391,59.082,39.551,41.504,-182.129
1532485556.183,23.438,79.590,36.621,20.020,776.367
1532485556.187,21.973,-4.883,36.621,24.902,32.227
1532485556.191,20.996,8.789,39.062,39.551,-647.949
1532485556.195,20.508,29.785,38.086,42.480,-505.371
1532485556.199,12.207,28.809,37.109,41.992,-284.668
1532485556.203,7.324,18.555,37.598,41.992,-41.504
1532485556.207,7.812,20.996,36.133,30.273,-463.867
1532485556.211,10.742,57.617,35.156,18.555,-98.633
1532485556.215,13.184,22.949,35.645,34.180,156.738
1532485556.218,10.254,22.949,33.203,36.133,-128.906
1532485556.222,2.930,94.238,31.738,27.832,687.012
1532485556.226,10.254,12.695,32.227,30.762,282.227
1532485556.230,15.137,-8.789,31.738,29.297,-452.637
1532485556.234,9.277,14.648,35.156,29.785,-517.578
1532485556.238,9.766,30.273,38.574,27.344,-538.574
1532485556.242,12.695,37.598,38.086,26.367,-18.555
1532485556.246,14.648,17.090,37.598,31.250,-215.332
1532485556.250,12.695,22.949,38.086,22.949,-441.406
1532485556.254,8.301,23.926,38.574,21.484,-498.047
1532485556.258,9.766,62.012,35.645,30.273,-217.773
1532485556.261,13.672,96.680,33.203,29.297,762.695
1532485556.265,13.672,-6.836,34.180,32.715,558.594
1532485556.269,11.719,-14.160,34.180,29.785,-414.062
1532485556.273,16.113,27.832,36.621,30.273,-679.688
1532485556.277,16.602,30.273,33.691,33.691,-571.777
1532485556.281,14.648,59.570,32.715,25.391,118.164
1532485556.285,15.137,15.625,33.691,23.438,-92.285
1532485556.289,14.160,15.625,33.203,33.203,-609.863
1532485556.293,18.555,33.203,33.203,34.180,-500.488
1532485556.297,20.020,39.062,36.133,29.785,-420.410
1532485556.300,17.578,75.684,36.133,28.809,81.543
1532485556.304,17.090,64.941,35.156,22.461,370.117
1532485556.308,18.555,41.504,36.133,31.738,68.848
1532485556.312,19.043,27.344,38.086,48.340,-105.469
1532485556.316,9.766,8.301,32.227,41.992,-409.668
1532485556.320,1.465,83.496,32.227,20.020,-6.348
1532485556.324,6.836,85.449,35.156,14.648,788.574
1532485556.328,15.625,3.418,32.715,34.668,-18.555
1532485556.332,13.184,23.438,31.250,36.621,-445.801
1532485556.336,7.812,29.297,32.715,19.531,-508.301
1532485556.340,10.742,58.594,30.273,25.879,-404.297
1532485556.343,19.043,44.434,29.785,36.621,-67.871
1532485556.347,18.066,22.461,34.180,36.133,-307.129
1532485556.351,12.695,62.988,32.715,22.461,-20.508
1532485556.355,13.184,45.898,35.156,23.926,83.496
1532485556.359,18.066,49.805,40.039,42.480,-101.562
1532485556.363,16.602,89.844,38.574,36.621,710.938
1532485556.367,17.090,-0.488,37.109,21.973,221.191
1532485556.371,19.531,2.930,35.645,18.555,-605.469
1532485556.375,20.020,37.109,31.738,23.438,-652.344
1532485556.379,21.484,32.715,30.762,22.949,-397.949
1532485556.383,21.484,19.531,32.227,25.879,67.383
1532485556.386,14.648,21.973,30.762,28.809,-344.727
1532485556.390,17.578,41.504,29.785,31.738,-603.027
1532485556.394,29.297,36.133,30.762,34.180,-476.562
1532485556.398,26.855,71.289,31.738,15.625,94.727
1532485556.402,18.066,100.586,30.273,26.367,889.648
1532485556.406,23.926,8.301,34.668,46.875,242.676
1532485556.410,29.785,3.418,36.133,30.273,-499.512
1532485556.414,26.367,30.762,36.133,26.855,-479.004
1532485556.418,26.367,34.180,36.621,28.809,-398.926
1532485556.422,21.973,49.805,35.645,31.250,42.480
1532485556.425,23.926,30.273,38.574,36.133,-281.250
1532485556.429,26.367,33.691,40.039,23.926,-438.477
1532485556.433,20.996,22.949,38.086,22.949,-343.750
1532485556.437,16.113,39.551,37.109,33.203,-465.820
1532485556.441,16.113,74.219,34.668,45.898,75.684
1532485556.445,22.949,61.035,37.109,50.293,404.297
1532485556.449,26.367,34.668,41.992,47.852,292.480
1532485556.453,25.391,6.836,42.969,41.504,-171.875
1532485556.457,22.461,19.043,41.992,29.785,-618.652
1532485556.461,23.438,99.609,41.992,34.180,234.375
1532485556.465,27.344,29.297,42.969,34.180,802.734
1532485556.468,21.484,-27.344,41.504,20.020,-187.988
1532485556.472,18.066,26.367,40.039,25.391,-605.957
1532485556.476,21.973,32.227,41.016,37.109,-571.777
1532485556.480,20.996,63.477,39.062,47.363,-84.473
1532485556.484,16.602,23.926,41.504,35.645,-5.371
1532485556.488,10.742,16.602,41.504,33.203,-516.602
1532485556.492,11.719,65.430,38.574,38.574,-95.215
1532485556.496,14.648,29.785,43.457,43.457,50.781
1532485556.500,9.277,49.316,44.434,37.109,77.148
1532485556.504,3.906,74.707,43.457,15.625,760.742
1532485556.508,14.648,-0.977,46.387,20.020,-56.152
1532485556.511,20.508,11.230,47.852,29.297,-571.777
1532485556.515,17.090,18.555,41.992,26.367,-450.684
1532485556.519,10.254,36.133,40.527,26.367,-397.949
1532485556.523,8.789,35.156,43.457,23.438,-172.852
1532485556.527,12.207,24.902,40.039,28.809,-405.762
1532485556.531,10.254,29.297,41.016,32.715,-380.371
1532485556.535,6.836,22.461,44.434,35.645,-433.105
1532485556.539,6.348,72.754,42.480,34.668,-48.828
1532485556.543,5.859,100.098,42.480,22.461,829.590
1532485556.547,11.719,4.883,39.551,38.574,259.766
1532485556.550,12.207,-5.859,37.598,45.410,-432.617
1532485556.554,6.348,30.762,38.086,19.043,-618.652
1532485556.558,8.301,40.527,36.621,24.414,-526.367
1532485556.562,5.859,30.273,35.645,40.527,63.477
1532485556.566,-0.488,6.836,35.645,34.180,-208.496
1532485556.570,-5.371,25.879,33.203,25.879,-505.371
1532485556.574,-0.977,34.668,28.809,22.461,-550.781
1532485556.578,3.906,40.527,37.109,32.227,-373.535
1532485556.582,-2.441,40.039,40.527,18.555,263.184
1532485556.586,-6.348,41.016,37.109,13.184,334.473
1532485556.590,-0.488,36.133,35.645,39.062,-3.418
1532485556.593,5.371,12.207,32.227,40.527,-327.637
1532485556.597,8.301,30.762,33.203,33.691,-350.098
1532485556.601,4.395,106.445,33.203,23.438,611.816
1532485556.605,2.930,26.367,33.203,22.949,585.938
1532485556.609,9.277,-5.859,33.691,39.062,-397.461
1532485556.613,10.742,29.297,35.156,47.852,-437.988
1532485556.617,9.277,25.879,36.621,39.551,-387.695
1532485556.621,7.812,66.895,33.691,23.926,30.762
1532485556.625,11.719,31.738,33.203,36.621,-160.645
1532485556.629,17.090,27.344,34.180,35.156,-442.383
1532485556.632,13.672,46.875,34.180,37.109,134.277
1532485556.636,8.301,8.301,32.715,27.832,-123.535
1532485556.640,4.883,74.707,28.320,10.742,59.570
1532485556.644,10.742,50.781,28.809,30.273,802.246
1532485556.648,13.672,-28.320,32.715,40.039,-15.137
1532485556.652,3.906,11.230,31.250,35.645,-498.047
1532485556.656,0.977,24.902,29.785,22.949,-622.070
1532485556.660,3.906,53.223,34.668,24.414,-324.707
1532485556.664,4.883,26.367,38.574,36.621,13.672
1532485556.668,2.930,11.230,38.086,22.461,-339.844
1532485556.672,7.324,38.574,37.109,15.625,-509.277
1532485556.675,13.184,32.715,33.203,14.160,-551.270
1532485556.679,11.230,72.754,29.785,25.391,104.004
1532485556.683,9.766,68.848,30.762,26.855,869.141
1532485556.687,10.254,-12.207,30.762,7.812,20.020
1532485556.691,8.301,8.789,32.715,13.672,-607.910
1532485556.695,8.301,27.832,34.668,38.574,-493.652
1532485556.699,8.789,23.926,32.227,30.273,-301.758
1532485556.703,5.859,37.598,29.785,17.090,120.117
1532485556.707,4.883,28.320,29.785,23.926,-282.227
1532485556.711,5.371,28.320,29.785,22.949,-486.816
1532485556.715,-0.488,24.902,28.320,22.461,-346.680
1532485556.718,-1.953,22.461,27.344,18.555,-266.113
1532485556.722,-0.977,28.320,28.809,29.785,62.988
1532485556.726,0.977,46.875,27.344,39.062,176.270
1532485556.730,4.883,24.902,24.414,38.574,157.715
1532485556.734,4.395,-3.418,29.297,33.203,-262.207
1532485556.738,1.465,46.875,33.203,17.578,-409.668
1532485556.742,0.488,114.258,31.250,5.859,644.043
1532485556.746,6.348,12.207,35.645,15.625,518.066
1532485556.750,10.742,-9.277,40.527,31.250,-322.754
1532485556.754,10.254,31.250,39.551,34.180,-533.691
1532485556.757,13.184,44.922,40.039,39.062,-553.711
1532485556.761,11.719,60.059,39.551,38.574,120.605
1532485556.765,9.277,14.160,37.598,32.715,-46.875
1532485556.769,10.742,26.367,40.527,29.785,-458.008
1532485556.773,12.207,62.988,41.992,41.992,-115.723
1532485556.777,13.184,65.918,41.016,41.504,213.867
1532485556.781,10.254,63.965,40.527,31.250,563.477
1532485556.785,8.301,14.160,41.016,49.805,125.977
1532485556.789,6.348,19.531,39.551,51.270,-510.742
1532485556.793,6.836,35.645,35.156,49.805,-465.820
1532485556.797,10.254,30.762,34.180,54.688,-397.461
1532485556.800,11.719,72.754,36.621,29.785,190.430
1532485556.804,13.184,33.691,39.551,25.879,155.273
1532485556.808,17.578,20.508,40.039,32.227,-451.660
1532485556.812,14.648,42.480,37.598,33.203,-319.336
1532485556.816,5.859,23.926,35.645,33.691,-280.273
1532485556.820,-0.488,78.613,30.273,29.785,136.719
1532485556.824,-0.977,126.465,26.855,28.809,997.070
1532485556.828,6.836,15.625,34.668,33.203,775.391
1532485556.832,12.207,-31.250,37.598,39.551,-198.242
1532485556.836,14.160,18.555,37.598,34.668,-669.922
1532485556.840,14.160,51.270,39.062,36.133,-533.691
1532485556.843,19.531,41.016,37.109,38.574,-243.164
1532485556.847,20.996,20.996,36.133,39.062,-434.570
1532485556.851,18.066,29.785,34.668,34.180,-520.508
1532485556.855,13.672,36.621,33.691,28.320,-657.715
1532485556.859,12.207,44.922,34.180,38.086,-517.090
1532485556.863,15.137,37.598,32.715,44.922,-34.668
1532485556.867,11.719,54.199,32.715,20.996,156.250
1532485556.871,6.836,41.992,34.180,1.953,63.477
1532485556.875,9.766,12.207,30.762,25.391,-500.977
1532485556.879,15.625,48.828,27.832,34.668,-364.258
1532485556.882,12.695,98.633,28.809,28.809,748.047
1532485556.886,11.230,14.648,33.203,27.832,218.262
1532485556.890,8.789,3.906,31.250,30.273,-629.395
1532485556.894,8.301,31.738,30.273,36.621,-586.914
1532485556.898,12.695,28.320,29.785,32.227,-339.355
1532485556.902,7.324,30.273,26.367,26.855,103.027
1532485556.906,3.906,20.508,28.809,37.109,-381.836
1532485556.910,11.230,36.621,29.785,30.762,-542.969
1532485556.914,12.207,43.945,32.227,25.879,25.879
1532485556.918,8.301,42.480,35.156,40.527,203.613
1532485556.922,9.277,85.938,34.180,39.062,712.402
1532485556.925,18.555,13.672,35.156,47.852,354.492
1532485556.929,22.461,-6.348,40.039,43.945,-398.438
1532485556.933,20.508,14.648,34.668,41.504,-447.266
1532485556.937,18.555,30.762,29.785,41.504,-590.820
1532485556.941,15.625,95.703,38.086,32.227,247.559
1532485556.945,23.438,31.738,43.457,42.969,205.078
1532485556.949,25.391,6.836,41.504,38.086,-429.199
1532485556.953,18.555,24.414,38.574,27.832,-445.801
1532485556.957,20.020,35.156,36.133,30.762,-656.250
1532485556.961,20.996,100.098,35.645,29.297,212.891
1532485556.965,20.996,21.973,36.133,34.180,620.117
1532485556.968,16.113,-12.695,35.156,45.410,-307.617
1532485556.972,15.137,37.598,35.645,37.598,-602.539
1532485556.976,19.043,36.621,36.133,26.367,-634.277
1532485556.980,19.043,74.219,37.598,33.691,-86.914
1532485556.984,21.484,38.086,38.086,42.480,146.484
1532485556.988,22.949,24.902,39.062,41.992,-480.957
1532485556.992,24.902,48.828,40.527,42.480,-553.223
1532485556.996,22.461,36.133,40.039,42.969,-428.711
1532485557.000,13.184,45.898,38.086,27.832,-136.230
1532485557.004,11.230,34.180,37.109,11.230,-4.395
1532485557.007,13.184,55.176,37.598,11.719,9.766
1532485557.011,16.602,47.363,37.598,36.133,109.375
1532485557.015,15.137,10.254,38.574,49.316,-289.062
1532485557.019,4.883,60.547,36.133,36.621,-201.172
1532485557.023,4.883,100.586,34.180,26.855,733.398
1532485557.027,14.160,14.648,36.621,28.809,169.922
1532485557.031,16.113,6.836,37.598,29.785,-424.316
1532485557.035,12.695,26.367,37.109,23.438,-443.359
1532485557.039,13.672,37.598,37.598,20.996,-471.680
1532485557.043,18.066,33.691,36.133,22.949,-55.664
1532485557.047,20.020,17.090,35.156,36.621,-251.953
1532485557.050,18.066,32.227,35.645,33.203,-360.840
1532485557.054,13.184,47.852,34.668,32.227,-141.113
1532485557.058,13.184,69.336,33.691,33.203,86.426
1532485557.062,15.137,97.168,34.668,27.344,790.527
1532485557.066,16.113,-0.488,40.039,32.227,371.582
1532485557.070,11.230,-11.230,37.598,21.973,-475.098
1532485557.074,12.695,26.855,33.203,7.812,-661.133
1532485557.078,18.555,36.621,36.133,37.109,-469.238
1532485557.082,13.184,34.180,37.598,44.434,159.180
1532485557.086,6.836,7.812,36.621,22.461,-199.219
1532485557.089,6.836,29.785,33.203,16.113,-573.242
1532485557.093,13.672,27.832,32.227,24.414,-475.586
1532485557.097,15.137,36.133,36.133,35.645,-372.070
1532485557.101,8.789,94.727,37.109,38.086,562.012
1532485557.105,9.277,21.484,37.109,34.180,431.152
1532485557.109,12.207,0.488,37.109,36.133,-466.309
1532485557.113,15.137,28.320,35.645,43.457,-414.062
1532485557.117,10.742,24.414,33.691,38.086,-395.508
1532485557.121,3.906,78.125,28.320,19.043,110.840
1532485557.125,8.789,58.594,28.809,18.555,155.762
1532485557.129,13.672,24.414,34.668,43.457,-272.461
1532485557.132,12.695,20.020,32.227,50.293,-289.551
1532485557.136,11.719,34.180,24.414,29.297,-431.641
1532485557.140,9.277,74.219,25.391,18.066,-158.691
1532485557.144,14.648,48.340,30.762,36.133,-18.555
1532485557.148,15.625,48.340,32.227,43.457,65.430
1532485557.152,13.184,39.551,27.832,18.555,159.668
1532485557.156,15.625,18.555,22.949,24.414,-469.238
1532485557.160,15.137,94.238,20.508,26.855,-151.855
1532485557.164,14.160,89.844,20.996,36.133,824.219
1532485557.168,17.578,-6.836,25.391,54.199,88.867
1532485557.172,17.578,21.484,29.785,39.551,-554.688
1532485557.175,21.484,43.945,30.762,25.391,-568.359
1532485557.179,23.926,48.828,25.879,34.180,-286.133
1532485557.183,28.809,24.902,25.879,53.223,69.824
1532485557.187,33.203,16.602,35.156,41.016,-373.047
1532485557.191,13.672,52.734,31.738,8.789,-515.137
1532485557.195,-1.465,62.500,26.855,10.742,-37.598
1532485557.199,-4.883,68.359,31.738,17.090,410.156
1532485557.203,-27.344,90.820,34.180,2.930,840.332
1532485557.207,-44.922,10.254,34.180,-18.555,122.070
1532485557.211,-38.574,3.418,37.109,-18.555,-490.723
1532485557.214,-38.574,27.344,37.109,-10.254,-411.621
1532485557.218,-47.363,28.809,37.598,-26.855,-311.035
1532485557.222,-43.945,33.203,38.086,-26.367,6.836
1532485557.226,-31.738,23.438,33.203,-8.789,-330.566
1532485557.230,-22.949,28.320,34.668,-12.207,-365.234
1532485557.234,-24.902,20.508,34.180,-5.371,-337.891
1532485557.238,-23.438,42.969,32.715,8.301,-419.434
1532485557.242,-14.160,74.219,36.133,16.602,277.832
1532485557.246,-11.230,38.574,38.086,23.926,375.000
1532485557.250,-8.789,13.184,38.574,12.695,-106.934
1532485557.254,-9.277,16.113,37.109,0.977,-385.254
1532485557.257,-11.230,44.922,32.715,25.879,-493.164
1532485557.261,-11.719,120.117,29.785,40.039,551.270
1532485557.265,-8.789,18.066,30.273,26.367,674.316
1532485557.269,-5.859,-15.137,33.691,22.949,-311.523
1532485557.273,-7.324,34.668,33.203,19.043,-575.684
1532485557.277,-5.371,39.551,28.320,23.438,-498.535
1532485557.281,-5.371,60.547,26.367,20.996,112.793
1532485557.285,-8.301,25.391,28.809,28.809,-56.152
1532485557.289,-11.230,49.316,27.832,34.180,-145.508
1532485557.293,3.906,35.645,27.344,20.020,86.426
1532485557.297,16.113,7.812,31.250,47.363,-383.789
1532485557.300,7.812,89.355,29.785,48.828,183.594
1532485557.304,3.418,52.734,28.809,27.344,767.578
1532485557.308,10.254,-12.207,29.785,29.297,-265.137
1532485557.312,13.184,20.996,28.809,33.203,-544.922
1532485557.316,8.789,17.090,27.832,30.273,-443.359
1532485557.320,3.906,54.199,27.832,24.414,-277.344
1532485557.324,8.301,40.039,27.344,23.926,-191.406
1532485557.328,10.742,16.113,26.855,29.297,-472.168
1532485557.332,10.254,30.762,28.809,36.621,-315.918
1532485557.336,11.719,38.086,31.738,35.645,-122.559
1532485557.339,0.977,70.801,31.738,31.250,169.434
1532485557.343,-10.742,77.637,33.203,18.066,787.598
1532485557.347,-13.672,-5.859,37.109,11.719,170.898
1532485557.351,-20.020,-2.441,35.156,1.953,-453.125
1532485557.355,-24.414,26.855,32.227,-11.719,-586.914
1532485557.359,-30.762,37.598,29.785,-14.160,-478.516
1532485557.363,-33.203,22.461,30.273,-8.789,3.906
1532485557.367,-30.762,8.789,32.227,-7.812,-239.258
1532485557.371,-27.832,31.250,30.273,-24.414,-482.910
1532485557.375,-20.996,36.133,27.832,-16.113,-549.805
1532485557.379,-14.648,33.691,24.902,7.324,-326.660
1532485557.382,-11.230,38.574,25.391,11.230,347.168
1532485557.386,-11.230,37.109,27.832,13.672,238.281
1532485557.390,-8.789,32.227,26.367,10.254,-274.414
1532485557.394,-3.906,25.391,24.902,4.883,-449.707
1532485557.398,0.977,47.363,30.273,17.090,-235.352
1532485557.402,-2.441,104.980,27.344,13.672,718.750
1532485557.406,-1.465,18.066,23.438,1.953,341.797
1532485557.410,2.441,-1.465,25.391,12.695,-479.004
1532485557.414,8.301,25.879,29.297,23.438,-439.941
1532485557.418,9.277,31.738,31.738,17.090,-340.332
1532485557.422,8.301,49.805,31.738,13.672,45.898
1532485557.425,12.207,33.691,31.738,28.320,-270.508
1532485557.429,11.719,61.523,31.738,32.715,-38.086
1532485557.433,13.184,36.621,31.738,29.297,270.508
1532485557.437,13.184,21.973,32.227,20.996,-330.566
1532485557.441,9.766,117.188,30.273,9.766,370.117
1532485557.445,13.672,41.504,31.250,16.602,726.074
1532485557.449,24.902,-18.555,34.668,32.715,-219.727
1532485557.453,25.879,20.996,35.156,28.809,-507.812
1532485557.457,24.902,37.109,35.156,28.320,-622.070
1532485557.461,24.902,79.590,35.156,35.156,-127.930
1532485557.464,21.484,36.621,33.203,39.551,-3.418
1532485557.468,18.066,17.090,31.250,41.504,-434.082
1532485557.472,16.113,47.363,33.691,20.020,-481.934
1532485557.476,20.020,62.012,38.086,27.832,-223.145
1532485557.480,24.414,81.543,40.039,45.898,435.547
1532485557.484,19.531,42.969,35.156,29.297,813.965
1532485557.488,17.090,-10.254,33.691,23.926,-164.551
1532485557.492,16.602,30.762,35.645,32.227,-647.949
1532485557.496,15.137,39.551,39.062,32.227,-509.766
1532485557.500,14.160,47.852,40.527,31.250,-245.605
1532485557.504,11.230,34.180,38.574,27.344,-117.676
1532485557.507,12.695,26.855,38.086,26.367,-528.809
1532485557.511,13.672,35.645,38.086,28.320,-456.055
1532485557.515,10.254,18.066,38.086,30.273,-373.535
1532485557.519,10.254,37.109,38.574,36.133,-302.734
1532485557.523,13.184,60.547,33.691,32.227,238.770
1532485557.527,16.602,30.762,32.715,32.715,94.238
1532485557.531,20.020,22.461,36.133,39.062,-208.008
1532485557.535,18.555,20.508,33.203,35.645,-392.578
1532485557.539,14.160,55.176,29.297,37.598,-359.375
1532485557.543,11.230,115.723,30.273,35.645,674.805
1532485557.546,11.719,33.691,32.227,32.227,496.094
1532485557.550,10.254,-6.836,30.762,30.762,-246.094
1532485557.554,7.324,21.973,31.250,31.250,-554.199
1532485557.558,10.254,42.969,33.203,35.156,-492.676
1532485557.562,11.230,30.762,33.691,35.156,57.129
1532485557.566,11.230,13.672,34.180,30.762,-172.852
1532485557.570,9.277,56.152,36.621,23.438,-103.516
1532485557.574,7.324,28.809,35.645,38.086,-95.215
1532485557.578,14.160,33.203,35.645,45.898,-358.887
1532485557.582,13.672,102.051,37.109,31.250,649.902
1532485557.586,10.254,5.859,38.086,23.926,501.953
1532485557.589,9.766,-5.859,38.086,37.109,-508.301
1532485557.593,19.531,33.691,34.668,50.781,-577.148
1532485557.597,13.672,36.133,27.832,47.852,-382.324
1532485557.601,-8.301,56.152,25.391,18.555,135.254
1532485557.605,-13.184,28.320,28.809,3.418,-198.242
1532485557.609,-8.301,33.203,28.320,11.719,-561.523
