timestamps,TP9,AF7,AF8,TP10,Right AUX
1532486029.544,45.410,51.270,30.762,37.109,114.258
1532486029.548,39.062,20.020,28.809,35.156,-116.699
1532486029.552,37.598,23.438,29.785,27.344,-725.098
1532486029.556,41.992,40.527,32.715,30.273,-650.391
1532486029.560,36.621,41.992,33.203,30.762,-583.496
1532486029.564,24.414,52.246,29.785,27.832,372.070
1532486029.567,26.855,39.062,28.320,26.367,533.203
1532486029.571,33.691,34.668,30.273,40.039,-570.801
1532486029.575,34.180,45.898,27.832,48.828,-623.047
1532486029.579,34.180,39.551,27.832,36.133,-547.363
1532486029.583,31.738,58.105,30.273,40.039,-181.641
1532486029.587,31.250,56.152,27.832,46.387,200.684
1532486029.591,32.715,37.598,25.879,49.316,-310.059
1532486029.595,33.203,44.922,28.809,50.293,-443.848
1532486029.599,24.414,47.852,31.250,28.320,-526.855
1532486029.603,17.090,43.945,32.715,23.438,-374.023
1532486029.606,26.855,37.598,34.180,26.855,-47.852
1532486029.610,26.855,40.527,30.273,34.180,135.254
1532486029.614,12.207,37.598,31.738,51.270,489.746
1532486029.618,18.555,22.461,36.133,55.664,-285.645
1532486029.622,22.461,44.922,33.691,48.828,-474.121
1532486029.626,13.184,60.059,28.809,28.809,745.605
1532486029.630,17.090,16.113,27.344,7.324,182.617
1532486029.634,11.230,24.902,25.391,-2.441,-674.316
1532486029.638,13.184,45.410,25.879,5.859,-773.926
1532486029.642,24.902,42.480,25.879,18.555,-506.836
1532486029.646,22.461,28.809,24.902,18.066,134.766
1532486029.649,12.695,22.461,22.949,21.973,-369.141
1532486029.653,13.184,36.133,24.902,22.949,-703.613
1532486029.657,21.973,42.969,24.902,26.855,-65.430
1532486029.661,17.578,48.828,21.973,35.156,473.633
1532486029.665,18.555,57.129,25.879,32.227,889.648
1532486029.669,22.949,27.832,30.762,27.344,155.762
1532486029.673,30.273,25.879,28.320,34.180,-677.246
1532486029.677,33.691,32.227,26.855,41.504,-654.297
1532486029.681,29.297,31.250,28.320,37.109,-472.168
1532486029.685,29.297,44.922,26.367,34.668,87.891
1532486029.689,27.344,37.109,24.902,31.738,-392.578
1532486029.692,33.691,41.992,30.762,34.180,-605.469
1532486029.696,33.691,42.480,34.180,34.180,-432.617
1532486029.700,22.461,52.246,29.785,25.391,-603.027
1532486029.704,28.809,83.008,26.367,24.414,437.500
1532486029.708,32.715,47.852,30.762,33.691,531.250
1532486029.712,30.273,28.809,34.180,32.715,-396.484
1532486029.716,29.785,36.621,37.598,24.902,-575.195
1532486029.720,23.926,42.969,36.621,26.367,-759.766
1532486029.724,28.320,62.500,26.855,34.668,40.527
1532486029.728,32.227,41.016,28.320,41.992,165.527
1532486029.731,22.461,30.273,33.691,37.109,-491.211
1532486029.735,16.113,42.969,30.762,21.484,-598.145
1532486029.739,24.902,44.434,31.250,21.484,-669.922
1532486029.743,30.273,47.852,32.715,32.715,-40.527
1532486029.747,29.297,36.621,32.227,33.203,88.867
1532486029.751,27.832,46.875,30.762,15.137,38.086
1532486029.755,27.344,51.270,30.762,14.648,385.742
1532486029.759,25.879,29.785,30.762,24.414,-286.133
1532486029.763,27.832,51.758,26.855,26.855,-68.359
1532486029.767,29.785,58.594,24.414,26.367,833.984
1532486029.771,26.855,27.832,23.926,21.484,-165.039
1532486029.774,27.832,37.109,24.902,28.809,-699.219
1532486029.778,30.273,41.016,26.855,29.785,-527.832
1532486029.782,23.926,45.898,28.809,23.926,-380.371
1532486029.786,22.461,32.227,29.785,25.879,-116.699
1532486029.790,27.344,26.367,28.320,39.551,-502.441
1532486029.794,26.367,44.434,29.785,38.086,-457.031
1532486029.798,22.461,40.039,28.809,27.344,26.855
1532486029.802,22.461,42.969,27.344,25.391,421.387
1532486029.806,22.461,54.688,26.855,23.438,845.215
1532486029.810,29.297,21.484,27.344,36.621,164.551
1532486029.814,30.762,23.438,27.832,43.457,-519.531
1532486029.817,23.438,41.016,24.902,19.531,-730.469
1532486029.821,21.973,38.086,26.855,15.137,-659.180
1532486029.825,30.762,36.133,31.250,39.062,35.645
1532486029.829,33.691,36.133,32.715,42.969,-261.719
1532486029.833,30.273,43.945,36.133,25.391,-585.938
1532486029.837,39.551,49.805,37.598,30.762,-688.965
1532486029.841,41.504,55.664,26.855,43.457,-550.781
1532486029.845,30.762,52.734,26.855,45.410,467.285
1532486029.849,27.344,41.016,36.133,32.715,562.500
1532486029.853,30.762,40.039,35.645,32.227,-263.184
1532486029.856,38.574,42.480,31.250,44.922,-589.844
1532486029.860,39.062,46.387,33.203,44.922,-437.988
1532486029.864,27.832,65.918,38.574,31.738,634.277
1532486029.868,29.297,34.668,41.992,24.902,546.387
1532486029.872,36.621,35.156,41.016,38.086,-565.918
1532486029.876,40.527,50.781,39.551,41.992,-605.469
1532486029.880,39.062,50.781,40.527,34.668,-449.219
1532486029.884,32.227,68.359,39.062,21.484,91.797
1532486029.888,35.156,58.594,37.598,23.926,-207.031
1532486029.892,35.645,61.523,37.109,36.621,-90.820
1532486029.896,38.086,54.199,36.621,37.598,483.398
1532486029.899,40.039,39.062,39.551,26.855,-315.430
1532486029.903,44.434,70.312,42.480,20.020,4.883
1532486029.907,47.363,60.547,38.574,29.785,818.359
1532486029.911,43.945,34.180,41.504,40.039,-160.156
1532486029.915,34.668,41.016,43.457,34.180,-624.512
1532486029.919,36.133,38.574,37.598,30.273,-768.555
1532486029.923,48.828,49.316,39.062,40.039,-429.199
1532486029.927,42.480,48.340,39.551,38.086,-3.418
1532486029.931,36.621,43.945,40.039,43.457,-433.594
1532486029.935,39.551,50.293,42.480,39.062,-600.586
1532486029.938,36.621,55.664,35.156,36.621,-185.547
1532486029.942,33.203,65.918,31.250,39.062,430.664
1532486029.946,34.668,60.059,32.715,28.809,845.703
1532486029.950,32.227,24.414,36.621,19.043,-77.637
1532486029.954,31.738,38.086,37.109,19.043,-817.871
1532486029.958,33.691,54.688,35.645,25.391,-737.305
1532486029.962,35.156,48.340,35.645,28.320,-421.875
1532486029.966,35.645,39.062,35.645,19.531,-54.688
1532486029.970,31.250,38.574,34.668,14.648,-576.172
1532486029.974,34.180,39.062,32.715,34.180,-666.016
1532486029.978,32.715,35.645,33.203,47.363,-504.883
1532486029.981,23.926,45.898,33.691,32.715,-369.141
1532486029.985,25.879,53.223,32.715,22.461,346.191
1532486029.989,34.668,46.875,34.180,31.738,474.121
1532486029.993,39.551,40.039,36.133,40.039,201.660
1532486029.997,41.504,27.344,36.133,38.086,-327.637
1532486030.001,32.227,39.551,36.621,32.227,-508.301
1532486030.005,26.367,71.777,35.645,20.996,629.395
1532486030.009,39.062,33.691,37.598,35.645,580.078
1532486030.013,38.574,17.090,38.574,46.875,-330.078
1532486030.017,34.180,36.133,35.645,24.414,-677.734
1532486030.021,34.668,45.898,36.133,11.230,-673.828
1532486030.024,30.762,45.898,38.574,29.297,94.727
1532486030.028,37.598,29.785,37.598,41.016,-117.188
1532486030.032,36.133,38.574,36.133,25.879,2.441
1532486030.036,32.715,36.133,29.297,12.207,81.543
1532486030.040,30.762,39.062,28.320,22.949,-590.332
1532486030.044,30.762,66.406,34.668,36.621,419.922
1532486030.048,32.227,21.484,37.598,29.785,708.496
1532486030.052,29.297,17.578,38.086,20.996,-548.828
1532486030.056,32.227,52.734,36.621,22.461,-822.754
1532486030.060,37.109,51.270,40.527,30.762,-652.344
1532486030.063,35.156,59.570,42.480,32.715,-29.785
1532486030.067,37.598,49.316,41.992,30.762,-161.621
1532486030.071,43.457,43.457,39.551,37.109,-761.230
1532486030.075,45.898,54.688,37.598,57.617,-522.949
1532486030.079,48.340,61.523,40.527,61.035,-17.578
1532486030.083,41.016,66.895,43.457,47.852,547.852
1532486030.087,38.574,57.129,45.898,42.969,788.086
1532486030.091,47.363,38.574,50.781,46.387,-213.379
1532486030.095,49.805,50.293,50.293,52.734,-615.723
1532486030.099,49.316,51.758,45.898,45.410,-658.691
1532486030.103,43.945,55.176,42.969,27.832,-542.480
1532486030.106,49.316,49.805,45.898,36.133,-181.152
1532486030.110,53.223,49.316,45.898,46.875,-460.449
1532486030.114,46.875,59.570,46.387,46.387,-500.977
1532486030.118,58.594,73.730,58.594,50.293,-685.547
1532486030.122,56.152,78.613,50.781,41.504,-556.152
1532486030.126,41.016,60.059,37.598,39.062,417.969
1532486030.130,35.645,46.387,41.992,35.645,519.043
1532486030.134,34.668,49.316,41.992,26.855,-196.289
1532486030.138,37.598,54.688,42.969,33.203,-707.520
1532486030.142,42.969,58.594,41.992,30.762,-419.922
1532486030.146,40.527,63.965,37.598,26.367,728.516
1532486030.149,34.180,34.668,38.086,28.320,184.082
1532486030.153,30.273,43.457,33.691,16.602,-735.840
1532486030.157,34.180,59.082,33.691,22.949,-729.492
1532486030.161,34.180,52.734,36.133,42.969,-389.648
1532486030.165,28.809,45.898,38.086,36.621,167.480
1532486030.169,31.250,45.410,41.016,35.156,-406.250
1532486030.173,37.109,55.176,38.086,38.086,-167.969
1532486030.177,38.574,46.875,35.156,32.227,386.719
1532486030.181,28.809,44.434,34.668,35.645,-55.664
1532486030.185,20.508,64.941,35.156,39.062,622.070
1532486030.188,29.785,32.227,35.156,28.320,452.637
1532486030.192,33.203,25.879,36.133,30.273,-529.297
1532486030.196,31.250,37.109,44.434,40.527,-597.168
1532486030.200,33.691,39.551,44.434,28.809,-635.254
1532486030.204,32.715,58.594,41.504,20.996,4.883
1532486030.208,36.621,48.828,43.457,39.062,-169.434
1532486030.212,41.504,36.133,40.527,41.504,-556.152
1532486030.216,35.156,40.039,32.227,30.273,-479.980
1532486030.220,31.250,55.664,29.297,36.621,-169.922
1532486030.224,41.016,70.801,34.180,41.992,640.137
1532486030.228,44.922,40.527,40.527,41.992,736.816
1532486030.231,42.969,19.531,43.945,40.039,-315.430
1532486030.235,41.504,39.551,45.410,41.504,-795.410
1532486030.239,42.480,45.410,43.945,40.527,-816.406
1532486030.243,44.922,51.270,43.945,39.062,-241.211
1532486030.247,37.598,42.480,46.387,37.109,-51.758
1532486030.251,33.691,40.527,42.969,19.531,-639.160
1532486030.255,43.457,46.875,39.551,21.484,-674.805
1532486030.259,47.363,40.527,39.062,34.668,-617.676
1532486030.263,41.504,51.270,38.086,34.668,-172.363
1532486030.267,36.133,59.082,39.062,26.855,549.316
1532486030.271,35.645,55.664,40.039,22.461,414.551
1532486030.274,41.504,50.293,37.598,36.621,-63.477
1532486030.278,47.852,44.922,38.574,41.992,-486.816
1532486030.282,36.621,62.012,39.062,24.902,-273.438
1532486030.286,29.785,74.219,38.086,17.090,723.145
1532486030.290,40.527,39.062,37.598,31.250,38.086
1532486030.294,44.434,35.156,36.621,42.969,-603.516
1532486030.298,38.574,45.898,40.527,30.762,-587.402
1532486030.302,36.133,48.340,41.992,30.273,-568.359
1532486030.306,41.016,42.969,41.992,38.574,-102.051
1532486030.310,44.434,41.992,41.504,47.852,-383.789
1532486030.313,38.086,48.340,41.016,49.805,9.277
1532486030.317,37.109,40.527,41.016,31.738,295.410
1532486030.321,47.852,48.340,38.574,21.973,-226.562
1532486030.325,43.945,65.430,34.180,22.461,627.930
1532486030.329,40.527,26.367,35.645,31.738,358.887
1532486030.333,41.016,25.391,34.668,34.668,-645.508
1532486030.337,40.039,42.480,32.715,29.297,-855.957
1532486030.341,42.480,42.969,37.109,30.762,-655.762
1532486030.345,42.480,38.574,39.062,38.086,140.137
1532486030.349,36.621,28.320,39.551,45.410,-247.559
1532486030.353,39.551,34.180,36.621,36.133,-749.512
1532486030.356,43.457,38.086,34.668,38.574,-642.090
1532486030.360,34.180,47.363,35.156,39.551,-46.387
1532486030.364,28.320,59.082,33.203,22.461,883.789
1532486030.368,43.945,27.832,38.086,24.414,464.355
1532486030.372,41.992,24.902,38.086,29.297,-616.211
1532486030.376,36.133,44.922,36.133,33.691,-703.125
1532486030.380,35.156,49.805,36.133,33.691,-562.012
1532486030.384,24.414,54.688,30.273,24.902,11.230
1532486030.388,25.879,44.922,34.668,25.391,-265.625
1532486030.392,34.180,46.387,38.086,17.578,-676.758
1532486030.395,31.738,41.016,35.156,25.879,-419.922
1532486030.399,28.320,40.039,32.715,26.855,-590.332
1532486030.403,24.414,57.129,28.809,17.090,-171.875
1532486030.407,27.344,57.129,27.832,19.043,438.477
1532486030.411,27.344,41.992,25.879,19.043,425.781
1532486030.415,14.160,26.367,27.832,18.555,14.648
1532486030.419,17.090,28.320,29.785,23.438,-696.777
1532486030.423,30.762,58.105,30.762,26.367,-238.770
1532486030.427,35.645,49.316,36.621,31.738,792.480
1532486030.431,38.086,20.020,37.598,28.809,215.332
1532486030.435,36.621,36.621,30.273,17.090,-478.516
1532486030.438,38.574,48.340,28.320,24.414,-786.133
1532486030.442,42.969,46.875,32.227,40.039,-422.363
1532486030.446,40.039,38.086,34.668,43.457,24.902
1532486030.450,42.969,40.039,35.645,30.762,-479.492
1532486030.454,43.457,57.617,35.156,27.344,-66.406
1532486030.458,37.109,45.410,36.621,32.227,291.992
1532486030.462,33.691,31.738,38.086,30.762,-4.883
1532486030.466,33.691,52.246,37.109,29.297,709.473
1532486030.470,37.109,28.320,38.574,28.320,40.039
1532486030.474,39.062,28.809,40.039,42.969,-769.531
1532486030.478,43.457,49.805,41.504,51.758,-644.043
1532486030.481,46.387,48.828,41.016,38.574,-459.473
1532486030.485,35.645,49.316,40.527,29.297,-39.551
1532486030.489,38.086,49.805,40.527,49.805,-494.141
1532486030.493,38.574,52.246,41.992,59.570,-595.703
1532486030.497,33.691,49.316,43.457,52.246,-477.539
1532486030.501,37.109,56.641,40.039,36.621,-49.805
1532486030.505,34.668,65.430,34.668,21.973,861.816
1532486030.509,41.504,31.738,35.645,37.109,343.750
1532486030.513,32.715,29.297,40.039,44.922,-478.516
1532486030.517,25.391,37.598,38.574,28.809,-719.727
1532486030.520,31.738,45.410,36.621,35.645,-757.812
1532486030.524,23.438,58.105,36.621,50.293,32.227
1532486030.528,26.367,40.527,37.109,47.363,-154.297
1532486030.532,33.203,39.062,33.203,39.551,-603.516
1532486030.536,33.203,43.945,31.738,33.203,-677.734
1532486030.540,37.109,44.922,32.715,32.715,-674.805
1532486030.544,40.039,54.199,32.227,35.645,178.711
1532486030.548,39.551,48.828,34.668,36.133,534.668
1532486030.552,34.180,51.270,36.621,33.691,331.543
1532486030.556,36.133,47.852,36.133,35.156,-112.793
1532486030.560,41.504,39.551,35.645,45.898,-602.051
1532486030.563,43.945,73.730,41.992,52.246,232.422
1532486030.567,37.598,58.594,42.969,44.922,770.996
1532486030.571,32.227,34.180,40.039,42.480,-404.297
1532486030.575,36.133,51.270,44.434,50.781,-704.590
1532486030.579,38.086,48.828,47.363,49.805,-557.129
1532486030.583,34.180,63.965,48.340,37.109,-230.469
1532486030.587,38.574,60.059,50.293,42.969,-183.594
1532486030.591,50.781,54.199,50.781,58.105,-614.258
1532486030.595,53.711,67.871,50.781,61.035,28.809
1532486030.599,49.316,56.152,47.852,54.688,283.203
1532486030.603,49.316,60.547,42.969,53.223,62.012
1532486030.606,55.664,65.918,46.875,56.152,724.609
1532486030.610,42.480,34.668,57.129,40.527,66.895
1532486030.614,24.414,48.340,55.664,37.109,-630.859
1532486030.618,21.484,58.594,51.270,29.297,-772.461
1532486030.622,20.996,56.152,49.316,28.809,-673.828
1532486030.626,26.855,47.852,48.340,42.969,-88.867
1532486030.630,28.320,42.969,49.805,35.645,-340.820
1532486030.634,20.508,51.270,45.898,29.785,-625.977
1532486030.638,26.367,52.734,43.945,30.762,-723.145
1532486030.642,37.598,71.777,44.922,40.039,-80.078
1532486030.645,41.504,77.637,47.363,47.363,881.836
1532486030.649,43.457,32.227,52.734,43.457,125.000
1532486030.653,43.945,38.574,54.199,26.855,-733.887
1532486030.657,42.480,55.664,51.270,32.227,-782.715
1532486030.661,36.621,47.363,44.434,49.316,-453.125
1532486030.665,30.273,48.828,43.945,40.039,147.949
1532486030.669,22.461,54.199,47.363,34.668,-426.758
1532486030.673,31.250,54.688,47.852,41.504,-709.961
1532486030.677,43.457,54.688,48.340,44.922,-517.090
1532486030.681,46.875,61.523,47.852,45.410,-355.469
1532486030.685,38.574,61.035,46.387,43.457,209.473
1532486030.688,30.273,64.941,45.898,39.062,226.074
1532486030.692,40.039,66.895,46.875,41.504,330.078
1532486030.696,39.551,47.363,45.898,35.156,-19.531
1532486030.700,41.504,54.199,46.387,28.320,-569.336
1532486030.704,42.969,88.867,45.898,25.879,454.102
1532486030.708,48.828,55.664,49.316,33.203,699.219
1532486030.712,50.293,28.320,49.316,56.641,-316.895
1532486030.716,42.480,39.062,45.410,51.270,-584.473
1532486030.720,43.457,50.781,45.898,43.457,-732.422
1532486030.724,49.316,61.523,42.969,54.199,-96.191
1532486030.728,54.688,30.762,42.969,55.664,-2.441
1532486030.731,53.711,33.691,43.945,47.363,-505.371
1532486030.735,48.340,66.895,43.457,50.781,42.480
1532486030.739,48.828,57.617,43.457,56.641,205.078
1532486030.743,50.781,67.383,41.992,53.223,287.598
1532486030.747,51.270,62.500,43.457,47.852,788.574
1532486030.751,50.781,32.715,46.875,46.875,-227.051
1532486030.755,44.434,47.852,42.969,42.480,-829.590
1532486030.759,43.945,49.805,40.039,43.457,-695.801
1532486030.763,40.527,47.363,33.691,41.504,-292.969
1532486030.767,25.391,41.016,32.227,25.391,-91.797
1532486030.770,21.973,39.551,36.621,18.555,-631.348
1532486030.774,34.180,45.898,35.156,31.738,-624.023
1532486030.778,33.691,33.691,37.598,41.992,-488.281
1532486030.782,23.438,44.434,38.086,26.855,97.168
1532486030.786,25.391,57.617,38.086,20.020,851.074
1532486030.790,30.762,32.715,36.621,28.320,-8.789
1532486030.794,33.203,39.062,41.992,31.738,-580.078
1532486030.798,33.691,42.969,42.969,34.180,-585.938
1532486030.802,30.273,47.852,37.109,31.738,-574.707
1532486030.806,37.109,55.176,36.133,36.621,-116.699
1532486030.810,47.363,55.176,39.062,47.852,-368.164
1532486030.813,42.969,50.293,37.598,41.016,-478.516
1532486030.817,37.109,58.594,41.992,42.969,-603.027
1532486030.821,45.898,74.707,51.270,56.641,-554.688
1532486030.825,44.434,55.664,40.039,46.387,152.832
1532486030.829,37.598,50.781,37.109,39.062,365.234
1532486030.833,38.086,51.270,40.527,40.039,414.551
1532486030.837,37.598,36.133,39.062,35.156,-187.012
1532486030.841,41.016,51.270,36.133,43.945,-522.949
1532486030.845,40.527,79.102,36.621,41.016,682.129
1532486030.849,35.645,45.898,36.133,29.785,453.125
1532486030.852,32.227,47.852,29.785,21.484,-367.676
1532486030.856,40.527,55.176,35.645,24.902,-483.887
1532486030.860,45.898,51.270,38.574,41.504,-513.184
1532486030.864,37.598,55.176,35.645,33.691,238.770
1532486030.868,46.875,40.039,42.969,45.410,-232.422
1532486030.872,57.129,51.758,43.945,56.152,-754.395
1532486030.876,46.875,67.383,39.062,47.363,7.324
1532486030.880,39.551,54.688,41.992,44.434,296.387
1532486030.884,36.133,57.129,43.945,39.551,586.426
1532486030.888,41.016,43.457,43.945,35.156,652.832
1532486030.892,41.992,27.832,43.457,41.016,-376.953
1532486030.895,35.645,35.156,44.922,48.340,-595.703
1532486030.899,39.062,39.551,45.898,39.062,-654.785
1532486030.903,37.598,59.570,46.875,41.504,-308.594
1532486030.907,40.527,51.758,47.852,55.176,-175.293
1532486030.911,47.363,43.457,46.387,54.688,-493.164
1532486030.915,41.992,42.969,43.945,42.969,-470.215
1532486030.919,41.992,38.086,42.969,40.039,-700.684
1532486030.923,41.016,64.453,40.527,40.527,34.668
1532486030.927,34.668,56.641,32.227,46.387,887.207
1532486030.931,35.645,21.973,34.180,41.504,-53.223
1532486030.935,39.062,32.715,41.504,31.250,-717.285
1532486030.938,42.480,45.410,40.527,37.598,-797.363
1532486030.942,37.109,55.176,38.086,37.598,-461.426
1532486030.946,28.809,43.945,36.621,25.879,9.277
1532486030.950,27.832,41.016,38.086,27.344,-460.449
1532486030.954,30.762,49.316,34.180,29.785,-689.941
1532486030.958,35.156,50.781,28.320,33.691,-601.074
1532486030.962,35.156,49.316,32.715,35.156,-287.598
1532486030.966,32.227,41.504,34.668,34.668,91.797
1532486030.970,29.297,45.410,31.738,36.133,186.523
1532486030.974,33.203,45.898,32.715,41.992,219.238
1532486030.977,38.574,31.738,35.645,52.734,-289.551
1532486030.981,32.227,43.945,35.645,31.738,-306.641
1532486030.985,25.391,67.383,35.645,22.949,725.098
1532486030.989,25.879,32.227,40.527,39.062,228.516
1532486030.993,30.273,27.832,37.598,39.062,-517.578
1532486030.997,26.855,37.598,33.691,33.203,-524.902
1532486031.001,17.578,34.668,34.180,32.227,-528.320
1532486031.005,20.508,35.645,31.738,34.668,53.711
1532486031.009,27.344,28.809,36.621,39.551,-254.883
1532486031.013,18.066,35.645,39.551,38.086,-464.844
1532486031.017,8.789,54.688,38.574,30.273,46.387
1532486031.020,11.230,58.594,39.062,22.949,264.648
1532486031.024,11.719,60.059,37.598,17.090,780.273
1532486031.028,12.207,19.043,36.133,21.973,569.336
1532486031.032,18.555,13.672,41.992,31.250,-436.523
1532486031.036,30.273,45.898,46.875,29.785,-788.086
1532486031.040,19.531,33.203,31.250,21.973,-733.398
1532486031.044,6.348,33.691,23.438,13.672,59.570
1532486031.048,11.230,23.438,27.344,16.602,-84.961
1532486031.052,17.090,22.949,29.297,20.996,-679.199
1532486031.056,20.508,32.715,29.785,26.367,-636.719
1532486031.060,22.949,40.039,29.785,30.762,-571.289
1532486031.063,20.508,54.688,30.273,27.344,292.480
1532486031.067,23.438,34.668,32.715,19.531,714.355
1532486031.071,23.926,27.832,33.203,28.809,-283.203
1532486031.075,24.902,40.527,30.273,37.598,-567.871
1532486031.079,28.809,39.062,27.832,29.785,-510.254
1532486031.083,32.715,54.688,29.785,34.668,-127.441
1532486031.087,45.898,41.504,39.062,44.922,131.348
1532486031.091,39.062,32.715,41.504,30.273,-490.234
1532486031.095,14.160,46.387,42.480,23.926,-457.031
1532486031.099,10.742,48.340,44.922,28.320,-492.676
1532486031.102,18.555,56.152,42.969,22.461,-408.691
1532486031.106,24.902,48.828,41.016,34.180,-51.270
1532486031.110,22.949,51.270,39.062,41.016,175.293
1532486031.114,22.949,52.734,40.039,32.715,435.547
1532486031.118,27.344,31.250,41.504,27.344,-302.246
1532486031.122,29.297,42.480,38.574,19.043,-445.801
1532486031.126,33.203,54.688,36.133,23.926,648.926
1532486031.130,39.062,30.273,37.598,36.133,62.012
1532486031.134,29.297,42.480,38.086,30.762,-592.285
1532486031.138,31.250,45.410,37.598,29.785,-711.914
1532486031.142,44.434,43.457,35.645,33.203,-454.590
1532486031.145,39.551,53.711,32.715,30.273,650.391
1532486031.149,31.250,33.203,34.180,32.227,-1.953
1532486031.153,33.203,42.969,37.109,37.109,-737.793
1532486031.157,39.062,53.223,34.668,43.945,-147.949
1532486031.161,39.551,51.270,32.227,41.504,406.250
1532486031.165,30.273,57.617,35.156,32.715,892.578
1532486031.169,29.297,31.250,37.598,36.133,191.406
1532486031.173,36.133,34.180,37.109,39.062,-685.059
1532486031.177,38.574,41.992,36.621,49.316,-673.828
1532486031.181,34.180,41.504,36.621,44.922,-490.234
1532486031.184,42.969,58.594,45.410,39.551,69.824
1532486031.188,52.734,51.758,45.410,51.270,-392.090
1532486031.192,39.062,36.133,30.762,40.039,-629.883
1532486031.196,36.621,32.227,32.227,35.156,-432.129
1532486031.200,39.062,43.945,37.109,41.504,-607.422
1532486031.204,38.086,58.105,36.621,50.293,383.789
1532486031.208,48.340,31.250,39.062,54.688,522.949
1532486031.212,54.199,25.879,40.039,53.711,-386.230
1532486031.216,49.316,41.016,39.062,52.246,-545.898
1532486031.220,39.551,52.734,41.016,43.457,-752.441
1532486031.224,37.598,68.359,40.039,43.945,-34.668
1532486031.227,46.387,39.551,38.574,46.875,171.387
1532486031.231,38.086,33.203,37.598,35.645,-458.008
1532486031.235,26.855,45.898,35.156,31.738,-583.984
1532486031.239,34.668,46.875,33.691,40.039,-659.180
1532486031.243,43.457,56.641,33.691,34.668,-118.652
1532486031.247,34.668,47.852,35.156,31.250,91.309
1532486031.251,23.926,45.410,32.715,27.832,128.906
1532486031.255,33.691,43.457,31.250,22.949,234.375
1532486031.259,37.109,31.738,34.180,32.715,-412.598
1532486031.263,28.320,49.316,33.691,46.875,-96.191
1532486031.267,23.438,54.199,31.250,34.180,817.871
1532486031.270,22.949,21.973,33.691,32.227,-121.094
1532486031.274,29.297,28.809,35.645,37.109,-520.996
1532486031.278,27.832,33.203,34.668,30.762,-356.445
1532486031.282,24.902,41.504,34.180,31.738,-384.766
1532486031.286,27.832,42.480,34.180,36.133,-117.676
1532486031.290,24.902,40.039,35.645,38.574,-500.977
1532486031.294,23.926,49.316,35.645,41.504,-464.355
1532486031.298,22.949,48.828,31.738,32.715,11.230
1532486031.302,20.996,47.852,31.250,30.762,359.375
1532486031.306,22.461,56.641,35.156,38.574,822.754
1532486031.309,29.785,32.227,39.551,48.340,194.824
1532486031.313,28.320,28.320,41.992,37.109,-503.418
1532486031.317,25.391,42.480,42.969,27.832,-719.727
1532486031.321,32.715,46.387,43.945,42.480,-675.293
1532486031.325,37.109,38.574,42.969,49.316,25.391
1532486031.329,38.086,31.738,41.016,47.363,-236.816
1532486031.333,36.133,46.875,40.039,41.992,-561.035
1532486031.337,27.832,45.410,33.691,33.691,-678.711
1532486031.341,27.832,45.410,36.133,38.574,-581.055
1532486031.345,36.621,65.430,49.316,54.199,549.316
1532486031.349,30.273,47.852,40.527,44.922,411.133
1532486031.352,19.531,40.039,30.762,20.508,-497.559
1532486031.356,25.879,35.645,36.621,16.602,-583.008
1532486031.360,31.738,39.551,38.574,30.762,-439.453
1532486031.364,26.367,66.895,37.598,32.227,553.223
1532486031.368,28.320,36.621,39.551,30.273,371.094
1532486031.372,29.785,33.691,37.109,35.156,-602.539
1532486031.376,31.250,48.828,36.133,41.016,-541.992
1532486031.380,37.109,43.457,39.551,49.805,-423.828
1532486031.384,29.785,53.223,38.574,44.434,83.008
1532486031.388,24.902,47.852,39.062,39.551,-155.762
1532486031.392,28.320,59.570,41.992,53.223,-88.379
1532486031.395,31.250,54.199,41.016,49.805,488.770
1532486031.399,30.273,31.738,39.551,35.156,-256.348
1532486031.403,26.855,64.941,39.062,31.250,-29.785
1532486031.407,29.785,58.594,38.086,31.738,826.660
1532486031.411,33.691,24.902,40.039,38.574,-85.449
1532486031.415,30.273,38.574,40.039,45.410,-570.801
1532486031.419,30.762,41.016,40.039,40.039,-722.656
1532486031.423,38.574,54.688,36.133,31.250,-449.219
1532486031.427,41.504,50.781,37.598,46.875,7.812
1532486031.431,33.691,34.180,40.039,51.270,-380.859
1532486031.434,32.715,47.852,34.180,37.109,-560.547
1532486031.438,42.480,55.664,36.621,38.574,-172.363
1532486031.442,40.039,60.547,42.480,35.156,400.879
1532486031.446,44.434,69.824,53.223,33.691,844.727
1532486031.450,37.598,39.062,53.711,48.340,-7.812
1532486031.454,19.531,33.691,40.039,31.250,-758.301
1532486031.458,23.926,45.410,40.527,24.902,-705.078
1532486031.462,31.250,43.945,44.434,37.598,-389.160
1532486031.466,35.645,38.086,44.922,37.598,3.906
1532486031.470,29.297,43.457,43.945,32.227,-526.855
1532486031.474,41.504,52.734,40.527,33.691,-646.973
1532486031.477,47.363,45.898,41.992,41.504,-479.004
1532486031.481,35.645,47.363,41.504,36.621,-317.383
1532486031.485,34.668,58.594,41.992,30.762,378.906
1532486031.489,36.133,61.523,45.410,37.598,433.105
1532486031.493,38.086,56.152,44.434,48.340,288.574
1532486031.497,51.270,47.852,51.758,48.340,-204.590
1532486031.501,46.875,65.430,53.223,46.875,-495.117
1532486031.505,29.785,72.754,36.133,33.691,636.230
1532486031.509,48.340,26.367,36.621,49.805,473.145
1532486031.513,53.223,28.320,41.992,60.059,-418.457
1532486031.517,30.762,44.434,40.527,29.297,-621.094
1532486031.520,24.414,49.805,37.598,29.297,-665.527
1532486031.524,38.574,58.105,32.715,51.758,92.285
1532486031.528,49.316,45.410,33.203,49.805,-85.449
1532486031.532,32.227,57.617,33.203,31.738,-14.160
1532486031.536,23.926,53.223,31.250,25.391,331.055
1532486031.540,35.645,42.480,32.715,37.109,-363.770
1532486031.544,37.598,67.383,34.180,45.898,344.727
1532486031.548,29.785,37.598,35.156,41.504,757.812
1532486031.552,26.367,27.344,33.203,34.180,-484.863
1532486031.556,33.203,46.387,29.785,28.320,-814.453
1532486031.559,51.270,52.734,38.574,49.316,-655.273
1532486031.563,50.781,68.359,41.504,58.594,-79.590
1532486031.567,29.785,43.945,29.297,26.855,-133.301
1532486031.571,32.715,38.086,28.320,15.625,-730.957
1532486031.575,41.016,53.711,31.250,26.855,-548.340
1532486031.579,38.086,57.129,34.180,38.574,-102.051
1532486031.583,36.133,65.430,35.645,34.668,460.938
1532486031.587,37.109,57.129,39.551,22.949,806.152
1532486031.591,40.039,35.156,41.992,43.945,-174.316
1532486031.595,40.527,46.387,41.016,54.688,-600.586
1532486031.599,41.992,47.852,41.992,46.387,-601.074
1532486031.602,40.039,49.805,39.062,44.434,-535.156
1532486031.606,39.551,48.340,38.086,38.086,-188.477
1532486031.610,48.340,52.734,38.574,42.480,-430.664
1532486031.614,41.504,57.129,32.715,41.016,-458.008
1532486031.618,32.227,53.223,36.133,34.180,-627.441
1532486031.622,38.574,58.594,40.039,45.898,-551.758
1532486031.626,38.574,57.129,35.645,53.711,395.508
1532486031.630,43.945,53.711,44.434,53.711,520.020
1532486031.634,50.293,50.293,53.711,44.434,-177.246
1532486031.638,30.762,28.320,34.668,23.926,-685.547
1532486031.641,27.832,39.062,27.344,38.574,-426.758
1532486031.645,36.133,54.199,32.715,48.828,726.074
1532486031.649,32.227,13.184,33.203,41.992,248.535
1532486031.653,25.391,21.973,34.180,34.668,-673.828
1532486031.657,32.227,41.992,36.133,36.133,-712.891
1532486031.661,33.203,36.621,37.598,39.062,-382.324
1532486031.665,27.832,25.391,39.551,28.320,186.523
1532486031.669,22.461,30.762,36.621,23.926,-364.746
1532486031.673,17.578,54.199,33.203,24.414,-119.141
1532486031.677,34.180,45.410,43.457,46.875,155.762
1532486031.681,31.738,40.527,39.062,48.340,-336.426
1532486031.684,7.812,53.223,22.949,11.230,608.887
1532486031.688,4.395,19.043,25.879,-0.977,511.230
1532486031.692,7.812,20.020,31.250,13.672,-513.672
1532486031.696,5.371,39.551,33.203,16.113,-398.926
1532486031.700,2.930,41.992,34.668,5.371,-442.871
1532486031.704,10.254,55.664,36.133,11.230,-17.578
1532486031.708,18.066,40.527,38.574,30.762,-158.203
1532486031.712,4.395,35.645,41.504,14.648,-537.598
1532486031.716,-25.391,44.922,42.969,-23.926,-414.551
1532486031.720,-34.668,52.246,43.457,-26.367,-121.094
1532486031.724,-33.691,71.289,53.711,-24.414,574.707
1532486031.727,-37.598,46.387,62.500,-32.715,768.555
1532486031.731,-53.711,8.301,50.781,-48.340,-202.148
1532486031.735,-57.129,29.297,51.758,-66.895,-710.449
1532486031.739,-50.293,46.875,60.059,-68.848,-769.531
1532486031.743,-72.754,42.480,48.340,-74.219,-242.188
1532486031.747,-80.078,23.926,50.293,-77.148,24.414
1532486031.751,-83.008,28.320,56.641,-90.820,-542.480
1532486031.755,-84.961,41.016,56.641,-93.750,-633.301
1532486031.759,-86.426,36.621,56.641,-85.449,-589.355
1532486031.763,-98.633,43.457,51.758,-87.402,-160.156
1532486031.766,-96.191,42.480,54.199,-90.332,585.938
1532486031.770,-95.703,34.668,55.664,-90.820,453.613
1532486031.774,-86.426,40.527,51.270,-92.285,-49.805
1532486031.778,-80.566,31.250,55.664,-70.801,-448.730
1532486031.782,-78.125,55.176,64.941,-62.988,-250.000
1532486031.786,-63.477,86.914,67.383,-70.801,729.492
1532486031.790,-54.199,41.992,50.781,-54.199,88.379
1532486031.794,-51.758,29.785,45.410,-39.551,-562.500
1532486031.798,-41.504,35.156,50.293,-42.480,-536.621
1532486031.802,-28.320,44.434,46.875,-30.762,-506.348
1532486031.806,-20.508,41.504,41.016,-8.301,-64.941
1532486031.809,-1.465,41.016,33.691,-0.488,-351.562
1532486031.813,9.766,56.641,30.762,3.418,47.852
1532486031.817,-1.465,41.016,29.297,7.324,260.254
1532486031.821,19.531,41.992,35.645,26.855,-284.668
1532486031.825,31.738,64.941,27.344,25.391,616.211
1532486031.829,30.762,21.973,16.602,35.156,392.578
1532486031.833,44.434,19.531,16.602,63.477,-622.559
1532486031.837,50.293,38.574,13.672,57.617,-847.656
1532486031.841,61.523,37.598,17.090,57.617,-697.754
1532486031.845,71.289,33.203,17.090,64.453,104.492
1532486031.849,66.406,19.531,16.602,62.500,-229.492
1532486031.852,67.871,29.785,12.695,66.895,-746.094
1532486031.856,79.102,35.156,6.348,77.148,-699.707
1532486031.860,81.543,39.062,16.113,84.961,-86.914
1532486031.864,87.891,40.527,25.391,88.867,695.312
1532486031.868,89.844,19.531,25.391,92.773,-48.340
1532486031.872,82.031,24.414,23.438,91.797,-702.637
1532486031.876,87.402,31.738,20.020,93.262,-471.191
1532486031.880,91.797,26.367,13.184,104.004,-500.000
1532486031.884,81.543,50.293,4.883,102.539,277.832
1532486031.888,88.379,27.832,13.184,93.750,498.535
1532486031.891,101.074,20.020,20.996,96.680,-445.801
1532486031.895,99.609,37.598,20.508,95.215,-462.891
1532486031.899,102.051,40.527,27.344,92.285,-554.688
1532486031.903,93.750,53.711,20.020,92.285,-225.586
1532486031.907,81.055,37.109,7.324,86.426,393.555
1532486031.911,82.031,30.762,9.766,89.355,402.832
1532486031.915,83.008,30.762,12.695,83.496,413.574
1532486031.919,81.055,20.996,15.137,75.195,-386.719
1532486031.923,78.613,49.316,14.160,77.148,-344.727
1532486031.927,78.613,55.664,12.207,76.172,800.293
1532486031.931,77.637,17.578,16.602,82.520,27.344
1532486031.934,73.730,25.879,24.414,77.637,-717.285
1532486031.938,73.242,38.086,28.809,63.477,-786.133
1532486031.942,79.590,44.922,26.855,72.754,-470.215
1532486031.946,79.102,40.527,25.391,81.543,9.277
1532486031.950,71.777,41.016,30.273,78.125,-447.266
1532486031.954,74.707,59.082,33.203,76.172,-154.297
1532486031.958,77.148,41.992,28.809,75.684,166.992
1532486031.962,72.754,41.016,25.879,85.449,-55.176
1532486031.966,65.430,65.430,29.297,69.824,708.496
1532486031.970,64.453,36.133,32.715,64.453,67.871
1532486031.973,71.289,29.297,31.250,78.613,-770.996
1532486031.977,64.941,41.016,30.273,79.590,-647.461
1532486031.981,55.176,47.363,28.809,65.430,-439.453
1532486031.985,54.688,43.945,26.367,55.664,-15.625
1532486031.989,58.105,41.016,27.832,64.941,-481.934
1532486031.993,57.617,44.922,30.273,65.918,-593.750
1532486031.997,51.758,38.086,30.273,56.641,-448.730
1532486032.001,51.270,43.945,27.344,43.457,-60.059
1532486032.005,52.734,54.688,25.879,33.691,846.680
1532486032.009,47.363,33.691,24.414,44.434,388.672
1532486032.013,49.316,32.715,25.391,57.617,-457.520
1532486032.016,45.898,41.992,30.273,47.363,-684.570
1532486032.020,40.039,49.316,30.762,20.996,-746.582
1532486032.024,38.086,57.617,32.227,21.484,-4.395
1532486032.028,37.109,41.992,32.227,35.645,-149.414
1532486032.032,31.738,38.086,26.367,35.156,-578.613
1532486032.036,29.297,39.551,25.879,31.738,-644.043
1532486032.040,34.668,41.992,27.832,33.203,-681.152
1532486032.044,27.344,52.734,30.762,37.109,106.445
1532486032.048,28.809,48.828,36.621,34.180,493.652
1532486032.052,38.574,36.621,37.109,25.391,287.598
1532486032.056,43.945,30.273,31.250,27.832,-138.672
1532486032.059,39.062,33.203,31.738,37.109,-600.586
1532486032.063,24.902,59.082,32.715,35.156,176.758
1532486032.067,28.809,42.480,32.715,38.086,791.504
1532486032.071,39.551,18.555,34.180,49.805,-350.098
1532486032.075,38.574,38.574,31.738,49.316,-693.359
1532486032.079,32.227,40.527,32.715,42.969,-530.762
1532486032.083,33.203,48.828,35.645,26.855,-250.000
1532486032.087,40.527,43.945,33.691,10.254,-173.828
1532486032.091,41.992,42.969,33.203,23.926,-599.121
1532486032.095,41.016,54.199,34.180,48.340,53.223
1532486032.098,35.645,37.598,34.668,27.832,265.137
1532486032.102,34.668,47.363,35.645,24.902,-79.590
1532486032.106,40.039,61.523,36.133,43.457,692.383
1532486032.110,41.504,27.344,36.133,45.898,131.836
1532486032.114,43.945,31.250,36.133,37.109,-615.234
1532486032.118,36.621,49.805,38.086,23.926,-584.961
1532486032.122,34.668,51.270,39.062,24.902,-469.238
1532486032.126,33.203,36.133,39.551,37.598,-75.195
1532486032.130,34.668,27.832,43.457,48.828,-310.547
1532486032.134,40.039,42.969,46.387,44.922,-581.055
1532486032.138,27.832,41.016,37.109,30.762,-701.660
1532486032.141,21.973,48.340,31.250,39.062,-95.703
1532486032.145,23.926,48.828,32.227,39.551,883.301
1532486032.149,27.344,19.531,37.598,22.949,174.805
1532486032.153,25.879,28.809,37.598,22.461,-704.590
1532486032.157,29.297,41.016,35.645,38.574,-780.762
1532486032.161,31.738,41.992,37.598,51.270,-477.539
1532486032.165,32.227,45.898,39.551,48.340,139.160
1532486032.169,29.785,45.410,38.574,36.621,-396.973
1532486032.173,26.855,50.293,37.598,31.738,-720.703
1532486032.177,29.297,49.316,40.527,34.668,-518.066
1532486032.181,28.809,53.223,40.039,30.273,-367.676
1532486032.184,26.367,56.152,39.062,26.855,198.730
1532486032.188,24.414,55.664,44.434,30.762,343.262
1532486032.192,33.203,54.688,42.480,34.668,286.621
1532486032.196,36.621,29.785,41.992,40.527,-108.887
1532486032.200,31.250,38.574,44.434,47.852,-551.758
1532486032.204,26.855,83.496,41.016,41.992,391.113
1532486032.208,33.691,49.316,41.016,38.086,724.121
1532486032.212,40.527,26.855,45.410,46.387,-272.949
1532486032.216,44.922,45.410,47.852,34.180,-556.152
1532486032.220,44.434,51.758,45.410,23.438,-712.891
1532486032.223,43.457,66.895,42.969,40.039,-163.086
1532486032.227,45.898,50.781,48.828,51.758,-8.301
1532486032.231,34.180,41.504,46.875,47.363,-462.891
1532486032.235,30.273,56.641,41.992,38.574,34.180
1532486032.239,39.551,49.316,45.898,37.109,163.086
1532486032.243,42.969,55.176,45.410,45.410,207.520
1532486032.247,38.086,49.805,47.363,44.922,788.086
1532486032.251,39.062,24.414,42.969,42.969,-164.062
1532486032.255,43.945,37.598,36.133,42.480,-818.359
1532486032.259,43.945,42.969,41.992,54.688,-696.289
1532486032.263,41.992,50.781,47.363,48.828,-314.941
1532486032.266,36.621,46.387,55.664,42.969,-77.148
1532486032.270,16.602,36.133,42.969,32.715,-605.957
1532486032.274,16.113,38.086,32.227,26.855,-629.883
1532486032.278,32.227,35.645,38.574,46.387,-467.773
1532486032.282,34.180,51.758,40.527,40.039,84.961
1532486032.286,32.227,61.035,39.062,22.461,842.773
1532486032.290,44.434,30.762,39.062,37.598,18.555
1532486032.294,45.410,33.203,44.434,50.293,-578.125
1532486032.298,39.062,39.062,44.434,54.199,-562.988
1532486032.302,35.156,42.480,38.086,42.969,-537.109
1532486032.306,38.574,43.945,38.086,41.016,-98.633
1532486032.309,43.945,40.527,41.016,54.199,-373.535
1532486032.313,43.457,38.086,39.551,43.457,-466.309
1532486032.317,41.992,44.922,36.133,30.762,-561.035
1532486032.321,34.668,53.711,33.203,31.738,-542.969
1532486032.325,32.227,43.945,27.832,39.062,123.047
1532486032.329,32.715,47.363,30.762,40.039,361.816
1532486032.333,29.785,50.781,38.086,31.250,365.723
1532486032.337,32.227,39.062,40.039,26.367,-289.062
1532486032.341,35.156,48.828,37.598,22.949,-583.496
1532486032.345,36.621,62.988,33.203,24.902,648.926
1532486032.348,38.086,27.344,39.551,28.320,542.480
1532486032.352,37.598,25.391,40.039,37.598,-563.965
1532486032.356,38.574,41.016,34.180,38.574,-737.305
1532486032.360,34.668,46.875,35.645,37.598,-519.043
1532486032.364,26.855,54.199,38.574,42.969,220.703
1532486032.368,23.438,38.086,36.621,41.504,-175.293
1532486032.372,27.344,41.504,33.691,33.203,-708.008
1532486032.376,23.926,52.734,34.180,34.180,31.250
1532486032.380,13.672,39.062,31.738,32.227,280.762
1532486032.384,8.789,52.734,31.250,16.602,520.996
1532486032.388,16.602,36.133,34.180,11.230,689.941
1532486032.391,28.320,14.160,38.086,22.461,-324.219
1532486032.395,33.203,34.668,39.551,22.949,-568.359
1532486032.399,29.785,41.992,38.086,31.250,-600.098
1532486032.403,28.320,56.641,42.480,34.668,-333.008
1532486032.407,40.527,41.016,42.480,37.109,-177.246
1532486032.411,34.668,30.762,36.621,43.457,-465.332
1532486032.415,28.320,40.527,35.156,41.504,-431.152
1532486032.419,33.691,46.387,35.645,26.855,-649.902
1532486032.423,36.133,66.895,34.668,17.090,-12.695
1532486032.427,38.574,65.430,36.133,21.484,869.141
1532486032.430,35.645,27.344,38.086,29.297,14.160
1532486032.434,32.715,32.715,37.598,30.273,-672.852
1532486032.438,35.156,48.828,38.574,26.855,-776.855
1532486032.442,33.691,52.246,36.621,39.062,-489.746
1532486032.446,29.297,41.504,38.086,36.621,18.066
1532486032.450,26.855,39.062,39.551,24.414,-400.879
1532486032.454,22.461,47.363,35.156,24.902,-661.621
1532486032.458,29.785,52.246,33.203,31.250,-596.191
1532486032.462,31.738,52.246,35.645,34.668,-283.691
1532486032.466,19.043,42.480,36.621,26.855,126.465
1532486032.470,24.414,51.270,36.621,23.926,196.777
1532486032.473,35.156,52.246,35.645,30.762,182.129
1532486032.477,32.715,37.598,34.180,37.109,-290.527
1532486032.481,20.508,48.340,29.297,31.250,-294.434
1532486032.485,12.207,72.754,29.785,25.391,723.633
1532486032.489,20.508,27.832,35.645,26.367,261.719
1532486032.493,22.949,18.555,31.738,20.996,-507.324
1532486032.497,23.438,44.434,30.273,18.066,-491.211
1532486032.501,20.020,43.945,32.715,19.043,-484.375
1532486032.505,11.719,43.457,28.809,14.160,76.172
1532486032.509,28.320,43.945,29.297,27.832,-249.023
1532486032.513,25.879,45.898,33.203,33.203,-448.730
1532486032.516,21.484,41.504,35.645,35.156,78.125
1532486032.520,26.367,41.504,33.691,37.109,-14.160
1532486032.524,23.438,67.383,29.297,31.250,552.246
1532486032.528,26.367,33.691,30.273,19.531,669.922
1532486032.532,20.996,16.113,30.762,18.555,-364.746
1532486032.536,20.508,40.039,31.250,21.973,-738.281
1532486032.540,22.949,54.688,30.273,22.949,-571.289
1532486032.544,25.879,57.129,24.414,20.020,138.184
1532486032.548,26.367,32.715,30.762,18.555,-66.406
1532486032.552,26.855,34.180,38.574,16.602,-614.746
1532486032.555,32.715,41.016,34.180,18.555,-612.793
1532486032.559,26.367,34.668,33.203,20.996,-596.680
1532486032.563,25.879,52.246,35.645,27.832,289.062
1532486032.567,22.949,41.504,33.691,30.762,821.289
1532486032.571,22.949,22.949,31.738,26.367,-336.426
1532486032.575,30.273,45.898,35.156,32.715,-680.664
1532486032.579,31.738,38.086,36.133,42.480,-525.879
1532486032.583,31.250,39.062,33.691,37.598,-261.230
1532486032.587,32.227,44.434,32.227,25.391,-168.457
1532486032.591,42.480,47.363,36.133,32.715,-589.355
1532486032.595,58.594,50.781,38.574,41.504,-449.219
1532486032.598,40.527,35.156,41.504,31.250,-453.613
1532486032.602,13.672,35.156,45.410,9.766,-389.160
1532486032.606,15.625,32.715,45.898,11.230,-56.152
1532486032.610,25.879,41.016,45.898,23.926,234.375
1532486032.614,21.973,35.156,47.363,32.227,330.566
1532486032.618,20.020,21.484,49.805,35.156,-406.250
1532486032.622,23.438,47.363,49.316,27.344,-455.078
1532486032.626,20.996,68.359,46.875,33.203,722.168
1532486032.630,24.414,30.273,50.293,51.270,292.480
1532486032.634,21.973,25.391,47.852,24.902,-539.551
1532486032.638,26.367,40.039,43.457,18.066,-711.426
1532486032.641,27.344,37.109,47.852,32.715,-503.418
1532486032.645,19.043,31.738,48.828,40.527,179.688
1532486032.649,20.020,26.367,43.945,40.527,-245.117
1532486032.653,17.090,41.992,41.016,25.879,-604.492
1532486032.657,17.090,51.758,37.109,27.832,-74.707
1532486032.661,25.391,54.199,33.691,35.156,395.020
1532486032.665,20.020,59.570,35.156,27.832,877.441
1532486032.669,18.555,21.973,36.133,12.695,288.086
1532486032.673,25.879,22.949,35.156,15.625,-628.418
1532486032.677,25.879,34.180,35.645,29.297,-645.508
1532486032.680,26.367,37.598,36.621,26.855,-441.406
1532486032.684,23.438,48.828,37.598,16.113,127.441
1532486032.688,23.926,35.156,35.156,20.508,-329.102
1532486032.692,25.879,33.203,32.715,32.227,-623.535
1532486032.696,27.344,26.367,32.227,33.691,-382.812
1532486032.700,29.785,28.320,33.203,29.297,-533.691
1532486032.704,26.855,55.176,35.156,27.832,362.793
1532486032.708,30.762,29.785,36.133,33.203,540.039
1532486032.712,33.203,22.949,34.180,44.434,-345.215
1532486032.716,25.879,38.086,31.738,37.109,-479.004
1532486032.720,23.926,38.086,32.715,15.137,-692.383
1532486032.723,22.949,58.105,33.203,22.949,-104.492
1532486032.727,24.902,38.086,35.645,42.480,162.598
1532486032.731,18.066,24.902,37.598,39.062,-395.508
1532486032.735,18.066,36.621,36.133,32.715,-527.832
1532486032.739,26.855,37.598,35.645,29.785,-650.879
1532486032.743,26.367,47.852,37.109,31.250,-166.504
1532486032.747,24.414,41.504,36.133,27.832,130.859
1532486032.751,18.555,39.062,35.645,20.508,160.156
1532486032.755,21.973,39.062,35.645,24.902,308.105
1532486032.759,26.367,33.691,32.715,26.367,-321.777
1532486032.762,16.602,52.734,29.297,16.602,-125.977
1532486032.766,15.625,61.523,30.273,8.789,820.801
1532486032.770,24.414,23.438,34.180,19.531,-40.039
1532486032.774,27.832,22.461,33.203,28.809,-665.039
1532486032.778,33.203,32.227,32.715,30.273,-486.816
1532486032.782,26.367,30.762,31.738,26.367,-327.148
1532486032.786,16.602,30.273,30.762,15.137,-67.383
1532486032.790,25.391,34.668,32.715,20.508,-480.957
1532486032.794,30.762,43.457,33.203,35.156,-450.195
1532486032.798,26.367,42.480,31.250,29.297,70.801
1532486032.802,18.555,47.852,34.180,17.090,412.109
1532486032.805,20.508,56.152,32.715,18.066,846.680
1532486032.809,34.668,20.508,30.273,29.785,216.309
1532486032.813,22.949,16.602,34.668,42.969,-455.078
1532486032.817,10.254,36.133,37.598,28.809,-637.207
1532486032.821,23.926,41.504,37.109,15.137,-624.023
1532486032.825,27.832,30.762,32.715,22.949,34.180
1532486032.829,26.855,31.738,34.668,34.180,-215.332
1532486032.833,29.297,47.852,37.598,31.250,-512.695
1532486032.837,26.855,47.363,36.133,27.832,-626.953
1532486032.841,32.227,48.340,34.180,32.715,-597.656
1532486032.845,37.109,58.105,32.227,29.297,533.203
1532486032.848,39.551,34.668,37.109,31.738,477.051
1532486032.852,43.945,34.180,40.527,40.039,-445.312
1532486032.856,43.945,48.340,34.668,22.461,-573.730
1532486032.860,25.391,49.805,32.227,8.789,-468.750
1532486032.864,15.137,53.223,30.762,8.301,526.367
1532486032.868,31.250,26.367,27.832,18.555,443.359
1532486032.872,36.133,36.621,27.832,24.414,-569.336
1532486032.876,30.273,48.340,26.855,26.855,-560.547
1532486032.880,28.809,43.457,30.273,26.367,-400.879
1532486032.884,20.996,53.711,32.715,17.578,63.965
1532486032.887,22.461,44.434,32.715,19.043,-125.000
1532486032.891,29.785,54.199,31.738,32.715,15.137
1532486032.895,33.203,41.504,34.668,39.062,375.488
1532486032.899,35.156,24.902,35.645,35.645,-395.020
1532486032.903,27.344,64.941,32.715,32.715,-63.477
1532486032.907,33.203,62.012,34.668,34.668,819.824
1532486032.911,36.621,31.250,35.645,44.922,-48.340
1532486032.915,29.785,33.203,35.645,41.504,-527.344
1532486032.919,26.367,41.992,37.109,27.344,-663.574
1532486032.923,32.715,57.617,34.180,29.297,-485.352
1532486032.927,41.992,44.922,34.668,34.668,-25.391
1532486032.930,37.109,36.621,34.180,24.414,-346.191
1532486032.934,30.273,46.875,32.227,17.090,-519.043
1532486032.938,36.133,53.711,34.180,27.832,-155.762
1532486032.942,40.039,62.988,35.156,36.621,368.652
1532486032.946,31.738,66.895,33.691,36.621,841.797
1532486032.950,32.227,36.133,34.668,33.203,65.430
1532486032.954,34.180,31.250,36.621,34.180,-743.652
1532486032.958,35.645,56.641,35.156,38.086,-749.023
1532486032.962,37.109,68.848,31.738,37.598,-279.785
1532486032.966,26.367,47.852,32.715,28.320,100.098
1532486032.970,19.531,47.363,31.738,22.949,-505.371
1532486032.973,29.297,59.570,27.344,32.227,-645.508
1532486032.977,32.715,49.316,29.785,36.133,-494.141
1532486032.981,29.297,45.898,33.203,25.391,-317.383
1532486032.985,25.879,58.594,32.715,25.391,430.176
1532486032.989,28.320,51.758,34.668,30.762,464.355
1532486032.993,33.691,36.133,36.133,41.504,-40.527
1532486032.997,33.691,34.180,36.621,46.875,-360.352
1532486033.001,31.738,48.828,34.180,33.203,-437.988
1532486033.005,31.738,77.637,34.180,29.297,607.910
1532486033.009,40.527,41.016,36.133,34.668,509.766
1532486033.012,39.551,27.344,40.039,41.992,-387.695
1532486033.016,27.344,41.016,42.480,36.133,-576.172
1532486033.020,32.227,49.805,41.016,27.344,-652.344
1532486033.024,39.062,51.270,43.945,33.203,53.711
1532486033.028,34.668,28.320,47.852,42.480,-85.449
1532486033.032,26.855,51.270,44.922,50.293,-21.484
1532486033.036,26.855,57.129,44.922,42.969,327.637
1532486033.040,31.738,35.645,39.551,32.715,-404.297
1532486033.044,34.180,60.059,35.156,38.086,230.957
1532486033.048,30.273,33.203,39.551,29.297,791.504
1532486033.052,20.996,20.020,41.504,19.531,-400.391
1532486033.055,16.602,43.945,41.016,20.020,-809.082
1532486033.059,22.461,43.457,41.992,21.973,-686.523
1532486033.063,27.832,45.410,43.457,40.039,-135.254
1532486033.067,30.273,31.250,44.922,35.645,-95.215
1532486033.071,25.391,43.945,41.992,28.320,-688.477
1532486033.075,34.668,56.152,40.527,43.457,-562.500
1532486033.079,42.969,43.945,42.480,47.363,-44.434
1532486033.083,30.762,54.688,44.434,38.086,471.191
1532486033.087,22.461,58.105,42.969,15.137,796.387
1532486033.091,29.297,40.039,40.527,13.184,-154.785
1532486033.095,37.109,42.969,44.434,22.461,-607.422
1532486033.098,33.691,38.086,46.387,21.973,-562.500
1532486033.102,21.973,48.340,42.480,28.320,-522.949
1532486033.106,24.414,48.828,41.992,42.969,-210.449
1532486033.110,30.762,44.434,40.039,33.691,-443.848
1532486033.114,23.438,45.898,38.086,18.066,-439.941
1532486033.118,22.949,48.340,38.086,12.207,-584.961
1532486033.122,30.762,53.223,32.227,17.090,-561.523
1532486033.126,35.156,55.664,33.203,27.832,347.168
1532486033.130,35.156,48.828,42.480,30.273,496.582
1532486033.134,31.738,34.180,41.992,28.809,-138.184
1532486033.137,30.762,35.645,39.551,24.902,-643.066
1532486033.141,32.715,59.570,37.598,24.902,-455.078
1532486033.145,33.203,70.801,38.086,32.227,714.844
1532486033.149,32.715,34.180,41.992,38.574,311.523
1532486033.153,22.949,33.203,40.039,31.738,-639.160
1532486033.157,25.879,42.480,37.109,22.949,-735.352
1532486033.161,22.461,42.480,39.551,34.668,-419.434
1532486033.165,17.090,40.527,41.992,33.203,223.145
1532486033.169,21.484,36.621,38.086,24.414,-300.293
1532486033.173,19.531,47.363,37.109,30.273,-154.785
1532486033.177,16.602,38.086,38.574,39.062,353.027
1532486033.180,10.254,39.062,36.621,36.133,-89.844
1532486033.184,19.043,78.613,38.574,28.809,599.121
1532486033.188,28.320,39.062,38.574,24.414,544.922
1532486033.192,26.855,19.531,34.668,24.414,-512.695
1532486033.196,29.297,40.527,35.645,37.598,-562.012
1532486033.200,30.273,48.828,37.109,40.039,-563.965
1532486033.204,29.297,62.012,33.203,26.367,-54.199
1532486033.208,32.715,47.852,34.668,30.273,-188.477
1532486033.212,27.832,50.781,36.621,33.691,-535.156
1532486033.216,24.902,53.711,36.621,26.855,-395.020
1532486033.219,28.320,53.711,37.109,23.438,-188.477
1532486033.223,31.738,70.801,36.133,22.461,499.512
1532486033.227,32.227,50.781,37.109,25.879,794.922
1532486033.231,31.738,28.320,38.574,30.273,-166.016
1532486033.235,32.227,51.758,40.039,13.672,-695.312
1532486033.239,39.551,48.340,39.062,14.648,-797.363
1532486033.243,42.969,61.035,40.527,36.133,-358.398
1532486033.247,34.180,55.664,43.945,40.039,-15.625
1532486033.251,32.227,44.434,45.410,29.785,-509.277
1532486033.255,38.086,53.223,43.945,31.250,-648.926
1532486033.259,42.480,54.688,43.457,43.457,-624.023
1532486033.262,41.504,57.617,40.039,47.852,-239.746
1532486033.266,40.527,55.176,35.156,42.969,454.102
1532486033.270,38.574,51.758,39.551,38.086,292.969
1532486033.274,41.992,45.410,42.969,50.781,-214.844
1532486033.278,47.852,40.039,45.898,48.340,-475.586
1532486033.282,40.039,57.617,46.875,38.574,-232.910
1532486033.286,32.715,75.684,42.480,21.484,722.168
1532486033.290,45.898,43.945,42.969,20.508,95.703
1532486033.294,44.434,42.969,41.504,34.668,-574.219
1532486033.298,35.156,50.293,39.062,36.621,-505.859
1532486033.302,31.738,51.270,37.598,31.738,-452.148
1532486033.305,27.832,46.875,35.645,33.203,-41.016
1532486033.309,31.250,42.969,37.109,42.480,-364.746
1532486033.313,30.273,54.688,41.016,49.316,10.742
1532486033.317,28.320,45.898,43.457,40.527,293.945
1532486033.321,30.762,46.387,42.480,32.715,-253.906
1532486033.325,38.574,73.242,36.133,28.320,603.027
1532486033.329,51.270,32.715,39.551,31.250,473.633
1532486033.333,41.992,25.391,43.945,33.691,-512.695
1532486033.337,27.832,49.316,40.039,28.809,-765.137
1532486033.341,32.715,66.406,35.156,24.414,-671.875
1532486033.344,43.457,69.824,37.109,33.691,134.277
1532486033.348,36.621,43.945,41.016,32.715,-128.418
1532486033.352,28.320,48.340,39.551,27.832,-670.898
1532486033.356,30.762,56.152,38.574,30.273,-607.422
1532486033.360,26.855,58.105,41.992,41.992,-134.277
1532486033.364,24.414,63.965,43.945,38.086,770.020
1532486033.368,25.879,38.574,43.457,26.855,742.188
1532486033.372,22.949,24.414,45.410,36.621,-442.383
1532486033.376,22.949,36.133,47.852,44.434,-723.633
1532486033.380,29.297,33.691,42.480,43.945,-536.621
1532486033.384,26.855,53.711,42.480,34.180,-104.492
1532486033.387,21.973,47.363,43.457,25.391,-267.090
1532486033.391,29.785,44.434,42.480,37.109,-671.387
1532486033.395,37.109,52.246,46.387,47.363,-422.852
1532486033.399,31.250,48.340,46.387,38.086,-520.020
1532486033.403,25.391,58.594,41.992,21.973,-238.281
1532486033.407,34.180,57.617,44.434,18.555,387.207
1532486033.411,38.086,49.316,45.898,31.250,378.418
1532486033.415,42.480,43.457,44.434,34.668,23.926
1532486033.419,45.898,45.898,44.434,32.227,-611.328
1532486033.423,42.480,67.871,40.039,30.273,-342.773
1532486033.427,41.504,65.918,35.645,26.367,770.508
1532486033.430,40.527,27.832,39.551,38.574,107.422
1532486033.434,38.086,32.715,41.504,46.875,-625.000
1532486033.438,32.227,51.758,35.645,39.551,-732.910
1532486033.442,25.391,61.035,30.273,37.109,-489.746
1532486033.446,28.809,40.039,38.086,44.922,33.691
1532486033.450,29.297,32.715,42.480,43.945,-366.211
1532486033.454,23.438,58.594,41.016,32.715,-107.910
1532486033.458,31.250,51.758,39.062,29.297,186.035
1532486033.462,35.645,50.293,38.574,34.180,-43.457
1532486033.466,26.367,67.383,41.016,32.227,714.355
1532486033.469,31.738,32.715,41.504,27.344,118.164
1532486033.473,35.645,34.180,37.109,37.598,-751.465
1532486033.477,29.297,50.781,39.062,46.387,-647.949
1532486033.481,30.273,47.363,41.016,36.133,-410.156
1532486033.485,35.645,38.574,38.574,33.691,35.645
1532486033.489,30.762,31.250,40.527,41.504,-458.496
1532486033.493,31.738,45.898,40.527,29.785,-609.863
1532486033.497,40.039,52.734,40.527,24.414,-413.574
1532486033.501,34.180,64.453,39.551,34.668,-62.988
1532486033.505,30.762,72.754,38.086,33.203,821.289
1532486033.509,40.039,35.645,41.992,34.180,440.430
1532486033.512,45.898,34.180,42.969,45.898,-416.504
1532486033.516,42.969,53.223,38.086,34.180,-619.141
1532486033.520,28.809,53.711,38.086,24.414,-707.520
1532486033.524,30.762,62.012,40.527,31.738,-30.273
1532486033.528,36.621,46.875,41.016,33.691,-125.488
1532486033.532,36.621,41.016,39.062,23.438,-518.555
1532486033.536,34.668,43.457,40.039,18.066,-592.285
1532486033.540,28.320,50.781,39.551,26.367,-690.918
1532486033.544,26.367,54.688,36.133,33.203,24.414
1532486033.548,25.391,50.293,35.645,31.738,459.473
1532486033.552,16.602,53.711,34.180,16.113,273.926
1532486033.555,23.926,46.875,36.133,15.137,-206.543
1532486033.559,38.574,45.410,36.133,26.367,-619.629
1532486033.563,32.227,63.965,35.156,21.484,121.582
1532486033.567,27.832,52.734,40.527,20.996,812.500
1532486033.571,32.715,32.227,41.504,31.738,-265.137
1532486033.575,31.738,39.062,37.598,33.203,-687.988
1532486033.579,28.320,37.109,34.668,31.738,-510.742
1532486033.583,25.879,43.457,36.621,30.762,-221.191
1532486033.587,31.738,42.969,38.574,29.785,-125.977
1532486033.591,28.809,42.480,35.156,35.156,-579.102
1532486033.594,18.066,58.105,38.086,41.504,46.875
1532486033.598,28.809,46.875,43.457,27.832,194.824
1532486033.602,32.715,50.293,41.504,23.438,-173.828
1532486033.606,37.109,67.383,40.527,37.109,691.406
1532486033.610,47.852,35.645,41.504,42.480,148.438
1532486033.614,38.574,36.133,37.598,38.574,-548.340
1532486033.618,29.785,51.270,40.039,37.598,-642.578
1532486033.622,36.133,55.176,41.504,33.691,-621.094
1532486033.626,42.480,49.805,38.086,36.621,-76.660
1532486033.630,41.504,45.410,39.551,36.133,-273.926
1532486033.634,34.180,50.293,42.480,26.855,-525.391
1532486033.637,28.809,51.270,42.969,20.020,-651.855
1532486033.641,30.762,67.871,40.527,34.668,-84.961
1532486033.645,34.180,68.359,41.992,39.062,883.301
1532486033.649,32.715,25.391,41.016,27.832,243.164
1532486033.653,30.273,34.180,38.574,23.926,-644.531
1532486033.657,37.109,54.199,35.156,30.762,-780.273
1532486033.661,52.734,63.965,32.227,47.363,-488.281
1532486033.665,48.828,52.246,39.062,50.293,177.246
1532486033.669,19.531,30.762,48.828,18.066,-325.684
1532486033.673,14.648,41.992,49.316,12.207,-710.449
1532486033.676,29.297,43.945,46.875,31.738,-530.273
1532486033.680,28.320,46.875,46.387,26.855,-359.375
1532486033.684,23.438,55.664,48.340,21.973,229.492
1532486033.688,24.414,56.641,45.410,21.973,360.840
1532486033.692,37.109,52.246,43.945,32.227,255.371
1532486033.696,36.621,32.227,45.410,44.434,-87.891
1532486033.700,29.785,35.156,45.898,34.668,-522.949
1532486033.704,27.344,72.266,44.434,32.227,330.078
1532486033.708,27.832,41.016,42.480,36.133,736.816
1532486033.712,29.785,22.461,40.527,32.715,-248.047
1532486033.716,27.832,42.480,40.527,33.203,-518.555
1532486033.719,27.344,38.574,38.574,39.551,-676.758
1532486033.723,25.879,54.199,33.691,28.320,-238.770
1532486033.727,25.391,39.551,35.645,37.109,-37.109
1532486033.731,28.320,33.691,35.645,47.363,-433.594
1532486033.735,27.832,55.176,34.180,31.738,37.109
1532486033.739,23.438,43.945,37.109,27.832,118.652
1532486033.743,21.973,48.340,41.016,41.504,131.348
1532486033.747,26.367,56.152,42.969,38.574,790.527
1532486033.751,21.484,26.855,42.969,30.762,-91.309
1532486033.755,21.484,33.691,39.062,26.855,-799.316
1532486033.759,29.785,41.016,34.668,37.598,-718.750
1532486033.762,34.180,39.551,36.133,42.969,-361.816
1532486033.766,25.879,24.902,40.039,31.738,-54.688
1532486033.770,22.461,20.020,38.086,27.344,-552.734
1532486033.774,29.297,39.062,35.645,27.832,-652.344
1532486033.778,29.297,45.898,37.598,26.855,-497.559
1532486033.782,23.926,58.594,36.133,27.344,78.613
1532486033.786,22.949,56.641,34.668,22.949,849.609
1532486033.790,25.879,25.879,40.039,28.320,24.414
1532486033.794,27.344,26.367,40.039,32.227,-592.285
1532486033.798,30.762,35.156,37.109,34.180,-548.340
1532486033.801,27.344,49.805,37.109,20.020,-529.297
1532486033.805,23.926,59.082,33.691,15.137,119.629
1532486033.809,29.297,41.504,33.691,36.621,-183.594
1532486033.813,29.297,34.180,35.156,38.086,-477.051
1532486033.817,26.855,36.621,37.109,21.973,-524.414
1532486033.821,30.762,45.410,38.574,19.043,-554.688
1532486033.825,28.809,50.293,34.180,29.297,98.633
1532486033.829,20.020,50.781,31.738,38.086,343.262
1532486033.833,14.648,47.363,33.691,22.949,370.605
1532486033.837,20.508,30.273,34.180,20.996,-190.918
1532486033.841,30.273,45.898,36.621,34.668,-594.727
1532486033.844,34.668,78.125,34.668,34.180,600.098
1532486033.848,34.668,39.062,36.133,36.133,607.910
1532486033.852,26.855,29.785,41.504,30.273,-519.531
1532486033.856,33.203,38.574,40.039,24.902,-751.465
1532486033.860,42.480,42.480,41.016,36.133,-568.848
1532486033.864,35.156,54.199,41.016,35.156,185.059
1532486033.868,34.668,33.203,42.480,38.574,-139.648
1532486033.872,36.621,36.133,43.945,38.574,-702.637
1532486033.876,33.691,52.246,41.504,38.086,-81.055
1532486033.880,34.180,43.945,42.480,44.922,261.719
1532486033.884,34.180,59.570,41.016,42.969,588.867
1532486033.887,38.086,51.270,38.086,30.762,708.008
1532486033.891,43.945,37.109,40.039,27.832,-342.285
1532486033.895,37.109,45.410,41.992,43.457,-609.375
1532486033.899,29.297,43.945,43.945,42.969,-594.238
1532486033.903,29.297,61.035,45.898,36.133,-365.234
1532486033.907,39.551,61.523,44.434,34.668,-211.914
1532486033.911,45.410,62.012,41.504,40.039,-500.488
1532486033.915,37.598,61.523,43.945,39.062,-435.059
1532486033.919,33.203,54.688,44.434,29.297,-618.164
1532486033.923,37.109,77.637,41.016,32.227,-28.320
1532486033.926,44.922,76.660,45.410,41.016,861.328
1532486033.930,47.363,38.086,46.387,41.992,46.875
1532486033.934,41.992,47.363,42.969,31.738,-643.066
1532486033.938,41.016,61.035,44.434,31.738,-781.738
1532486033.942,35.645,53.711,45.410,38.086,-560.059
1532486033.946,36.621,43.457,44.922,39.551,-18.555
1532486033.950,37.109,45.410,46.875,37.598,-391.602
1532486033.954,31.250,53.711,43.945,26.855,-670.410
1532486033.958,30.762,56.152,40.527,28.809,-642.090
1532486033.962,26.367,55.176,39.062,32.715,-324.707
1532486033.966,22.949,46.387,40.527,28.809,161.621
1532486033.969,24.902,47.852,45.410,22.461,239.746
1532486033.973,29.297,47.852,46.387,27.344,154.785
1532486033.977,33.691,41.016,46.387,38.574,-335.449
1532486033.981,33.203,53.223,45.410,37.598,-312.500
1532486033.985,28.809,75.195,44.434,26.855,729.004
1532486033.989,31.738,41.016,42.969,23.438,284.180
1532486033.993,31.250,33.203,37.598,30.762,-538.574
1532486033.997,27.832,43.945,36.133,30.762,-512.207
1532486034.001,28.809,50.293,35.645,19.531,-481.934
1532486034.005,30.273,50.293,35.156,10.254,73.730
1532486034.008,31.250,38.574,39.551,16.602,-259.277
1532486034.012,27.344,48.828,41.016,20.020,-476.562
1532486034.016,25.879,47.852,41.992,19.043,47.363
1532486034.020,19.043,49.316,40.527,19.531,198.730
1532486034.024,15.625,67.871,38.086,22.461,712.891
1532486034.028,21.484,35.645,40.039,27.832,650.879
1532486034.032,21.973,24.902,40.527,31.250,-350.586
1532486034.036,16.602,38.574,36.133,15.625,-732.910
1532486034.040,13.184,41.016,35.156,8.301,-782.227
1532486034.044,16.113,49.805,33.691,22.461,-99.609
1532486034.048,20.020,33.203,33.691,25.879,-53.711
1532486034.051,20.020,39.551,34.668,22.461,-604.492
1532486034.055,25.391,46.387,35.156,28.809,-636.230
1532486034.059,35.645,43.457,38.086,30.273,-633.301
1532486034.063,30.762,59.570,36.621,25.391,234.375
1532486034.067,20.508,41.504,34.668,19.043,840.820
1532486034.071,22.461,24.902,36.133,23.438,-303.223
1532486034.075,21.484,41.504,34.180,27.832,-724.609
1532486034.079,20.996,42.969,33.691,28.320,-552.734
1532486034.083,26.855,56.152,35.156,25.879,-289.062
1532486034.087,26.855,55.664,32.715,27.344,-162.109
1532486034.091,25.391,46.387,27.832,39.062,-592.773
1532486034.094,30.762,47.363,29.297,44.434,-476.562
1532486034.098,22.949,41.992,30.762,35.156,-433.105
1532486034.102,22.461,44.434,30.273,24.902,-390.137
1532486034.106,27.344,39.551,32.227,15.137,-71.289
1532486034.110,32.227,40.527,32.715,28.320,217.285
1532486034.114,31.738,38.574,36.133,41.992,324.707
1532486034.118,30.762,31.738,36.133,32.715,-383.789
1532486034.122,35.645,54.688,33.203,24.902,-473.145
1532486034.126,36.621,82.520,35.645,22.461,706.055
1532486034.130,35.156,44.434,41.992,33.691,304.199
1532486034.133,27.344,39.062,42.480,35.156,-531.250
1532486034.137,28.809,58.594,40.039,26.367,-714.844
1532486034.141,39.551,60.547,41.992,30.762,-541.992
1532486034.145,37.598,55.176,44.434,40.527,168.457
1532486034.149,29.785,39.551,45.898,46.387,-222.168
1532486034.153,28.320,46.387,44.434,32.715,-611.328
1532486034.157,28.809,63.965,45.410,31.738,-125.488
1532486034.161,32.227,61.523,45.410,43.945,361.816
1532486034.165,31.738,60.547,41.504,40.039,878.906
1532486034.169,32.227,32.227,42.480,36.133,338.867
1532486034.173,31.250,30.273,43.945,26.855,-624.512
1532486034.176,27.832,44.434,41.016,20.996,-676.270
1532486034.180,31.738,42.969,41.992,27.832,-453.613
1532486034.184,26.367,54.199,43.945,31.738,142.578
1532486034.188,22.949,45.410,39.551,29.785,-306.152
1532486034.192,29.297,37.109,38.086,38.086,-647.461
1532486034.196,27.344,35.645,42.480,44.922,-388.184
1532486034.200,22.461,40.527,34.180,40.527,-519.043
1532486034.204,19.531,65.430,31.250,36.133,331.055
1532486034.208,33.691,45.410,41.504,36.621,528.320
1532486034.212,37.109,23.438,42.480,40.527,-362.305
1532486034.216,20.020,28.809,37.109,23.438,-474.609
1532486034.219,24.414,45.410,37.598,17.578,-694.824
1532486034.223,29.785,67.871,40.039,26.367,-190.918
1532486034.227,29.297,56.152,42.480,32.715,275.391
1532486034.231,36.621,32.227,42.969,37.109,-265.625
1532486034.235,35.156,35.156,38.086,34.668,-519.531
1532486034.239,33.203,43.457,33.691,33.203,-659.668
1532486034.243,41.992,51.270,32.715,35.645,-231.445
1532486034.247,43.457,44.922,35.645,32.227,103.516
1532486034.251,28.320,49.316,35.156,29.785,101.074
1532486034.255,24.414,53.223,35.156,35.645,267.090
1532486034.258,33.203,37.109,36.621,41.504,-350.098
1532486034.262,30.762,55.664,36.133,42.969,-195.801
1532486034.266,31.250,58.105,35.645,32.227,806.152
1532486034.270,35.645,20.020,36.621,24.414,-21.973
1532486034.274,33.691,32.715,35.156,24.902,-706.543
1532486034.278,31.738,37.109,34.180,36.133,-526.367
1532486034.282,27.344,31.738,37.598,40.527,-329.102
1532486034.286,25.879,32.227,38.086,36.133,-32.227
1532486034.290,32.227,37.109,33.691,41.504,-482.422
1532486034.294,37.109,49.316,36.133,42.480,-495.605
1532486034.298,34.180,48.340,38.086,44.434,27.832
1532486034.301,30.273,48.828,35.645,38.086,400.391
1532486034.305,32.227,65.430,32.715,29.297,856.445
1532486034.309,41.504,40.039,33.691,38.574,231.445
1532486034.313,42.969,39.062,30.762,33.203,-453.125
1532486034.317,43.457,41.504,32.715,22.949,-622.559
1532486034.321,45.898,43.945,36.621,29.297,-634.277
1532486034.325,37.109,49.316,35.645,35.645,16.113
1532486034.329,37.598,37.598,41.992,42.969,-203.125
1532486034.333,44.434,47.363,44.434,33.691,-489.258
1532486034.337,40.527,50.293,39.551,30.762,-606.445
1532486034.341,40.039,55.176,35.156,36.133,-613.770
1532486034.344,38.086,61.035,34.180,35.645,483.887
1532486034.348,33.203,31.250,38.574,38.086,434.082
1532486034.352,28.320,39.551,38.574,32.227,-436.035
1532486034.356,30.273,52.246,36.621,19.531,-549.805
1532486034.360,33.691,43.945,34.668,28.809,-492.676
1532486034.364,28.320,63.477,34.668,40.039,458.496
1532486034.368,23.926,41.992,35.645,29.785,486.816
1532486034.372,25.879,38.574,33.203,29.785,-528.809
1532486034.376,31.250,49.316,33.203,39.551,-565.430
1532486034.380,29.297,43.457,33.691,33.203,-410.156
1532486034.383,23.926,57.617,30.273,10.254,36.133
1532486034.387,20.020,48.340,25.391,1.953,-123.047
1532486034.391,19.043,50.781,22.949,8.789,-111.328
1532486034.395,26.367,45.410,22.949,18.066,461.914
1532486034.399,28.320,23.438,28.320,22.949,-200.195
1532486034.403,17.090,51.270,33.203,15.625,-118.652
1532486034.407,16.113,60.547,38.086,16.602,806.152
1532486034.411,28.320,34.668,40.527,33.203,-17.578
1532486034.415,32.227,38.086,39.062,28.320,-511.230
1532486034.419,32.227,36.621,40.527,20.508,-619.141
1532486034.423,33.203,55.176,39.551,27.344,-496.582
1532486034.426,32.715,50.781,39.551,26.367,-30.273
1532486034.430,30.762,33.691,38.574,21.484,-310.059
1532486034.434,18.066,44.434,34.180,23.926,-484.375
1532486034.438,6.348,52.734,33.203,20.996,-158.691
1532486034.442,19.531,47.363,32.227,22.461,333.008
1532486034.446,19.043,46.875,30.762,25.879,843.262
1532486034.450,17.578,21.484,31.250,23.438,106.445
1532486034.454,24.414,26.367,35.645,21.484,-703.125
1532486034.458,29.785,44.922,38.574,27.832,-747.070
1532486034.462,28.809,45.898,33.691,30.273,-419.434
1532486034.465,21.973,35.156,32.227,19.531,80.078
1532486034.469,18.555,33.691,34.180,16.113,-439.453
1532486034.473,21.973,42.480,34.668,24.414,-667.969
1532486034.477,23.438,38.086,33.691,23.926,-514.160
1532486034.481,19.043,36.133,30.762,16.602,-310.059
1532486034.485,19.531,37.109,30.762,17.578,433.105
1532486034.489,31.250,43.457,34.180,24.414,335.938
1532486034.493,35.645,41.992,28.809,35.156,-172.363
1532486034.497,31.738,29.297,26.367,34.180,-351.074
1532486034.501,27.832,39.062,33.691,26.855,-418.457
1532486034.505,24.902,62.988,34.668,24.902,596.191
1532486034.508,29.785,26.367,31.250,20.996,556.152
1532486034.512,24.902,24.414,31.250,17.090,-353.027
1532486034.516,16.602,42.969,31.738,18.555,-521.973
1532486034.520,10.742,50.293,27.832,17.578,-620.605
1532486034.524,22.461,56.152,33.203,21.484,38.086
1532486034.528,34.668,32.227,41.016,31.250,-71.289
1532486034.532,17.090,44.434,38.574,22.949,-22.461
1532486034.536,8.789,48.828,34.180,14.648,274.902
1532486034.540,15.625,35.156,32.227,17.090,-492.676
1532486034.544,17.578,60.059,31.738,21.484,156.250
1532486034.548,19.043,36.621,35.645,18.066,823.242
1532486034.551,13.184,17.090,33.203,19.531,-315.918
1532486034.555,15.137,39.551,29.785,17.578,-763.184
1532486034.559,24.414,38.086,32.715,21.973,-660.645
1532486034.563,18.555,44.922,30.762,27.344,-145.996
1532486034.567,13.672,42.480,31.250,20.996,-50.781
1532486034.571,20.020,37.109,32.715,9.766,-638.672
1532486034.575,19.531,42.480,30.273,17.578,-548.828
1532486034.579,16.602,56.152,26.855,27.832,-44.922
1532486034.583,15.625,64.941,22.949,14.648,410.645
1532486034.587,15.625,55.664,25.391,4.883,788.086
1532486034.590,21.484,27.832,28.809,16.113,-106.934
1532486034.594,23.926,35.156,24.902,24.414,-593.750
1532486034.598,21.973,36.133,30.762,20.508,-521.484
1532486034.602,21.484,38.574,32.715,16.113,-493.164
1532486034.606,17.578,39.062,27.832,17.090,-187.988
1532486034.610,21.973,36.133,27.344,27.832,-425.781
1532486034.614,25.391,35.156,30.762,33.691,-420.898
1532486034.618,16.113,28.809,33.203,18.555,-538.574
1532486034.622,24.902,41.016,28.809,17.090,-542.480
1532486034.626,37.109,57.129,30.762,25.879,333.008
1532486034.630,35.156,53.711,32.715,23.926,506.348
1532486034.633,30.273,42.969,28.809,19.531,-111.816
1532486034.637,38.086,45.410,30.762,18.555,-615.723
1532486034.641,46.387,57.129,33.203,22.461,-478.027
1532486034.645,30.273,65.430,32.227,29.297,675.293
1532486034.649,29.785,30.273,30.273,30.273,566.406
1532486034.653,35.645,18.066,28.809,22.461,-393.555
1532486034.657,38.086,26.367,33.203,34.180,-725.098
1532486034.661,35.156,39.551,36.133,47.852,-433.105
1532486034.665,30.273,44.922,37.598,27.832,229.980
1532486034.669,29.785,40.039,40.527,20.508,-273.926
1532486034.673,29.297,58.594,36.133,19.531,-176.270
1532486034.676,34.668,49.316,35.156,15.625,334.961
1532486034.680,32.715,38.086,40.527,25.391,-160.645
1532486034.684,18.555,66.895,40.039,20.508,540.527
1532486034.688,20.996,32.715,39.062,10.742,585.449
1532486034.692,24.414,15.625,36.133,25.391,-505.859
1532486034.696,17.578,37.109,35.156,32.715,-563.965
1532486034.700,13.672,43.945,38.086,23.926,-558.105
1532486034.704,15.137,55.664,34.180,25.391,-96.191
1532486034.708,22.461,47.363,31.738,29.785,-196.289
1532486034.712,26.855,42.969,33.203,30.273,-537.598
1532486034.715,22.461,35.645,30.762,16.602,-380.371
1532486034.719,19.043,47.363,27.344,7.812,-211.426
1532486034.723,22.949,65.430,26.855,20.508,414.551
1532486034.727,22.461,37.598,29.785,31.738,811.035
1532486034.731,22.461,20.020,34.180,36.621,-116.211
1532486034.735,25.879,37.598,32.227,28.809,-669.434
1532486034.739,20.508,40.527,30.273,24.414,-787.598
1532486034.743,20.508,58.105,28.320,19.531,-391.113
1532486034.747,26.367,48.340,29.785,24.414,0.000
1532486034.751,24.414,39.062,26.855,24.414,-479.980
1532486034.755,28.809,42.480,28.809,21.973,-654.297
1532486034.758,29.785,37.109,34.180,23.926,-628.906
1532486034.762,20.508,47.363,31.250,25.879,-272.461
1532486034.766,17.090,35.645,34.668,24.902,460.938
1532486034.770,15.625,29.297,35.156,20.996,368.652
1532486034.774,20.996,35.156,32.715,26.855,-201.660
1532486034.778,28.809,31.250,38.574,41.016,-472.168
1532486034.782,22.949,46.875,38.086,37.109,-213.379
1532486034.786,19.531,65.430,33.203,15.625,726.562
1532486034.790,27.344,34.668,35.645,14.648,110.352
1532486034.794,28.809,36.133,38.086,36.621,-574.219
1532486034.797,22.949,41.504,38.086,30.762,-505.859
1532486034.801,17.090,41.016,36.621,18.066,-439.941
1532486034.805,24.414,40.527,34.180,28.320,-12.207
1532486034.809,35.645,35.156,32.715,43.457,-357.422
1532486034.813,30.762,48.340,35.645,42.480,-27.344
1532486034.817,26.367,45.898,40.527,30.762,276.855
1532486034.821,30.273,48.828,39.551,28.320,-137.207
1532486034.825,38.574,57.617,37.598,34.180,418.945
1532486034.829,37.598,42.969,39.062,37.598,62.012
1532486034.833,30.273,43.457,34.180,37.598,-479.980
1532486034.837,28.809,38.086,34.180,33.691,-576.660
1532486034.840,31.250,46.875,39.062,23.438,-632.324
1532486034.844,26.367,72.266,36.621,20.020,525.391
1532486034.848,23.438,29.785,36.621,24.902,464.844
1532486034.852,27.344,26.855,37.598,25.879,-567.383
1532486034.856,26.367,54.199,33.691,22.461,-657.227
1532486034.860,28.320,56.152,35.645,35.156,-157.227
1532486034.864,26.367,62.988,36.621,31.250,756.836
1532486034.868,24.414,40.039,35.645,20.020,630.371
1532486034.872,30.273,40.039,36.133,32.715,-525.879
1532486034.876,35.156,47.852,37.598,43.945,-735.840
1532486034.880,37.598,34.180,37.109,45.898,-567.871
1532486034.883,34.180,55.664,36.621,35.645,-119.629
1532486034.887,33.203,59.082,36.133,32.227,-240.234
1532486034.891,32.227,45.898,35.645,36.133,-688.477
1532486034.895,35.645,43.945,35.645,32.227,-446.777
1532486034.899,33.203,42.480,32.227,29.297,-524.902
1532486034.903,31.738,58.594,36.133,34.668,-264.160
1532486034.907,39.551,63.965,38.086,42.969,400.879
1532486034.911,55.176,55.176,33.691,52.246,390.625
1532486034.915,54.688,44.922,37.598,58.105,25.391
1532486034.919,36.621,40.527,44.434,39.062,-584.961
1532486034.922,41.992,63.477,43.945,36.621,-379.395
1532486034.926,55.664,68.848,38.574,49.316,748.535
1532486034.930,62.500,32.227,39.551,62.988,143.555
1532486034.934,65.430,36.621,40.527,71.289,-621.582
1532486034.938,69.824,45.898,35.645,73.242,-751.953
1532486034.942,73.730,46.387,34.180,76.172,-523.926
1532486034.946,76.172,37.109,33.203,86.426,30.273
1532486034.950,68.359,35.645,34.180,83.984,-355.469
1532486034.954,60.059,54.688,33.203,70.312,-66.895
1532486034.958,65.918,48.340,32.227,72.754,220.703
1532486034.962,57.617,49.805,32.227,70.312,-60.059
1532486034.965,44.922,62.500,29.297,56.152,713.379
1532486034.969,48.340,23.438,32.715,46.875,151.367
1532486034.973,54.199,30.762,33.691,52.246,-757.812
1532486034.977,54.199,43.457,34.180,53.711,-674.316
1532486034.981,48.340,47.852,36.621,42.480,-418.945
1532486034.985,47.852,54.199,34.668,37.598,58.594
1532486034.989,49.316,46.875,34.668,50.781,-449.219
1532486034.993,47.363,51.270,34.668,54.199,-643.555
1532486034.997,44.434,45.410,33.203,48.828,-429.199
1532486035.001,41.016,47.363,32.227,46.387,-53.711
1532486035.005,35.645,65.430,29.785,32.715,828.613
1532486035.008,43.945,34.668,33.691,34.668,466.797
1532486035.012,44.434,22.949,34.668,47.852,-413.574
1532486035.016,37.598,37.109,33.203,41.992,-616.699
1532486035.020,40.527,48.828,33.203,37.109,-727.539
1532486035.024,44.922,48.340,29.297,41.504,-66.406
1532486035.028,45.898,28.320,30.273,39.551,-137.695
1532486035.032,41.992,42.480,32.227,32.227,-535.156
1532486035.036,38.574,51.758,32.227,40.039,-583.496
1532486035.040,44.434,54.199,37.598,46.387,-717.285
1532486035.044,50.781,59.570,38.574,44.922,-59.082
1532486035.047,46.875,49.316,34.668,42.969,437.988
1532486035.051,40.039,44.434,33.691,37.109,277.344
1532486035.055,38.086,51.270,36.133,36.621,-220.215
1532486035.059,38.574,52.246,41.016,47.852,-653.809
1532486035.063,37.109,64.453,39.062,49.316,44.434
1532486035.067,32.227,58.594,34.668,39.551,797.363
1532486035.071,35.156,45.410,37.109,38.574,-82.031
1532486035.075,51.758,55.664,41.992,43.457,-576.172
1532486035.079,59.570,48.828,41.992,46.875,-556.641
1532486035.083,46.387,55.664,40.527,38.086,-267.090
1532486035.087,43.457,53.711,41.992,38.086,-145.508
1532486035.090,48.828,52.246,42.969,52.734,-598.633
1532486035.094,47.852,59.570,41.992,42.480,-2.930
1532486035.098,43.945,41.504,38.086,36.133,59.570
1532486035.102,36.621,54.688,34.180,43.945,-288.574
1532486035.106,43.945,77.148,33.691,41.504,687.988
1532486035.110,52.246,37.109,36.621,47.852,162.109
1532486035.114,50.781,36.621,38.574,46.875,-550.781
1532486035.118,41.504,52.734,40.039,30.762,-637.695
1532486035.122,36.621,55.664,41.016,28.320,-624.512
1532486035.126,40.039,56.641,38.574,44.922,-68.359
1532486035.130,42.969,52.734,39.062,44.434,-270.996
1532486035.133,41.504,57.617,43.457,37.598,-521.973
1532486035.137,32.715,58.105,43.457,31.738,-647.949
1532486035.141,30.273,69.824,41.504,27.344,-97.656
1532486035.145,31.738,67.871,41.016,25.879,886.230
1532486035.149,30.762,29.297,41.016,26.855,292.480
1532486035.153,34.668,36.133,41.016,28.809,-616.211
1532486035.157,35.156,54.199,39.551,27.344,-780.762
1532486035.161,34.180,54.199,39.551,37.109,-513.672
1532486035.165,31.250,41.504,39.551,34.668,181.641
1532486035.169,27.832,40.039,40.527,21.973,-284.668
1532486035.172,30.273,54.688,41.992,24.902,-710.449
1532486035.176,32.715,50.293,42.480,30.762,-538.086
1532486035.180,31.250,49.316,41.992,29.297,-370.605
1532486035.184,31.738,55.664,39.062,17.090,229.980
1532486035.188,35.156,57.129,37.109,14.648,388.672
1532486035.192,31.250,60.059,34.180,25.391,243.164
1532486035.196,32.715,50.781,33.203,35.645,-81.055
1532486035.200,28.320,49.805,36.133,26.367,-503.418
1532486035.204,20.508,79.102,36.621,21.973,273.926
1532486035.208,32.227,47.363,38.574,32.715,759.277
1532486035.212,42.480,16.602,38.574,38.086,-211.914
1532486035.215,32.227,37.109,37.109,36.621,-502.930
1532486035.219,33.691,50.781,38.086,29.297,-653.809
1532486035.223,38.086,68.848,34.668,20.996,-291.504
1532486035.227,33.691,51.758,33.203,24.902,-44.434
1532486035.231,27.832,38.574,33.691,29.785,-416.504
1532486035.235,23.926,56.641,36.133,24.902,1.953
1532486035.239,32.227,53.711,39.062,28.320,141.602
1532486035.243,27.344,51.270,35.645,36.133,88.867
1532486035.247,24.414,55.176,36.133,35.645,767.090
1532486035.251,30.762,33.691,39.062,34.668,-37.109
1532486035.254,26.367,43.945,41.016,33.203,-796.875
1532486035.258,30.762,46.387,41.504,41.016,-729.492
1532486035.262,32.715,45.898,38.574,43.457,-382.812
1532486035.266,25.391,46.387,36.133,37.109,-40.039
1532486035.270,26.855,50.293,37.109,36.133,-522.461
1532486035.274,31.250,52.246,41.016,32.715,-662.598
1532486035.278,34.668,47.363,45.410,34.180,-507.812
1532486035.282,34.668,57.617,42.480,42.969,77.637
1532486035.286,26.367,63.965,40.039,31.250,854.004
1532486035.290,30.762,35.156,40.039,33.691,38.086
1532486035.294,44.434,37.109,40.527,50.781,-598.145
1532486035.297,44.434,49.316,43.945,61.035,-537.598
1532486035.301,37.598,46.875,45.898,60.547,-469.727
1532486035.305,28.809,51.758,38.086,27.832,-48.828
1532486035.309,19.043,55.664,33.691,21.484,-385.254
1532486035.313,19.531,58.594,33.203,35.156,-457.031
1532486035.317,24.414,53.711,30.762,31.250,-482.910
1532486035.321,22.949,57.617,26.855,21.973,-537.109
1532486035.325,20.508,61.035,27.832,15.137,116.211
1532486035.329,22.461,56.152,30.762,19.043,394.531
1532486035.333,24.902,41.504,34.180,27.832,215.332
1532486035.337,20.508,29.785,36.133,23.926,-394.531
1532486035.340,18.555,45.898,35.156,19.043,-613.770
1532486035.344,20.508,69.336,31.738,27.344,573.730
1532486035.348,19.531,23.438,32.715,32.715,658.691
1532486035.352,21.973,21.484,30.762,26.367,-451.660
1532486035.356,30.273,47.852,28.809,26.367,-713.379
1532486035.360,30.273,31.738,31.250,26.367,-572.266
1532486035.364,20.996,46.875,29.785,24.414,159.668
1532486035.368,30.273,38.086,29.297,33.203,-78.125
1532486035.372,40.039,38.086,33.203,31.738,-664.551
1532486035.376,34.180,70.801,34.180,32.715,-28.320
1532486035.379,32.227,52.246,30.273,34.180,234.863
1532486035.383,29.785,53.711,30.273,26.367,424.316
1532486035.387,30.762,53.711,33.691,24.902,739.258
1532486035.391,35.156,26.367,32.715,42.480,-267.578
1532486035.395,37.598,38.574,32.227,45.410,-578.125
1532486035.399,40.527,41.016,34.668,32.227,-528.320
1532486035.403,40.039,51.270,37.598,28.320,-349.121
1532486035.407,41.992,55.664,38.086,35.645,-185.547
1532486035.411,40.039,51.270,36.621,46.875,-463.867
1532486035.415,41.504,41.504,41.016,44.434,-403.809
1532486035.419,41.992,38.086,41.016,39.062,-568.848
1532486035.422,36.621,67.871,35.645,39.062,-39.551
1532486035.426,39.551,74.219,33.691,34.180,847.656
1532486035.430,42.969,38.574,36.621,32.227,104.492
1532486035.434,35.156,42.969,38.086,40.527,-583.984
1532486035.438,33.203,55.176,38.086,46.387,-740.723
1532486035.442,36.621,50.781,39.062,38.086,-556.641
1532486035.446,35.645,41.016,40.527,50.293,11.230
1532486035.450,37.598,44.922,38.574,56.641,-333.008
1532486035.454,41.016,50.781,39.551,43.945,-640.625
1532486035.458,38.574,50.781,41.016,42.969,-646.973
1532486035.462,32.715,56.641,38.574,44.434,-326.172
1532486035.465,28.809,49.805,40.039,37.109,197.754
1532486035.469,24.414,50.293,41.504,36.621,233.398
1532486035.473,25.879,51.270,36.621,36.621,126.465
1532486035.477,31.738,43.457,37.598,28.809,-323.730
1532486035.481,35.156,56.641,39.551,35.156,-313.965
1532486035.485,29.785,75.195,37.109,36.621,717.773
1532486035.489,24.414,33.203,39.062,34.180,310.059
1532486035.493,34.668,33.203,40.527,40.527,-387.207
1532486035.497,34.180,35.156,35.156,45.410,-357.910
1532486035.501,24.902,34.668,38.086,37.598,-466.309
1532486035.504,24.902,48.828,40.527,32.715,90.820
1532486035.508,35.645,34.668,37.598,38.574,-254.395
1532486035.512,30.273,43.945,35.156,21.973,-501.953
1532486035.516,20.508,51.270,33.203,8.301,90.820
1532486035.520,19.531,45.898,32.227,14.648,172.852
1532486035.524,20.996,59.570,31.250,6.348,588.379
1532486035.528,30.762,22.949,31.250,14.648,686.035
1532486035.532,31.250,14.160,30.273,23.438,-290.039
1532486035.536,17.578,40.039,29.297,13.184,-696.289
1532486035.540,20.020,41.992,32.715,20.020,-781.250
1532486035.544,28.809,45.410,32.227,26.367,-154.785
1532486035.547,28.809,29.785,26.367,23.926,-38.574
1532486035.551,24.902,37.598,26.367,25.391,-565.918
1532486035.555,29.785,45.898,30.762,25.391,-636.230
1532486035.559,39.062,40.527,32.227,36.621,-650.391
1532486035.563,35.156,63.965,35.156,36.621,201.172
1532486035.567,20.508,50.293,35.156,20.996,854.492
1532486035.571,21.973,22.461,33.203,26.367,-270.508
1532486035.575,31.250,41.992,34.180,34.668,-739.258
1532486035.579,34.668,41.504,31.738,35.645,-560.059
1532486035.583,22.461,41.992,30.762,35.156,-301.270
1532486035.586,22.949,41.016,35.156,26.367,-151.367
1532486035.590,44.434,41.504,34.668,36.621,-587.891
1532486035.594,45.410,42.969,31.738,44.434,-498.047
1532486035.598,32.227,36.621,30.762,29.785,-423.340
1532486035.602,27.832,39.062,30.273,17.578,-390.137
1532486035.606,29.785,39.551,34.180,21.484,-83.496
1532486035.610,37.598,44.434,35.156,32.715,148.438
1532486035.614,37.109,31.738,33.691,34.180,407.715
1532486035.618,29.297,23.926,34.668,32.227,-208.008
1532486035.622,33.203,56.641,36.621,21.973,-466.309
1532486035.626,34.668,72.754,35.645,18.555,698.242
1532486035.629,37.109,29.785,35.156,31.738,329.590
1532486035.633,33.691,27.832,39.062,35.156,-497.070
1532486035.637,24.902,45.410,39.062,32.715,-690.430
1532486035.641,29.297,45.898,38.086,33.691,-562.012
1532486035.645,34.668,45.410,39.551,42.969,167.969
1532486035.649,30.273,39.551,37.109,33.691,-192.871
1532486035.653,21.973,53.223,36.621,21.973,-584.961
1532486035.657,28.320,57.129,41.992,45.410,-109.375
1532486035.661,35.645,46.875,46.875,52.246,106.934
1532486035.665,33.203,68.359,45.410,33.691,721.680
1532486035.669,35.645,28.320,45.898,25.879,452.148
1532486035.672,23.926,21.973,44.922,28.320,-603.516
1532486035.676,21.973,47.363,41.992,29.785,-671.875
1532486035.680,33.691,54.688,44.434,27.344,-443.848
1532486035.684,25.879,66.406,42.969,20.996,147.949
1532486035.688,24.414,55.664,42.480,27.344,-259.277
1532486035.692,33.203,54.199,42.480,36.133,-638.184
1532486035.696,35.156,50.293,43.457,35.156,-358.398
1532486035.700,32.227,50.293,41.992,29.297,-474.121
1532486035.704,35.645,62.988,42.969,31.250,311.035
1532486035.708,43.945,39.062,46.875,34.180,639.648
1532486035.711,45.410,35.156,47.852,40.039,-283.203
1532486035.715,43.945,52.734,46.875,43.457,-449.219
1532486035.719,36.133,46.875,45.410,41.992,-641.602
1532486035.723,38.574,64.453,41.016,46.387,-239.258
1532486035.727,41.504,52.246,37.598,52.246,122.559
1532486035.731,34.180,35.645,40.527,46.387,-345.703
1532486035.735,30.762,51.758,42.969,41.992,-480.469
1532486035.739,31.738,50.293,42.969,41.504,-645.020
1532486035.743,33.203,51.758,42.480,48.340,-294.434
1532486035.747,40.039,49.316,46.875,43.457,121.094
1532486035.751,43.457,48.828,47.852,36.133,222.656
1532486035.754,44.922,54.688,44.434,34.180,185.547
1532486035.758,46.387,46.387,43.945,39.551,-442.871
1532486035.762,41.016,64.453,42.969,47.852,-211.426
1532486035.766,39.062,71.289,41.992,29.297,797.852
1532486035.770,41.504,37.598,41.504,20.020,30.273
1532486035.774,46.875,41.016,37.109,25.391,-699.707
1532486035.778,47.363,52.246,39.551,32.227,-540.527
1532486035.782,37.109,52.246,42.480,48.340,-310.547
1532486035.786,33.203,41.992,39.551,42.480,12.207
1532486035.790,40.039,38.086,38.574,37.109,-476.074
1532486035.794,41.016,45.898,37.598,38.086,-515.137
1532486035.797,39.062,41.992,39.551,35.645,49.805
1532486035.801,37.109,52.246,42.480,27.832,390.625
1532486035.805,39.551,73.242,41.992,24.414,846.680
1532486035.809,42.969,44.922,42.480,46.875,253.418
1532486035.813,38.086,31.250,39.551,41.992,-442.383
1532486035.817,36.621,37.598,38.574,29.297,-593.750
1532486035.821,25.879,48.340,35.156,28.320,-626.953
1532486035.825,22.949,53.223,33.203,33.203,20.020
1532486035.829,31.738,44.922,34.180,33.691,-190.430
1532486035.833,36.621,42.969,36.621,31.738,-477.051
1532486035.836,36.133,33.203,39.062,28.320,-573.730
1532486035.840,31.738,46.875,39.062,28.809,-665.039
1532486035.844,27.832,75.195,41.016,46.387,497.070
1532486035.848,28.809,36.133,40.039,45.898,558.594
1532486035.852,28.809,30.273,36.621,29.297,-489.746
1532486035.856,32.715,50.293,33.203,23.926,-684.570
1532486035.860,35.156,39.062,32.227,29.785,-628.418
1532486035.864,34.180,54.688,34.180,30.273,276.855
1532486035.868,36.621,46.875,31.738,22.461,344.238
1532486035.872,34.668,43.945,32.715,19.043,-548.340
1532486035.876,30.762,52.246,35.156,18.066,-572.266
1532486035.879,25.879,53.711,36.621,20.020,-408.203
1532486035.883,27.344,61.523,34.180,31.738,17.090
1532486035.887,29.297,41.992,34.180,32.227,-71.777
1532486035.891,32.227,47.852,33.691,39.551,19.043
1532486035.895,37.598,50.781,34.180,38.574,340.332
1532486035.899,30.762,40.527,35.156,35.156,-327.637
1532486035.903,22.949,66.895,32.715,22.461,-109.863
1532486035.907,25.879,61.035,34.180,14.648,802.734
1532486035.911,35.645,31.250,40.527,30.762,-7.812
1532486035.915,34.668,44.434,37.109,25.391,-344.238
1532486035.919,27.832,40.039,30.762,20.020,-437.988
1532486035.922,30.762,47.852,28.320,22.949,-534.668
1532486035.926,35.156,46.387,27.832,25.879,-67.383
1532486035.930,33.691,36.133,31.738,32.227,-310.059
1532486035.934,22.949,44.434,32.715,23.438,-460.938
1532486035.938,20.508,45.898,28.809,17.090,-123.535
1532486035.942,23.926,49.805,25.391,22.949,299.805
1532486035.946,20.020,57.129,26.855,20.508,825.684
1532486035.950,21.484,14.648,30.273,24.902,143.555
1532486035.954,21.973,20.996,30.273,19.043,-693.359
1532486035.958,20.508,50.293,29.297,7.812,-785.156
1532486035.961,17.090,51.758,32.227,24.902,-463.867
1532486035.965,20.508,42.969,34.180,31.250,97.656
1532486035.969,23.926,46.875,34.668,25.879,-415.527
1532486035.973,22.461,48.340,37.109,33.691,-693.359
1532486035.977,23.438,28.320,39.551,37.598,-541.504
1532486035.981,25.879,45.898,37.598,31.250,-342.773
1532486035.985,29.785,63.965,35.156,25.391,384.277
1532486035.989,30.762,53.711,38.086,23.438,371.094
1532486035.993,29.785,41.016,36.133,25.391,-183.594
1532486035.997,33.691,32.715,36.621,31.738,-375.000
1532486036.001,31.738,44.922,38.086,28.809,-429.688
1532486036.004,27.832,76.172,32.715,20.996,568.848
1532486036.008,34.668,43.945,36.133,30.762,586.914
1532486036.012,28.809,27.832,36.621,39.062,-362.305
1532486036.016,20.996,39.062,33.691,32.227,-522.461
1532486036.020,22.949,46.875,34.668,24.902,-622.070
1532486036.024,25.391,61.523,29.785,16.113,-17.578
1532486036.028,35.156,49.316,28.809,20.996,-79.102
1532486036.032,30.273,46.387,31.738,25.391,-32.715
1532486036.036,20.020,40.527,30.762,18.555,340.332
1532486036.040,21.973,28.809,33.203,12.695,-423.828
1532486036.043,23.926,57.617,33.203,13.672,60.059
1532486036.047,23.926,40.527,33.691,22.949,828.613
1532486036.051,30.273,17.578,35.645,29.785,-274.414
1532486036.055,31.738,46.387,30.762,19.531,-781.738
1532486036.059,28.809,48.828,23.438,15.137,-704.102
1532486036.063,26.855,42.969,23.438,31.738,-210.449
1532486036.067,29.785,31.250,28.809,42.969,-39.551
1532486036.071,40.039,35.645,29.785,37.109,-634.277
1532486036.075,41.504,42.969,26.367,39.551,-607.422
1532486036.079,41.504,40.039,24.414,51.270,-58.594
1532486036.083,43.945,48.340,26.855,49.316,444.336
1532486036.086,35.156,50.781,28.320,38.086,808.594
1532486036.090,36.621,19.043,27.832,31.738,-101.074
1532486036.094,42.480,25.391,26.855,40.527,-634.277
1532486036.098,40.039,32.227,27.344,45.410,-547.363
1532486036.102,32.227,27.832,26.855,40.527,-500.488
1532486036.106,42.969,29.297,24.902,37.598,-187.012
1532486036.110,53.711,36.133,26.855,41.504,-448.730
1532486036.114,44.922,35.645,26.855,43.945,-445.801
1532486036.118,31.250,39.062,24.902,37.598,-529.297
1532486036.122,32.227,45.898,26.367,32.227,-515.137
1532486036.126,43.945,46.387,30.273,37.598,284.668
1532486036.129,43.945,40.039,32.715,50.293,475.586
1532486036.133,41.504,38.086,33.203,41.992,327.637
1532486036.137,40.527,31.250,32.715,34.668,-297.852
1532486036.141,39.551,45.410,31.738,43.945,-531.738
1532486036.145,39.551,68.359,34.180,45.898,691.406
1532486036.149,41.504,24.902,38.574,43.945,392.578
1532486036.153,38.086,30.762,33.691,36.621,-606.934
1532486036.157,39.062,46.387,33.691,45.410,-757.812
1532486036.161,44.434,38.574,35.645,53.711,-504.395
1532486036.165,44.922,48.828,38.086,51.758,212.891
1532486036.168,44.434,46.875,40.527,49.805,-251.953
1532486036.172,40.039,57.617,38.574,41.016,-188.965
1532486036.176,42.480,53.223,40.527,50.781,331.055
1532486036.180,40.527,39.551,41.016,53.223,-191.406
1532486036.184,35.156,66.895,39.062,30.273,495.605
1532486036.188,35.156,42.969,43.457,31.250,633.301
1532486036.192,36.133,34.180,39.551,45.410,-506.348
1532486036.196,46.387,57.617,38.086,48.340,-606.445
1532486036.200,41.504,56.641,45.898,40.039,-584.473
1532486036.204,32.227,59.570,44.434,33.203,-139.160
1532486036.208,39.551,45.898,40.527,39.551,-203.613
1532486036.211,38.574,40.527,39.551,41.992,-581.055
1532486036.215,40.039,48.828,39.551,39.062,-409.668
1532486036.219,38.086,56.641,38.086,28.320,-147.949
1532486036.223,31.738,69.824,36.133,23.926,424.316
1532486036.227,38.086,56.641,35.156,40.527,803.711
1532486036.231,40.527,35.156,37.598,44.922,-103.516
1532486036.235,28.809,40.039,38.574,16.602,-668.945
1532486036.239,25.879,39.551,37.109,16.113,-787.598
1532486036.243,27.344,53.223,38.086,33.203,-463.867
1532486036.247,23.926,43.457,39.062,33.203,-35.156
1532486036.251,23.926,34.180,38.574,33.691,-467.285
1532486036.254,26.855,46.875,37.109,30.762,-654.297
1532486036.258,34.180,39.551,36.133,29.785,-659.180
1532486036.262,31.738,38.574,38.086,32.715,-342.285
1532486036.266,28.809,48.828,39.062,33.691,431.152
1532486036.270,30.273,46.875,36.133,23.926,367.676
1532486036.274,22.461,41.016,37.109,21.484,-233.398
1532486036.278,22.949,35.645,40.039,30.762,-523.926
1532486036.282,23.438,35.156,39.551,31.250,-264.648
1532486036.286,21.973,50.293,38.574,27.832,716.797
1532486036.290,27.344,30.762,40.527,21.973,122.070
1532486036.293,23.438,30.762,41.504,28.320,-611.816
1532486036.297,19.043,29.297,41.504,23.926,-545.898
1532486036.301,13.672,34.180,38.574,10.254,-452.148
1532486036.305,13.184,39.551,34.180,19.531,0.000
1532486036.309,19.043,35.645,33.691,21.973,-391.602
1532486036.313,8.301,44.922,34.668,19.531,-35.156
1532486036.317,11.230,34.668,36.133,22.461,251.465
1532486036.321,28.320,46.387,39.062,26.855,-382.324
1532486036.325,23.438,67.383,38.574,22.949,561.523
1532486036.329,18.066,26.855,39.551,14.648,545.898
1532486036.333,14.648,24.902,38.574,9.277,-493.164
1532486036.336,12.695,48.340,33.691,19.531,-556.641
1532486036.340,19.043,48.340,35.645,34.668,-541.992
1532486036.344,20.996,60.059,50.781,32.715,80.078
1532486036.348,8.789,49.805,52.734,13.184,-100.586
1532486036.352,-12.695,37.598,38.574,-11.230,-651.855
1532486036.356,-14.160,43.945,40.527,-11.719,-586.914
1532486036.360,-15.137,57.129,51.758,-5.371,-152.344
1532486036.364,-28.809,69.824,49.805,-23.926,714.355
1532486036.368,-34.180,38.574,41.992,-45.410,685.547
1532486036.372,-19.043,36.133,56.152,-37.109,-445.801
1532486036.376,-34.180,47.363,55.176,-37.109,-711.914
1532486036.379,-56.641,37.109,50.293,-41.016,-568.848
1532486036.383,-66.406,53.223,46.875,-65.430,-118.164
1532486036.387,-58.105,58.594,44.922,-70.312,-166.016
1532486036.391,-40.039,62.012,54.199,-49.805,-651.367
1532486036.395,-67.871,44.434,43.457,-64.941,-445.312
1532486036.399,-95.215,37.598,44.922,-70.801,-496.582
1532486036.403,-94.238,58.105,52.734,-85.449,-243.164
1532486036.407,-80.566,64.453,54.199,-83.496,485.840
1532486036.411,-73.730,49.805,56.152,-62.988,472.168
1532486036.415,-80.078,34.180,57.129,-73.730,57.129
1532486036.418,-77.637,35.645,59.082,-66.406,-551.270
1532486036.422,-70.312,54.688,51.270,-53.223,-383.301
1532486036.426,-66.406,70.801,41.504,-53.223,743.652
1532486036.430,-59.082,36.621,37.109,-44.922,162.109
1532486036.434,-60.059,28.320,48.340,-49.805,-611.328
1532486036.438,-62.500,45.898,58.105,-49.316,-732.422
1532486036.442,-48.340,52.734,61.035,-32.227,-525.391
1532486036.446,-41.504,35.156,62.012,-24.414,40.039
1532486036.450,-33.691,31.738,57.129,-26.367,-341.797
1532486036.454,-15.137,58.594,50.293,-12.695,-27.344
1532486036.458,1.953,44.922,29.297,4.883,245.605
1532486036.461,10.742,27.344,17.090,6.348,-114.258
1532486036.465,15.137,52.246,35.156,5.371,696.289
1532486036.469,22.949,28.320,42.969,19.043,184.082
1532486036.473,34.180,29.297,33.691,35.156,-781.250
1532486036.477,52.246,38.574,30.273,43.457,-745.117
1532486036.481,55.176,29.297,29.297,41.992,-497.070
1532486036.485,51.270,29.785,23.926,56.641,42.969
1532486036.489,65.430,23.926,23.926,73.242,-448.730
1532486036.493,70.312,25.391,19.531,68.359,-695.801
1532486036.497,66.406,20.996,17.090,67.871,-477.539
1532486036.500,79.590,39.062,26.855,82.520,-107.910
1532486036.504,68.848,50.293,18.555,88.867,800.781
1532486036.508,62.988,6.836,8.789,85.938,501.465
1532486036.512,84.961,7.812,12.207,91.797,-436.523
1532486036.516,89.355,11.230,5.859,91.309,-635.254
1532486036.520,88.867,10.254,-7.324,77.637,-733.398
1532486036.524,83.496,38.574,-3.906,85.938,-92.773
1532486036.528,90.820,27.344,10.742,102.539,-136.719
1532486036.532,94.727,20.996,21.484,104.980,-554.199
1532486036.536,79.590,26.855,30.273,90.820,-567.871
1532486036.540,82.031,28.809,31.250,80.078,-720.215
1532486036.543,90.332,40.039,33.203,89.355,-124.512
1532486036.547,90.820,34.180,34.180,104.980,463.867
1532486036.551,89.355,35.156,32.227,102.051,374.023
1532486036.555,93.262,38.574,31.738,91.309,-129.395
1532486036.559,87.891,26.855,31.250,92.285,-660.645
1532486036.563,84.961,57.129,36.621,91.797,-43.457
1532486036.567,79.102,47.363,30.273,82.520,815.918
1532486036.571,68.359,8.789,21.484,69.336,-199.707
1532486036.575,71.777,24.902,27.832,71.777,-749.023
1532486036.579,70.312,19.043,29.785,71.289,-580.078
1532486036.583,65.430,28.809,29.297,75.684,-306.641
1532486036.586,67.383,39.551,32.227,76.660,-108.887
1532486036.590,67.871,38.086,32.227,69.336,-570.312
1532486036.594,67.871,52.734,28.320,73.242,-2.930
1532486036.598,70.801,35.645,29.297,69.336,324.219
1532486036.602,65.918,38.086,31.738,63.477,-85.938
1532486036.606,65.430,62.012,27.832,59.570,670.410
1532486036.610,71.777,20.020,25.879,63.477,159.180
1532486036.614,66.406,16.602,27.344,63.965,-592.773
1532486036.618,54.199,36.621,32.715,53.711,-669.922
1532486036.622,53.711,46.387,34.180,53.223,-638.184
1532486036.625,52.734,40.039,34.668,64.453,-83.496
1532486036.629,63.477,40.527,43.945,70.312,-322.754
1532486036.633,61.035,43.945,36.621,61.035,-559.570
1532486036.637,37.109,34.668,20.020,38.574,-654.297
1532486036.641,39.551,50.781,20.508,33.203,-140.137
1532486036.645,44.922,49.316,23.926,35.156,873.047
1532486036.649,40.527,10.254,26.855,39.062,320.801
1532486036.653,40.039,22.461,26.367,42.480,-605.957
1532486036.657,41.016,44.922,26.367,42.969,-798.828
1532486036.661,40.527,48.340,29.297,53.223,-572.754
1532486036.665,35.156,50.293,29.785,50.781,173.828
1532486036.668,34.180,31.250,29.297,32.715,-264.648
1532486036.672,42.480,39.551,30.273,36.133,-727.051
1532486036.676,47.852,49.805,31.738,46.875,-575.684
1532486036.680,45.410,46.875,31.738,45.410,-438.965
1532486036.684,43.945,44.922,28.809,41.016,235.352
1532486036.688,41.016,33.203,25.391,35.645,352.539
1532486036.692,40.527,42.480,27.832,36.621,291.992
1532486036.696,42.969,37.598,34.180,40.527,242.676
1532486036.700,44.434,29.785,36.133,42.480,-440.918
1532486036.704,40.527,66.895,33.203,33.203,166.992
1532486036.708,35.156,41.016,32.227,36.621,778.809
1532486036.711,29.785,10.742,32.715,45.898,-241.699
1532486036.715,25.391,36.133,23.438,44.434,-565.430
1532486036.719,26.367,44.922,21.973,39.062,-685.059
1532486036.723,26.367,59.082,32.227,29.785,-349.121
1532486036.727,24.414,41.504,39.551,36.133,-84.961
1532486036.731,23.926,23.926,40.527,33.203,-462.891
1532486036.735,18.555,43.457,37.109,26.855,24.414
1532486036.739,19.531,41.504,30.273,26.855,162.598
1532486036.743,24.902,42.480,27.832,29.297,23.926
1532486036.747,16.113,46.387,30.762,32.227,757.812
1532486036.750,18.555,18.555,33.203,19.043,-13.672
1532486036.754,19.531,33.203,34.180,17.578,-815.430
1532486036.758,19.531,53.223,34.180,29.297,-600.586
1532486036.762,23.926,39.062,31.738,24.414,-297.852
1532486036.766,17.578,22.949,28.809,19.043,-63.477
1532486036.770,18.555,26.367,33.203,16.602,-511.230
1532486036.774,23.438,41.504,32.227,15.625,-689.453
1532486036.778,22.949,38.086,31.738,29.297,-557.617
1532486036.782,33.203,53.223,46.387,52.246,63.965
1532486036.786,27.344,59.570,42.480,39.551,868.652
1532486036.790,17.090,13.672,27.832,15.625,55.176
1532486036.793,21.973,14.160,25.879,18.555,-622.559
1532486036.797,24.902,25.391,26.855,20.508,-588.867
1532486036.801,21.973,25.391,28.809,15.625,-497.070
1532486036.805,23.438,35.645,30.273,16.602,-14.648
1532486036.809,34.668,30.273,32.715,28.809,-387.695
1532486036.813,33.691,20.020,31.738,37.109,-510.742
1532486036.817,22.461,22.949,30.273,24.414,-508.301
1532486036.821,16.602,31.250,30.273,5.371,-536.621
1532486036.825,17.090,40.039,28.809,14.160,128.906
1532486036.829,17.090,43.945,29.785,25.391,315.430
1532486036.832,20.020,38.086,31.250,5.859,337.891
1532486036.836,22.949,28.320,29.785,16.602,-169.434
1532486036.840,23.926,42.969,28.809,23.926,-625.488
1532486036.844,12.695,68.848,26.855,14.648,519.043
1532486036.848,7.324,19.531,30.762,14.648,689.941
1532486036.852,14.160,9.766,29.785,7.812,-429.199
1532486036.856,18.066,35.645,31.250,4.883,-719.727
1532486036.860,18.066,40.039,37.109,14.160,-623.535
1532486036.864,12.207,48.340,35.156,17.578,99.609
1532486036.868,12.207,28.320,32.715,11.230,-68.359
1532486036.872,18.066,31.738,31.250,8.301,-676.758
1532486036.875,24.414,54.199,30.762,20.020,-11.719
1532486036.879,21.484,34.180,29.297,32.227,278.809
1532486036.883,16.113,49.805,35.156,24.414,369.629
1532486036.887,15.137,54.199,30.762,15.625,748.047
1532486036.891,27.344,24.902,31.738,20.508,-259.277
1532486036.895,39.551,51.758,48.828,36.133,-649.902
1532486036.899,23.438,37.598,37.109,24.414,-583.496
1532486036.903,15.137,28.809,30.273,10.742,-395.508
1532486036.907,26.855,32.227,35.645,31.250,-188.477
1532486036.911,37.598,29.297,33.203,38.086,-499.512
1532486036.915,38.574,35.156,36.133,25.391,-460.938
1532486036.918,28.320,38.086,33.203,24.902,-579.102
1532486036.922,26.855,62.500,26.855,32.715,-30.273
1532486036.926,33.691,69.336,33.691,31.250,854.492
1532486036.930,34.668,31.738,39.062,35.156,99.121
1532486036.934,31.250,32.227,40.039,29.785,-601.562
1532486036.938,28.320,43.457,38.574,22.949,-754.883
1532486036.942,24.902,41.504,35.156,36.621,-577.637
1532486036.946,26.367,36.621,39.062,44.434,6.836
1532486036.950,31.738,28.809,39.062,40.039,-347.656
1532486036.954,33.203,36.621,36.621,30.273,-646.484
1532486036.957,28.320,50.293,37.109,35.156,-666.504
1532486036.961,24.902,44.922,37.109,47.852,-369.141
1532486036.965,23.438,41.016,37.109,37.598,240.234
1532486036.969,35.645,58.594,43.457,39.551,208.984
1532486036.973,41.016,62.988,36.133,42.480,372.070
1532486036.977,28.809,28.809,21.973,30.762,220.703
1532486036.981,19.531,30.273,24.902,23.926,-227.539
1532486036.985,13.672,60.547,24.414,14.160,677.734
1532486036.989,20.020,26.367,25.879,16.602,377.930
1532486036.993,29.297,24.414,29.297,25.391,-582.031
1532486036.997,32.227,37.109,34.180,34.668,-575.684
1532486037.000,24.414,43.945,33.691,25.391,-518.066
1532486037.004,17.578,56.152,27.344,17.090,91.797
1532486037.008,24.414,41.992,27.344,22.949,-255.371
1532486037.012,31.738,42.969,28.809,27.832,-568.359
1532486037.016,31.250,50.293,27.344,26.855,71.777
1532486037.020,23.438,46.875,25.879,22.461,168.457
1532486037.024,23.438,62.012,29.297,16.113,543.945
1532486037.028,32.227,45.410,31.738,28.320,695.312
1532486037.032,32.227,29.785,30.273,43.945,-323.242
1532486037.036,25.391,42.969,28.809,29.297,-735.840
1532486037.040,18.555,52.246,27.344,23.438,-817.871
1532486037.043,17.090,66.406,26.367,29.297,-243.652
1532486037.047,23.926,49.316,30.273,23.438,-73.242
1532486037.051,25.391,46.387,35.645,10.742,-580.078
1532486037.055,31.250,55.176,35.645,20.996,-650.391
1532486037.059,37.598,50.781,32.715,31.738,-680.664
1532486037.063,28.809,67.871,35.645,29.297,142.090
1532486037.067,30.273,59.082,33.691,21.484,863.281
1532486037.071,33.691,34.668,28.809,16.602,-224.609
1532486037.075,25.391,44.434,35.156,22.949,-751.953
1532486037.079,39.551,57.617,51.758,37.598,-599.121
1532486037.082,29.785,59.570,44.434,32.715,-349.609
1532486037.086,8.301,41.504,31.738,22.949,-140.137
1532486037.090,17.090,43.457,35.645,23.926,-580.078
1532486037.094,25.391,49.805,35.156,30.762,-538.574
1532486037.098,27.832,38.574,31.738,35.645,-451.172
1532486037.102,32.715,42.969,41.992,32.227,-389.160
1532486037.106,36.133,50.293,49.805,43.945,-40.039
1532486037.110,23.926,48.828,36.621,36.621,167.969
1532486037.114,16.113,53.711,39.551,25.391,380.371
1532486037.118,15.625,41.016,45.410,26.367,-208.008
1532486037.122,20.996,43.457,41.016,19.531,-464.844
1532486037.125,35.156,74.219,37.598,25.879,696.289
1532486037.129,29.297,43.457,40.527,29.297,333.496
1532486037.133,18.555,29.297,42.480,30.762,-512.207
1532486037.137,35.156,45.410,41.992,38.574,-703.125
1532486037.141,35.645,58.594,39.062,34.180,-591.797
1532486037.145,18.066,58.105,37.598,22.461,154.785
1532486037.149,16.602,44.434,39.062,19.531,-206.055
1532486037.153,21.484,56.152,33.203,17.090,-605.957
1532486037.157,31.738,68.848,30.273,31.250,-81.055
1532486037.161,33.691,67.871,35.156,40.527,312.012
1532486037.165,21.484,71.777,35.156,21.973,837.402
1532486037.168,20.020,41.016,36.621,25.391,454.102
1532486037.172,27.344,41.992,38.574,41.992,-596.191
1532486037.176,28.320,51.758,35.645,38.574,-743.652
1532486037.180,31.738,52.734,35.645,38.086,-396.973
1532486037.184,28.809,63.477,39.062,35.156,213.379
1532486037.188,26.367,49.316,42.969,30.273,-288.574
1532486037.192,34.180,53.223,41.504,41.992,-697.754
1532486037.196,42.480,50.293,39.062,42.480,-448.730
1532486037.200,35.156,49.805,38.574,33.691,-548.828
1532486037.204,13.184,76.660,35.156,31.250,253.906
1532486037.207,17.090,50.293,38.086,37.598,562.988
1532486037.211,23.926,45.410,41.504,47.852,-366.211
1532486037.215,13.184,53.711,41.504,38.086,-503.418
1532486037.219,18.555,44.434,49.316,25.391,-668.945
1532486037.223,22.949,63.477,44.922,29.297,-288.574
1532486037.227,27.344,57.617,31.250,37.598,93.750
1532486037.231,35.645,52.734,38.574,42.969,-373.047
1532486037.235,30.762,52.734,48.828,38.086,-505.859
1532486037.239,30.273,58.105,40.039,25.391,-643.555
1532486037.243,38.086,69.824,36.621,28.809,-332.031
1532486037.247,44.434,61.523,40.039,39.551,101.074
1532486037.250,35.156,61.523,40.039,31.738,246.094
1532486037.254,37.109,55.664,37.598,35.156,210.938
1532486037.258,42.480,46.875,31.250,36.621,-454.102
1532486037.262,37.109,62.988,33.691,31.738,-272.461
1532486037.266,35.156,62.012,35.645,30.762,781.250
1532486037.270,32.715,26.855,32.715,28.320,68.359
1532486037.274,27.344,42.480,31.250,39.551,-701.660
1532486037.278,36.621,58.105,31.738,45.898,-582.520
1532486037.282,42.969,55.176,38.574,43.457,-342.773
1532486037.286,34.180,55.176,43.945,36.621,49.805
1532486037.289,39.551,50.293,39.551,37.598,-460.938
1532486037.293,39.551,52.246,35.156,39.551,-542.969
1532486037.297,35.156,49.805,32.715,41.016,34.668
1532486037.301,31.738,50.781,35.156,34.668,168.945
1532486037.305,31.738,72.266,35.156,24.902,721.191
1532486037.309,38.574,39.062,29.785,45.410,312.012
1532486037.313,37.598,28.809,31.738,53.223,-479.492
1532486037.317,37.598,42.969,41.016,42.480,-610.840
1532486037.321,30.273,45.898,40.039,36.133,-624.512
1532486037.325,28.320,45.898,34.668,27.832,46.387
1532486037.329,37.109,40.039,37.109,35.156,-196.777
1532486037.332,34.668,46.875,41.016,35.645,-508.789
1532486037.336,31.250,45.898,38.574,30.273,-555.664
1532486037.340,30.762,58.105,41.016,31.738,-662.109
1532486037.344,26.855,85.449,42.969,36.133,458.984
1532486037.348,36.133,48.828,41.504,41.016,554.199
1532486037.352,39.551,42.969,43.457,45.410,-475.098
1532486037.356,37.109,63.477,46.875,45.898,-676.270
1532486037.360,39.062,64.453,42.480,39.062,-630.859
1532486037.364,36.133,69.336,46.387,39.062,158.691
1532486037.368,32.227,44.922,47.852,40.527,76.172
1532486037.372,32.715,45.898,42.969,34.668,-646.484
1532486037.375,37.109,52.246,45.410,30.762,-556.152
1532486037.379,39.551,49.316,45.898,33.691,-445.312
1532486037.383,26.855,61.523,43.457,30.273,-22.461
1532486037.387,20.996,49.316,42.480,24.414,-29.297
1532486037.391,30.762,52.246,39.551,25.391,-25.391
1532486037.395,34.668,57.129,36.133,32.715,490.723
1532486037.399,34.668,34.668,35.645,33.203,100.098
1532486037.403,32.227,57.617,36.133,26.367,-46.875
1532486037.407,24.414,70.312,35.645,28.809,769.043
1532486037.411,30.762,33.203,39.062,38.086,22.949
1532486037.414,33.203,39.551,41.992,39.551,-546.387
1532486037.418,18.555,45.898,41.992,35.156,-608.887
1532486037.422,18.555,49.805,35.645,26.855,-544.922
1532486037.426,32.227,42.969,34.180,29.785,-68.359
1532486037.430,32.227,35.645,38.574,31.250,-327.148
1532486037.434,28.320,48.340,39.062,27.344,-481.934
1532486037.438,34.668,64.941,45.410,41.016,-145.508
1532486037.442,31.738,68.359,39.551,46.387,309.082
1532486037.446,20.996,57.617,27.344,28.320,846.680
1532486037.450,25.391,25.879,33.203,24.414,152.344
1532486037.454,23.438,27.832,35.156,21.973,-677.734
1532486037.457,29.785,41.016,32.715,23.438,-800.781
1532486037.461,35.156,50.293,34.180,41.992,-503.418
1532486037.465,36.133,44.922,38.086,47.363,106.445
1532486037.469,35.645,40.527,34.668,38.086,-401.855
1532486037.473,27.344,55.176,31.250,32.715,-697.266
1532486037.477,37.109,53.223,35.156,37.109,-577.148
1532486037.481,41.016,49.316,35.645,39.062,-406.250
1532486037.485,32.715,45.898,34.180,28.809,559.570
1532486037.489,17.090,48.828,36.133,33.691,314.453
1532486037.493,15.625,60.059,37.598,46.387,-430.176
1532486037.497,28.320,52.734,34.668,43.945,-395.020
1532486037.500,26.855,56.152,30.273,30.273,-413.086
1532486037.504,23.438,81.543,30.273,17.578,519.531
1532486037.508,29.785,51.270,35.156,31.250,404.297
1532486037.512,33.691,44.434,38.086,33.203,-421.875
1532486037.516,29.785,56.641,41.016,27.832,-465.332
1532486037.520,19.531,56.152,43.945,36.621,-574.219
1532486037.524,22.461,60.547,43.945,31.250,12.207
1532486037.528,28.809,47.363,42.969,32.715,-25.391
1532486037.532,19.531,52.734,41.992,31.738,106.445
1532486037.536,13.672,47.363,40.527,29.297,278.320
1532486037.539,22.949,40.527,41.992,32.227,-564.941
1532486037.543,25.391,65.918,41.504,26.367,33.691
1532486037.547,22.949,50.293,38.574,27.832,853.516
1532486037.551,22.949,26.855,38.086,34.668,-193.359
1532486037.555,27.344,49.316,41.992,36.621,-725.098
1532486037.559,41.504,58.594,48.828,45.410,-680.664
1532486037.563,24.414,48.828,35.645,21.484,-226.074
1532486037.567,12.207,34.668,29.785,14.160,15.137
1532486037.571,21.973,41.016,35.645,29.785,-557.617
1532486037.575,21.484,51.270,34.668,25.391,-576.172
1532486037.579,28.320,50.781,36.621,22.949,-18.066
1532486037.582,29.785,57.617,41.016,25.391,470.703
1532486037.586,20.996,58.594,38.574,22.949,816.895
1532486037.590,26.367,35.645,36.621,24.414,-50.781
1532486037.594,35.645,36.133,36.621,30.762,-621.094
1532486037.598,30.273,39.062,34.668,35.645,-546.387
1532486037.602,11.230,51.758,33.691,30.273,-369.141
1532486037.606,13.184,50.293,41.504,34.180,-89.355
1532486037.610,26.855,45.410,43.945,40.039,-465.820
1532486037.614,8.301,50.293,42.969,37.598,-441.406
1532486037.618,-3.418,42.969,41.504,34.180,-496.094
1532486037.621,9.766,49.316,26.367,29.297,-511.230
1532486037.625,25.879,61.035,24.414,33.691,322.754
1532486037.629,32.227,52.734,38.574,36.133,526.855
1532486037.633,24.414,37.109,42.969,36.621,-16.602
1532486037.637,25.391,39.551,39.062,32.715,-546.387
1532486037.641,32.715,52.734,38.086,33.691,-513.184
1532486037.645,34.668,70.312,37.598,26.367,664.551
1532486037.649,34.668,34.180,39.551,16.113,468.262
1532486037.653,32.227,32.227,41.992,27.344,-519.531
1532486037.657,39.062,53.711,40.527,35.645,-705.566
1532486037.661,41.016,58.594,39.062,43.945,-487.305
1532486037.664,39.551,54.199,38.574,52.246,255.859
1532486037.668,41.992,42.969,40.039,48.340,-152.344
1532486037.672,34.180,62.988,40.039,40.527,-91.309
1532486037.676,28.320,55.664,37.598,38.574,378.418
1532486037.680,24.414,38.086,37.598,49.316,-184.570
1532486037.684,22.949,73.242,37.109,39.062,456.543
1532486037.688,32.227,50.293,36.133,34.668,670.898
1532486037.692,32.715,23.438,36.621,40.527,-468.750
1532486037.696,36.133,40.527,38.086,41.016,-600.098
1532486037.700,45.410,45.410,38.574,41.992,-557.617
1532486037.704,37.598,64.941,38.086,35.645,-141.113
1532486037.707,35.645,53.223,39.062,43.457,-178.223
1532486037.711,41.016,43.457,37.598,48.828,-565.430
1532486037.715,33.691,51.270,36.621,39.551,-402.344
1532486037.719,29.785,53.223,36.621,32.227,-142.578
1532486037.723,26.855,65.430,39.062,26.367,422.852
1532486037.727,23.438,59.082,36.133,32.715,819.824
1532486037.731,26.855,34.180,32.227,37.109,-74.707
1532486037.735,31.250,41.504,39.062,37.109,-645.020
1532486037.739,37.598,44.922,39.551,34.668,-772.949
1532486037.743,35.645,59.570,37.598,27.832,-499.023
1532486037.746,31.738,54.688,41.016,41.016,-35.645
1532486037.750,32.715,40.527,40.527,43.457,-431.641
1532486037.754,29.785,52.246,35.156,33.203,-626.465
1532486037.758,31.738,56.152,34.668,34.668,-655.762
1532486037.762,33.691,52.734,34.180,42.480,-362.305
1532486037.766,27.832,53.223,37.109,45.410,456.543
1532486037.770,20.508,52.246,35.645,28.809,389.160
1532486037.774,30.273,47.852,30.273,27.344,-230.469
1532486037.778,40.527,40.039,37.109,32.715,-537.109
1532486037.782,30.273,53.223,40.039,28.809,-265.137
1532486037.786,20.020,72.266,38.574,27.344,716.309
1532486037.789,30.273,42.480,40.039,26.855,95.703
1532486037.793,38.574,42.969,38.086,34.180,-598.633
1532486037.797,33.691,40.527,36.621,39.551,-530.273
1532486037.801,29.785,50.781,37.109,32.715,-398.438
1532486037.805,36.133,59.570,38.574,32.227,482.910
1532486037.809,42.480,32.715,38.574,36.621,-94.727
1532486037.813,32.715,46.387,38.086,42.969,-100.098
1532486037.817,24.902,47.852,34.668,35.156,370.117
1532486037.821,24.902,46.387,27.344,37.109,-237.793
1532486037.825,29.785,75.684,29.297,38.086,545.410
1532486037.829,35.645,38.574,37.598,37.109,562.988
1532486037.832,36.133,28.320,42.480,29.297,-478.027
1532486037.836,34.180,52.734,41.016,22.461,-741.211
1532486037.840,29.785,59.082,36.133,28.320,-759.766
1532486037.844,31.738,63.965,36.621,43.457,24.414
1532486037.848,34.180,46.875,39.062,46.875,-90.820
1532486037.852,34.180,43.457,40.039,29.785,-648.438
1532486037.856,33.203,52.734,41.016,30.273,-625.977
1532486037.860,35.156,62.012,40.527,43.457,-196.289
1532486037.864,38.574,69.336,38.086,39.062,653.809
1532486037.868,35.645,39.062,38.086,25.879,713.867
1532486037.871,29.785,21.484,38.574,30.762,-432.617
1532486037.875,28.320,39.551,41.016,34.180,-772.461
1532486037.879,33.203,41.504,39.551,32.715,-624.023
1532486037.883,32.227,52.734,36.621,34.668,-202.148
1532486037.887,29.297,46.387,36.621,37.109,-199.707
1532486037.891,40.527,51.758,33.691,41.992,-688.477
1532486037.895,58.105,58.594,36.621,60.547,-496.582
1532486037.899,41.504,39.551,44.434,59.082,-503.906
1532486037.903,11.230,46.387,46.875,24.414,-288.086
1532486037.907,15.137,52.734,46.387,24.414,425.781
1532486037.911,31.250,50.781,44.922,47.852,406.250
1532486037.914,28.320,39.062,45.410,43.457,7.812
1532486037.918,14.160,24.414,49.316,34.180,-547.363
1532486037.922,10.254,47.363,49.805,38.574,-425.293
1532486037.926,15.625,57.617,46.875,45.410,713.867
1532486037.930,26.367,26.367,43.945,46.387,184.570
1532486037.934,34.180,39.062,47.363,42.480,-588.867
1532486037.938,25.391,52.734,49.316,34.180,-722.656
1532486037.942,21.973,47.363,46.875,29.297,-563.965
1532486037.946,28.320,35.156,47.363,36.133,33.691
1532486037.950,29.785,36.133,47.852,43.945,-318.359
1532486037.954,21.973,61.523,41.992,46.387,-83.496
1532486037.957,24.902,53.223,35.156,49.805,227.051
1532486037.961,31.250,43.945,40.039,56.152,-110.352
1532486037.965,24.414,63.477,46.875,46.387,687.012
1532486037.969,25.391,36.133,49.316,31.250,256.348
1532486037.973,24.902,32.715,43.945,23.438,-728.027
1532486037.977,20.020,42.969,42.480,32.227,-724.609
1532486037.981,22.461,42.969,39.062,43.457,-462.891
1532486037.985,26.855,41.992,25.879,40.527,119.629
1532486037.989,24.414,33.691,34.668,39.551,-378.418
1532486037.993,30.273,43.457,36.621,31.738,-694.336
1532486037.996,38.086,49.316,41.016,25.391,-450.195
1532486038.000,29.785,53.223,48.340,25.391,-66.895
1532486038.004,17.090,64.453,41.504,10.742,801.270
1532486038.008,24.414,33.203,45.410,11.719,540.039
1532486038.012,32.227,23.926,47.363,19.531,-416.016
1532486038.016,25.391,35.156,44.922,21.973,-594.727
1532486038.020,26.855,38.574,44.434,26.855,-701.172
1532486038.024,29.785,56.152,41.016,23.926,-117.676
1532486038.028,30.273,46.875,40.039,35.645,-110.352
1532486038.032,30.273,41.504,43.457,40.039,-522.461
1532486038.036,31.738,47.363,45.898,31.738,-528.809
1532486038.039,35.645,52.734,45.898,28.809,-731.934
1532486038.043,34.180,59.570,41.504,32.715,-159.180
1532486038.047,34.180,47.363,39.551,46.387,500.977
1532486038.051,30.273,37.598,38.574,45.898,372.070
1532486038.055,24.414,37.109,39.551,28.320,-135.254
1532486038.059,29.297,36.133,40.039,33.203,-668.945
1532486038.063,27.344,59.570,36.133,30.273,-85.449
1532486038.067,26.855,56.152,40.039,20.508,822.266
1532486038.071,34.668,24.414,43.457,20.020,-152.344
1532486038.075,29.785,33.691,42.969,22.461,-764.160
1532486038.078,26.855,38.086,42.480,34.180,-595.215
1532486038.082,23.926,41.504,41.992,27.344,-302.734
1532486038.086,26.367,38.086,43.457,24.414,-89.355
1532486038.090,32.227,41.992,40.039,22.461,-564.941
1532486038.094,34.180,58.594,37.598,25.391,-22.461
1532486038.098,31.738,41.016,38.086,31.738,312.988
1532486038.102,32.715,40.039,39.062,20.508,-70.312
1532486038.106,29.297,63.965,41.504,22.461,654.785
1532486038.110,33.691,40.039,42.969,39.062,102.051
1532486038.114,34.180,36.621,36.133,36.621,-544.434
1532486038.118,29.785,40.039,35.156,30.762,-621.094
1532486038.121,30.273,49.316,35.156,34.180,-565.430
1532486038.125,29.297,58.105,31.738,41.504,425.293
1532486038.129,31.738,34.180,36.621,47.852,-46.387
1532486038.133,31.738,31.250,41.992,37.109,-583.496
1532486038.137,34.668,40.039,41.016,26.367,-622.559
1532486038.141,35.645,59.570,35.156,30.273,-154.297
1532486038.145,27.832,67.871,35.645,40.527,863.770
1532486038.149,29.297,25.391,37.598,43.457,368.164
1532486038.153,28.320,26.855,37.109,34.180,-596.680
1532486038.157,25.879,42.969,37.109,24.902,-838.379
1532486038.161,30.273,45.410,34.180,21.484,-640.137
1532486038.164,31.738,45.898,34.180,23.926,144.043
1532486038.168,30.762,37.109,34.668,28.809,-244.141
1532486038.172,33.691,50.293,34.668,32.715,-759.766
1532486038.176,36.133,50.293,35.645,49.805,-624.023
1532486038.180,36.621,48.340,34.668,49.805,-479.492
1532486038.184,33.203,57.617,36.133,30.273,195.312
1532486038.188,34.180,50.781,37.598,20.996,360.840
1532486038.192,42.969,55.664,37.598,37.109,270.996
1532486038.196,38.574,42.969,37.109,48.340,232.910
1532486038.200,36.133,26.367,39.062,40.527,-431.152
1532486038.203,27.832,65.430,36.621,22.949,97.168
1532486038.207,25.879,53.223,36.621,31.738,784.668
1532486038.211,35.156,28.320,41.504,53.223,-224.609
1532486038.215,35.156,41.504,42.969,46.875,-566.406
1532486038.219,32.227,41.504,41.992,24.902,-669.922
1532486038.223,23.926,54.199,38.574,26.855,-409.180
1532486038.227,28.809,42.969,38.086,46.875,-117.676
1532486038.231,35.156,37.109,42.480,42.969,-452.637
1532486038.235,23.926,55.176,42.969,27.344,31.738
1532486038.239,22.949,45.410,40.039,32.227,189.453
1532486038.243,28.320,50.781,40.527,43.457,17.578
1532486038.246,27.344,59.082,41.992,40.527,741.211
1532486038.250,28.320,20.508,44.434,41.504,29.297
1532486038.254,24.414,33.203,43.457,41.016,-801.270
1532486038.258,26.855,45.410,41.992,44.922,-809.082
1532486038.262,37.598,42.480,39.062,44.434,-496.094
1532486038.266,36.621,43.457,39.551,40.039,-28.809
1532486038.270,25.391,47.852,39.062,41.992,-488.281
1532486038.274,25.879,47.852,37.109,41.016,-722.168
1532486038.278,29.785,42.480,38.086,42.480,-577.637
1532486038.282,25.879,59.082,40.039,27.344,62.500
1532486038.286,21.973,64.941,40.039,20.996,875.488
1532486038.289,29.297,30.273,35.156,33.691,61.523
1532486038.293,36.621,37.598,35.156,41.504,-657.227
1532486038.297,39.062,47.363,39.551,43.945,-599.609
1532486038.301,34.180,39.551,38.574,43.945,-483.887
1532486038.305,32.227,43.457,37.109,40.039,-16.602
1532486038.309,35.645,45.898,34.180,44.434,-422.363
1532486038.313,30.273,45.410,30.762,40.527,-534.180
1532486038.317,33.203,37.598,32.715,23.926,-488.281
1532486038.321,31.738,45.410,34.180,31.738,-545.410
1532486038.325,33.203,54.688,34.668,40.527,120.605
1532486038.328,32.227,54.688,36.621,40.039,315.918
1532486038.332,28.809,53.711,38.574,48.340,361.328
1532486038.336,25.391,41.016,34.668,38.086,-152.344
1532486038.340,25.879,45.898,34.180,20.508,-689.941
1532486038.344,25.879,74.219,32.715,17.090,448.242
1532486038.348,22.461,39.062,33.203,27.832,730.469
1532486038.352,19.531,24.414,37.598,31.250,-416.016
1532486038.356,21.484,44.922,32.227,6.836,-763.672
1532486038.360,25.391,47.852,30.273,12.695,-671.875
1532486038.364,21.973,56.641,28.320,23.926,52.246
1532486038.368,23.926,38.086,27.832,12.695,-39.062
1532486038.371,24.414,39.551,23.926,19.043,-669.434
1532486038.375,20.020,59.082,21.973,29.297,-49.805
1532486038.379,25.391,46.875,27.344,38.086,269.043
1532486038.383,20.996,51.758,28.320,43.457,339.355
1532486038.387,18.066,51.270,28.809,34.180,759.766
1532486038.391,24.902,29.297,29.297,27.344,-238.281
1532486038.395,28.320,40.039,27.344,38.086,-654.785
1532486038.399,31.250,44.434,29.785,36.133,-547.852
1532486038.403,26.855,52.246,29.785,20.996,-401.367
1532486038.407,22.461,47.852,29.785,24.414,-197.266
1532486038.410,27.832,46.387,32.715,35.156,-497.070
1532486038.414,28.809,47.852,31.738,32.715,-444.336
1532486038.418,25.879,38.574,34.180,27.832,-543.945
1532486038.422,34.668,65.430,34.668,31.738,-40.527
1532486038.426,33.691,71.289,31.738,38.086,846.680
1532486038.430,26.855,32.715,33.203,39.062,136.230
1532486038.434,21.973,39.062,33.691,36.133,-566.406
1532486038.438,24.414,51.758,34.668,26.855,-752.930
1532486038.442,33.203,44.922,33.203,33.203,-624.023
1532486038.446,39.551,43.945,30.273,47.852,123.047
1532486038.450,39.551,39.062,32.227,37.109,-193.359
1532486038.453,32.715,39.551,34.668,26.855,-630.859
