timestamps,TP9,AF7,AF8,TP10,Right AUX
1532069126.737,-31.250,54.199,82.031,-38.574,7.324
1532069126.741,-45.410,56.152,82.031,-49.316,135.742
1532069126.745,-52.246,56.641,86.426,-53.711,99.609
1532069126.749,-55.176,52.734,91.797,-57.617,-48.828
1532069126.753,-59.570,58.105,88.867,-61.035,-30.273
1532069126.757,-61.035,68.848,83.496,-65.918,90.332
1532069126.761,-61.035,70.312,82.520,-65.430,96.680
1532069126.765,-67.871,62.500,84.473,-66.406,-33.691
1532069126.769,-69.824,56.152,82.520,-70.312,-104.004
1532069126.773,-59.570,61.035,79.102,-64.453,45.898
1532069126.776,-51.758,68.359,76.660,-53.223,135.254
1532069126.780,-54.199,62.500,69.336,-52.246,20.020
1532069126.784,-49.805,57.617,63.965,-50.781,-94.238
1532069126.788,-28.809,53.711,59.570,-36.133,-15.625
1532069126.792,-18.555,41.992,52.734,-24.414,142.578
1532069126.796,-15.137,38.086,43.457,-18.066,93.750
1532069126.800,-6.348,52.734,33.203,-9.766,-82.031
1532069126.804,4.395,50.293,25.879,1.953,-47.852
1532069126.808,14.648,38.574,26.367,11.230,112.793
1532069126.812,13.672,36.133,27.344,15.137,98.145
1532069126.816,15.137,30.762,21.973,16.602,-39.062
1532069126.819,22.949,25.391,15.137,19.531,-64.453
1532069126.823,24.902,25.879,10.742,21.973,78.125
1532069126.827,27.344,24.902,6.348,23.926,129.883
1532069126.831,33.691,20.508,8.789,28.809,10.742
1532069126.835,41.504,20.996,5.859,35.156,-56.152
1532069126.839,48.340,22.461,-0.977,40.527,48.340
1532069126.843,47.363,16.113,0.977,37.109,145.508
1532069126.847,47.852,17.578,1.953,36.621,23.438
1532069126.851,55.664,22.461,0.977,40.039,-87.891
1532069126.855,60.059,20.508,-1.465,39.062,5.859
1532069126.859,65.430,19.043,-0.977,41.016,132.812
1532069126.862,70.801,19.531,1.465,44.434,71.777
1532069126.866,74.707,17.090,-0.488,47.852,-83.496
1532069126.870,77.148,11.719,-0.488,54.688,-34.180
1532069126.874,70.312,12.695,0.977,60.547,137.695
1532069126.878,58.105,14.160,2.441,62.500,112.793
1532069126.882,50.781,11.719,-1.953,60.547,-20.996
1532069126.886,49.805,11.719,-4.883,58.105,-46.875
1532069126.890,48.828,13.184,-2.441,58.105,83.496
1532069126.894,48.340,10.254,-0.977,61.523,132.324
1532069126.898,51.758,16.113,3.906,62.988,-13.184
1532069126.901,53.711,20.020,4.395,59.570,-97.168
1532069126.905,57.129,15.137,0.000,56.152,2.441
1532069126.909,53.711,12.695,3.418,55.176,130.859
1532069126.913,52.734,16.113,4.883,52.246,66.406
1532069126.917,56.641,20.508,3.906,50.781,-70.801
1532069126.921,57.617,23.438,2.441,50.781,8.301
1532069126.925,55.664,20.508,2.930,48.828,144.531
1532069126.929,48.340,17.578,6.348,48.828,92.285
1532069126.933,49.805,21.484,6.348,48.828,-21.973
1532069126.937,51.270,22.949,6.836,47.852,-22.949
1532069126.941,43.457,22.461,6.348,47.363,114.258
1532069126.944,43.457,26.367,9.766,48.828,122.559
1532069126.948,43.457,30.273,14.160,50.293,-34.668
1532069126.952,41.016,24.414,8.789,46.387,-74.707
1532069126.956,40.527,18.555,4.883,46.387,55.176
1532069126.960,36.621,20.508,7.324,46.875,132.812
1532069126.964,34.668,16.602,11.719,45.898,3.906
1532069126.968,35.156,17.090,13.672,48.340,-87.891
1532069126.972,41.016,25.879,13.672,49.805,44.922
1532069126.976,43.457,28.320,14.648,50.781,137.695
1532069126.980,37.109,23.926,15.137,47.852,36.133
1532069126.984,37.598,24.414,13.672,45.898,-91.797
1532069126.987,42.969,23.438,15.625,44.922,-12.695
1532069126.991,39.551,21.484,17.578,41.016,133.789
1532069126.995,37.598,26.855,19.531,42.969,82.520
1532069126.999,40.039,27.344,17.090,45.898,-49.805
1532069127.003,39.551,25.391,14.160,42.969,-39.062
1532069127.007,41.504,20.508,15.625,40.039,79.102
1532069127.011,43.457,26.367,16.113,41.504,83.496
1532069127.015,39.062,29.785,17.578,41.504,-52.734
1532069127.019,36.133,23.438,16.602,36.621,-98.633
1532069127.023,35.645,26.855,17.090,37.598,43.945
1532069127.027,34.668,31.738,19.043,41.504,132.812
1532069127.030,33.203,29.785,24.414,40.039,30.273
1532069127.034,30.762,24.902,23.438,37.598,-54.688
1532069127.038,37.598,25.879,19.531,40.039,9.277
1532069127.042,39.551,27.832,19.043,40.527,113.281
1532069127.046,38.086,27.832,19.043,39.062,25.879
1532069127.050,36.133,29.297,18.555,36.133,-101.074
1532069127.054,36.133,29.297,18.555,35.645,-11.719
1532069127.058,40.039,29.297,16.602,36.621,120.605
1532069127.062,34.180,28.320,18.066,34.180,107.422
1532069127.066,29.785,24.902,21.484,35.156,-46.387
1532069127.069,32.227,24.902,21.973,33.691,-69.824
1532069127.073,33.203,25.391,24.414,30.762,83.984
1532069127.077,31.738,29.297,27.344,31.738,128.906
1532069127.081,31.738,32.227,23.438,29.785,-9.766
1532069127.085,29.785,25.879,19.043,27.344,-67.383
1532069127.089,32.227,20.020,19.531,29.785,20.020
1532069127.093,32.227,16.602,19.531,29.785,92.773
1532069127.097,27.344,23.438,25.879,29.297,30.762
1532069127.101,26.367,33.691,30.273,29.297,-75.684
1532069127.105,27.344,33.203,25.879,28.320,-2.441
1532069127.109,28.320,32.227,20.508,25.879,105.469
1532069127.112,26.367,29.297,20.508,22.461,57.129
1532069127.116,24.902,26.367,21.973,22.461,-69.336
1532069127.120,21.484,22.949,19.531,21.484,-44.922
1532069127.124,17.578,22.461,19.043,20.996,94.238
1532069127.128,15.625,26.367,19.043,22.949,88.867
1532069127.132,17.090,31.738,19.043,23.438,-58.105
1532069127.136,24.414,29.297,23.438,24.414,-56.641
1532069127.140,23.926,29.297,26.367,24.902,95.215
1532069127.144,18.555,32.715,25.879,22.461,127.441
1532069127.148,20.020,34.180,32.227,26.367,-4.395
1532069127.152,21.973,33.691,30.762,25.879,-73.730
1532069127.155,20.996,22.949,19.043,21.484,36.133
1532069127.159,21.484,18.555,17.578,27.832,125.977
1532069127.163,20.020,29.297,21.973,33.691,46.875
1532069127.167,19.531,31.738,26.855,36.133,-79.102
1532069127.171,23.438,28.809,27.344,32.227,8.301
1532069127.175,18.066,29.297,22.461,19.531,137.207
1532069127.179,12.207,26.855,23.926,16.113,62.988
1532069127.183,22.461,29.785,25.879,24.414,-56.641
1532069127.187,33.203,35.156,22.949,31.738,-32.715
1532069127.191,28.320,32.715,22.461,27.344,116.699
1532069127.195,27.344,25.879,24.414,34.180,124.512
1532069127.198,26.855,26.855,22.949,38.574,-22.461
1532069127.202,26.855,36.621,23.926,36.621,-56.152
1532069127.206,32.227,39.551,22.461,40.527,75.684
1532069127.210,32.227,30.762,22.461,42.969,156.738
1532069127.214,34.180,33.691,25.391,46.387,36.133
1532069127.218,35.156,38.086,27.344,43.457,-57.129
1532069127.222,35.156,32.715,27.832,37.109,27.832
1532069127.226,35.156,31.250,25.391,36.133,115.234
1532069127.230,30.273,31.738,24.902,37.598,13.672
1532069127.234,29.297,33.203,26.367,38.574,-77.148
1532069127.238,31.250,22.949,22.949,37.598,8.301
1532069127.241,31.738,21.973,22.949,37.109,131.836
1532069127.245,32.715,32.715,24.902,39.551,124.512
1532069127.249,30.273,31.250,24.902,36.621,-28.809
1532069127.253,29.297,29.785,27.344,37.598,-54.688
1532069127.257,33.203,29.785,25.391,36.133,100.586
1532069127.261,31.738,31.250,20.996,35.156,129.395
1532069127.265,29.785,37.109,23.926,38.086,-18.066
1532069127.269,28.320,37.109,27.832,36.133,-54.199
1532069127.273,28.809,27.832,26.855,35.645,59.082
1532069127.277,26.367,21.973,27.832,34.668,121.094
1532069127.280,23.926,26.855,26.367,33.691,4.395
1532069127.284,23.926,28.320,23.438,34.180,-99.121
1532069127.288,26.855,33.203,25.391,30.762,-1.953
1532069127.292,27.344,37.598,28.809,34.180,116.699
1532069127.296,22.461,33.203,28.320,36.621,53.711
1532069127.300,23.438,29.297,26.367,31.738,-68.848
1532069127.304,28.809,31.738,24.902,30.762,3.418
1532069127.308,32.227,30.762,24.414,31.738,147.461
1532069127.312,26.855,29.297,25.391,30.762,117.676
1532069127.316,24.902,32.227,24.414,29.297,-36.133
1532069127.320,29.297,30.273,28.320,31.250,-61.523
1532069127.323,30.273,32.227,33.203,33.691,81.543
1532069127.327,24.414,34.668,28.809,28.320,98.633
1532069127.331,19.043,28.320,24.902,25.391,-53.711
1532069127.335,20.996,26.367,28.320,30.762,-91.309
1532069127.339,22.461,29.785,30.762,33.691,39.551
1532069127.343,23.438,29.785,30.762,35.645,148.438
1532069127.347,21.484,29.785,27.832,31.250,46.875
1532069127.351,24.414,29.297,26.367,27.344,-97.168
1532069127.355,31.250,31.738,25.879,31.250,-1.953
1532069127.359,31.250,35.645,21.973,30.273,126.465
1532069127.363,28.320,33.691,21.484,30.762,69.824
1532069127.366,29.785,28.320,26.367,35.156,-62.500
1532069127.370,30.273,26.367,26.855,37.109,-48.828
1532069127.374,21.484,21.973,28.320,33.203,105.957
1532069127.378,13.672,24.414,30.762,29.297,125.488
1532069127.382,19.043,34.180,28.809,29.785,-36.133
1532069127.386,24.902,30.273,24.902,25.391,-90.332
1532069127.390,21.973,26.367,21.484,19.531,49.805
1532069127.394,23.926,29.785,20.996,23.438,109.863
1532069127.398,25.391,32.715,22.461,28.809,-10.742
1532069127.402,22.461,32.715,23.438,25.879,-62.012
1532069127.406,20.996,31.250,24.414,23.926,62.500
1532069127.409,20.996,30.762,26.367,25.879,143.555
1532069127.413,22.949,29.785,26.367,28.809,50.293
1532069127.417,20.996,28.809,28.320,29.785,-60.547
1532069127.421,17.090,28.809,26.855,24.902,17.090
1532069127.425,17.090,27.832,23.438,21.973,123.535
1532069127.429,12.695,28.320,23.926,20.996,31.250
1532069127.433,13.672,29.785,20.508,20.020,-87.891
1532069127.437,21.484,32.227,24.414,22.949,-23.438
1532069127.441,25.391,36.621,29.785,27.344,141.602
1532069127.445,22.949,34.180,25.879,24.902,151.367
1532069127.448,20.508,31.250,25.879,19.043,-23.926
1532069127.452,20.020,34.180,25.391,19.531,-54.199
1532069127.456,21.484,34.668,23.926,20.996,88.379
1532069127.460,20.020,32.227,22.461,22.949,127.930
1532069127.464,14.160,31.738,20.508,22.949,8.301
1532069127.468,21.484,35.156,24.414,21.973,-92.773
1532069127.472,24.902,37.109,21.484,23.926,11.719
1532069127.476,23.438,32.715,23.438,25.879,148.926
1532069127.480,22.949,31.250,29.785,27.344,75.195
1532069127.484,21.973,33.691,26.367,25.879,-61.035
1532069127.488,27.832,37.109,23.926,25.879,-28.809
1532069127.491,28.320,34.180,23.926,24.902,122.070
1532069127.495,23.926,31.738,24.902,24.902,86.426
1532069127.499,25.391,33.203,25.391,29.785,-63.965
1532069127.503,27.344,26.367,22.949,32.715,-62.012
1532069127.507,28.320,28.320,23.926,30.273,67.871
1532069127.511,24.902,34.180,23.926,26.367,108.398
1532069127.515,24.414,31.738,20.508,26.855,-12.695
1532069127.519,27.344,24.902,21.484,25.391,-74.707
1532069127.523,25.879,28.320,24.414,24.414,63.477
1532069127.527,22.461,34.668,26.367,25.391,123.535
1532069127.531,20.020,27.832,28.320,20.996,-8.789
1532069127.534,20.508,28.320,28.320,19.043,-65.430
1532069127.538,24.902,29.297,26.367,19.531,16.113
1532069127.542,26.855,26.855,29.785,20.508,120.605
1532069127.546,25.879,33.203,28.809,17.578,52.734
1532069127.550,25.879,34.668,23.438,11.719,-79.102
1532069127.554,29.785,33.203,22.949,7.812,-32.227
1532069127.558,35.156,33.203,23.438,6.836,128.906
1532069127.562,31.738,32.227,22.949,7.812,142.578
1532069127.566,29.297,33.691,24.414,8.789,-47.363
1532069127.570,30.762,35.645,30.762,15.625,-79.102
1532069127.574,26.855,29.297,30.273,21.973,98.633
1532069127.577,17.578,28.809,26.855,24.902,128.418
1532069127.581,16.602,30.273,30.273,28.320,-5.859
1532069127.585,20.508,29.785,32.227,27.832,-59.082
1532069127.589,19.043,32.227,30.762,27.344,93.262
1532069127.593,19.043,31.738,28.809,29.297,156.738
1532069127.597,16.113,34.668,28.809,30.273,13.184
1532069127.601,10.254,34.180,29.785,24.902,-86.914
1532069127.605,11.230,28.320,28.809,19.043,8.301
1532069127.609,16.602,29.785,27.344,18.066,112.793
1532069127.613,17.578,33.691,27.344,19.531,25.879
1532069127.616,16.113,29.785,28.809,20.508,-69.824
1532069127.620,16.602,29.297,30.762,20.020,-9.766
1532069127.624,16.113,27.344,29.785,20.996,106.934
1532069127.628,18.555,27.832,27.832,21.973,92.773
1532069127.632,17.090,37.598,28.809,23.438,-42.969
1532069127.636,18.066,37.109,27.832,25.391,-43.945
1532069127.640,18.066,24.902,25.391,25.391,98.633
1532069127.644,18.066,24.414,25.391,24.902,135.254
1532069127.648,19.531,26.855,29.297,22.949,-18.555
1532069127.652,21.973,24.414,31.738,21.973,-114.746
1532069127.656,26.367,26.855,27.344,20.996,16.113
1532069127.659,29.785,30.762,28.809,25.391,127.441
1532069127.663,26.855,31.250,34.180,30.273,30.273
1532069127.667,25.879,26.367,33.691,31.738,-99.609
1532069127.671,29.297,28.320,29.785,33.691,-34.668
1532069127.675,29.785,30.762,30.762,30.273,108.887
1532069127.679,22.949,24.902,29.785,25.391,76.172
1532069127.683,17.578,25.391,30.273,28.320,-69.336
1532069127.687,22.461,32.227,33.691,31.250,-43.457
1532069127.691,21.973,33.203,32.227,31.738,120.117
1532069127.695,20.508,27.832,31.738,30.273,119.141
1532069127.699,20.996,24.414,31.250,23.926,-36.621
1532069127.702,22.949,24.414,27.344,23.926,-45.898
1532069127.706,30.762,29.785,31.738,27.832,72.266
1532069127.710,23.926,34.180,27.344,23.438,99.609
1532069127.714,13.672,28.320,23.926,20.996,-14.160
1532069127.718,18.066,25.391,28.809,22.949,-87.402
1532069127.722,23.438,26.367,29.297,22.461,55.664
1532069127.726,18.066,29.785,28.809,20.508,134.766
1532069127.730,16.602,33.691,31.738,22.461,19.531
1532069127.734,19.531,31.738,33.203,26.855,-52.246
1532069127.738,20.020,31.250,27.344,24.414,33.203
1532069127.742,19.043,32.227,26.367,19.531,144.531
1532069127.745,18.066,28.809,25.391,17.090,83.984
1532069127.749,25.391,30.273,26.855,19.531,-85.449
1532069127.753,27.344,33.203,28.320,25.391,-60.547
1532069127.757,22.949,34.180,29.297,27.832,113.281
1532069127.761,20.508,33.203,30.273,29.785,113.770
1532069127.765,20.508,32.715,30.273,27.832,-46.387
1532069127.769,20.996,32.715,31.738,23.438,-88.379
1532069127.773,25.391,29.785,28.809,25.879,70.801
1532069127.777,24.902,32.227,27.832,27.344,128.418
1532069127.781,19.043,34.180,30.273,26.855,0.488
1532069127.784,16.602,35.156,28.809,26.367,-70.801
1532069127.788,18.066,41.016,29.297,29.297,18.066
1532069127.792,15.137,38.086,30.273,28.809,145.996
1532069127.796,8.301,28.320,31.738,25.879,82.520
1532069127.800,13.672,30.273,29.785,27.832,-68.359
1532069127.804,17.090,36.621,26.855,27.832,-17.578
1532069127.808,14.648,28.809,25.879,23.926,132.812
1532069127.812,11.719,25.391,25.879,23.438,111.816
1532069127.816,9.277,37.598,24.902,22.949,-33.691
1532069127.820,12.695,39.551,20.508,23.438,-33.203
1532069127.824,19.043,35.645,20.020,28.320,119.141
1532069127.827,18.555,39.062,24.414,29.297,112.793
1532069127.831,14.160,37.109,28.809,26.855,-29.297
1532069127.835,14.648,31.738,27.344,25.391,-72.266
1532069127.839,15.625,28.320,28.320,22.949,50.781
1532069127.843,11.719,25.391,32.715,24.902,148.926
1532069127.847,8.789,25.879,29.785,24.414,32.227
1532069127.851,8.789,29.785,27.344,18.066,-100.098
1532069127.855,10.254,31.738,26.855,17.578,0.000
1532069127.859,7.812,25.879,25.879,21.484,161.133
1532069127.863,4.395,29.785,26.367,20.996,98.633
1532069127.867,5.371,38.086,26.855,19.043,-80.566
1532069127.870,5.371,30.762,22.461,16.113,-28.809
1532069127.874,4.883,25.879,23.438,17.090,140.625
1532069127.878,4.883,26.855,28.320,17.090,123.047
1532069127.882,5.371,31.738,27.832,18.066,-54.199
1532069127.886,7.812,33.691,26.855,20.996,-88.379
1532069127.890,9.277,26.367,26.855,19.531,63.965
1532069127.894,9.277,23.438,24.902,20.996,134.277
1532069127.898,8.789,26.367,22.949,23.438,-1.465
1532069127.902,7.812,25.879,22.949,20.508,-76.660
1532069127.906,11.719,24.902,25.879,21.484,38.574
1532069127.910,14.160,24.414,27.344,23.438,125.488
1532069127.913,13.672,33.203,27.344,24.414,36.133
1532069127.917,19.531,42.969,28.320,28.320,-71.289
1532069127.921,18.066,35.645,26.367,24.414,23.438
1532069127.925,12.695,26.855,23.438,20.996,136.719
1532069127.929,14.160,28.809,24.414,23.438,62.988
1532069127.933,16.113,31.250,26.855,22.949,-74.707
1532069127.937,19.043,28.320,26.367,22.461,-32.227
1532069127.941,18.066,29.785,24.902,21.484,133.301
1532069127.945,16.113,33.203,25.391,23.926,121.582
1532069127.949,14.160,30.762,27.344,24.414,-70.801
1532069127.953,15.625,25.879,25.391,22.461,-73.730
1532069127.956,20.020,28.320,25.391,23.438,91.309
1532069127.960,17.090,32.715,26.367,20.996,133.789
1532069127.964,11.719,29.297,22.949,16.113,4.883
1532069127.968,11.719,27.832,24.414,13.672,-67.383
1532069127.972,11.719,28.809,25.879,12.207,39.062
1532069127.976,13.672,24.414,22.949,13.672,144.531
1532069127.980,12.207,27.344,21.973,16.602,56.152
1532069127.984,10.742,30.762,25.879,16.602,-76.660
1532069127.988,11.719,30.762,29.785,17.578,-20.020
1532069127.992,9.766,29.785,27.344,17.578,101.562
1532069127.995,6.348,21.484,26.367,19.043,88.379
1532069127.999,9.277,22.461,29.297,19.043,-26.367
1532069128.003,16.602,25.879,28.809,20.508,-9.766
1532069128.007,20.996,25.879,28.320,20.996,81.055
1532069128.011,21.484,28.809,28.809,20.508,88.867
1532069128.015,18.555,30.762,26.367,21.484,-16.113
1532069128.019,15.625,34.180,24.414,17.090,-66.895
1532069128.023,12.695,29.297,19.531,11.719,87.891
1532069128.027,14.648,20.996,22.949,15.137,127.930
1532069128.031,15.625,27.344,30.273,13.184,-14.160
1532069128.035,9.766,26.855,24.902,11.230,-55.176
1532069128.038,13.184,23.926,21.973,15.625,49.805
1532069128.042,18.555,33.691,25.879,17.578,124.023
1532069128.046,14.648,32.715,24.414,14.160,52.246
1532069128.050,17.578,27.344,21.973,17.090,-53.223
1532069128.054,24.414,32.715,23.438,21.973,-12.207
1532069128.058,21.484,31.250,27.344,23.438,145.020
1532069128.062,19.043,24.902,28.809,23.438,100.586
1532069128.066,22.461,30.273,29.785,26.855,-80.566
1532069128.070,23.926,38.086,28.320,30.273,-71.289
1532069128.074,27.344,36.621,26.855,29.785,93.750
1532069128.078,26.855,36.133,27.832,27.832,113.770
1532069128.081,20.508,31.738,27.832,24.902,-48.828
1532069128.085,18.066,22.461,26.855,20.508,-85.938
1532069128.089,16.602,22.949,23.926,16.602,59.082
1532069128.093,17.578,26.367,20.508,17.090,121.094
1532069128.097,17.090,35.645,22.461,16.602,15.137
1532069128.101,17.090,36.621,28.320,20.508,-70.312
1532069128.105,20.020,30.273,26.367,22.949,33.691
1532069128.109,21.484,33.691,21.484,21.973,164.062
1532069128.113,18.555,36.133,20.996,20.020,98.633
1532069128.117,15.625,34.180,24.902,18.066,-77.148
1532069128.121,17.090,27.832,23.438,17.578,-39.062
1532069128.124,18.066,20.020,19.531,17.578,116.211
1532069128.128,19.043,24.414,23.926,21.484,89.355
1532069128.132,20.020,31.738,22.949,23.438,-58.594
1532069128.136,22.949,33.203,20.996,26.367,-72.266
1532069128.140,17.578,30.762,22.461,26.855,103.027
1532069128.144,12.695,30.762,24.902,20.996,126.465
1532069128.148,14.648,30.273,27.344,20.508,-17.090
1532069128.152,12.695,24.414,22.949,17.578,-52.734
1532069128.156,11.719,22.949,21.484,16.113,55.664
1532069128.160,12.207,26.855,26.367,20.020,159.668
1532069128.163,14.648,30.273,29.297,22.461,31.738
1532069128.167,18.066,22.949,25.879,20.020,-114.746
1532069128.171,18.066,18.066,21.484,19.531,11.230
1532069128.175,19.043,28.809,24.414,24.414,118.164
1532069128.179,18.555,27.832,28.320,23.926,41.016
1532069128.183,18.066,19.531,26.855,22.949,-58.105
1532069128.187,23.926,21.484,27.832,25.391,-20.996
1532069128.191,27.832,25.391,28.320,24.902,106.934
1532069128.195,25.391,32.227,26.855,21.484,103.516
1532069128.199,23.926,34.180,26.367,21.973,-33.691
1532069128.203,21.973,27.832,29.785,21.973,-59.082
1532069128.206,20.508,23.926,29.785,20.508,62.988
1532069128.210,16.113,21.973,24.414,21.973,119.141
1532069128.214,16.113,21.484,26.367,24.414,-3.906
1532069128.218,20.996,20.996,25.879,23.438,-80.566
1532069128.222,21.973,26.367,20.508,21.484,42.480
1532069128.226,20.508,29.785,22.949,21.484,104.492
1532069128.230,22.461,24.414,26.855,24.414,37.598
1532069128.234,29.785,24.414,30.273,27.832,-63.965
1532069128.238,29.297,33.203,27.344,18.555,4.883
1532069128.242,27.344,32.227,25.391,13.672,154.297
1532069128.246,28.320,26.855,28.809,19.531,59.082
1532069128.249,28.320,27.344,25.879,16.602,-93.750
1532069128.253,31.738,25.879,25.879,13.184,-60.059
1532069128.257,39.062,26.367,23.438,12.207,83.984
1532069128.261,45.898,24.902,21.484,11.719,104.004
1532069128.265,46.875,21.973,23.926,15.625,-40.039
1532069128.269,48.340,33.691,26.855,19.531,-110.352
1532069128.273,41.016,38.086,28.320,21.484,59.082
1532069128.277,29.785,30.762,30.762,28.320,151.855
1532069128.281,24.414,29.785,30.273,33.691,5.371
1532069128.285,20.020,29.785,27.344,34.668,-68.359
1532069128.289,20.996,30.762,29.785,37.109,31.250
1532069128.292,20.996,33.203,28.809,36.133,136.719
1532069128.296,15.625,27.832,25.879,34.180,44.434
1532069128.300,16.602,23.438,28.809,35.156,-99.121
1532069128.304,21.973,26.855,33.203,33.691,1.465
1532069128.308,25.391,29.785,29.297,32.227,128.906
1532069128.312,24.414,32.715,28.809,32.227,58.594
1532069128.316,20.508,30.273,33.691,29.297,-66.406
1532069128.320,17.578,29.785,30.273,26.367,-47.363
1532069128.324,18.555,29.785,25.391,26.367,80.078
1532069128.328,17.090,24.902,25.879,25.879,92.773
1532069128.331,11.719,23.438,29.785,23.926,-31.250
1532069128.335,16.602,31.250,29.297,26.367,-65.430
1532069128.339,24.902,34.180,28.320,29.297,73.730
1532069128.343,21.484,25.391,26.855,26.855,148.926
1532069128.347,20.996,27.344,28.320,26.855,3.906
1532069128.351,24.414,33.203,33.203,26.367,-109.375
1532069128.355,24.902,28.320,30.273,25.391,3.418
1532069128.359,21.484,28.320,24.902,25.879,141.113
1532069128.363,17.090,32.715,27.344,25.879,83.008
1532069128.367,19.043,35.645,31.738,27.832,-73.242
1532069128.371,20.508,28.320,30.762,29.785,-60.059
1532069128.374,15.625,20.020,27.344,27.832,98.145
1532069128.378,14.160,27.344,28.320,30.273,84.961
1532069128.382,17.090,32.715,27.832,31.738,-48.340
1532069128.386,18.555,26.855,26.855,27.832,-47.363
1532069128.390,18.066,22.949,26.855,25.879,77.637
1532069128.394,18.555,28.809,27.344,25.391,101.562
1532069128.398,21.484,38.574,30.762,28.320,-32.715
1532069128.402,18.066,32.715,24.414,25.391,-64.941
1532069128.406,15.625,23.926,25.879,21.973,71.289
1532069128.410,16.602,25.391,31.738,22.461,112.305
1532069128.414,17.090,26.367,28.809,24.414,5.859
1532069128.417,21.484,28.320,26.855,28.809,-67.383
1532069128.421,30.273,30.762,26.855,32.227,27.344
1532069128.425,32.227,30.762,29.297,33.691,136.230
1532069128.429,27.832,31.250,30.762,30.273,65.918
1532069128.433,23.926,26.367,30.762,27.344,-50.781
1532069128.437,23.438,20.996,27.832,28.809,-15.625
1532069128.441,23.438,22.461,26.855,25.879,122.559
1532069128.445,20.508,28.809,26.367,22.461,107.422
1532069128.449,20.020,32.227,28.320,20.996,-71.777
1532069128.453,20.996,24.902,31.250,18.555,-69.336
1532069128.457,27.832,27.344,36.133,26.367,92.773
1532069128.460,27.832,35.156,35.645,27.344,119.141
1532069128.464,20.996,34.180,31.738,20.020,-10.742
1532069128.468,21.973,33.203,29.785,17.578,-63.965
1532069128.472,25.879,28.809,22.949,16.602,68.848
1532069128.476,27.344,24.414,25.879,19.043,153.320
1532069128.480,26.855,24.414,33.203,19.531,53.711
1532069128.484,29.785,31.738,30.273,20.020,-49.316
1532069128.488,35.645,34.180,31.738,23.438,59.570
1532069128.492,40.039,36.621,33.691,26.855,185.059
1532069128.496,33.691,34.180,25.879,23.926,95.703
1532069128.500,28.320,25.391,22.949,20.508,-49.805
1532069128.503,32.227,23.926,24.414,23.438,-23.438
1532069128.507,31.250,25.879,23.438,23.926,110.840
1532069128.511,29.297,29.297,26.367,21.973,86.914
1532069128.515,27.832,33.203,30.762,21.484,-55.176
1532069128.519,28.809,32.227,28.320,20.508,-66.406
1532069128.523,25.879,28.320,24.902,17.578,79.590
1532069128.527,19.531,27.344,28.320,16.113,120.117
1532069128.531,19.531,25.879,29.785,16.602,-7.812
1532069128.535,20.020,24.414,26.855,18.066,-71.777
1532069128.539,22.461,27.344,26.855,19.531,35.156
1532069128.542,26.367,35.645,28.320,22.461,110.352
1532069128.546,28.320,36.133,30.273,26.367,-7.324
1532069128.550,25.879,31.738,30.273,24.902,-113.770
1532069128.554,21.484,28.320,25.391,20.020,0.488
1532069128.558,21.973,24.902,26.367,20.020,136.719
1532069128.562,17.578,23.926,29.297,19.043,94.727
1532069128.566,12.207,25.391,25.391,13.184,-42.969
1532069128.570,14.160,28.320,25.391,12.695,-46.875
1532069128.574,20.996,35.156,30.273,16.602,115.234
1532069128.578,20.996,33.203,31.738,19.043,132.812
1532069128.582,18.066,26.367,32.227,19.531,-11.230
1532069128.585,20.996,25.391,33.203,22.949,-56.641
1532069128.589,31.250,21.973,36.133,36.133,49.316
1532069128.593,37.598,24.902,38.574,41.016,122.559
1532069128.597,18.555,33.691,34.180,23.926,-0.977
1532069128.601,0.488,32.227,31.250,6.836,-113.770
1532069128.605,6.348,26.367,27.344,5.371,4.395
1532069128.609,9.277,26.367,23.438,5.859,144.043
1532069128.613,5.859,25.391,25.879,4.395,53.711
1532069128.617,0.488,30.273,26.855,-4.883,-52.734
1532069128.621,6.348,37.598,27.344,-4.883,37.109
1532069128.625,9.277,30.273,30.762,-2.930,158.203
1532069128.628,3.418,28.809,25.879,-9.766,86.426
1532069128.632,6.836,31.738,23.438,-1.953,-78.125
1532069128.636,11.719,28.809,27.344,5.859,-61.523
1532069128.640,10.742,25.879,26.367,6.348,74.707
1532069128.644,11.719,28.320,25.391,10.254,97.656
1532069128.648,13.184,32.227,27.344,11.230,-23.926
1532069128.652,11.719,23.926,26.367,9.277,-69.336
1532069128.656,16.602,21.484,28.320,17.090,52.246
1532069128.660,17.578,25.391,26.367,17.578,129.395
1532069128.664,14.648,21.973,25.879,15.625,13.672
1532069128.668,15.625,29.785,26.367,17.090,-95.703
1532069128.671,17.578,33.203,24.902,16.602,11.230
1532069128.675,14.648,27.344,26.367,17.090,146.484
1532069128.679,6.836,27.832,26.855,17.090,79.102
1532069128.683,4.883,26.367,27.832,13.184,-54.688
1532069128.687,10.742,23.438,28.320,14.648,0.000
1532069128.691,13.184,28.320,28.809,18.555,125.977
1532069128.695,10.254,30.273,25.879,13.184,81.543
1532069128.699,9.277,23.438,23.438,10.254,-44.434
1532069128.703,15.137,23.926,24.902,17.090,-15.625
1532069128.707,18.555,24.414,24.414,19.043,84.473
1532069128.710,15.625,24.414,26.367,20.996,104.492
1532069128.714,13.672,28.809,29.785,21.484,15.625
1532069128.718,13.184,31.250,25.879,17.578,-66.895
1532069128.722,14.160,28.809,26.367,18.066,25.391
1532069128.726,14.160,26.367,25.879,19.043,94.238
1532069128.730,16.602,27.832,24.902,20.508,-4.883
1532069128.734,15.137,22.461,25.391,18.555,-97.168
1532069128.738,14.160,18.066,22.461,13.672,-1.465
1532069128.742,15.137,20.020,25.391,13.672,137.695
1532069128.746,17.090,24.902,32.227,17.578,54.688
1532069128.750,17.090,28.320,29.785,19.043,-82.031
1532069128.753,18.555,25.391,23.438,17.578,-10.742
1532069128.757,20.508,25.879,26.855,20.020,128.418
1532069128.761,20.996,32.227,31.250,27.832,102.051
1532069128.765,22.949,27.832,28.320,30.273,-57.129
1532069128.769,21.484,22.461,22.949,23.926,-72.754
1532069128.773,13.672,27.344,23.926,14.648,90.332
1532069128.777,4.883,26.367,26.855,9.766,112.793
1532069128.781,5.371,25.391,28.320,9.766,-47.852
1532069128.785,3.906,28.320,27.832,1.953,-99.609
1532069128.789,4.883,31.738,24.902,-0.488,12.207
1532069128.793,4.395,27.832,23.926,1.465,114.746
1532069128.796,4.883,20.020,25.879,4.395,32.715
1532069128.800,11.719,23.438,27.344,11.230,-78.125
1532069128.804,15.625,30.273,27.344,13.672,5.371
1532069128.808,16.602,29.297,25.391,13.184,116.699
1532069128.812,14.160,24.414,21.484,12.207,68.359
1532069128.816,17.090,23.926,23.926,14.648,-79.590
1532069128.820,19.531,25.391,27.344,18.066,-45.898
1532069128.824,18.066,26.367,27.832,19.531,131.836
1532069128.828,20.020,30.762,25.879,21.973,118.652
1532069128.832,18.066,28.320,22.949,20.020,-37.109
1532069128.836,19.531,32.227,24.902,20.508,-49.805
1532069128.839,26.855,34.668,25.391,27.344,85.449
1532069128.843,23.438,23.438,21.973,26.367,145.508
1532069128.847,22.461,24.414,26.855,24.414,-8.789
1532069128.851,28.320,29.785,30.762,27.344,-111.816
1532069128.855,29.297,30.273,27.832,28.320,34.180
1532069128.859,31.738,30.273,27.832,31.250,132.324
1532069128.863,34.180,33.203,33.203,36.621,34.180
1532069128.867,34.180,32.715,30.762,30.273,-96.191
1532069128.871,34.180,25.879,23.926,21.973,-28.809
1532069128.875,30.273,27.832,22.949,19.531,118.652
1532069128.878,26.855,32.715,27.344,19.043,84.961
1532069128.882,23.926,27.344,27.344,18.555,-26.367
1532069128.886,26.367,22.461,24.902,16.602,-39.551
1532069128.890,26.367,27.344,25.879,13.184,81.055
1532069128.894,21.973,32.715,26.367,13.184,99.609
1532069128.898,20.020,33.203,25.391,13.672,-47.363
1532069128.902,17.578,29.297,23.926,8.301,-87.891
1532069128.906,23.926,26.367,27.832,13.184,33.691
1532069128.910,22.949,25.879,27.344,17.578,107.422
1532069128.914,15.625,26.855,24.902,9.766,10.742
1532069128.918,16.113,31.738,28.320,9.766,-67.383
1532069128.921,18.066,33.203,28.320,11.230,24.414
1532069128.925,14.648,29.297,22.949,8.301,131.836
1532069128.929,9.766,20.020,23.438,8.789,39.062
1532069128.933,14.648,18.066,27.832,9.766,-81.543
1532069128.937,24.414,25.391,25.391,9.277,-15.625
1532069128.941,37.109,31.738,20.996,13.672,114.258
1532069128.945,41.504,38.574,19.531,18.555,90.332
1532069128.949,31.738,39.551,29.785,16.602,-61.523
1532069128.953,24.902,29.297,36.133,10.742,-36.133
1532069128.957,31.250,20.020,27.832,9.766,128.418
1532069128.961,44.434,23.926,22.461,13.672,122.070
1532069128.964,44.434,24.414,24.414,15.625,-23.438
1532069128.968,43.457,20.508,26.855,21.973,-82.520
1532069128.972,41.992,23.438,26.855,30.273,14.648
1532069128.976,34.668,31.250,29.297,36.621,103.027
1532069128.980,26.855,30.762,30.273,37.109,3.906
1532069128.984,25.391,23.926,32.227,37.598,-108.887
1532069128.988,29.297,25.879,34.668,38.086,-22.461
1532069128.992,28.809,30.273,29.297,37.109,128.906
1532069128.996,21.484,27.344,27.832,34.668,73.730
1532069129.000,14.648,27.344,30.273,31.250,-70.312
1532069129.004,15.625,29.297,28.809,31.738,-34.668
1532069129.007,19.531,28.320,29.785,31.250,111.816
1532069129.011,19.043,31.250,30.762,31.250,107.422
1532069129.015,20.020,34.180,31.250,31.738,-29.785
1532069129.019,22.949,30.273,26.367,31.738,-45.410
1532069129.023,25.391,28.809,24.414,31.738,86.426
1532069129.027,26.367,32.227,31.250,29.297,111.328
1532069129.031,24.902,31.738,31.738,26.367,-18.555
1532069129.035,22.461,26.367,27.832,23.438,-67.383
1532069129.039,22.461,27.832,27.832,19.531,65.918
1532069129.043,22.461,32.715,32.715,22.461,134.277
1532069129.047,19.531,30.273,32.715,25.391,24.414
1532069129.050,18.555,27.344,29.297,24.902,-50.781
1532069129.054,24.902,21.973,28.809,26.367,11.719
1532069129.058,27.832,18.555,29.785,27.832,128.418
1532069129.062,25.879,27.832,26.367,28.320,72.266
1532069129.066,29.785,32.227,27.832,32.227,-80.566
1532069129.070,33.203,30.762,31.250,32.715,-50.293
1532069129.074,36.621,34.180,28.809,34.668,105.469
1532069129.078,40.527,37.109,29.785,39.062,106.445
1532069129.082,35.645,29.785,32.227,38.086,-36.621
1532069129.086,32.227,24.902,28.809,32.715,-66.406
1532069129.089,32.227,27.832,27.344,29.297,73.730
1532069129.093,26.855,29.785,28.320,29.297,117.676
1532069129.097,27.832,34.180,29.297,32.227,-8.789
1532069129.101,35.156,38.574,33.203,32.227,-80.566
1532069129.105,36.621,39.551,31.250,29.785,17.578
1532069129.109,35.645,30.273,31.250,27.832,108.887
1532069129.113,29.785,22.461,29.297,24.902,44.922
1532069129.117,29.297,23.926,25.879,25.391,-67.871
1532069129.121,33.203,25.391,26.855,27.344,13.672
1532069129.125,31.738,27.344,26.855,25.391,125.488
1532069129.129,28.320,33.203,29.785,20.508,59.082
1532069129.132,27.344,34.668,34.668,18.555,-80.566
1532069129.136,34.180,35.156,31.738,20.508,-50.293
1532069129.140,35.156,33.203,25.879,20.508,90.332
1532069129.144,25.879,27.344,23.438,18.555,92.773
1532069129.148,30.273,34.668,25.391,18.555,-41.992
1532069129.152,34.668,36.621,28.320,18.555,-91.797
1532069129.156,29.785,30.273,28.320,17.578,62.988
1532069129.160,28.809,30.273,27.832,15.137,132.812
1532069129.164,31.738,27.832,29.297,20.020,-10.254
1532069129.168,31.738,31.738,32.227,22.461,-93.262
1532069129.172,30.273,29.785,32.715,18.066,33.691
1532069129.175,28.809,29.785,29.785,18.555,139.160
1532069129.179,27.344,33.691,26.855,14.160,63.965
1532069129.183,27.832,28.320,30.273,14.160,-69.824
1532069129.187,30.273,31.250,33.203,19.531,-31.738
1532069129.191,33.203,37.109,31.738,20.508,117.188
1532069129.195,29.785,34.668,33.203,18.066,74.707
1532069129.199,24.902,32.715,31.738,14.648,-72.266
1532069129.203,28.320,32.227,29.297,12.695,-44.922
1532069129.207,30.273,30.762,31.250,14.160,98.145
1532069129.211,26.855,29.297,32.227,18.066,92.285
1532069129.215,21.973,33.203,28.809,17.090,-29.785
1532069129.218,20.996,36.133,25.391,13.672,-74.707
1532069129.222,26.367,38.574,29.785,18.066,62.988
1532069129.226,25.391,40.039,32.715,20.996,149.902
1532069129.230,17.090,31.250,28.809,14.160,28.809
1532069129.234,16.113,26.367,28.809,12.695,-61.523
1532069129.238,15.625,29.785,30.273,9.766,30.762
1532069129.242,15.137,29.297,28.809,6.836,119.141
1532069129.246,18.555,31.738,31.738,10.742,31.738
1532069129.250,19.531,38.574,38.086,14.648,-112.305
1532069129.254,21.484,42.969,34.668,16.602,-45.898
1532069129.257,18.066,38.574,27.344,13.672,122.070
1532069129.261,9.277,31.738,27.832,10.254,109.375
1532069129.265,9.766,30.273,33.203,13.184,-60.059
1532069129.269,11.230,30.273,33.203,11.230,-84.473
1532069129.273,10.742,32.227,30.762,8.301,79.102
1532069129.277,12.207,34.180,31.250,9.277,116.699
1532069129.281,16.113,37.598,37.109,11.230,-20.020
1532069129.285,17.090,42.480,39.551,10.742,-90.820
1532069129.289,13.672,39.062,34.668,5.371,49.316
1532069129.293,12.207,31.250,28.809,0.000,170.898
1532069129.297,10.254,32.227,27.832,0.488,48.828
1532069129.300,9.277,36.133,30.273,2.930,-70.801
1532069129.304,10.742,39.551,30.762,2.930,5.859
1532069129.308,8.789,37.598,28.809,0.000,123.047
1532069129.312,4.395,33.203,27.344,0.000,91.309
1532069129.316,8.301,34.668,29.785,4.883,-50.293
1532069129.320,16.113,37.109,31.250,10.254,-41.016
1532069129.324,16.602,38.574,30.762,12.207,111.816
1532069129.328,14.160,33.691,32.715,14.648,93.750
1532069129.332,15.625,24.902,33.691,15.137,-57.129
1532069129.336,15.625,34.180,28.320,3.906,-63.965
1532069129.340,16.113,43.945,22.949,-3.418,69.824
1532069129.343,17.578,36.621,20.996,0.977,119.141
1532069129.347,18.066,36.133,25.879,6.348,-26.855
1532069129.351,21.484,40.527,28.809,7.812,-94.727
1532069129.355,21.973,39.062,25.391,5.371,31.738
1532069129.359,18.555,36.621,23.438,3.418,97.656
1532069129.363,15.137,31.738,22.949,3.906,26.855
1532069129.367,13.672,33.691,24.414,3.906,-90.820
1532069129.371,13.184,33.203,22.949,1.953,-30.273
1532069129.375,12.207,30.273,20.996,0.488,130.371
1532069129.379,8.789,30.273,21.484,-2.930,97.656
1532069129.383,10.742,30.762,24.902,-1.953,-58.594
1532069129.386,17.578,39.551,27.832,0.977,-58.105
1532069129.390,16.113,42.480,27.832,-1.953,61.035
1532069129.394,14.648,41.504,29.297,-0.977,83.984
1532069129.398,14.648,41.992,26.367,1.953,-32.227
1532069129.402,15.137,35.645,19.043,0.977,-53.711
1532069129.406,14.648,29.297,19.531,-1.953,81.543
1532069129.410,10.254,34.180,22.949,-0.488,126.953
1532069129.414,7.324,36.133,25.879,1.953,17.090
1532069129.418,7.324,31.738,26.855,2.441,-65.430
1532069129.422,13.672,32.715,26.367,7.324,19.531
1532069129.425,17.090,37.598,33.203,8.789,114.746
1532069129.429,14.160,39.062,31.738,4.883,37.109
1532069129.433,11.230,35.645,26.367,5.371,-89.844
1532069129.437,11.230,35.156,23.438,9.277,-40.527
1532069129.441,13.184,37.109,21.484,9.766,121.094
1532069129.445,9.766,36.133,22.461,5.859,99.121
1532069129.449,11.719,41.992,23.926,6.348,-96.680
1532069129.453,20.020,51.270,25.879,7.812,-87.891
1532069129.457,18.066,44.434,24.414,5.859,90.820
1532069129.461,16.602,39.062,23.438,4.395,87.891
1532069129.465,16.602,38.086,28.809,2.930,-41.016
1532069129.468,10.742,35.156,25.391,1.465,-82.520
1532069129.472,9.766,33.691,20.020,0.977,53.223
1532069129.476,9.277,34.668,23.926,-2.930,123.535
1532069129.480,9.766,36.133,20.508,-2.930,-7.324
1532069129.484,17.578,39.062,20.996,2.441,-70.312
1532069129.488,25.879,41.992,30.273,9.766,36.133
1532069129.492,27.832,46.875,32.715,10.742,140.625
1532069129.496,25.879,48.828,31.250,6.836,45.410
1532069129.500,23.926,47.363,31.250,0.488,-68.359
1532069129.504,27.832,42.969,34.180,0.488,18.555
1532069129.508,33.203,43.457,41.504,5.371,124.023
1532069129.511,24.414,46.387,43.945,-0.977,92.773
1532069129.515,7.812,42.480,37.109,-15.137,-15.625
1532069129.519,2.930,41.016,35.645,-22.949,-25.879
1532069129.523,-2.441,41.504,38.086,-30.273,96.191
1532069129.527,-12.695,47.852,48.340,-34.668,118.652
1532069129.531,-18.066,52.246,55.664,-37.598,-23.926
1532069129.535,-24.902,54.199,55.176,-50.781,-81.055
1532069129.539,-29.297,58.105,63.477,-55.664,52.734
1532069129.543,-39.062,62.012,70.801,-62.500,129.883
1532069129.547,-51.270,63.477,76.660,-72.266,8.301
1532069129.551,-55.664,57.617,80.566,-73.242,-82.520
1532069129.554,-56.641,54.199,82.031,-75.684,9.277
1532069129.558,-62.012,58.594,80.566,-79.590,116.699
1532069129.562,-62.988,58.594,72.266,-76.660,52.246
1532069129.566,-53.711,52.246,64.453,-71.777,-74.219
1532069129.570,-43.457,49.316,58.594,-64.453,-48.828
1532069129.574,-29.297,49.805,49.316,-50.293,114.746
1532069129.578,-20.020,50.293,39.551,-41.016,111.816
1532069129.582,-13.184,44.434,33.691,-35.156,-32.715
1532069129.586,-0.977,39.551,30.273,-22.949,-62.988
1532069129.590,6.836,37.109,22.461,-17.090,37.598
1532069129.594,10.254,32.227,15.137,-11.230,118.652
1532069129.597,13.672,36.621,13.184,-2.930,-3.418
1532069129.601,17.090,36.133,9.766,1.465,-69.824
1532069129.605,21.484,33.691,5.859,6.348,60.547
1532069129.609,22.949,30.762,0.488,10.742,124.023
1532069129.613,22.949,23.926,-1.953,9.766,23.438
1532069129.617,25.879,25.391,4.883,13.184,-81.055
1532069129.621,27.832,24.902,4.883,13.672,10.254
1532069129.625,29.297,23.926,-2.441,12.695,162.598
1532069129.629,30.762,24.902,-0.977,17.578,62.012
1532069129.633,31.250,29.297,0.488,20.020,-74.707
1532069129.636,33.691,21.973,-1.953,20.508,0.977
1532069129.640,33.203,18.066,-2.930,18.555,144.043
1532069129.644,30.762,23.438,-6.348,14.160,118.652
1532069129.648,36.133,22.461,-6.836,12.207,-28.809
1532069129.652,41.016,23.438,-2.930,10.254,-51.758
1532069129.656,44.922,26.367,-3.418,7.324,83.984
1532069129.660,52.734,31.250,-1.465,12.207,155.273
1532069129.664,56.152,35.645,-0.977,18.555,1.953
1532069129.668,46.387,34.180,-3.906,17.090,-99.121
1532069129.672,41.992,29.785,-6.348,21.973,35.156
1532069129.676,38.086,27.832,-6.348,27.832,145.020
1532069129.679,23.438,23.926,-3.418,26.855,54.199
1532069129.683,18.555,21.484,-0.488,28.320,-68.359
1532069129.687,20.508,26.855,0.977,24.902,-36.621
1532069129.691,20.020,29.785,2.441,21.484,126.465
1532069129.695,19.043,29.297,1.465,24.902,115.723
1532069129.699,22.461,36.621,1.953,26.855,-40.527
1532069129.703,27.344,35.156,4.883,23.926,-36.133
1532069129.707,26.855,26.855,-1.465,22.461,87.891
1532069129.711,21.484,28.809,-5.859,22.461,104.492
1532069129.715,20.508,32.227,0.488,20.996,-29.785
1532069129.719,23.926,34.668,0.977,20.020,-75.195
1532069129.722,27.832,28.320,1.465,20.996,57.617
1532069129.726,35.156,33.203,11.719,26.367,128.418
1532069129.730,36.133,40.039,14.160,24.414,-0.488
1532069129.734,34.180,34.180,7.324,19.043,-86.914
1532069129.738,33.691,33.691,0.488,12.207,29.297
1532069129.742,41.016,32.227,1.953,19.043,160.645
1532069129.746,45.410,28.320,11.230,24.902,51.758
1532069129.750,34.668,34.668,7.324,10.254,-94.727
1532069129.754,31.250,40.039,5.371,5.859,-3.418
1532069129.758,24.414,39.062,6.836,0.000,128.906
1532069129.762,17.578,41.504,8.789,-6.348,92.285
1532069129.765,24.902,42.480,11.719,0.000,-35.645
1532069129.769,25.391,36.621,7.324,-3.906,-45.898
1532069129.773,20.508,32.227,4.395,-6.348,81.543
1532069129.777,20.020,32.715,6.348,-0.488,133.301
1532069129.781,24.414,35.645,11.719,2.441,-1.953
1532069129.785,33.203,40.039,12.695,8.301,-71.289
1532069129.789,31.738,34.668,8.789,10.254,62.500
1532069129.793,25.879,32.715,12.695,13.184,131.348
1532069129.797,28.809,38.574,17.578,15.625,22.461
1532069129.801,28.320,28.809,13.184,10.254,-53.711
1532069129.804,30.762,22.949,12.695,11.719,31.738
1532069129.808,36.133,31.250,20.508,15.137,129.395
1532069129.812,34.668,30.762,23.438,13.672,60.059
1532069129.816,36.133,29.785,20.508,16.113,-47.363
1532069129.820,44.922,33.691,20.508,19.043,-0.977
1532069129.824,46.875,32.715,19.531,21.484,128.418
1532069129.828,43.945,34.180,20.996,22.461,97.656
1532069129.832,42.969,35.645,24.414,23.438,-40.039
1532069129.836,40.527,33.203,22.949,20.996,-33.203
1532069129.840,38.574,30.762,18.066,17.578,117.676
1532069129.844,35.645,33.203,17.090,18.066,125.977
1532069129.847,32.227,34.668,17.578,19.531,-22.949
1532069129.851,30.273,29.297,18.555,15.625,-61.523
1532069129.855,33.691,28.809,19.531,15.137,44.922
1532069129.859,37.598,35.645,19.043,20.996,135.254
1532069129.863,38.086,36.133,18.555,20.996,33.691
1532069129.867,40.527,31.738,17.090,18.555,-91.797
1532069129.871,41.016,35.156,20.020,14.160,-17.090
1532069129.875,41.016,35.156,20.508,14.160,122.070
1532069129.879,38.086,32.227,18.066,16.602,76.172
1532069129.883,33.691,32.715,18.066,14.160,-68.359
1532069129.887,40.039,32.715,19.043,18.555,-41.992
1532069129.890,38.574,29.785,18.066,18.066,107.910
1532069129.894,31.250,33.203,24.414,16.113,102.539
1532069129.898,28.809,37.598,26.367,19.043,-67.871
1532069129.902,27.832,31.250,16.113,16.602,-73.730
1532069129.906,28.320,25.391,18.066,16.602,86.914
1532069129.910,29.785,24.414,22.461,20.020,116.699
1532069129.914,28.809,31.738,21.484,20.508,-33.203
1532069129.918,30.762,36.133,22.949,19.531,-109.863
1532069129.922,33.203,38.086,25.879,22.949,43.457
1532069129.926,29.785,40.527,28.320,21.484,136.230
1532069129.930,27.832,37.109,23.926,18.555,27.344
1532069129.933,27.832,31.250,20.508,17.578,-72.754
1532069129.937,27.344,36.133,22.461,15.137,10.254
1532069129.941,34.180,40.527,20.020,19.531,126.465
1532069129.945,28.320,36.133,21.484,18.555,67.383
1532069129.949,16.602,29.785,24.414,7.812,-67.871
1532069129.953,29.785,32.227,25.879,15.625,-39.551
1532069129.957,35.156,37.598,26.855,21.484,96.191
1532069129.961,30.273,30.762,24.414,22.461,109.375
1532069129.965,27.344,27.344,23.926,21.973,-13.184
1532069129.969,29.785,35.645,27.832,17.090,-57.617
1532069129.972,37.598,37.598,26.367,24.902,70.312
1532069129.976,35.645,35.156,22.949,27.832,139.648
1532069129.980,31.250,38.086,25.879,27.832,1.953
1532069129.984,28.809,38.574,25.391,22.949,-82.031
1532069129.988,25.879,37.109,20.996,17.090,18.066
1532069129.992,20.020,31.738,18.555,18.066,109.375
1532069129.996,19.043,34.668,20.996,19.531,43.457
1532069130.000,21.973,39.062,26.367,18.066,-63.477
1532069130.004,23.926,40.039,27.344,18.555,12.695
1532069130.008,22.949,39.551,22.461,20.996,102.051
1532069130.012,18.555,35.156,17.578,22.949,52.734
1532069130.015,18.066,32.227,23.438,24.414,-42.480
1532069130.019,18.555,37.109,25.879,21.973,-44.922
1532069130.023,17.090,36.133,21.484,21.484,105.957
1532069130.027,17.090,31.250,20.996,21.973,137.695
1532069130.031,22.461,37.109,22.949,24.414,-23.438
1532069130.035,28.320,40.527,26.855,26.367,-58.594
1532069130.039,29.297,37.598,24.902,26.367,60.059
1532069130.043,25.879,37.598,20.996,25.879,123.047
1532069130.047,22.461,41.992,21.973,27.832,-7.812
1532069130.051,22.949,39.551,26.367,26.367,-151.855
1532069130.055,20.020,25.879,24.414,23.438,-11.719
1532069130.058,20.020,28.320,22.461,25.391,157.715
1532069130.062,17.090,34.180,22.461,25.391,75.195
1532069130.066,11.230,28.320,19.531,20.508,-60.547
1532069130.070,12.695,28.809,20.996,18.555,-18.066
1532069130.074,14.648,37.598,25.391,18.066,114.746
1532069130.078,12.207,41.016,29.297,16.602,107.910
1532069130.082,10.742,33.203,24.902,16.113,-41.504
1532069130.086,14.160,28.809,19.531,12.695,-57.129
1532069130.090,17.090,30.273,16.113,12.207,83.008
1532069130.094,19.043,34.180,19.531,16.602,120.605
1532069130.098,14.160,36.133,22.949,13.672,-24.902
1532069130.101,11.230,29.785,17.578,11.230,-85.449
1532069130.105,14.160,30.762,15.625,12.695,33.203
1532069130.109,16.602,35.156,21.484,17.090,99.609
1532069130.113,16.113,37.109,26.855,20.020,19.531
1532069130.117,12.695,34.668,25.391,12.695,-57.617
1532069130.121,11.719,30.762,23.438,9.766,24.902
1532069130.125,12.207,30.273,21.973,12.207,129.395
1532069130.129,13.184,30.273,20.508,7.812,44.922
1532069130.133,16.113,32.715,23.926,9.766,-97.656
1532069130.137,18.555,30.273,25.879,13.672,-25.879
1532069130.141,18.555,31.250,20.996,13.672,125.000
1532069130.144,16.602,35.156,17.578,14.160,98.145
1532069130.148,15.137,32.227,22.949,12.695,-70.801
1532069130.152,14.160,25.879,25.391,9.277,-88.379
1532069130.156,13.184,24.902,25.879,9.766,81.543
1532069130.160,14.160,31.738,28.809,14.648,144.531
1532069130.164,13.184,33.691,22.461,14.160,1.953
1532069130.168,16.602,32.715,18.066,14.648,-98.145
1532069130.172,21.973,37.109,22.949,18.555,39.062
1532069130.176,15.625,34.668,20.996,12.695,155.273
1532069130.180,17.090,29.785,21.973,14.160,29.785
1532069130.183,20.020,31.738,24.414,20.508,-93.750
1532069130.187,22.461,31.738,22.949,16.602,-42.480
1532069130.191,23.926,35.156,20.996,12.207,95.703
1532069130.195,20.996,35.645,26.855,14.160,93.262
1532069130.199,19.043,32.715,31.250,15.137,-67.383
1532069130.203,19.043,35.156,21.973,13.672,-42.969
1532069130.207,19.531,29.297,14.648,13.184,97.168
1532069130.211,17.578,28.320,18.066,14.648,74.707
1532069130.215,18.555,32.715,24.902,18.555,-60.059
1532069130.219,23.438,37.109,22.461,20.996,-87.402
1532069130.223,23.926,39.551,20.996,18.066,45.410
1532069130.226,22.461,34.180,24.414,21.484,99.609
1532069130.230,18.555,34.668,27.832,22.461,-43.945
1532069130.234,15.137,30.762,26.855,19.043,-98.633
1532069130.238,21.973,28.320,29.785,21.973,39.551
1532069130.242,21.973,32.715,27.344,21.973,130.859
1532069130.246,9.277,35.156,19.531,17.578,34.668
1532069130.250,8.301,28.809,19.531,15.137,-99.609
1532069130.254,18.066,29.785,21.973,16.602,-22.949
1532069130.258,20.508,33.691,22.949,17.578,122.559
1532069130.262,18.555,32.227,24.414,18.555,70.312
1532069130.266,21.973,35.645,25.879,20.996,-72.754
1532069130.269,26.855,35.645,24.902,20.508,-57.129
1532069130.273,34.668,35.156,22.949,21.484,86.426
1532069130.277,34.668,32.715,20.508,22.949,98.145
1532069130.281,30.762,29.785,21.484,21.973,-32.227
1532069130.285,33.691,32.715,21.973,20.996,-42.480
1532069130.289,34.180,33.203,20.996,17.578,60.547
1532069130.293,32.227,30.762,24.902,16.602,104.004
1532069130.297,29.785,29.785,28.809,19.043,11.230
1532069130.301,25.391,26.367,27.344,14.648,-61.523
1532069130.305,23.926,29.297,22.949,12.695,40.039
1532069130.309,26.367,31.738,22.461,15.137,134.766
1532069130.312,22.949,32.227,25.879,15.137,66.895
1532069130.316,21.973,33.691,25.391,12.695,-81.543
1532069130.320,25.879,33.691,22.949,14.648,-25.391
1532069130.324,28.809,29.297,17.090,16.113,146.973
1532069130.328,30.273,25.391,14.648,15.625,89.844
1532069130.332,31.250,27.832,16.113,15.137,-78.125
1532069130.336,36.621,35.156,16.602,15.137,-54.199
1532069130.340,39.062,37.109,19.531,16.602,98.145
1532069130.344,31.250,33.203,20.020,12.207,128.418
1532069130.348,32.715,28.320,18.066,8.789,-24.414
1532069130.351,44.434,28.809,19.043,10.742,-70.801
1532069130.355,46.387,30.762,18.066,12.207,73.242
1532069130.359,47.363,32.715,14.648,16.113,145.020
1532069130.363,45.410,33.203,19.043,20.508,20.996
1532069130.367,39.551,32.227,21.484,23.926,-101.562
1532069130.371,35.156,34.668,18.555,27.832,-3.418
1532069130.375,28.809,33.691,21.973,26.855,136.230
1532069130.379,21.973,29.785,26.367,25.879,78.613
1532069130.383,18.555,30.273,23.438,25.879,-38.086
1532069130.387,15.137,29.297,21.484,24.902,-29.785
1532069130.391,10.254,26.855,26.855,22.949,83.984
1532069130.394,11.230,29.785,28.320,23.926,107.422
1532069130.398,9.766,28.320,22.461,23.926,-32.715
1532069130.402,8.301,23.438,17.090,17.578,-52.734
1532069130.406,12.207,25.391,17.090,16.113,82.031
1532069130.410,12.207,31.250,20.996,18.555,107.422
1532069130.414,11.719,28.809,23.926,18.066,-12.695
1532069130.418,13.184,23.438,20.508,20.020,-61.523
1532069130.422,21.973,31.250,20.508,25.391,61.035
1532069130.426,29.297,37.598,24.414,29.785,133.789
1532069130.430,27.344,30.762,25.879,27.832,6.348
1532069130.434,23.926,24.902,23.438,25.391,-110.352
1532069130.437,23.438,31.738,21.973,24.414,18.555
1532069130.441,21.973,36.133,20.996,21.484,144.043
1532069130.445,16.602,34.668,19.531,17.578,63.477
1532069130.449,17.090,38.086,21.973,16.113,-70.801
1532069130.453,20.996,34.668,20.996,14.648,-50.293
1532069130.457,23.438,32.227,19.043,12.695,104.492
1532069130.461,16.113,28.320,17.090,9.277,97.168
1532069130.465,14.648,26.367,17.578,9.277,-59.570
1532069130.469,22.949,34.668,21.484,12.207,-83.984
1532069130.473,25.391,34.180,22.949,13.672,64.453
1532069130.477,21.484,27.832,19.531,16.113,129.395
1532069130.480,21.484,28.320,20.996,21.973,18.066
1532069130.484,26.367,31.738,22.949,27.832,-49.805
1532069130.488,28.809,31.250,22.461,29.785,42.969
1532069130.492,32.715,24.414,24.902,34.668,132.812
1532069130.496,28.320,26.367,24.414,31.738,67.383
1532069130.500,27.832,36.133,24.902,28.320,-54.688
1532069130.504,34.668,31.738,26.367,32.227,6.348
1532069130.508,34.180,32.227,26.855,30.762,118.164
1532069130.512,30.762,33.691,23.926,25.391,45.410
1532069130.516,32.227,29.297,19.043,20.508,-67.871
1532069130.519,37.598,32.715,19.043,20.508,-44.922
1532069130.523,38.574,35.156,21.484,20.020,90.332
1532069130.527,35.156,30.762,20.996,20.020,114.258
1532069130.531,35.156,27.344,20.020,22.461,-29.785
1532069130.535,37.598,27.832,16.602,20.020,-58.594
1532069130.539,39.062,30.762,17.090,20.996,74.707
1532069130.543,36.133,25.879,19.043,23.926,130.371
1532069130.547,36.133,27.832,18.066,24.902,0.488
1532069130.551,38.574,37.109,20.996,27.832,-93.262
1532069130.555,40.039,32.227,20.020,30.762,18.555
1532069130.559,33.203,26.855,21.484,31.250,112.793
1532069130.562,29.785,26.367,24.414,29.297,27.832
1532069130.566,31.250,29.297,23.438,28.809,-90.332
1532069130.570,30.273,26.855,26.367,28.320,-53.223
1532069130.574,28.320,24.902,28.809,28.809,91.309
1532069130.578,27.344,28.320,27.344,33.691,81.543
1532069130.582,28.320,27.832,25.391,35.156,-53.223
1532069130.586,27.344,25.879,21.973,31.738,-38.086
1532069130.590,28.809,25.391,24.414,31.738,100.098
1532069130.594,31.738,27.832,29.297,33.691,104.980
1532069130.598,26.367,32.227,27.344,30.273,-37.598
1532069130.602,26.855,31.250,26.367,29.785,-77.637
1532069130.605,30.762,33.691,27.832,32.227,57.617
1532069130.609,27.832,32.715,27.832,28.809,132.324
1532069130.613,26.367,29.297,28.809,31.250,26.855
1532069130.617,32.227,28.809,27.344,32.715,-63.477
1532069130.621,36.133,30.273,22.461,30.273,30.273
1532069130.625,26.855,26.367,20.020,27.832,139.160
1532069130.629,19.531,25.879,19.043,20.508,31.738
1532069130.633,20.996,31.250,16.113,13.672,-103.027
1532069130.637,22.461,31.250,21.973,17.090,-39.551
1532069130.641,24.414,25.391,28.809,23.926,112.793
1532069130.645,21.484,22.949,26.367,24.902,96.680
1532069130.648,20.020,32.715,24.414,25.391,-72.266
1532069130.652,20.996,31.250,24.902,25.391,-84.961
1532069130.656,19.531,23.926,22.949,24.414,67.383
1532069130.660,18.555,29.297,21.973,23.926,122.070
1532069130.664,19.043,30.273,23.438,25.391,-11.230
1532069130.668,19.043,31.738,23.438,24.414,-105.957
1532069130.672,18.066,30.273,23.438,20.508,9.766
1532069130.676,17.578,27.832,28.809,20.996,116.699
1532069130.680,17.578,30.762,29.785,21.973,0.977
1532069130.684,20.996,32.227,24.902,22.949,-93.262
1532069130.687,24.902,31.250,23.926,22.949,20.508
1532069130.691,19.531,24.414,24.414,21.484,123.047
1532069130.695,12.695,26.855,22.949,24.902,60.547
1532069130.699,11.719,29.785,23.926,28.809,-67.871
1532069130.703,19.043,22.461,33.203,39.551,-39.062
1532069130.707,24.414,18.066,40.039,44.434,125.000
1532069130.711,14.648,23.926,32.715,25.879,108.887
1532069130.715,8.301,29.785,27.832,15.137,-42.480
1532069130.719,9.766,31.738,22.949,15.137,-58.594
1532069130.723,13.672,26.367,21.973,16.113,86.914
1532069130.727,10.254,24.902,23.926,12.695,145.996
1532069130.730,9.277,27.832,25.391,11.230,12.695
1532069130.734,12.695,26.367,26.367,10.254,-42.480
1532069130.738,6.836,24.414,26.855,4.883,52.734
1532069130.742,2.441,23.926,27.832,6.836,120.605
1532069130.746,-0.977,27.344,30.273,2.930,38.086
1532069130.750,-2.441,23.926,25.879,-1.465,-71.289
1532069130.754,4.883,20.996,21.973,0.977,24.902
1532069130.758,5.859,22.461,23.438,1.953,152.344
1532069130.762,3.418,26.855,24.902,4.395,88.867
1532069130.766,13.184,30.762,25.391,10.742,-35.645
1532069130.770,17.578,30.273,24.414,13.184,-41.504
1532069130.773,13.672,28.320,21.484,14.160,103.516
1532069130.777,13.184,28.809,21.484,20.020,144.043
1532069130.781,14.648,29.785,21.484,22.461,-14.648
1532069130.785,16.602,25.391,23.438,21.484,-49.805
1532069130.789,18.555,22.949,29.297,24.414,101.074
1532069130.793,19.043,23.438,26.855,23.926,176.270
1532069130.797,16.602,25.391,24.414,22.461,41.992
1532069130.801,16.602,29.785,24.902,22.949,-73.242
1532069130.805,20.996,33.203,24.902,23.438,55.664
1532069130.809,21.484,33.203,20.996,19.043,128.906
1532069130.813,13.184,30.762,18.066,14.648,30.762
1532069130.816,14.648,30.273,23.438,17.578,-61.523
1532069130.820,22.949,29.785,25.391,17.578,-1.465
1532069130.824,27.832,22.461,23.438,20.508,119.629
1532069130.828,25.391,20.996,24.414,24.414,83.984
1532069130.832,25.879,26.367,25.391,20.508,-58.594
1532069130.836,30.762,31.738,24.902,16.113,-36.621
1532069130.840,28.320,32.227,20.020,17.578,133.789
1532069130.844,25.391,28.320,17.578,19.043,145.508
1532069130.848,26.367,28.320,18.066,17.090,-32.715
1532069130.852,31.738,29.785,21.973,18.066,-87.891
1532069130.856,33.203,25.879,20.508,20.508,85.938
1532069130.859,29.297,27.832,20.020,20.996,142.578
1532069130.863,30.762,37.109,24.902,26.367,15.137
1532069130.867,28.320,31.250,22.949,29.297,-98.145
1532069130.871,24.902,18.066,21.973,31.250,2.441
1532069130.875,28.809,21.973,23.438,36.133,149.902
1532069130.879,27.344,28.320,21.484,38.574,83.984
1532069130.883,25.391,26.367,22.949,39.551,-67.383
1532069130.887,28.320,25.879,25.391,38.574,-29.297
1532069130.891,27.344,27.344,22.949,33.203,101.562
1532069130.895,25.391,27.344,29.297,30.762,88.379
1532069130.898,25.391,25.391,32.227,30.273,-36.133
1532069130.902,26.855,25.391,23.438,27.344,-60.547
1532069130.906,29.297,24.902,22.949,27.344,88.379
1532069130.910,31.250,25.879,27.832,31.250,128.906
1532069130.914,32.227,30.273,27.344,31.738,-10.742
1532069130.918,35.645,23.438,26.855,36.133,-80.566
1532069130.922,36.621,23.438,29.785,37.109,46.875
1532069130.926,32.227,27.832,32.227,37.109,130.859
1532069130.930,33.203,26.367,35.645,41.992,-2.930
1532069130.934,29.785,26.367,35.645,38.086,-76.660
1532069130.938,26.855,25.879,30.273,34.668,5.371
1532069130.941,25.879,30.273,29.297,35.156,81.055
1532069130.945,20.996,32.715,29.297,33.691,30.273
1532069130.949,20.508,28.809,29.297,29.785,-87.402
1532069130.953,19.531,24.902,26.855,24.902,-36.621
1532069130.957,23.438,21.973,22.461,22.949,113.281
1532069130.961,21.484,20.020,26.855,22.461,116.211
1532069130.965,18.555,28.320,29.785,24.414,-13.672
1532069130.969,25.391,32.715,27.344,25.391,-72.754
1532069130.973,23.438,29.785,25.391,23.438,64.941
1532069130.977,23.438,30.762,26.367,27.344,122.070
1532069130.981,28.809,29.785,28.809,36.133,-26.367
1532069130.984,29.785,33.203,28.320,37.109,-66.895
1532069130.988,29.297,35.645,21.973,30.762,36.133
1532069130.992,28.809,33.203,21.484,28.320,120.117
1532069130.996,24.414,31.250,22.461,28.809,35.156
1532069131.000,18.555,26.855,21.484,25.879,-89.844
1532069131.004,18.066,21.973,26.855,25.879,-11.230
1532069131.008,19.531,27.832,28.809,30.273,109.375
1532069131.012,19.043,31.738,25.879,30.762,55.664
1532069131.016,18.066,26.367,28.320,30.762,-65.430
1532069131.020,19.531,30.273,30.273,34.668,-16.602
1532069131.024,15.625,30.273,30.273,35.645,113.770
1532069131.027,9.766,24.414,30.762,34.180,91.797
1532069131.031,11.230,22.461,30.273,33.203,-42.969
1532069131.035,20.508,30.273,33.691,37.598,-82.031
1532069131.039,24.414,29.785,33.203,38.086,64.941
1532069131.043,21.973,17.578,28.320,32.227,152.344
1532069131.047,23.926,21.973,26.855,26.367,17.090
1532069131.051,34.180,28.809,25.879,24.414,-70.801
1532069131.055,46.875,31.738,29.785,30.762,39.551
1532069131.059,43.457,34.180,30.762,34.668,136.230
1532069131.063,33.691,31.738,26.367,39.551,50.781
1532069131.066,31.738,32.227,28.809,43.457,-83.008
1532069131.070,31.250,33.691,31.738,47.852,0.488
1532069131.074,27.344,28.809,32.715,54.199,145.508
1532069131.078,21.973,25.391,32.715,52.734,104.492
1532069131.082,18.066,27.344,30.273,49.316,-37.109
1532069131.086,19.043,27.832,28.809,49.316,-43.457
1532069131.090,22.949,23.438,32.715,50.293,95.703
1532069131.094,17.578,26.855,32.715,43.945,118.164
1532069131.098,10.254,33.203,26.367,35.645,-34.180
1532069131.102,18.066,29.297,25.879,35.645,-88.379
1532069131.106,24.414,29.785,30.762,36.621,66.895
1532069131.109,20.508,30.273,29.297,36.133,148.438
1532069131.113,17.578,25.879,27.344,33.203,12.695
1532069131.117,20.996,28.809,26.855,37.109,-91.309
1532069131.121,29.297,33.691,25.879,41.504,4.395
1532069131.125,25.879,29.785,29.785,37.109,136.719
1532069131.129,21.973,25.879,30.273,32.715,44.434
1532069131.133,22.461,27.344,29.297,31.250,-80.566
1532069131.137,23.438,27.832,31.250,34.180,11.230
1532069131.141,25.391,29.785,31.250,39.551,141.113
1532069131.145,21.484,28.320,28.809,40.039,83.496
1532069131.149,22.461,24.414,30.762,38.574,-45.898
1532069131.152,26.855,22.461,26.855,37.109,-40.527
1532069131.156,27.344,26.367,22.461,37.598,81.543
1532069131.160,29.785,33.691,31.250,41.504,117.676
1532069131.164,30.273,32.715,34.668,41.504,0.488
1532069131.168,27.832,27.344,30.273,37.109,-83.984
1532069131.172,30.273,25.391,27.344,36.133,22.949
1532069131.176,31.738,21.973,30.762,41.504,132.812
1532069131.180,29.785,20.996,33.691,42.969,5.859
1532069131.184,28.809,24.414,29.297,42.480,-104.980
1532069131.188,31.250,30.273,28.809,46.387,-21.484
1532069131.192,34.180,35.645,27.832,46.387,105.469
1532069131.195,32.715,30.762,24.902,42.969,72.266
1532069131.199,31.738,22.461,32.715,42.969,-79.590
1532069131.203,36.621,27.344,37.598,43.945,-29.297
1532069131.207,40.527,32.227,35.156,41.992,139.160
1532069131.211,42.969,27.344,32.227,46.387,116.699
1532069131.215,43.945,28.809,30.762,52.734,-39.551
1532069131.219,38.086,32.715,31.738,47.852,-58.105
1532069131.223,29.297,30.273,32.227,39.551,112.305
1532069131.227,25.391,27.344,33.203,33.203,133.301
1532069131.231,26.367,30.762,34.668,36.133,-52.246
1532069131.234,22.949,33.691,32.715,36.133,-116.211
1532069131.238,21.973,28.809,27.832,31.250,42.480
1532069131.242,25.391,24.902,27.832,33.691,148.438
1532069131.246,29.297,32.715,32.227,37.109,40.527
1532069131.250,31.738,35.645,33.203,38.086,-78.613
1532069131.254,32.227,26.855,33.203,35.645,4.883
1532069131.258,30.762,23.926,31.250,34.180,122.559
1532069131.262,27.832,28.809,29.297,31.738,54.688
1532069131.266,23.926,25.391,25.879,26.367,-80.078
1532069131.270,24.902,19.043,23.438,22.949,-60.547
1532069131.274,27.832,28.320,24.902,18.555,82.031
1532069131.277,21.973,27.344,26.367,17.578,98.633
1532069131.281,25.391,20.508,24.902,22.949,-41.016
1532069131.285,29.785,25.391,28.320,26.367,-91.309
1532069131.289,29.297,29.785,35.645,28.809,42.969
1532069131.293,30.762,26.855,33.691,29.785,107.910
1532069131.297,29.785,28.809,26.855,28.320,-6.348
1532069131.301,29.297,28.809,27.344,26.855,-87.891
1532069131.305,30.273,23.926,26.367,22.949,19.531
1532069131.309,29.785,23.926,25.391,20.020,113.281
1532069131.313,23.438,24.414,25.391,22.949,-4.395
1532069131.317,21.973,28.320,22.949,24.902,-79.102
1532069131.320,27.344,29.785,23.438,25.879,20.508
1532069131.324,23.438,30.273,23.926,25.391,120.117
1532069131.328,17.090,30.273,25.391,24.902,61.523
1532069131.332,20.020,27.344,30.273,26.855,-55.664
1532069131.336,23.438,26.367,24.902,29.785,-33.691
1532069131.340,19.043,25.879,17.578,25.391,91.309
1532069131.344,18.555,26.855,20.508,23.926,123.535
1532069131.348,25.391,31.738,26.367,26.367,-8.301
1532069131.352,28.320,33.691,30.762,24.414,-64.941
1532069131.356,26.367,28.809,24.414,23.438,83.984
1532069131.360,23.926,29.297,21.484,28.320,139.648
1532069131.363,21.484,28.809,31.738,33.691,15.625
1532069131.367,20.020,21.484,34.180,35.156,-71.777
1532069131.371,21.973,20.508,30.273,39.062,-15.137
1532069131.375,21.484,24.902,27.832,41.016,117.188
1532069131.379,19.531,30.762,28.320,37.598,70.312
1532069131.383,20.996,33.691,28.809,37.109,-68.359
1532069131.387,18.066,29.297,26.367,36.133,-20.996
1532069131.391,16.113,26.367,26.367,33.691,100.586
1532069131.395,18.555,27.832,33.691,35.645,75.195
1532069131.399,20.020,28.809,33.691,34.668,-67.871
1532069131.403,27.344,27.344,32.227,35.645,-55.664
1532069131.406,31.738,26.367,32.227,38.086,97.168
1532069131.410,27.344,25.879,33.691,34.668,94.727
1532069131.414,28.809,29.785,37.598,35.156,-13.672
1532069131.418,32.715,33.691,34.180,35.645,-58.105
1532069131.422,31.250,26.367,33.203,32.715,64.941
1532069131.426,27.832,23.438,34.668,34.180,142.578
1532069131.430,25.391,27.832,32.227,32.715,-8.301
1532069131.434,27.344,26.855,32.715,31.738,-91.309
1532069131.438,27.832,24.414,34.668,30.273,33.691
1532069131.442,23.926,27.344,35.645,29.297,148.926
1532069131.445,23.926,37.109,36.621,35.645,42.480
1532069131.449,23.926,37.598,33.691,36.133,-114.258
1532069131.453,24.414,26.855,34.668,35.156,-49.805
1532069131.457,22.949,23.438,34.180,33.203,118.652
1532069131.461,17.090,23.438,32.227,28.809,116.699
1532069131.465,15.625,24.414,32.227,25.391,-51.270
1532069131.469,24.414,25.879,31.250,26.367,-67.383
1532069131.473,31.738,27.832,30.273,27.832,100.098
1532069131.477,30.273,32.227,30.762,27.832,145.020
1532069131.481,29.785,34.180,32.715,33.203,-9.766
1532069131.485,32.715,33.691,33.691,31.250,-86.914
1532069131.488,34.180,31.250,33.691,28.320,35.156
1532069131.492,31.250,31.738,30.762,29.785,121.094
1532069131.496,23.926,32.227,27.832,27.832,31.250
1532069131.500,21.973,29.785,31.250,30.762,-81.055
1532069131.504,19.531,27.344,30.762,31.738,-2.930
1532069131.508,17.578,32.715,30.762,31.250,137.207
1532069131.512,13.672,33.203,32.715,29.785,75.195
1532069131.516,8.301,25.391,32.715,27.344,-58.594
1532069131.520,13.672,21.484,33.691,34.180,-19.531
1532069131.524,17.578,20.508,33.691,37.598,120.117
1532069131.528,13.672,21.973,36.621,34.668,125.000
1532069131.531,18.066,22.949,35.645,38.086,-46.387
1532069131.535,24.414,22.461,36.133,41.016,-66.406
1532069131.539,32.715,27.832,34.668,39.062,89.844
1532069131.543,35.156,28.809,31.250,37.109,156.738
1532069131.547,36.133,23.926,30.762,35.645,9.277
1532069131.551,43.457,26.367,30.762,35.156,-101.562
1532069131.555,45.898,31.738,31.250,34.668,44.922
1532069131.559,41.016,34.668,32.227,34.180,141.113
1532069131.563,34.668,27.832,31.250,28.809,52.734
1532069131.567,26.367,22.949,25.879,20.508,-72.266
1532069131.571,33.691,36.621,19.043,24.902,-27.832
1532069131.574,44.922,39.062,20.996,41.504,120.605
1532069131.578,26.855,20.508,33.203,41.992,78.125
1532069131.582,14.160,20.020,38.086,35.645,-75.195
1532069131.586,14.648,24.414,39.062,37.109,-52.246
1532069131.590,11.230,21.484,41.016,36.133,95.215
1532069131.594,10.254,20.508,41.992,41.016,93.750
1532069131.598,13.672,21.484,41.992,45.898,-30.273
1532069131.602,17.090,29.785,44.434,42.480,-44.434
1532069131.606,11.230,29.785,43.945,37.598,80.566
1532069131.610,9.766,23.926,40.039,38.086,131.836
1532069131.613,2.441,23.926,44.922,34.668,21.484
1532069131.617,4.883,21.973,43.457,33.203,-45.410
1532069131.621,12.695,18.555,37.109,31.738,53.223
1532069131.625,13.184,24.414,36.621,25.879,155.762
1532069131.629,20.508,30.273,35.645,30.762,46.387
1532069131.633,26.367,27.344,37.598,33.203,-87.402
1532069131.637,29.785,31.738,39.062,31.738,-20.996
1532069131.641,31.250,28.320,43.945,34.180,133.789
1532069131.645,27.344,24.414,43.945,34.668,110.352
1532069131.649,21.484,26.855,38.086,31.738,-83.008
1532069131.653,16.113,16.602,38.574,29.785,-77.148
1532069131.656,16.602,13.184,41.016,36.621,109.863
1532069131.660,14.160,17.090,37.598,40.527,146.484
1532069131.664,14.160,22.461,35.156,40.039,4.883
1532069131.668,21.973,24.902,34.180,43.945,-52.246
1532069131.672,22.461,23.438,31.738,48.340,86.914
1532069131.676,17.578,20.996,33.203,45.898,149.902
1532069131.680,13.672,20.020,34.668,44.434,10.254
1532069131.684,16.113,22.949,34.668,44.922,-78.613
1532069131.688,22.949,21.973,38.086,41.504,9.766
1532069131.692,22.949,20.996,37.109,38.574,86.426
1532069131.696,19.531,22.461,34.668,40.527,62.988
1532069131.699,20.508,30.762,33.691,40.527,-44.434
1532069131.703,20.020,31.250,30.762,36.133,-22.461
1532069131.707,20.020,23.926,29.297,33.691,119.629
1532069131.711,20.508,21.973,29.785,33.203,103.027
1532069131.715,20.508,20.996,30.762,33.203,-29.785
1532069131.719,22.461,22.949,28.809,34.180,-38.086
1532069131.723,27.832,27.832,28.809,41.016,99.609
1532069131.727,27.344,33.203,31.738,44.434,123.047
1532069131.731,25.879,35.156,27.344,41.016,-27.832
1532069131.735,33.203,28.320,27.344,44.434,-83.984
1532069131.739,40.527,24.414,28.809,44.434,48.828
1532069131.742,40.527,26.367,28.320,41.504,145.020
1532069131.746,35.645,25.879,26.855,38.086,-4.883
1532069131.750,40.039,29.785,23.926,35.156,-143.555
1532069131.754,45.898,32.227,24.414,34.668,-26.367
1532069131.758,43.457,34.668,24.902,35.645,120.605
1532069131.762,41.992,41.992,21.973,38.086,87.891
1532069131.766,47.363,42.480,17.090,43.945,-55.664
1532069131.770,43.457,29.785,21.973,49.316,-45.410
1532069131.774,21.484,25.391,31.738,41.992,114.746
1532069131.778,7.324,30.762,34.668,31.738,102.539
1532069131.781,2.930,28.809,34.180,24.902,-42.480
1532069131.785,9.766,27.832,32.227,30.273,-38.086
1532069131.789,10.742,32.227,32.715,29.297,94.727
1532069131.793,5.371,30.762,33.691,27.832,139.648
1532069131.797,6.348,26.367,31.738,33.691,15.137
1532069131.801,6.348,21.484,34.180,29.297,-59.082
1532069131.805,13.184,22.461,39.551,32.715,43.945
1532069131.809,18.066,31.738,37.109,39.551,122.559
1532069131.813,16.602,30.762,32.715,39.551,52.246
1532069131.817,15.625,21.484,35.645,38.574,-66.406
1532069131.821,16.602,21.484,34.668,38.086,-12.207
1532069131.824,20.996,24.414,31.738,40.527,138.672
1532069131.828,21.484,26.367,36.621,40.527,93.262
1532069131.832,21.973,24.902,38.086,38.086,-60.547
1532069131.836,26.855,20.508,31.250,36.621,-36.621
1532069131.840,29.785,22.949,25.879,32.715,101.074
1532069131.844,28.809,27.832,23.926,27.344,102.539
1532069131.848,28.809,26.367,25.879,23.926,-18.555
1532069131.852,33.691,25.879,29.297,23.926,-70.312
1532069131.856,35.645,26.855,28.320,24.414,59.082
1532069131.860,30.762,27.832,28.320,21.484,144.531
1532069131.864,27.832,34.180,26.855,18.555,3.906
1532069131.867,27.344,29.785,27.344,18.066,-84.473
1532069131.871,25.391,26.367,28.809,20.020,32.715
1532069131.875,24.902,27.832,27.832,24.902,145.508
1532069131.879,22.461,26.367,29.785,28.809,63.477
1532069131.883,23.438,25.391,33.691,31.738,-58.594
1532069131.887,27.344,27.344,35.156,37.598,-5.371
1532069131.891,27.832,29.785,34.180,41.016,122.559
1532069131.895,25.391,33.691,29.297,40.039,93.262
1532069131.899,24.414,32.227,28.809,41.016,-59.570
1532069131.903,23.926,26.855,29.785,38.086,-47.363
1532069131.907,27.832,25.391,28.809,35.645,80.566
1532069131.910,25.391,20.508,30.762,33.203,89.844
1532069131.914,19.043,22.461,32.715,26.855,-26.855
1532069131.918,21.484,28.809,33.203,25.391,-80.078
1532069131.922,20.508,23.926,30.762,25.391,41.992
1532069131.926,17.090,30.273,34.668,27.344,111.328
1532069131.930,18.066,36.133,38.086,26.367,-41.016
1532069131.934,16.602,27.832,34.668,22.461,-109.375
1532069131.938,19.531,30.273,29.785,25.879,33.203
1532069131.942,23.438,34.668,30.273,32.715,144.043
1532069131.946,24.414,29.785,35.156,36.621,25.391
1532069131.950,24.414,23.926,31.250,38.086,-109.375
1532069131.953,27.344,24.414,27.344,41.504,-43.457
1532069131.957,30.762,26.367,30.273,43.457,120.605
1532069131.961,27.832,29.785,34.668,43.457,84.473
1532069131.965,28.320,30.273,38.086,45.410,-72.266
1532069131.969,24.902,21.973,39.062,39.062,-79.590
1532069131.973,20.996,17.090,35.645,34.180,59.570
1532069131.977,24.902,21.973,38.086,40.527,127.930
1532069131.981,27.344,28.809,38.574,37.598,-20.508
1532069131.985,28.809,28.320,27.832,30.762,-87.891
1532069131.989,32.227,27.832,25.391,31.738,49.316
1532069131.992,30.762,38.086,31.250,30.762,127.930
1532069131.996,21.484,35.156,31.250,28.320,7.812
1532069132.000,16.602,23.926,28.320,28.809,-94.238
1532069132.004,19.043,23.926,27.832,29.785,9.277
1532069132.008,18.066,21.484,28.320,32.227,141.602
1532069132.012,14.648,21.484,33.691,31.738,64.453
1532069132.016,14.648,25.879,33.691,29.785,-68.848
1532069132.020,19.531,28.320,30.273,31.250,-18.066
1532069132.024,21.973,27.344,30.273,30.762,114.746
1532069132.028,15.625,25.391,30.273,25.879,75.684
1532069132.032,16.113,23.438,30.273,25.391,-67.871
1532069132.035,20.996,25.879,32.715,28.320,-53.223
1532069132.039,24.414,31.738,33.203,30.762,102.051
1532069132.043,28.809,31.250,34.180,35.156,124.023
1532069132.047,25.879,25.879,35.156,33.203,-29.785
1532069132.051,26.367,24.414,34.180,32.715,-114.258
1532069132.055,29.297,24.902,34.668,34.180,35.156
1532069132.059,29.297,27.344,37.598,34.668,155.273
1532069132.063,26.855,30.273,34.180,33.691,39.062
1532069132.067,21.484,28.320,29.785,30.762,-78.125
1532069132.071,21.484,25.391,28.320,29.785,-3.418
1532069132.075,21.973,27.832,26.367,32.227,125.488
1532069132.078,18.555,32.715,28.320,36.621,62.012
1532069132.082,15.625,28.809,32.227,32.227,-60.547
1532069132.086,15.625,24.902,28.320,27.832,-30.273
1532069132.090,17.578,24.414,25.391,27.832,97.168
1532069132.094,20.508,23.438,32.715,29.297,110.840
1532069132.098,19.531,32.715,29.785,31.738,-26.367
1532069132.102,20.508,35.156,25.391,29.297,-82.031
1532069132.106,22.949,31.250,27.832,26.367,36.133
1532069132.110,19.531,29.785,27.832,24.414,80.078
1532069132.114,17.578,28.320,28.320,24.902,-34.668
1532069132.118,20.020,29.785,29.297,30.762,-70.312
1532069132.121,21.484,27.344,29.297,31.250,33.203
1532069132.125,20.020,24.902,28.809,29.297,131.836
1532069132.129,19.531,28.809,27.832,30.762,48.828
1532069132.133,15.625,23.926,26.367,29.785,-97.656
1532069132.137,17.578,20.020,26.367,30.273,-38.574
1532069132.141,24.902,21.973,26.855,32.715,142.578
1532069132.145,22.949,26.855,24.902,32.715,93.262
1532069132.149,22.949,33.691,28.320,31.738,-77.148
1532069132.153,26.855,31.738,29.297,32.715,-51.270
1532069132.157,25.391,28.809,28.320,30.273,97.656
1532069132.160,19.043,26.367,28.809,29.297,108.398
1532069132.164,18.555,27.832,32.715,30.273,-11.230
1532069132.168,23.438,30.762,35.645,30.762,-80.078
1532069132.172,23.926,27.344,29.785,30.762,4.395
1532069132.176,18.066,22.461,25.391,26.367,120.117
1532069132.180,15.137,19.043,28.320,26.367,11.230
1532069132.184,21.484,24.414,30.762,30.273,-97.168
1532069132.188,27.344,29.297,28.320,32.227,15.137
1532069132.192,25.391,24.902,27.344,31.738,125.000
1532069132.196,25.879,20.020,32.227,34.668,62.012
1532069132.200,24.902,20.996,32.715,33.203,-69.336
1532069132.203,22.461,28.320,28.809,29.297,-27.344
1532069132.207,23.438,33.691,33.691,30.273,109.375
1532069132.211,19.531,32.715,36.133,31.250,68.359
1532069132.215,16.113,26.855,31.738,28.809,-53.711
1532069132.219,17.090,20.508,26.855,24.414,-39.062
1532069132.223,20.996,18.555,24.414,25.879,105.469
1532069132.227,16.602,20.996,26.855,27.344,108.398
1532069132.231,16.113,22.461,30.762,30.762,-31.738
1532069132.235,21.484,23.926,31.250,34.180,-52.246
1532069132.239,13.184,26.855,33.203,27.344,84.961
1532069132.243,3.906,22.949,30.762,19.531,136.719
1532069132.246,5.371,19.043,28.320,18.555,-24.902
1532069132.250,9.277,19.531,30.273,16.602,-143.555
1532069132.254,12.695,19.531,28.320,18.555,11.230
1532069132.258,14.648,20.996,26.855,20.508,155.762
1532069132.262,13.184,20.020,24.902,18.555,87.891
1532069132.266,13.184,21.973,22.949,18.555,-53.223
1532069132.270,16.113,27.344,25.391,23.438,-35.645
1532069132.274,17.090,22.949,26.855,23.438,146.973
1532069132.278,13.184,21.973,26.367,20.508,138.184
1532069132.282,14.160,26.855,28.320,22.461,-31.250
1532069132.286,19.043,22.461,30.273,23.926,-42.480
1532069132.289,24.902,17.090,32.227,27.832,105.957
1532069132.293,23.438,17.578,30.273,25.391,155.273
1532069132.297,20.020,23.438,30.273,22.461,-9.277
1532069132.301,18.555,18.066,30.273,23.438,-71.289
1532069132.305,17.090,15.137,27.832,24.414,78.125
1532069132.309,20.020,21.484,31.738,25.879,132.324
1532069132.313,20.508,25.391,31.738,28.809,36.621
1532069132.317,21.484,26.855,27.832,31.250,-59.570
1532069132.321,23.926,22.949,27.344,28.320,41.504
1532069132.325,21.973,21.484,27.832,24.414,155.273
1532069132.328,21.484,23.926,30.762,24.902,62.988
1532069132.332,20.996,24.902,29.785,29.297,-49.316
1532069132.336,25.391,22.949,29.785,32.715,-23.926
1532069132.340,29.297,24.414,29.785,31.250,119.629
1532069132.344,25.879,28.320,28.320,31.250,119.141
1532069132.348,30.762,25.391,31.250,33.691,-60.059
1532069132.352,35.156,25.879,30.762,31.738,-86.426
1532069132.356,32.227,31.738,31.250,31.738,68.359
1532069132.360,29.785,30.762,31.738,32.715,146.484
1532069132.364,24.902,23.438,28.320,27.832,25.391
1532069132.368,21.973,17.578,29.297,25.879,-57.129
1532069132.371,23.926,22.461,26.855,28.320,54.199
1532069132.375,26.367,25.879,25.879,31.250,158.691
1532069132.379,28.320,29.297,26.855,35.645,64.453
1532069132.383,29.785,34.668,30.762,34.668,-71.289
1532069132.387,34.180,30.762,35.156,33.203,-20.508
1532069132.391,32.715,29.297,35.645,32.715,118.164
1532069132.395,22.461,33.691,34.180,31.250,91.309
1532069132.399,28.320,27.832,34.180,33.203,-74.707
1532069132.403,35.156,26.367,37.109,34.668,-49.316
1532069132.407,31.738,24.902,34.180,31.738,104.492
1532069132.411,31.738,22.949,29.785,33.691,100.586
1532069132.414,28.320,28.320,28.809,31.738,-16.602
1532069132.418,22.949,32.227,27.344,28.320,-41.504
1532069132.422,27.344,30.273,24.902,31.250,87.891
1532069132.426,29.297,29.297,29.785,30.273,149.902
1532069132.430,23.926,34.180,32.227,25.391,20.020
1532069132.434,23.926,31.250,31.738,21.973,-77.148
1532069132.438,27.832,28.809,31.250,23.438,38.574
1532069132.442,28.809,30.273,29.297,21.484,163.086
1532069132.446,30.762,30.273,30.762,17.090,75.684
1532069132.450,38.086,31.250,28.320,14.648,-68.359
1532069132.454,41.992,31.250,25.391,16.113,-18.555
1532069132.457,42.969,24.902,25.879,20.996,123.535
1532069132.461,39.062,23.926,25.879,26.855,92.773
1532069132.465,31.738,33.203,26.367,31.738,-46.387
1532069132.469,27.832,35.156,29.785,36.621,-53.711
1532069132.473,21.484,26.855,34.668,41.016,90.820
1532069132.477,15.137,20.508,36.621,38.086,119.629
1532069132.481,13.672,24.414,31.738,34.668,-38.086
1532069132.485,20.020,28.320,32.715,36.133,-93.262
1532069132.489,17.090,26.855,35.156,33.203,45.410
1532069132.493,10.742,22.949,32.227,29.785,125.488
1532069132.497,11.230,20.996,30.762,31.738,15.137
1532069132.500,15.625,28.809,32.227,32.227,-69.336
1532069132.504,17.578,37.598,32.227,27.344,42.969
1532069132.508,13.184,27.344,30.273,21.973,155.273
1532069132.512,9.277,18.066,32.227,21.484,71.777
1532069132.516,12.207,27.344,33.203,21.484,-55.664
1532069132.520,15.137,31.250,32.227,19.043,-11.230
1532069132.524,15.137,27.344,30.762,19.531,108.887
1532069132.528,14.648,31.250,30.762,20.020,80.078
1532069132.532,15.625,34.180,35.645,20.996,-60.059
1532069132.536,20.996,34.668,38.086,29.785,-59.570
1532069132.539,21.484,30.273,32.715,31.250,83.008
1532069132.543,15.137,23.438,34.668,27.344,116.699
1532069132.547,12.695,27.832,34.180,29.785,-40.527
1532069132.551,15.625,30.273,27.832,28.320,-95.703
1532069132.555,18.066,29.297,32.227,26.855,51.758
1532069132.559,17.090,31.738,34.180,29.297,131.348
1532069132.563,11.230,28.320,31.250,27.832,26.855
1532069132.567,8.789,30.273,33.203,23.438,-90.332
1532069132.571,15.137,32.715,36.133,27.832,2.441
1532069132.575,14.160,27.344,35.645,30.273,125.977
1532069132.579,12.695,28.320,32.227,27.344,52.734
1532069132.582,18.066,34.668,30.273,27.832,-77.148
1532069132.586,20.020,34.668,26.855,24.902,-50.781
1532069132.590,18.555,28.320,29.297,21.484,62.988
1532069132.594,17.578,29.297,34.180,24.414,64.941
1532069132.598,15.137,32.227,29.785,22.461,-51.270
1532069132.602,13.672,30.762,25.391,21.973,-55.664
1532069132.606,17.090,36.133,29.785,24.902,82.031
1532069132.610,17.578,33.691,32.227,22.461,117.676
1532069132.614,16.602,29.785,28.809,24.414,1.953
1532069132.618,18.555,30.273,29.297,23.926,-99.609
1532069132.622,20.020,31.738,27.832,20.996,14.648
1532069132.625,17.090,32.227,24.902,20.508,137.207
1532069132.629,18.066,30.273,25.391,21.973,18.555
1532069132.633,23.926,35.645,28.320,25.391,-89.844
1532069132.637,27.832,41.504,25.879,29.785,-0.977
1532069132.641,26.855,41.016,25.879,30.273,114.746
1532069132.645,26.367,38.574,30.762,28.320,76.172
1532069132.649,25.391,35.645,26.367,24.414,-66.895
1532069132.653,27.344,31.250,21.973,20.508,-34.668
1532069132.657,29.297,29.297,22.949,21.973,114.746
1532069132.661,28.320,32.715,30.273,25.879,101.074
1532069132.665,27.344,34.180,31.250,27.832,-22.949
1532069132.668,29.785,31.738,25.391,24.902,-39.551
1532069132.672,38.574,33.203,26.367,28.809,100.586
1532069132.676,38.086,37.109,25.391,31.738,138.672
1532069132.680,31.738,34.668,22.461,27.344,26.855
1532069132.684,36.133,33.203,27.344,26.367,-28.320
1532069132.688,38.086,35.645,29.785,24.902,43.457
1532069132.692,32.227,34.668,27.344,22.949,126.953
1532069132.696,28.320,32.227,23.438,25.391,53.711
1532069132.700,30.762,34.180,22.461,24.902,-82.520
1532069132.704,32.715,33.203,23.438,20.508,-20.020
1532069132.707,31.250,29.785,26.367,21.973,120.117
1532069132.711,23.926,29.297,27.832,21.484,66.406
1532069132.715,20.996,30.762,25.391,19.531,-80.078
1532069132.719,24.414,35.645,30.762,22.461,-42.480
1532069132.723,28.809,35.645,31.250,25.879,130.371
1532069132.727,29.785,32.715,26.855,26.855,136.719
1532069132.731,25.879,28.320,28.320,26.367,-55.664
1532069132.735,30.762,33.691,29.297,30.273,-100.098
1532069132.739,42.480,40.039,39.062,40.527,70.801
1532069132.743,44.922,33.691,52.246,46.875,157.715
1532069132.747,39.062,34.180,48.340,41.016,38.574
1532069132.750,28.809,32.715,38.086,29.297,-56.641
1532069132.754,29.297,33.203,39.551,27.832,42.480
1532069132.758,38.086,36.621,55.176,39.062,125.000
1532069132.762,23.438,32.227,61.035,31.738,62.988
1532069132.766,11.230,26.367,61.035,22.949,-59.082
1532069132.770,23.926,33.203,65.430,25.391,-59.570
1532069132.774,30.273,43.457,65.918,20.996,105.469
1532069132.778,15.625,45.898,66.406,6.836,110.352
1532069132.782,3.418,49.805,73.730,0.488,-55.176
1532069132.786,2.441,53.711,78.125,-2.441,-31.250
1532069132.790,-3.418,51.270,77.637,-13.184,112.793
1532069132.793,-20.020,53.223,80.078,-28.809,145.020
1532069132.797,-30.762,61.035,80.078,-41.016,-9.277
1532069132.801,-37.109,65.430,79.102,-46.875,-68.359
1532069132.805,-43.945,67.871,83.008,-52.246,53.711
1532069132.809,-50.293,71.777,84.473,-62.988,112.305
1532069132.813,-59.570,77.637,78.613,-77.148,28.809
1532069132.817,-59.082,85.938,69.336,-78.613,-67.871
1532069132.821,-51.270,82.031,69.336,-69.336,-5.371
1532069132.825,-50.293,71.289,78.125,-65.918,134.766
1532069132.829,-51.758,70.312,68.359,-65.918,77.148
1532069132.833,-41.992,69.824,57.617,-59.082,-55.664
1532069132.836,-31.738,65.918,55.664,-50.293,0.488
1532069132.840,-23.438,60.059,47.852,-38.086,139.160
1532069132.844,-22.461,54.199,39.551,-28.809,138.184
1532069132.848,-21.484,52.734,39.551,-23.438,-25.879
1532069132.852,2.441,52.734,39.062,-12.207,-56.152
1532069132.856,9.766,46.387,27.344,-10.254,73.242
1532069132.860,11.719,42.480,16.113,-6.836,118.164
1532069132.864,24.902,44.434,10.254,10.254,4.395
1532069132.868,22.949,38.086,11.230,12.207,-100.586
1532069132.872,25.879,30.762,12.695,9.277,20.020
1532069132.875,37.109,28.320,8.301,20.020,136.719
1532069132.879,37.598,22.949,5.371,29.297,47.363
1532069132.883,42.480,20.508,5.859,36.133,-54.199
1532069132.887,48.828,20.020,3.906,34.668,22.461
1532069132.891,48.828,20.508,-2.441,36.621,136.719
1532069132.895,51.758,19.531,-2.441,47.363,54.199
1532069132.899,50.781,15.625,2.930,51.758,-91.797
1532069132.903,53.223,11.230,4.883,53.711,-38.086
1532069132.907,59.570,13.184,4.883,57.129,124.023
1532069132.911,57.617,15.137,3.906,56.152,104.004
1532069132.915,57.617,7.324,4.395,53.711,-51.758
1532069132.918,63.965,8.789,5.859,57.129,-51.758
1532069132.922,63.965,18.066,6.348,57.129,94.727
1532069132.926,57.129,15.625,5.371,56.152,142.578
1532069132.930,54.199,12.207,1.953,54.688,-3.418
1532069132.934,59.570,14.160,4.883,57.129,-91.309
1532069132.938,65.430,13.184,5.859,59.082,46.387
1532069132.942,68.359,11.230,4.883,59.082,168.945
1532069132.946,67.383,14.648,11.719,64.453,64.453
1532069132.950,64.453,18.555,10.742,61.035,-107.422
1532069132.954,64.453,20.996,4.395,55.176,-56.152
1532069132.958,65.430,19.531,3.906,54.688,113.770
1532069132.961,63.477,15.625,2.930,53.223,104.980
1532069132.965,59.082,14.160,3.418,52.246,-54.688
1532069132.969,56.152,17.090,10.742,48.828,-53.711
1532069132.973,50.781,19.531,12.207,47.363,104.004
1532069132.977,44.434,18.555,6.836,48.340,122.070
1532069132.981,42.480,16.602,9.766,45.410,-20.508
1532069132.985,42.480,18.555,12.207,44.922,-41.992
1532069132.989,44.922,21.973,10.742,47.363,81.543
1532069132.993,44.434,23.438,12.207,50.781,106.445
1532069132.997,42.969,24.414,7.324,47.852,-4.883
1532069133.001,46.387,21.973,7.324,47.363,-63.477
1532069133.004,50.781,18.066,10.254,48.828,39.551
1532069133.008,48.828,19.531,13.184,45.410,106.445
1532069133.012,47.852,22.949,16.113,46.387,-2.441
1532069133.016,50.293,25.879,14.160,49.316,-98.633
1532069133.020,50.293,22.949,13.672,45.410,2.930
1532069133.024,47.363,20.508,15.137,46.875,130.371
1532069133.028,44.922,25.391,13.672,48.828,108.398
1532069133.032,42.480,26.367,13.672,44.922,-24.414
1532069133.036,42.969,27.344,17.578,44.922,-59.082
1532069133.040,43.457,29.297,18.066,47.363,62.500
1532069133.044,43.457,26.855,16.113,46.875,105.469
1532069133.047,43.945,28.809,16.113,45.898,-23.926
1532069133.051,45.410,32.715,16.113,44.922,-108.398
1532069133.055,44.922,27.832,14.648,41.016,45.410
1532069133.059,45.898,26.855,21.973,44.434,155.273
1532069133.063,45.410,30.762,26.367,50.293,30.273
1532069133.067,42.969,28.809,19.043,46.387,-89.844
1532069133.071,41.504,27.832,16.113,39.551,-5.371
1532069133.075,35.156,26.367,14.160,34.668,125.488
1532069133.079,29.297,30.273,14.648,34.668,54.199
1532069133.083,24.414,33.203,18.066,32.715,-62.500
1532069133.086,21.484,26.367,16.602,27.344,7.812
1532069133.090,20.996,23.926,17.578,24.902,103.516
1532069133.094,20.996,27.832,20.508,26.367,90.820
1532069133.098,21.973,30.273,18.555,28.809,-41.504
1532069133.102,29.297,28.320,19.531,34.668,-57.617
1532069133.106,36.133,31.250,23.926,45.410,101.074
1532069133.110,27.832,38.086,22.949,33.203,120.605
1532069133.114,19.531,35.645,18.066,21.484,0.000
1532069133.118,27.344,33.203,13.184,31.738,-65.430
1532069133.122,36.621,30.762,19.043,40.527,58.594
1532069133.126,36.133,28.320,24.902,38.574,151.855
1532069133.129,33.203,37.109,22.949,39.062,28.809
1532069133.133,31.250,40.527,24.902,37.109,-86.914
1532069133.137,31.250,37.109,24.902,32.715,7.324
1532069133.141,35.645,37.109,25.879,34.180,144.043
1532069133.145,34.180,30.273,23.926,29.785,85.449
1532069133.149,38.574,28.809,21.484,21.484,-76.660
1532069133.153,48.828,38.574,20.996,17.090,-69.336
1532069133.157,53.223,37.598,17.090,18.066,96.680
1532069133.161,50.293,37.109,15.137,24.414,124.512
1532069133.165,42.480,38.574,17.578,33.691,-45.410
1532069133.169,39.551,41.992,22.461,39.551,-109.863
1532069133.172,33.203,36.621,22.461,37.598,62.500
1532069133.176,24.902,26.855,23.926,36.621,169.922
1532069133.180,22.461,28.320,25.879,36.621,16.602
1532069133.184,23.438,28.809,25.879,34.180,-95.215
1532069133.188,22.461,29.785,26.367,35.645,45.410
1532069133.192,20.508,31.738,27.344,34.180,152.344
1532069133.196,17.578,35.645,31.250,29.297,35.156
1532069133.200,20.020,37.109,26.367,26.367,-100.098
1532069133.204,24.902,28.809,17.578,24.902,-10.254
1532069133.208,21.973,23.926,21.484,23.438,121.582
1532069133.212,19.531,24.902,26.367,24.414,98.145
1532069133.215,20.508,25.391,21.973,26.855,-27.832
1532069133.219,23.438,31.250,22.949,30.762,-30.273
1532069133.223,29.297,34.668,26.367,33.203,114.746
1532069133.227,28.320,32.227,27.832,34.180,120.605
1532069133.231,25.879,31.250,28.809,32.227,-64.453
1532069133.235,30.273,30.762,27.344,33.691,-95.215
1532069133.239,31.738,32.227,27.832,35.156,107.422
1532069133.243,27.344,37.109,28.809,32.715,162.598
1532069133.247,23.926,31.250,30.762,27.344,6.836
1532069133.251,27.832,31.250,35.645,25.391,-76.172
1532069133.254,28.809,35.645,27.832,26.855,8.301
1532069133.258,25.391,28.320,22.461,26.367,108.887
1532069133.262,25.879,28.320,27.832,28.320,53.223
1532069133.266,28.809,36.133,31.250,29.785,-90.332
1532069133.270,31.250,33.691,27.832,27.344,-22.461
1532069133.274,29.297,28.809,27.832,29.785,138.184
1532069133.278,26.367,31.738,32.227,30.762,99.609
1532069133.282,27.832,38.086,30.762,30.273,-44.434
1532069133.286,27.832,34.180,27.344,28.320,-42.969
1532069133.290,27.832,28.809,32.715,26.855,67.383
1532069133.294,25.879,35.156,29.297,24.414,122.559
1532069133.297,22.461,34.668,24.414,21.973,4.395
1532069133.301,23.438,30.273,26.855,21.484,-62.500
1532069133.305,28.809,31.738,25.879,23.438,72.266
1532069133.309,32.227,33.691,26.855,26.855,135.742
1532069133.313,29.785,33.691,28.320,26.367,20.020
1532069133.317,26.367,33.203,28.320,24.902,-70.312
1532069133.321,28.809,31.250,27.832,25.879,18.555
1532069133.325,27.832,30.273,26.855,25.391,135.254
1532069133.329,24.902,33.691,23.438,23.926,31.738
1532069133.333,24.414,33.691,23.926,23.438,-124.512
1532069133.337,22.461,25.391,26.367,21.484,-27.832
1532069133.340,23.926,21.973,24.902,24.414,125.488
1532069133.344,24.902,26.855,22.949,27.344,107.422
1532069133.348,25.879,33.203,25.391,28.320,-73.242
1532069133.352,25.879,34.180,28.320,30.273,-84.473
1532069133.356,25.391,31.250,30.273,32.227,104.004
1532069133.360,24.902,35.645,33.203,34.180,128.906
1532069133.364,26.367,37.109,30.762,34.668,-2.930
1532069133.368,28.320,34.180,28.809,30.273,-69.336
1532069133.372,27.344,31.250,27.344,26.855,57.129
1532069133.376,24.902,31.250,24.902,30.762,128.906
1532069133.380,23.926,32.715,22.949,32.227,15.625
1532069133.383,25.391,33.691,25.879,33.203,-67.383
1532069133.387,27.344,28.320,30.273,36.133,20.996
1532069133.391,29.297,27.832,27.832,35.645,131.348
1532069133.395,28.809,37.109,24.902,33.691,94.727
1532069133.399,27.832,33.203,27.344,36.133,-18.066
1532069133.403,31.250,33.203,29.785,43.945,-7.324
1532069133.407,27.344,34.180,26.367,40.039,102.051
1532069133.411,25.879,30.762,28.320,35.156,79.102
1532069133.415,27.832,33.203,32.227,40.039,-69.824
1532069133.419,23.926,29.297,28.320,40.039,-96.191
1532069133.422,23.926,27.344,28.809,39.062,48.828
1532069133.426,22.949,31.250,33.203,43.457,81.543
1532069133.430,14.160,30.762,30.273,37.598,-60.547
1532069133.434,11.719,26.855,32.227,35.156,-105.957
1532069133.438,18.555,30.273,35.156,39.062,49.805
1532069133.442,18.555,38.574,29.785,38.086,144.043
1532069133.446,14.648,36.133,31.250,40.527,22.461
1532069133.450,11.230,30.273,34.668,42.480,-99.121
1532069133.454,14.160,25.391,33.203,46.387,-33.203
1532069133.458,20.996,23.926,34.180,49.805,102.051
1532069133.462,14.648,27.832,31.738,36.621,65.918
1532069133.465,8.301,34.180,26.367,24.902,-67.383
1532069133.469,15.625,37.109,22.461,24.902,-66.895
1532069133.473,20.996,31.738,25.391,31.250,73.242
1532069133.477,20.508,32.227,30.762,35.156,109.375
1532069133.481,18.555,38.086,31.250,32.227,-21.484
1532069133.485,18.066,38.574,29.785,27.344,-62.500
1532069133.489,16.602,33.203,26.855,24.902,62.012
1532069133.493,12.695,29.785,27.344,25.879,135.742
1532069133.497,13.184,27.344,31.738,27.832,18.066
1532069133.501,14.648,26.367,32.715,29.297,-74.219
1532069133.505,18.066,32.715,31.250,32.715,31.250
1532069133.508,19.531,37.598,30.273,33.203,113.770
1532069133.512,13.672,33.691,32.715,29.785,16.113
1532069133.516,12.695,31.738,33.203,29.785,-77.637
1532069133.520,15.137,34.180,30.762,30.762,-21.973
1532069133.524,16.113,34.668,31.250,32.715,110.352
1532069133.528,15.137,30.273,29.297,29.785,74.707
1532069133.532,17.578,31.250,29.785,29.785,-64.941
1532069133.536,22.461,35.645,31.738,34.180,-41.992
1532069133.540,24.414,30.762,31.250,36.133,105.957
1532069133.544,21.973,27.344,33.203,35.645,119.629
1532069133.548,18.066,35.645,31.738,34.668,-31.738
1532069133.551,18.555,36.621,31.250,34.668,-62.012
1532069133.555,20.996,30.273,29.785,32.227,36.133
1532069133.559,21.973,31.250,28.320,33.203,117.188
1532069133.563,22.461,35.645,29.785,32.227,25.879
1532069133.567,20.508,36.133,27.344,27.832,-88.379
1532069133.571,20.508,35.645,24.902,30.273,-5.859
1532069133.575,21.484,33.691,26.367,30.273,129.395
1532069133.579,20.996,31.250,32.715,30.273,78.613
1532069133.583,20.020,30.273,34.180,32.715,-64.941
1532069133.587,20.020,30.762,29.297,28.320,-32.715
1532069133.590,19.531,31.250,27.344,25.879,121.094
1532069133.594,16.602,29.297,26.855,26.855,117.188
1532069133.598,15.625,31.250,24.902,27.832,-36.133
1532069133.602,18.555,35.156,25.879,25.879,-41.016
1532069133.606,24.414,38.086,27.832,28.320,106.934
1532069133.610,31.250,34.668,28.809,36.133,100.098
1532069133.614,27.344,31.738,30.273,30.273,-12.207
1532069133.618,15.137,35.156,28.809,19.043,-62.012
1532069133.622,13.672,35.645,27.344,20.996,61.035
1532069133.626,8.789,34.668,27.832,19.043,171.875
1532069133.630,6.348,38.086,30.762,15.137,47.363
1532069133.633,10.254,36.133,28.809,20.508,-53.711
1532069133.637,9.277,31.738,23.438,21.973,-0.488
1532069133.641,11.719,35.156,24.902,21.973,137.207
1532069133.645,11.230,35.156,30.273,23.438,88.379
1532069133.649,10.742,35.645,27.832,22.461,-84.473
1532069133.653,14.648,32.227,28.809,24.902,-46.875
1532069133.657,15.625,28.809,31.250,28.809,92.773
1532069133.661,14.160,37.109,25.391,26.855,108.398
1532069133.665,14.160,37.109,24.902,22.461,-17.578
1532069133.669,16.602,29.297,28.320,21.973,-59.570
1532069133.673,15.625,26.367,26.855,22.949,85.938
1532069133.676,15.625,30.762,28.320,24.414,145.508
1532069133.680,17.578,35.645,28.809,28.809,14.160
1532069133.684,22.461,31.738,26.855,32.715,-48.828
1532069133.688,25.879,31.250,30.762,34.180,50.781
1532069133.692,23.438,33.203,32.227,33.203,135.254
1532069133.696,19.043,26.855,27.832,33.203,46.875
1532069133.700,18.555,27.832,25.879,33.203,-94.238
1532069133.704,15.137,29.785,29.785,32.227,-19.531
1532069133.708,13.184,29.785,31.250,28.809,125.000
1532069133.712,14.648,31.250,28.809,27.344,55.176
1532069133.716,14.160,30.762,29.297,27.832,-69.824
1532069133.719,19.531,32.227,29.297,28.320,-34.668
1532069133.723,23.438,33.203,29.785,32.227,93.750
1532069133.727,21.973,31.250,27.832,32.715,83.008
1532069133.731,20.020,33.203,27.832,28.320,-47.852
1532069133.735,18.555,32.715,29.785,27.832,-68.848
1532069133.739,19.531,25.391,28.320,29.297,68.848
1532069133.743,18.555,25.391,28.809,30.273,143.066
1532069133.747,19.043,31.738,32.227,31.738,-2.930
1532069133.751,18.066,30.273,33.203,29.297,-105.469
1532069133.755,17.090,26.855,32.227,28.320,24.902
1532069133.759,17.578,25.879,31.250,27.832,131.348
1532069133.762,14.648,27.344,31.250,28.809,41.992
1532069133.766,16.113,32.227,32.715,33.203,-66.406
1532069133.770,22.461,31.738,29.297,36.133,-28.809
1532069133.774,20.996,28.320,30.273,36.133,117.188
1532069133.778,15.625,29.785,32.715,33.203,84.961
1532069133.782,14.648,29.297,29.297,29.785,-79.102
1532069133.786,15.625,26.855,26.855,25.879,-68.359
1532069133.790,18.555,30.273,27.344,27.832,80.566
1532069133.794,18.555,25.391,27.344,31.250,110.352
1532069133.798,19.531,21.973,29.297,33.203,-7.812
1532069133.801,18.555,28.809,26.367,30.762,-57.617
1532069133.805,21.973,34.668,25.391,31.250,76.660
1532069133.809,24.414,37.109,25.879,33.203,119.141
1532069133.813,19.043,33.203,23.926,31.250,-2.441
1532069133.817,17.090,26.855,24.902,31.250,-57.129
1532069133.821,15.625,23.926,23.926,28.809,44.434
1532069133.825,14.160,28.809,27.344,30.273,152.344
1532069133.829,12.207,31.738,31.738,29.785,59.570
1532069133.833,10.254,26.855,31.250,25.391,-56.152
1532069133.837,11.719,27.344,27.344,22.461,-0.977
1532069133.841,11.719,30.762,23.438,19.043,135.254
1532069133.844,17.090,28.809,25.391,24.414,114.258
1532069133.848,20.020,32.227,31.250,28.320,-71.777
1532069133.852,21.973,32.715,32.715,23.926,-83.984
1532069133.856,29.785,30.762,27.344,24.902,101.074
1532069133.860,35.156,32.715,21.484,24.414,133.789
1532069133.864,33.691,33.691,21.484,21.973,-4.883
1532069133.868,37.109,36.133,22.461,23.438,-85.938
1532069133.872,38.086,37.109,25.391,29.785,13.672
1532069133.876,24.902,34.668,27.344,31.250,112.793
1532069133.880,10.742,31.738,25.391,32.715,9.766
1532069133.884,7.812,32.227,34.180,43.457,-130.371
1532069133.887,20.996,23.926,40.527,61.035,-2.930
1532069133.891,17.578,19.531,33.203,50.781,112.305
1532069133.895,-3.418,30.273,25.879,22.949,12.207
1532069133.899,-0.488,32.227,25.391,26.855,-75.684
1532069133.903,6.836,30.273,25.391,34.668,-49.805
1532069133.907,4.883,28.320,21.484,27.344,77.148
1532069133.911,8.789,28.809,20.020,26.855,107.422
1532069133.915,9.277,31.738,21.973,27.832,-17.578
1532069133.919,8.789,32.227,26.367,26.855,-66.895
1532069133.923,8.301,33.203,26.367,25.391,87.402
1532069133.927,4.883,31.738,23.438,26.367,132.324
1532069133.930,6.836,27.832,25.879,25.391,-15.625
1532069133.934,15.625,31.250,26.855,27.832,-75.195
1532069133.938,20.020,32.227,24.414,29.785,23.438
1532069133.942,16.113,24.414,23.438,26.367,134.277
1532069133.946,15.625,21.973,25.391,27.344,66.406
1532069133.950,17.090,27.832,24.414,27.344,-57.129
1532069133.954,16.113,33.691,20.996,26.855,22.949
1532069133.958,17.090,34.668,21.973,29.297,136.230
1532069133.962,15.137,32.715,23.438,32.715,74.707
1532069133.966,16.113,30.273,24.902,35.645,-56.641
1532069133.969,20.508,31.738,28.320,35.645,-38.086
1532069133.973,20.508,33.691,26.367,30.273,100.586
1532069133.977,20.508,28.809,23.438,29.785,111.816
1532069133.981,20.020,27.832,27.344,27.832,-20.508
1532069133.985,19.043,29.297,29.785,26.855,-28.320
1532069133.989,23.438,27.832,27.344,33.203,100.586
1532069133.993,27.344,32.715,26.367,35.645,114.746
1532069133.997,29.785,35.645,25.391,37.598,13.184
1532069134.001,28.320,35.645,26.855,40.527,-53.711
1532069134.005,30.273,36.621,30.762,37.598,70.312
1532069134.009,32.227,33.203,29.785,34.668,164.551
1532069134.012,28.320,33.203,25.391,32.715,42.969
1532069134.016,26.855,32.715,24.902,32.715,-51.758
1532069134.020,35.645,34.668,29.785,37.598,16.113
1532069134.024,35.156,34.180,27.344,36.621,133.789
1532069134.028,26.367,30.762,20.020,32.227,88.379
1532069134.032,25.391,32.227,18.066,32.715,-56.152
1532069134.036,25.879,32.715,17.578,33.203,-39.551
1532069134.040,26.855,30.762,21.973,31.250,94.238
1532069134.044,24.902,32.715,26.855,29.297,122.070
1532069134.048,20.996,28.809,27.832,26.855,-7.324
1532069134.052,23.438,26.855,27.832,26.367,-46.387
1532069134.055,25.391,28.320,24.902,29.297,95.215
1532069134.059,22.949,32.227,25.879,29.297,142.090
1532069134.063,22.461,34.668,25.391,26.855,21.973
1532069134.067,26.367,32.715,21.973,29.785,-75.195
1532069134.071,30.273,31.738,23.438,31.250,5.859
1532069134.075,30.762,28.809,24.902,31.738,127.930
1532069134.079,24.414,30.762,23.926,30.273,44.434
1532069134.083,21.484,29.785,20.996,26.367,-83.984
1532069134.087,26.855,32.227,20.508,23.438,-5.371
1532069134.091,25.391,32.715,25.879,21.973,130.371
1532069134.095,18.066,26.367,26.367,22.949,93.750
1532069134.098,17.090,25.879,24.902,25.879,-41.992
1532069134.102,19.043,26.367,26.367,24.414,-55.176
1532069134.106,20.508,30.273,25.879,23.926,107.910
1532069134.110,19.531,35.645,21.484,25.391,142.090
1532069134.114,20.508,30.273,21.484,24.414,-37.598
1532069134.118,20.020,23.438,25.879,23.926,-106.445
1532069134.122,17.090,25.391,21.973,24.902,38.574
1532069134.126,19.043,28.320,24.414,25.391,129.395
1532069134.130,17.090,30.762,34.180,25.391,9.277
1532069134.134,17.578,33.691,31.738,27.344,-94.727
1532069134.137,17.578,33.691,23.926,25.391,-0.488
1532069134.141,13.184,32.227,25.391,25.391,132.324
1532069134.145,10.254,29.297,29.785,27.832,60.059
1532069134.149,7.324,28.809,31.738,24.902,-72.754
1532069134.153,9.766,28.809,29.785,25.391,-39.551
1532069134.157,16.602,24.414,28.320,33.203,118.652
1532069134.161,14.648,24.902,30.762,33.691,105.469
1532069134.165,8.301,32.227,29.297,28.809,-67.383
1532069134.169,11.230,31.738,29.297,28.809,-61.523
1532069134.173,10.254,29.785,30.273,26.367,57.129
1532069134.177,7.812,29.785,33.691,28.809,90.820
1532069134.180,11.719,29.297,32.715,35.156,-7.324
1532069134.184,16.113,27.344,24.902,34.180,-62.012
1532069134.188,15.625,25.879,21.484,28.809,58.105
1532069134.192,11.719,23.438,25.391,27.832,143.066
1532069134.196,10.254,25.391,30.273,29.297,40.527
1532069134.200,9.277,34.180,30.273,26.855,-66.895
1532069134.204,6.836,30.273,25.879,24.902,20.020
1532069134.208,6.836,25.391,24.414,23.926,135.742
1532069134.212,9.766,33.203,26.367,25.879,44.922
1532069134.216,15.137,35.645,28.320,31.250,-83.008
1532069134.220,19.531,32.715,30.273,33.203,-19.531
1532069134.223,20.508,31.738,32.715,33.203,145.508
1532069134.227,19.043,29.297,32.227,33.203,132.812
1532069134.231,18.066,29.785,32.715,29.297,-62.012
1532069134.235,19.531,26.855,34.668,29.785,-82.520
1532069134.239,22.461,27.832,31.738,35.645,97.168
1532069134.243,19.043,35.156,29.297,32.715,141.602
1532069134.247,8.301,31.250,29.297,25.879,-8.301
1532069134.251,10.254,30.273,30.762,27.344,-90.820
1532069134.255,13.672,31.250,29.785,30.762,23.438
1532069134.259,12.207,29.785,29.785,32.715,122.070
1532069134.263,12.207,25.879,31.250,32.715,46.387
1532069134.266,9.766,23.926,28.320,28.320,-62.500
1532069134.270,12.695,27.832,30.762,27.344,-14.160
1532069134.274,15.625,32.227,32.227,32.227,145.508
1532069134.278,13.184,34.180,29.785,34.180,123.535
1532069134.282,12.207,23.926,29.785,31.738,-22.461
1532069134.286,14.160,21.973,29.785,30.762,-13.184
1532069134.290,14.160,31.250,29.785,29.297,115.723
1532069134.294,12.207,29.297,30.762,29.785,124.512
1532069134.298,10.254,30.273,27.344,30.273,-0.977
1532069134.302,12.207,32.715,24.414,27.344,-49.805
1532069134.306,13.672,29.297,25.879,29.785,61.523
1532069134.309,10.254,27.832,30.762,30.273,99.609
1532069134.313,5.859,28.320,34.180,27.344,-15.625
1532069134.317,8.789,28.809,30.762,28.809,-76.172
1532069134.321,11.230,28.809,28.320,27.344,22.949
1532069134.325,9.766,30.273,31.250,27.344,142.090
1532069134.329,1.953,28.809,32.227,25.391,50.293
1532069134.333,-2.930,29.297,34.180,23.438,-70.312
1532069134.337,0.977,28.320,30.762,22.949,-1.953
1532069134.341,0.000,25.879,29.785,20.996,147.949
1532069134.345,-3.418,24.414,30.273,18.555,117.676
1532069134.348,-0.977,27.832,26.367,19.531,-42.480
1532069134.352,6.836,32.715,28.320,28.320,-58.594
1532069134.356,10.254,30.762,31.738,31.738,90.820
1532069134.360,4.395,29.297,35.156,25.879,120.605
1532069134.364,12.207,34.180,37.109,32.227,-12.207
1532069134.368,25.391,36.621,44.922,41.016,-84.473
1532069134.372,19.043,33.203,47.363,35.645,27.344
1532069134.376,18.555,34.668,52.734,38.574,145.996
1532069134.380,18.555,39.551,57.617,35.645,40.039
1532069134.384,0.977,37.109,40.039,15.137,-58.105
1532069134.388,1.465,36.133,41.992,13.672,50.293
1532069134.391,7.812,45.898,59.082,20.020,140.625
1532069134.395,-2.930,49.316,59.570,8.301,65.430
1532069134.399,-0.488,53.223,56.641,2.930,-56.641
1532069134.403,2.930,63.477,63.965,0.488,-2.930
1532069134.407,-9.766,62.500,73.242,-8.301,123.047
1532069134.411,-39.062,57.617,81.055,-30.273,64.941
1532069134.415,-58.105,62.988,88.867,-49.316,-87.402
1532069134.419,-70.801,69.824,91.797,-64.453,-58.594
1532069134.423,-83.008,80.566,99.609,-74.707,100.098
1532069134.427,-102.539,92.285,104.980,-90.332,126.953
1532069134.431,-131.836,86.426,97.656,-117.188,3.906
1532069134.434,-145.996,83.496,99.609,-124.512,-56.641
1532069134.438,-147.461,92.285,105.957,-121.582,55.176
1532069134.442,-152.832,95.703,106.934,-130.371,150.879
1532069134.446,-158.691,97.656,99.609,-137.207,39.062
1532069134.450,-155.273,94.727,96.191,-133.789,-100.098
1532069134.454,-149.902,90.332,97.168,-132.812,2.930
1532069134.458,-133.789,93.750,98.145,-119.141,157.715
1532069134.462,-124.023,85.449,94.238,-105.469,86.914
1532069134.466,-114.258,76.172,83.496,-96.191,-52.734
1532069134.470,-97.168,71.289,73.730,-78.613,-20.020
1532069134.474,-82.520,63.965,69.824,-62.012,119.629
1532069134.477,-70.801,58.105,64.941,-48.340,116.699
1532069134.481,-49.805,53.711,60.059,-25.879,-11.719
1532069134.485,-29.785,45.898,54.688,-10.742,-65.430
1532069134.489,-20.996,35.156,44.434,-2.930,42.480
1532069134.493,-11.719,30.762,34.668,6.348,95.215
1532069134.497,-3.906,28.320,33.691,16.602,-35.645
1532069134.501,5.371,26.367,28.809,26.367,-99.121
1532069134.505,12.207,21.973,18.066,32.715,64.941
1532069134.509,13.672,17.090,15.625,36.133,153.320
1532069134.513,21.973,9.277,13.672,43.457,11.230
1532069134.516,31.250,7.324,8.301,51.758,-72.266
1532069134.520,37.598,7.324,5.371,57.617,22.949
1532069134.524,48.340,4.883,7.812,67.871,140.137
1532069134.528,52.734,1.465,10.254,72.754,71.777
1532069134.532,53.223,3.418,8.789,69.824,-58.105
1532069134.536,59.570,9.277,4.395,73.242,-8.789
1532069134.540,59.082,4.883,4.395,74.219,103.027
1532069134.544,52.734,-1.953,-1.953,68.359,111.328
1532069134.548,55.664,-0.488,-7.324,66.895,-26.855
1532069134.552,64.941,4.883,-4.395,69.824,-98.145
1532069134.556,66.406,3.418,-3.418,72.754,71.289
1532069134.559,67.871,-2.930,-1.953,75.684,153.320
1532069134.563,71.777,2.930,0.488,78.125,45.410
1532069134.567,77.637,5.371,-1.465,79.102,-53.223
1532069134.571,85.449,0.977,-2.441,78.613,39.062
1532069134.575,91.797,3.906,-2.930,75.684,151.367
1532069134.579,88.867,4.395,-4.395,75.684,41.016
1532069134.583,82.520,2.930,0.000,85.938,-88.867
1532069134.587,82.031,3.418,1.465,89.844,-22.461
1532069134.591,70.801,6.348,-1.953,88.867,107.910
1532069134.595,59.082,11.719,1.953,91.797,74.707
1532069134.599,53.223,13.672,5.371,89.355,-63.965
1532069134.602,46.387,10.254,3.906,84.473,-50.781
1532069134.606,44.434,3.906,3.418,83.496,76.660
1532069134.610,45.410,5.859,4.883,82.520,68.848
1532069134.614,41.992,8.789,3.418,79.102,-40.039
1532069134.618,47.363,8.301,3.906,80.566,-57.617
1532069134.622,51.270,13.184,8.789,78.613,70.801
1532069134.626,50.293,18.555,9.766,72.754,146.973
1532069134.630,49.805,20.508,12.207,72.266,13.672
1532069134.634,47.363,17.090,12.207,67.383,-88.379
1532069134.638,47.363,12.695,7.324,62.012,20.020
1532069134.642,48.828,9.766,5.859,62.500,131.348
1532069134.645,47.852,13.672,11.719,62.500,40.039
1532069134.649,43.945,20.996,14.160,60.059,-98.633
1532069134.653,44.434,14.648,8.301,58.594,-35.156
1532069134.657,41.992,9.766,7.812,59.570,111.328
1532069134.661,35.156,14.160,9.277,59.570,90.820
1532069134.665,34.180,20.508,10.742,58.594,-36.133
1532069134.669,39.551,21.484,12.695,56.641,-46.875
1532069134.673,42.480,18.555,12.207,54.199,91.797
1532069134.677,38.086,17.578,11.230,50.781,132.324
1532069134.681,32.715,19.531,8.789,47.852,-22.461
1532069134.684,38.574,17.578,11.230,52.246,-85.938
1532069134.688,42.480,15.137,17.090,50.293,27.832
1532069134.692,40.039,18.555,17.090,44.434,110.840
1532069134.696,39.062,17.090,14.160,50.293,49.805
1532069134.700,39.062,18.555,16.602,49.316,-37.598
1532069134.704,41.504,20.996,18.555,47.852,25.879
1532069134.708,43.457,20.996,18.555,51.270,115.234
1532069134.712,40.039,20.996,21.973,46.875,81.055
1532069134.716,40.527,20.020,22.461,46.387,-33.203
1532069134.720,41.504,20.996,18.555,44.922,-17.090
1532069134.724,40.039,20.020,20.508,43.457,131.348
1532069134.727,34.668,14.160,23.438,42.969,111.328
1532069134.731,28.809,16.113,22.949,39.062,-57.129
1532069134.735,30.762,23.926,22.949,39.551,-83.008
1532069134.739,30.762,23.438,22.461,40.039,85.938
1532069134.743,27.344,23.438,22.461,36.133,157.227
1532069134.747,27.832,25.879,19.531,35.645,16.113
1532069134.751,27.832,23.926,16.602,38.086,-81.055
1532069134.755,30.273,21.973,23.438,42.969,24.902
1532069134.759,30.762,20.508,26.367,45.898,136.719
1532069134.763,35.156,22.949,21.973,48.828,36.621
1532069134.767,36.133,33.691,17.090,39.551,-84.961
1532069134.770,33.691,32.715,9.766,26.855,-27.344
1532069134.774,41.504,29.297,10.254,34.668,117.676
1532069134.778,38.086,31.738,18.555,37.109,80.566
1532069134.782,31.250,27.832,20.996,33.691,-61.035
1532069134.786,31.250,30.762,16.602,33.203,-33.691
1532069134.790,31.250,33.203,16.113,31.738,82.520
1532069134.794,31.738,33.691,19.531,33.691,76.172
1532069134.798,32.227,35.645,26.855,35.645,-42.969
1532069134.802,32.227,31.250,24.414,35.645,-57.129
1532069134.806,37.109,32.227,20.996,41.016,83.496
1532069134.810,36.133,28.809,21.484,37.598,106.445
1532069134.813,28.809,21.973,21.973,32.227,-13.672
1532069134.817,28.320,23.438,23.438,34.668,-80.566
1532069134.821,30.762,27.344,23.926,34.668,10.254
1532069134.825,26.367,32.227,24.414,34.668,136.719
1532069134.829,20.508,31.738,24.902,31.738,37.598
1532069134.833,22.949,33.203,27.832,32.227,-86.914
1532069134.837,23.438,32.715,25.391,33.691,6.836
1532069134.841,22.461,27.344,25.391,35.156,135.254
1532069134.845,25.391,29.785,32.715,38.086,102.051
1532069134.849,22.949,29.785,31.738,38.086,-34.668
1532069134.853,18.555,25.391,24.414,36.133,-23.438
1532069134.856,19.531,22.461,25.879,34.668,114.746
1532069134.860,20.508,19.531,28.320,36.621,143.555
1532069134.864,21.973,21.973,26.855,39.551,11.719
1532069134.868,22.461,26.855,28.809,39.062,-61.523
1532069134.872,21.973,30.762,28.809,38.574,50.781
1532069134.876,24.902,29.297,30.762,40.527,138.672
1532069134.880,23.438,29.297,33.691,41.992,24.902
1532069134.884,24.414,31.250,32.227,43.945,-81.055
1532069134.888,28.320,31.738,36.133,46.387,-2.441
1532069134.892,22.461,28.320,27.832,38.574,123.047
1532069134.895,20.020,22.949,20.508,34.180,63.965
1532069134.899,22.461,22.949,28.809,36.133,-58.105
1532069134.903,21.973,21.973,31.250,31.250,-13.672
1532069134.907,20.508,24.902,30.273,30.273,99.609
1532069134.911,17.090,26.855,33.691,29.785,78.613
1532069134.915,19.043,28.320,36.621,27.832,-43.457
1532069134.919,23.926,34.180,35.645,30.273,-28.809
1532069134.923,26.367,31.738,33.203,30.273,101.074
1532069134.927,23.926,29.297,32.227,31.250,123.047
1532069134.931,24.902,33.203,34.668,30.762,-27.832
1532069134.935,27.832,28.320,33.691,29.785,-65.430
1532069134.938,28.809,26.367,27.344,31.250,97.656
1532069134.942,24.414,29.785,25.391,28.809,166.504
1532069134.946,20.508,27.344,29.297,25.879,36.133
1532069134.950,20.508,30.762,29.297,23.438,-94.238
1532069134.954,21.973,31.250,25.879,23.438,15.137
1532069134.958,19.531,28.809,25.879,23.438,174.805
1532069134.962,22.461,33.691,27.832,28.809,80.566
1532069134.966,25.391,33.691,28.320,31.738,-66.895
1532069134.970,24.414,31.738,32.227,31.250,-55.664
1532069134.974,26.855,33.691,31.738,35.645,80.078
1532069134.978,26.367,33.203,28.320,36.133,112.305
1532069134.981,25.391,30.273,28.809,31.250,-60.547
1532069134.985,28.809,26.855,27.344,30.762,-98.145
1532069134.989,28.809,23.438,27.832,29.785,75.195
1532069134.993,25.391,30.762,32.715,29.785,123.047
1532069134.997,22.461,33.691,32.227,32.227,-10.254
1532069135.001,20.020,30.273,29.297,28.809,-88.867
1532069135.005,22.949,33.691,30.273,29.297,37.109
1532069135.009,24.902,34.668,31.250,28.809,114.258
1532069135.013,22.949,29.785,35.156,26.367,-6.348
1532069135.017,22.949,23.438,34.668,27.832,-87.891
1532069135.021,28.320,29.297,32.227,31.250,-11.230
1532069135.024,27.344,32.715,28.320,32.227,146.484
1532069135.028,20.996,23.926,26.855,30.762,99.609
1532069135.032,18.555,23.926,26.367,30.273,-74.219
1532069135.036,20.508,26.855,28.320,30.273,-41.504
1532069135.040,24.414,33.691,31.738,31.738,106.445
1532069135.044,18.555,34.180,30.273,26.855,105.957
1532069135.048,16.602,23.438,28.809,23.926,-43.457
1532069135.052,23.438,22.461,30.273,26.367,-74.707
1532069135.056,22.461,23.926,32.715,24.902,58.105
1532069135.060,21.484,18.555,29.297,24.414,111.816
1532069135.063,24.414,24.414,24.902,28.809,-19.043
1532069135.067,26.367,35.645,27.832,31.738,-105.957
1532069135.071,26.855,32.715,31.250,31.738,3.906
1532069135.075,23.926,21.973,35.645,33.203,138.184
1532069135.079,17.090,21.973,36.133,32.715,42.480
1532069135.083,14.648,31.250,32.227,26.855,-84.473
1532069135.087,20.996,35.156,35.156,27.832,-7.812
1532069135.091,20.508,30.273,37.598,30.762,140.137
1532069135.095,13.672,27.344,32.715,27.832,111.816
1532069135.099,19.043,33.691,33.691,31.738,-43.945
1532069135.103,29.297,37.109,39.062,42.969,-36.621
1532069135.106,33.203,38.574,44.434,49.316,110.840
1532069135.110,31.250,37.109,46.875,50.293,119.141
1532069135.114,24.414,37.598,41.016,39.551,-28.809
1532069135.118,19.043,37.598,41.504,29.297,-67.871
1532069135.122,26.367,37.598,57.129,40.527,79.590
1532069135.126,24.414,33.691,61.035,37.598,160.645
1532069135.130,4.395,38.574,55.664,16.113,38.574
1532069135.134,-2.930,46.875,51.758,4.883,-43.457
1532069135.138,5.859,48.828,60.059,6.348,44.922
1532069135.142,-2.441,60.547,67.871,-3.906,142.090
1532069135.146,-21.973,69.824,67.383,-22.461,69.336
1532069135.149,-30.762,76.172,67.871,-32.227,-79.102
1532069135.153,-35.156,87.402,79.102,-42.969,-15.625
1532069135.157,-68.359,91.797,79.102,-76.660,132.812
1532069135.161,-97.656,99.609,71.289,-104.980,95.215
1532069135.165,-109.863,109.375,69.336,-118.164,-38.086
1532069135.169,-125.977,110.352,63.965,-137.695,-72.266
1532069135.173,-125.488,111.328,70.801,-143.066,54.688
1532069135.177,-126.953,118.652,75.684,-142.578,104.980
1532069135.181,-135.742,123.535,68.848,-155.762,-33.691
1532069135.185,-138.672,116.211,68.848,-164.062,-71.777
1532069135.189,-128.418,113.281,70.801,-150.391,52.246
1532069135.192,-127.441,102.051,63.965,-148.438,99.121
1532069135.196,-137.695,106.934,61.523,-154.297,-1.465
1532069135.200,-141.113,115.234,50.293,-156.738,-107.910
1532069135.204,-136.719,103.516,38.574,-162.598,7.324
1532069135.208,-132.324,113.770,32.715,-159.668,143.066
1532069135.212,-121.582,123.047,32.715,-146.973,69.824
1532069135.216,-102.051,125.000,37.109,-131.348,-51.758
1532069135.220,-92.285,121.582,31.738,-128.418,-14.160
1532069135.224,-85.938,112.793,30.273,-121.582,131.348
1532069135.228,-91.309,114.746,28.809,-117.188,105.957
1532069135.231,-93.262,107.910,21.484,-115.723,-59.082
1532069135.235,-77.637,97.168,17.578,-103.516,-65.918
1532069135.239,-63.965,100.586,14.648,-91.797,73.730
1532069135.243,-59.082,99.609,14.160,-81.055,104.980
1532069135.247,-58.105,91.797,14.160,-76.172,-19.043
1532069135.251,-45.410,91.309,9.277,-67.871,-108.887
1532069135.255,-30.762,92.773,3.906,-56.641,49.316
1532069135.259,-20.508,93.262,1.953,-43.945,187.012
1532069135.263,-2.930,92.285,-3.906,-26.855,75.195
1532069135.267,15.625,83.984,-10.742,-18.555,-47.363
1532069135.271,40.039,70.312,-11.230,-2.930,19.531
1532069135.274,62.988,65.430,-12.695,17.578,145.020
1532069135.278,68.848,62.012,-15.137,30.273,90.820
1532069135.282,72.754,55.176,-18.066,47.363,-35.645
1532069135.286,84.961,41.992,-22.461,68.359,-9.277
1532069135.290,83.008,37.109,-22.461,78.125,121.582
1532069135.294,78.125,29.297,-20.508,87.402,110.840
1532069135.298,84.961,15.625,-21.484,97.168,-54.199
1532069135.302,86.426,3.418,-21.484,102.539,-83.008
1532069135.306,89.844,-5.859,-20.996,110.840,84.961
1532069135.310,91.797,-9.277,-20.020,109.375,126.465
1532069135.314,92.773,-14.160,-18.555,109.375,-25.879
1532069135.317,99.609,-16.113,-18.066,119.629,-86.914
1532069135.321,104.980,-15.625,-23.438,119.629,44.434
1532069135.325,105.469,-20.508,-24.902,108.398,116.211
1532069135.329,110.840,-29.785,-19.531,114.746,28.320
1532069135.333,111.328,-31.250,-16.602,124.512,-57.617
1532069135.337,101.562,-29.785,-8.301,115.234,-5.859
1532069135.341,90.820,-36.133,-0.977,104.980,122.070
1532069135.345,78.613,-40.039,-2.930,96.191,88.867
1532069135.349,79.102,-39.551,-2.441,89.355,-81.055
1532069135.353,85.449,-39.062,0.000,92.285,-62.988
1532069135.357,84.473,-39.062,1.465,100.098,125.000
1532069135.360,87.891,-35.645,7.812,106.934,149.902
1532069135.364,88.867,-36.621,9.766,110.352,-6.348
1532069135.368,85.449,-37.598,7.812,111.328,-65.430
1532069135.372,85.449,-34.180,11.230,115.234,58.105
1532069135.376,81.055,-34.668,17.090,120.117,140.137
1532069135.380,76.172,-34.668,19.043,120.117,35.645
1532069135.384,71.289,-31.738,18.066,115.723,-57.129
1532069135.388,69.336,-33.691,21.973,113.281,4.883
1532069135.392,68.359,-30.762,26.855,116.699,100.586
1532069135.396,64.453,-28.809,27.832,116.699,57.617
1532069135.400,57.129,-29.785,27.344,101.074,-55.664
1532069135.403,54.688,-28.809,25.879,93.750,-6.348
1532069135.407,57.617,-26.855,29.785,97.656,124.023
1532069135.411,56.152,-26.855,29.785,90.332,92.285
1532069135.415,47.852,-27.832,31.250,83.984,-49.316
1532069135.419,46.875,-21.484,33.203,82.520,-62.012
1532069135.423,44.434,-15.137,37.109,80.566,84.961
1532069135.427,35.645,-12.207,39.062,80.566,118.164
1532069135.431,39.062,-5.859,37.598,87.402,-26.855
1532069135.435,41.992,-4.883,37.109,87.891,-83.008
1532069135.439,38.086,-6.836,33.691,82.031,49.805
1532069135.442,40.527,-1.953,33.691,85.449,142.090
1532069135.446,46.387,3.418,32.715,90.332,18.066
1532069135.450,45.898,-4.395,29.785,88.379,-116.699
1532069135.454,50.781,-3.906,29.785,90.332,-17.578
1532069135.458,54.199,2.930,30.273,93.262,117.676
1532069135.462,52.734,5.859,31.250,86.914,53.711
1532069135.466,55.176,7.812,34.180,83.008,-87.891
1532069135.470,59.082,8.789,35.156,83.984,-44.434
1532069135.474,54.688,11.230,33.691,79.102,121.582
1532069135.478,47.852,10.742,32.715,75.195,91.797
1532069135.482,54.199,9.766,44.922,81.543,-55.664
1532069135.485,58.105,16.113,45.898,79.590,-34.668
1532069135.489,57.617,19.043,36.621,67.871,82.031
1532069135.493,53.711,18.555,42.969,57.617,83.008
1532069135.497,56.641,27.832,51.758,63.477,-23.926
1532069135.501,56.641,32.715,56.152,60.547,-56.641
1532069135.505,36.621,24.414,51.270,39.551,56.152
1532069135.509,20.996,23.926,44.922,31.250,132.812
1532069135.513,7.812,28.809,46.875,22.949,24.414
1532069135.517,0.488,28.809,54.688,18.555,-107.422
1532069135.521,-4.395,30.273,64.453,16.113,0.488
1532069135.525,-11.230,35.645,76.172,7.812,129.395
1532069135.528,-18.066,41.504,84.473,-0.977,57.129
1532069135.532,-32.715,46.387,91.797,-13.184,-105.957
1532069135.536,-48.828,41.992,107.910,-22.461,-74.219
1532069135.540,-64.941,35.645,115.234,-34.180,92.773
1532069135.544,-83.008,41.992,112.793,-50.293,122.070
1532069135.548,-88.379,47.363,106.934,-59.082,-49.316
1532069135.552,-80.566,46.875,100.586,-53.711,-90.332
1532069135.556,-63.965,40.039,98.145,-36.621,90.332
1532069135.560,-51.758,33.691,92.773,-26.855,127.441
1532069135.564,-43.945,33.691,79.590,-21.484,-7.324
1532069135.568,-24.414,28.320,62.012,-4.395,-75.684
1532069135.571,-11.719,24.414,51.758,6.836,32.227
1532069135.575,-11.719,22.949,43.945,11.230,134.766
1532069135.579,-4.395,19.043,38.574,18.555,50.293
1532069135.583,2.441,19.043,36.621,23.438,-73.730
1532069135.587,11.719,15.625,29.297,31.738,-2.930
1532069135.591,24.902,13.672,25.391,42.969,130.371
1532069135.595,22.949,19.043,20.508,46.387,68.359
1532069135.599,22.949,21.973,17.090,49.316,-63.965
1532069135.603,32.715,16.602,15.625,55.176,-46.875
1532069135.607,41.504,13.672,14.648,63.965,75.684
1532069135.610,42.969,14.160,19.531,71.289,89.844
1532069135.614,39.551,8.789,16.113,71.777,-43.945
1532069135.618,39.062,5.371,7.324,68.848,-85.449
1532069135.622,40.527,4.395,2.930,66.895,55.664
1532069135.626,41.992,6.836,2.930,66.895,106.445
1532069135.630,44.434,13.184,4.883,67.871,-45.410
1532069135.634,40.039,10.254,3.906,63.965,-124.512
1532069135.638,37.598,4.395,1.465,62.012,23.926
1532069135.642,37.598,6.348,4.395,64.941,122.070
1532069135.646,32.715,9.766,3.418,62.012,33.203
1532069135.650,33.691,16.113,2.930,59.082,-105.957
1532069135.653,36.621,19.043,7.324,57.129,-38.086
1532069135.657,33.691,17.090,9.766,51.758,145.020
1532069135.661,34.668,19.531,8.301,50.293,101.562
1532069135.665,32.715,15.625,6.348,47.852,-49.316
1532069135.669,29.785,10.254,6.836,46.387,-57.617
1532069135.673,34.180,11.719,6.836,50.293,70.801
1532069135.677,31.738,14.648,6.836,51.270,118.652
1532069135.681,28.809,20.508,11.230,52.734,-17.578
1532069135.685,37.109,24.902,12.207,58.594,-77.148
1532069135.689,41.504,23.926,9.766,61.035,28.809
1532069135.693,36.621,20.020,13.184,61.035,125.977
1532069135.696,36.621,13.672,15.625,62.988,33.203
1532069135.700,35.156,17.090,12.695,61.523,-84.473
1532069135.704,35.156,25.879,11.719,57.129,25.391
1532069135.708,38.574,27.344,10.742,51.758,146.484
1532069135.712,37.109,23.438,9.277,47.363,75.684
1532069135.716,36.621,23.438,8.301,43.945,-60.059
1532069135.720,36.621,29.297,10.254,40.039,-38.574
1532069135.724,35.156,25.391,10.742,40.527,100.586
1532069135.728,32.227,20.996,9.766,40.039,104.004
1532069135.732,30.273,24.902,12.695,33.691,-63.965
1532069135.736,29.785,24.414,15.625,36.133,-93.262
1532069135.739,24.902,25.879,15.625,41.016,80.078
1532069135.743,23.926,26.855,17.578,41.504,119.629
1532069135.747,31.738,22.461,18.066,44.434,-6.348
1532069135.751,34.668,27.344,16.113,45.410,-51.270
1532069135.755,32.227,26.367,13.184,42.480,61.523
1532069135.759,32.715,22.461,14.160,42.480,130.371
1532069135.763,30.762,23.926,15.625,41.504,41.504
1532069135.767,27.344,23.438,11.719,40.527,-74.219
1532069135.771,26.855,22.461,11.230,40.039,-26.367
1532069135.775,25.391,21.484,18.555,37.598,107.422
1532069135.778,24.414,23.926,19.531,41.016,66.406
1532069135.782,26.367,28.320,19.043,41.504,-66.406
1532069135.786,30.273,30.273,19.531,40.039,-24.902
1532069135.790,32.227,24.414,17.578,41.504,132.324
1532069135.794,30.762,27.832,18.555,43.457,113.281
1532069135.798,25.879,31.250,18.555,41.016,-36.621
1532069135.802,27.832,23.438,18.066,37.598,-68.848
1532069135.806,30.762,26.367,19.531,37.598,41.504
1532069135.810,27.832,30.273,18.555,36.621,62.012
