timestamps,TP9,AF7,AF8,TP10,Right AUX
1532385179.465,26.855,21.973,60.059,37.598,43.457
1532385179.469,26.855,22.949,64.453,34.668,58.594
1532385179.473,26.855,26.367,66.895,34.668,29.785
1532385179.477,25.391,22.461,63.965,35.156,44.922
1532385179.481,25.391,19.531,64.453,37.598,43.945
1532385179.485,29.785,26.855,65.430,39.551,27.344
1532385179.488,37.598,36.133,67.383,41.992,43.945
1532385179.492,29.785,40.039,64.941,31.250,16.602
1532385179.496,29.785,29.785,62.500,29.297,2.930
1532385179.500,36.133,21.973,60.547,39.062,20.508
1532385179.504,41.016,21.484,64.453,43.457,55.176
1532385179.508,41.016,21.484,66.406,41.992,74.707
1532385179.512,44.434,32.715,68.359,48.340,68.359
1532385179.516,55.176,41.016,72.754,55.664,51.270
1532385179.520,49.316,34.668,66.895,45.898,60.547
1532385179.524,43.457,30.762,57.129,41.016,61.523
1532385179.527,45.898,29.297,54.199,42.969,31.250
1532385179.531,50.293,28.320,59.082,44.922,4.883
1532385179.535,53.223,34.180,61.523,46.875,16.113
1532385179.539,50.781,37.598,62.988,42.480,62.012
1532385179.543,47.852,36.621,61.523,34.668,38.086
1532385179.547,42.480,39.062,54.199,31.738,28.809
1532385179.551,46.387,37.109,54.688,23.926,9.277
1532385179.555,51.270,34.668,57.617,17.090,-13.672
1532385179.559,54.199,36.621,60.059,22.949,21.973
1532385179.563,63.965,36.621,62.988,29.297,24.414
1532385179.567,60.059,26.855,57.129,26.855,30.273
1532385179.570,45.410,21.484,55.176,31.250,45.898
1532385179.574,36.133,29.785,56.152,36.621,45.410
1532385179.578,34.180,32.715,59.082,41.992,18.066
1532385179.582,30.762,31.250,62.500,44.434,26.367
1532385179.586,20.020,30.762,58.105,41.016,26.367
1532385179.590,11.719,27.344,52.734,38.086,30.762
1532385179.594,11.230,31.250,53.223,38.086,32.715
1532385179.598,9.277,30.762,54.199,37.598,7.324
1532385179.602,8.789,25.391,48.340,34.668,30.273
1532385179.606,10.742,24.902,50.781,35.645,39.551
1532385179.610,10.742,22.461,55.664,26.367,12.207
1532385179.613,11.719,25.879,56.641,23.438,-5.371
1532385179.617,16.113,30.273,56.641,33.203,14.648
1532385179.621,16.602,26.367,54.688,32.715,24.414
1532385179.625,25.391,22.949,59.570,41.992,9.766
1532385179.629,30.273,30.762,58.105,43.457,-25.391
1532385179.633,22.461,37.598,55.664,31.250,-41.504
1532385179.637,21.973,31.738,56.641,34.668,-2.441
1532385179.641,20.020,28.809,48.828,31.738,31.250
1532385179.645,24.414,29.785,49.316,29.297,32.227
1532385179.649,27.832,31.250,53.711,33.203,25.391
1532385179.652,30.273,30.273,47.852,34.668,30.762
1532385179.656,32.715,33.691,46.875,33.691,35.645
1532385179.660,32.227,37.109,50.293,34.180,16.113
1532385179.664,33.691,34.180,49.316,36.621,17.090
1532385179.668,33.691,32.227,52.734,31.738,16.602
1532385179.672,36.621,33.691,54.199,32.715,9.766
1532385179.676,38.086,29.785,51.758,36.621,9.277
1532385179.680,42.969,27.344,53.223,40.527,6.836
1532385179.684,44.434,35.645,57.129,42.480,34.668
1532385179.688,36.621,27.832,55.664,29.297,47.363
1532385179.692,28.809,24.902,55.664,22.949,35.645
1532385179.695,21.484,29.297,55.176,27.832,49.316
1532385179.699,21.973,34.668,58.105,34.180,44.922
1532385179.703,23.438,41.504,57.617,37.598,47.363
1532385179.707,27.832,43.457,54.688,41.992,35.156
1532385179.711,29.297,40.527,59.570,43.945,-14.648
1532385179.715,23.438,35.156,60.547,39.551,-5.859
1532385179.719,24.414,34.668,53.711,40.039,20.996
1532385179.723,22.949,31.250,50.781,40.039,23.926
1532385179.727,18.555,37.598,51.758,34.180,29.297
1532385179.731,16.602,46.387,57.617,25.879,-4.883
1532385179.735,11.230,39.062,60.547,17.090,-16.602
1532385179.738,17.090,37.109,61.035,20.996,14.648
1532385179.742,24.414,40.039,61.035,28.320,8.301
1532385179.746,19.043,34.180,50.781,19.043,4.883
1532385179.750,22.949,30.273,45.410,17.578,28.809
1532385179.754,34.180,45.898,49.805,28.320,34.180
1532385179.758,37.598,49.316,56.152,32.715,18.555
1532385179.762,41.992,41.992,60.547,33.203,16.113
1532385179.766,49.316,51.270,61.523,40.039,8.789
1532385179.770,53.711,56.152,66.406,47.852,22.461
1532385179.774,51.758,53.711,70.312,42.969,45.410
1532385179.777,49.316,55.176,67.383,38.086,41.992
1532385179.781,55.176,60.059,62.500,43.945,35.156
1532385179.785,59.570,61.035,62.012,46.875,47.363
1532385179.789,59.570,60.547,68.359,44.434,24.414
1532385179.793,61.035,60.059,77.148,40.527,2.441
1532385179.797,60.547,59.570,76.172,41.016,20.020
1532385179.801,62.012,66.895,77.637,48.340,46.387
1532385179.805,57.129,64.941,75.684,46.875,63.965
1532385179.809,50.293,56.152,66.406,39.062,40.039
1532385179.813,46.875,58.594,61.523,36.621,4.883
1532385179.817,45.410,58.594,61.523,41.016,1.465
1532385179.820,46.875,56.152,66.406,47.363,40.039
1532385179.824,48.828,55.664,71.777,52.246,75.195
1532385179.828,56.152,58.105,76.172,58.105,41.504
1532385179.832,58.105,53.711,73.730,64.453,-9.277
1532385179.836,60.059,53.711,66.895,65.918,24.414
1532385179.840,62.012,55.664,66.406,68.848,57.129
1532385179.844,59.082,56.641,67.383,65.918,31.250
1532385179.848,56.152,61.523,65.430,54.199,11.230
1532385179.852,53.223,68.848,59.082,49.805,13.184
1532385179.856,51.758,68.848,52.734,48.828,49.316
1532385179.859,55.176,58.105,54.688,49.316,53.223
1532385179.863,56.152,61.523,60.547,48.340,30.273
1532385179.867,59.570,72.266,64.453,51.758,31.738
1532385179.871,64.453,69.824,66.406,54.688,44.922
1532385179.875,58.105,54.688,61.523,48.340,42.480
1532385179.879,56.641,52.734,62.988,48.828,24.414
1532385179.883,59.570,56.641,62.012,51.270,37.598
1532385179.887,55.664,49.316,54.688,47.363,41.016
1532385179.891,58.105,50.781,57.129,45.410,26.367
1532385179.895,60.547,58.105,66.406,51.758,24.414
1532385179.899,57.129,60.547,65.918,56.152,55.664
1532385179.902,58.105,56.641,63.477,54.688,45.898
1532385179.906,58.105,50.781,62.988,56.641,40.039
1532385179.910,56.152,55.176,63.477,54.688,18.555
1532385179.914,52.734,58.594,61.523,45.410,-16.602
1532385179.918,61.035,58.594,67.383,56.152,33.691
1532385179.922,68.848,62.500,71.289,69.336,37.598
1532385179.926,57.129,53.223,62.012,58.594,16.602
1532385179.930,49.805,48.828,59.570,51.758,37.109
1532385179.934,44.434,44.434,59.570,51.758,54.199
1532385179.938,42.969,32.715,51.270,48.340,46.387
1532385179.942,44.922,40.527,47.852,49.316,38.086
1532385179.945,48.828,49.316,57.617,47.852,39.551
1532385179.949,49.805,50.293,63.965,44.922,49.316
1532385179.953,44.434,50.781,61.035,42.480,44.922
1532385179.957,41.504,50.781,60.547,43.945,38.086
1532385179.961,41.504,50.293,64.941,49.805,35.156
1532385179.965,43.457,49.805,65.918,49.316,38.086
1532385179.969,37.109,47.363,62.988,38.574,45.410
1532385179.973,39.062,44.922,61.035,37.109,27.832
1532385179.977,47.363,50.781,62.988,40.527,34.668
1532385179.981,43.945,50.781,51.758,36.133,57.617
1532385179.984,33.691,46.387,43.945,32.715,44.922
1532385179.988,32.227,44.434,48.340,28.809,37.598
1532385179.992,38.086,52.246,47.852,34.180,45.898
1532385179.996,47.363,58.105,53.711,40.039,32.715
1532385180.000,47.852,54.688,57.617,38.086,17.090
1532385180.004,42.969,46.875,54.688,36.621,45.410
1532385180.008,48.340,41.504,57.129,38.086,39.062
1532385180.012,45.898,45.898,57.129,37.109,-15.625
1532385180.016,36.621,51.270,51.758,35.645,2.441
1532385180.020,39.551,48.340,50.293,38.086,42.969
1532385180.024,42.480,47.852,49.316,41.504,46.387
1532385180.027,44.922,55.176,51.758,42.480,15.137
1532385180.031,49.805,54.199,56.152,41.016,-1.953
1532385180.035,40.039,48.340,47.852,37.598,36.621
1532385180.039,30.273,49.805,45.410,36.621,38.086
1532385180.043,33.691,38.086,47.363,39.062,1.953
1532385180.047,32.227,33.203,41.504,37.598,8.301
1532385180.051,25.879,42.969,41.992,25.879,16.113
1532385180.055,23.438,41.504,41.504,23.926,44.434
1532385180.059,25.879,37.109,41.504,31.250,65.430
1532385180.063,33.203,40.527,41.992,36.621,37.598
1532385180.067,32.227,41.992,35.645,40.039,40.039
1532385180.070,29.297,34.668,33.691,35.156,47.363
1532385180.074,31.250,31.738,34.180,33.203,51.758
1532385180.078,29.297,40.039,34.668,34.180,33.691
1532385180.082,28.320,43.945,38.086,34.668,14.648
1532385180.086,31.250,43.945,45.898,40.039,49.805
1532385180.090,32.227,42.480,49.316,40.527,65.430
1532385180.094,24.414,32.715,43.457,32.715,23.926
1532385180.098,15.137,28.809,36.133,27.344,12.207
1532385180.102,17.090,28.320,32.227,28.809,33.691
1532385180.106,18.066,27.832,36.621,33.203,57.617
1532385180.109,16.113,30.762,38.574,31.738,37.598
1532385180.113,14.648,33.203,35.156,24.414,-3.418
1532385180.117,16.113,34.668,33.203,22.461,61.035
1532385180.121,18.555,33.691,33.203,26.855,95.703
1532385180.125,21.484,29.297,34.668,30.762,82.520
1532385180.129,21.484,36.133,34.180,31.738,41.992
1532385180.133,20.508,41.992,32.715,30.273,19.043
1532385180.137,20.508,34.180,34.180,27.344,36.621
1532385180.141,22.949,34.180,42.969,27.344,7.324
1532385180.145,19.531,34.180,42.969,22.949,14.160
1532385180.149,14.648,25.391,33.691,16.602,33.691
1532385180.152,17.090,26.855,31.250,16.113,22.949
1532385180.156,14.648,30.762,28.809,12.695,56.152
1532385180.160,13.672,20.020,26.367,9.766,51.270
1532385180.164,14.648,9.766,31.250,11.719,33.691
1532385180.168,13.672,23.438,26.855,13.672,33.203
1532385180.172,17.578,34.180,26.855,18.555,45.410
1532385180.176,19.531,35.645,30.762,20.020,54.199
1532385180.180,19.043,40.527,27.832,22.461,29.785
1532385180.184,20.508,40.039,24.414,20.996,42.480
1532385180.188,19.531,36.133,25.879,19.043,51.758
1532385180.192,13.184,34.668,27.832,19.531,34.180
1532385180.195,16.602,41.504,28.809,20.996,3.906
1532385180.199,25.391,49.805,28.320,22.949,3.906
1532385180.203,20.996,35.156,17.578,16.113,12.207
1532385180.207,15.137,21.973,10.742,12.695,33.691
1532385180.211,15.625,26.855,8.789,12.695,33.691
1532385180.215,21.973,31.250,10.254,15.137,29.297
1532385180.219,25.879,33.691,13.184,21.973,50.781
1532385180.223,23.926,29.297,20.508,22.461,67.383
1532385180.227,22.461,28.809,20.020,20.508,46.387
1532385180.231,25.879,25.391,13.184,23.438,25.391
1532385180.234,25.879,24.902,14.160,23.926,57.129
1532385180.238,30.273,35.156,17.090,27.832,56.152
1532385180.242,35.156,37.598,19.043,33.691,33.691
1532385180.246,33.691,32.227,17.578,33.203,35.156
1532385180.250,34.180,32.227,13.672,27.832,9.766
1532385180.254,28.320,34.668,11.719,28.809,20.996
1532385180.258,30.273,38.086,19.531,34.180,36.133
1532385180.262,37.109,33.203,24.902,33.691,15.625
1532385180.266,30.762,19.531,13.672,30.762,57.129
1532385180.270,21.484,19.043,9.277,24.414,52.734
1532385180.274,20.508,30.273,16.602,20.020,41.016
1532385180.277,22.461,32.227,21.484,24.414,33.203
1532385180.281,22.949,25.391,21.484,29.785,35.645
1532385180.285,23.438,30.273,15.625,31.250,62.500
1532385180.289,21.973,36.621,12.207,28.809,52.246
1532385180.293,19.531,24.414,15.625,25.391,27.832
1532385180.297,21.973,20.508,18.066,27.832,31.250
1532385180.301,24.414,29.785,17.578,29.785,42.480
1532385180.305,24.902,28.320,21.973,32.227,49.805
1532385180.309,25.879,24.902,24.902,35.645,51.270
1532385180.313,20.996,20.020,16.113,29.297,16.113
1532385180.317,20.020,20.508,14.648,28.320,7.324
1532385180.320,28.320,28.320,21.484,31.250,20.508
1532385180.324,18.555,31.250,18.555,23.926,11.230
1532385180.328,14.160,32.227,20.996,20.996,5.859
1532385180.332,20.996,29.297,20.020,16.113,-2.441
1532385180.336,20.508,27.344,17.578,17.090,20.508
1532385180.340,23.438,31.250,18.066,22.949,51.758
1532385180.344,20.996,28.809,13.672,22.949,17.578
1532385180.348,23.926,28.809,12.207,25.391,1.953
1532385180.352,28.320,33.203,16.602,28.809,45.898
1532385180.356,27.832,28.809,20.020,30.762,68.359
1532385180.359,28.320,18.066,24.414,29.785,60.059
1532385180.363,31.738,25.879,24.902,29.785,43.945
1532385180.367,27.832,33.691,22.949,26.367,37.109
1532385180.371,33.691,40.039,28.809,34.668,36.621
1532385180.375,37.598,50.781,29.297,40.039,15.625
1532385180.379,26.367,41.016,18.066,26.367,-2.441
1532385180.383,29.785,34.180,15.137,20.996,21.973
1532385180.387,28.809,31.250,18.555,19.531,37.598
1532385180.391,27.344,28.320,17.578,15.625,32.227
1532385180.395,28.320,28.320,9.277,10.742,19.531
1532385180.399,32.715,25.879,12.695,15.625,10.254
1532385180.402,36.621,24.414,21.973,19.531,28.809
1532385180.406,37.109,24.902,21.973,18.555,35.156
1532385180.410,45.410,27.344,12.695,18.066,35.156
1532385180.414,52.734,42.480,17.090,20.020,50.781
1532385180.418,54.688,53.711,24.902,26.367,43.457
1532385180.422,47.363,43.457,15.137,27.344,29.297
1532385180.426,36.621,31.738,11.230,26.855,10.254
1532385180.430,28.320,25.879,14.160,30.273,-12.207
1532385180.434,27.344,29.297,16.113,36.133,24.902
1532385180.438,27.832,36.133,19.043,37.109,49.805
1532385180.441,23.926,35.645,23.438,30.762,26.855
1532385180.445,24.902,25.391,19.043,29.785,21.484
1532385180.449,24.414,20.508,17.578,34.668,30.762
1532385180.453,18.066,23.926,20.020,30.273,35.645
1532385180.457,17.578,33.203,18.066,29.785,50.781
1532385180.461,20.508,37.109,17.578,33.691,52.246
1532385180.465,24.414,29.297,19.043,29.785,33.691
1532385180.469,23.438,22.461,17.090,24.902,22.949
1532385180.473,26.367,21.484,16.602,25.879,40.039
1532385180.477,31.738,34.180,24.414,32.227,41.992
1532385180.481,24.414,38.086,20.020,27.344,19.043
1532385180.484,20.020,24.414,12.695,21.973,50.781
1532385180.488,20.996,25.391,16.602,18.066,50.781
1532385180.492,20.020,26.367,16.602,18.066,27.344
1532385180.496,14.160,19.043,17.090,21.484,25.391
1532385180.500,11.719,19.043,23.926,19.043,14.648
1532385180.504,16.113,21.973,23.438,21.484,32.227
1532385180.508,19.531,24.414,15.137,25.391,26.855
1532385180.512,23.438,26.367,16.113,23.438,13.672
1532385180.516,25.391,25.391,21.973,28.320,16.113
1532385180.520,27.832,28.320,15.625,33.203,34.180
1532385180.524,30.273,34.180,9.766,29.297,48.828
1532385180.527,25.879,32.715,18.555,27.344,0.000
1532385180.531,23.438,22.461,20.020,23.926,-28.809
1532385180.535,27.344,27.344,22.461,27.344,23.926
1532385180.539,29.297,33.203,26.855,38.086,51.758
1532385180.543,23.438,16.602,12.207,30.762,29.785
1532385180.547,18.066,16.602,10.742,24.902,51.270
1532385180.551,16.113,29.785,20.996,26.855,62.012
1532385180.555,13.672,33.203,18.066,21.973,36.621
1532385180.559,18.066,32.227,18.555,23.438,21.484
1532385180.563,27.832,34.668,20.508,28.809,4.883
1532385180.566,29.297,32.715,14.648,27.832,-2.441
1532385180.570,30.273,26.855,13.672,29.785,18.066
1532385180.574,35.156,29.297,18.066,35.645,12.695
1532385180.578,35.645,36.621,20.020,34.668,10.742
1532385180.582,41.992,36.621,15.137,32.715,35.645
1532385180.586,42.480,30.762,10.254,33.691,58.594
1532385180.590,37.598,36.133,18.555,34.668,64.453
1532385180.594,40.039,43.945,19.043,29.785,29.785
1532385180.598,36.621,34.668,9.766,22.949,17.578
1532385180.602,22.461,33.203,9.277,19.043,30.762
1532385180.606,18.555,28.809,12.207,20.508,36.133
1532385180.609,24.902,19.531,14.648,25.391,51.270
1532385180.613,25.879,29.785,10.742,22.461,33.691
1532385180.617,28.320,39.062,8.301,20.508,4.883
1532385180.621,34.668,35.645,9.766,24.902,35.645
1532385180.625,36.133,27.344,14.648,28.320,60.059
1532385180.629,33.691,28.809,17.090,26.367,32.227
1532385180.633,31.250,38.574,15.137,26.367,21.973
1532385180.637,35.645,40.039,15.137,31.250,19.043
1532385180.641,44.434,37.598,16.113,34.668,21.973
1532385180.645,39.551,36.133,19.043,37.109,34.180
1532385180.649,31.250,32.715,12.207,26.367,16.602
1532385180.652,39.062,32.227,16.602,24.902,12.695
1532385180.656,44.922,37.109,25.391,37.109,39.062
1532385180.660,32.227,35.645,11.719,27.832,27.344
1532385180.664,25.879,33.203,9.277,22.949,2.441
1532385180.668,27.832,30.762,13.672,24.902,15.137
1532385180.672,27.832,30.273,16.113,22.949,24.902
1532385180.676,29.297,35.645,20.508,27.832,3.418
1532385180.680,27.832,31.250,18.555,30.273,11.230
1532385180.684,26.855,34.180,14.160,29.297,60.547
1532385180.688,31.738,49.316,15.137,32.227,69.336
1532385180.691,33.203,47.852,16.113,31.738,43.457
1532385180.695,33.203,40.039,13.184,30.762,20.020
1532385180.699,33.203,38.574,12.695,30.273,43.457
1532385180.703,32.715,37.598,20.508,31.250,84.961
1532385180.707,36.621,41.504,27.344,31.738,66.895
1532385180.711,36.133,38.574,24.414,31.738,35.156
1532385180.715,40.527,45.410,26.855,38.574,27.832
1532385180.719,41.504,44.434,27.344,42.480,57.617
1532385180.723,30.273,35.645,18.555,31.250,66.895
1532385180.727,24.414,41.504,15.625,24.414,36.621
1532385180.731,20.508,41.992,13.184,20.508,7.812
1532385180.734,20.020,43.945,13.184,22.461,47.363
1532385180.738,25.879,42.969,10.742,33.691,67.871
1532385180.742,27.832,34.668,12.207,33.691,17.090
1532385180.746,24.414,32.227,18.555,31.738,3.906
1532385180.750,22.461,37.109,17.578,35.645,25.391
1532385180.754,21.973,42.480,14.648,37.109,13.184
1532385180.758,24.902,45.410,18.066,41.016,18.555
1532385180.762,24.414,40.039,22.461,41.504,10.254
1532385180.766,27.344,31.250,21.484,42.969,16.113
1532385180.770,29.297,30.273,19.043,44.434,19.531
1532385180.774,31.250,35.156,18.066,40.039,14.160
1532385180.777,40.527,49.316,24.414,44.922,23.438
1532385180.781,34.668,47.363,23.438,43.457,42.969
1532385180.785,29.297,39.551,19.531,37.598,62.500
1532385180.789,29.297,43.945,13.184,34.180,50.781
1532385180.793,23.926,34.180,10.742,28.320,35.156
1532385180.797,23.926,24.902,18.066,29.297,28.809
1532385180.801,26.367,23.438,22.949,31.738,19.531
1532385180.805,36.133,25.391,24.414,36.133,32.715
1532385180.809,41.016,38.086,25.391,39.551,44.434
1532385180.813,40.527,44.434,25.879,36.621,9.766
1532385180.816,41.992,41.016,22.949,40.039,6.348
1532385180.820,40.039,32.715,16.113,44.434,36.621
1532385180.824,37.109,25.391,18.066,48.340,29.297
1532385180.828,37.109,37.109,27.344,45.410,4.395
1532385180.832,39.062,45.898,29.297,41.016,18.066
1532385180.836,35.156,40.527,28.320,38.574,41.016
1532385180.840,38.574,41.992,31.738,41.016,57.617
1532385180.844,41.016,40.039,28.320,40.527,41.504
1532385180.848,31.738,29.297,27.832,32.227,-4.883
1532385180.852,30.762,27.344,29.785,26.855,9.766
1532385180.856,33.203,33.203,27.832,32.227,18.066
1532385180.859,29.785,33.203,29.785,40.039,25.391
1532385180.863,33.203,42.480,31.738,40.039,35.645
1532385180.867,37.598,51.758,36.621,36.133,32.227
1532385180.871,42.480,43.945,45.898,36.133,49.805
1532385180.875,37.598,32.227,46.875,33.203,38.574
1532385180.879,33.203,31.250,43.945,30.273,32.227
1532385180.883,36.621,35.645,41.992,30.762,24.902
1532385180.887,41.016,39.551,36.133,31.738,39.551
1532385180.891,43.457,43.457,37.109,33.691,30.273
1532385180.895,47.363,41.016,52.246,38.086,-19.043
1532385180.898,47.363,39.551,50.781,38.086,2.441
1532385180.902,34.668,38.086,42.969,31.738,58.105
1532385180.906,31.250,40.527,47.363,32.715,71.777
1532385180.910,38.086,47.852,48.340,35.156,17.578
1532385180.914,45.410,39.551,55.664,36.621,3.418
1532385180.918,40.527,23.926,60.059,37.109,31.250
1532385180.922,29.297,31.738,55.176,36.621,42.480
1532385180.926,25.879,41.504,51.270,34.180,45.898
1532385180.930,30.762,39.551,54.688,37.109,15.137
1532385180.934,38.574,42.969,55.176,40.527,26.367
1532385180.938,37.109,40.039,52.246,41.504,47.363
1532385180.941,38.574,34.180,57.129,43.945,29.297
1532385180.945,43.457,39.551,61.035,46.875,1.953
1532385180.949,41.992,41.992,61.523,42.480,-24.414
1532385180.953,44.434,42.969,59.082,35.156,11.719
1532385180.957,43.457,38.574,55.664,34.180,36.621
1532385180.961,36.621,34.668,60.547,33.203,0.488
1532385180.965,39.551,42.480,64.941,37.598,20.020
1532385180.969,38.574,40.039,62.500,38.574,23.926
1532385180.973,30.273,29.785,54.688,26.367,14.160
1532385180.977,26.855,31.738,52.246,23.926,34.668
1532385180.981,25.391,33.691,56.152,26.367,21.973
1532385180.984,24.414,38.086,57.129,25.879,19.043
1532385180.988,23.926,44.922,54.199,24.902,10.742
1532385180.992,27.832,44.434,54.688,28.809,7.324
1532385180.996,25.879,37.109,60.547,33.203,9.277
1532385181.000,25.879,42.480,64.453,33.691,34.180
1532385181.004,31.738,53.223,66.406,36.621,55.664
1532385181.008,31.738,47.363,65.918,41.016,24.902
1532385181.012,29.785,35.645,63.965,39.551,9.277
1532385181.016,29.785,36.621,62.500,36.621,12.695
1532385181.020,19.531,30.762,60.059,31.738,60.547
1532385181.023,21.973,32.227,66.406,33.203,69.336
1532385181.027,30.273,35.645,63.477,37.109,14.160
1532385181.031,23.926,19.531,56.641,32.715,7.812
1532385181.035,20.508,23.926,59.082,30.273,42.480
1532385181.039,23.926,48.340,61.523,38.086,43.457
1532385181.043,32.715,45.898,59.570,44.922,22.949
1532385181.047,34.668,31.738,62.012,40.039,6.348
1532385181.051,37.109,38.086,66.895,41.504,-15.137
1532385181.055,39.062,42.480,58.594,41.016,20.996
1532385181.059,33.691,29.297,52.246,32.715,52.246
1532385181.063,31.738,26.367,62.500,31.738,4.395
1532385181.066,33.691,38.086,66.895,33.691,-2.441
1532385181.070,32.227,38.086,60.547,32.227,26.367
1532385181.074,34.668,30.762,62.012,34.668,36.133
1532385181.078,38.574,33.203,66.895,36.133,-4.883
1532385181.082,35.645,35.645,64.453,34.668,-26.855
1532385181.086,38.574,35.156,63.965,36.621,22.461
1532385181.090,36.621,37.109,62.012,32.715,18.555
1532385181.094,30.762,31.250,58.105,30.273,-15.137
1532385181.098,38.086,34.180,60.059,43.457,0.977
1532385181.102,45.898,47.363,66.895,49.805,42.480
1532385181.106,37.598,40.039,62.012,41.504,62.988
1532385181.109,33.203,33.691,55.176,36.133,51.758
1532385181.113,35.156,38.574,59.570,33.691,24.902
1532385181.117,35.156,42.969,62.012,32.715,15.137
1532385181.121,37.109,40.039,66.406,31.738,33.203
1532385181.125,36.621,37.109,64.453,29.297,50.293
1532385181.129,35.156,32.715,60.547,25.391,1.465
1532385181.133,27.832,24.902,63.477,14.160,-36.621
1532385181.137,30.273,26.855,59.082,20.020,9.766
1532385181.141,39.062,32.227,60.059,30.762,24.902
1532385181.145,37.109,28.809,65.430,33.203,18.555
1532385181.148,34.668,26.367,63.477,31.250,-1.465
1532385181.152,36.133,31.250,64.941,30.762,21.973
1532385181.156,41.992,33.203,63.965,35.645,52.734
1532385181.160,41.504,31.250,57.617,37.598,47.852
1532385181.164,37.109,21.484,59.570,36.621,51.270
1532385181.168,42.480,28.320,71.289,36.621,19.531
1532385181.172,37.109,37.109,71.777,32.715,25.391
1532385181.176,30.762,23.438,61.523,28.320,47.363
1532385181.180,31.250,22.461,56.641,26.855,39.062
1532385181.184,29.785,27.344,60.059,25.879,34.180
1532385181.188,30.762,26.367,64.453,26.855,28.809
1532385181.191,31.250,18.555,64.453,24.414,12.207
1532385181.195,35.156,17.090,58.105,26.367,17.090
1532385181.199,37.109,23.438,55.176,30.273,2.441
1532385181.203,36.133,25.879,62.988,31.738,27.832
1532385181.207,34.668,23.926,65.430,33.203,51.270
1532385181.211,31.250,20.020,60.059,31.738,6.836
1532385181.215,33.203,23.438,62.500,30.273,-7.812
1532385181.219,32.227,24.902,68.848,28.809,16.113
1532385181.223,27.832,23.438,69.336,26.855,36.133
1532385181.227,30.762,25.879,70.312,26.367,59.570
1532385181.231,38.574,35.156,76.172,29.785,8.789
1532385181.234,38.574,43.457,76.172,34.668,-7.812
1532385181.238,27.344,30.762,67.383,29.785,34.180
1532385181.242,25.879,19.043,62.500,24.414,54.199
1532385181.246,31.738,14.648,64.941,29.297,44.434
1532385181.250,27.832,18.555,64.941,25.879,28.320
1532385181.254,29.297,23.926,64.941,21.484,48.828
1532385181.258,36.621,27.832,65.430,21.973,49.316
1532385181.262,38.086,33.691,62.500,17.578,43.945
1532385181.266,42.969,39.062,63.477,14.648,54.688
1532385181.270,48.828,33.691,65.918,20.996,44.922
1532385181.273,43.457,32.715,68.359,24.902,26.367
1532385181.277,41.504,34.180,65.918,31.250,17.090
1532385181.281,39.551,24.902,64.941,41.504,21.973
1532385181.285,28.809,21.484,73.730,40.527,34.180
1532385181.289,26.367,23.438,76.660,35.645,30.762
1532385181.293,26.367,30.273,81.543,41.992,40.527
1532385181.297,19.531,34.180,82.031,41.504,43.457
1532385181.301,16.113,24.902,69.824,30.762,44.922
1532385181.305,14.160,21.484,65.918,31.738,65.430
1532385181.309,11.230,23.926,65.430,33.691,51.758
1532385181.313,18.555,21.973,63.477,28.809,2.930
1532385181.316,22.949,20.996,66.895,28.320,12.695
1532385181.320,22.949,25.879,72.754,31.738,53.711
1532385181.324,30.762,22.461,65.430,32.715,31.250
1532385181.328,38.574,19.043,65.430,36.133,1.465
1532385181.332,34.180,31.738,71.289,32.227,-5.859
1532385181.336,27.832,39.062,69.336,27.344,19.531
1532385181.340,32.227,29.785,65.430,29.785,41.016
1532385181.344,33.691,28.809,59.570,27.832,24.902
1532385181.348,31.738,31.250,62.988,29.785,8.789
1532385181.352,28.320,30.273,66.895,29.785,30.762
1532385181.356,24.902,29.785,62.500,26.855,53.223
1532385181.359,35.645,31.738,63.965,36.133,39.551
1532385181.363,39.551,29.785,69.336,40.527,30.273
1532385181.367,31.738,23.926,62.012,34.668,27.832
1532385181.371,32.715,24.414,58.594,32.715,10.742
1532385181.375,35.645,27.832,62.500,31.250,9.766
1532385181.379,33.691,23.926,59.082,31.250,16.113
1532385181.383,33.691,16.113,49.805,33.203,7.324
1532385181.387,34.668,10.742,52.246,32.227,17.578
1532385181.391,35.156,20.996,60.059,29.785,38.086
1532385181.395,39.062,34.180,60.547,31.250,37.109
1532385181.398,40.039,32.715,64.453,35.156,37.109
1532385181.402,38.574,34.668,58.105,35.645,28.809
1532385181.406,40.039,37.598,56.641,39.062,36.133
1532385181.410,38.086,35.156,62.988,38.086,-1.465
1532385181.414,41.992,30.762,59.082,38.086,-25.879
1532385181.418,51.270,31.738,62.988,44.922,13.184
1532385181.422,44.434,30.273,59.570,34.180,27.832
1532385181.426,33.691,26.367,47.852,26.367,22.949
1532385181.430,36.133,25.879,41.992,26.367,-2.930
1532385181.434,40.527,30.273,38.574,26.367,6.836
1532385181.438,35.156,27.832,41.016,28.809,61.523
1532385181.441,32.715,22.949,42.969,30.273,42.969
1532385181.445,35.645,26.855,41.504,29.785,22.461
1532385181.449,36.133,32.227,45.898,20.020,30.762
1532385181.453,32.227,27.832,49.805,17.578,28.320
1532385181.457,24.902,12.695,48.340,15.625,39.062
1532385181.461,20.508,13.672,44.922,14.160,22.949
1532385181.465,20.508,24.902,41.504,15.137,20.020
1532385181.469,20.508,24.414,37.598,12.695,40.039
1532385181.473,19.043,21.484,39.551,13.184,49.316
1532385181.477,13.672,15.137,34.668,12.695,59.082
1532385181.480,17.578,13.184,34.668,17.578,32.715
1532385181.484,21.973,23.926,43.945,23.926,44.434
1532385181.488,18.066,23.438,38.574,19.531,72.266
1532385181.492,13.672,10.254,29.785,11.230,53.223
1532385181.496,13.672,7.812,33.203,11.230,43.457
1532385181.500,17.578,6.348,39.062,18.555,47.363
1532385181.504,19.043,5.371,37.598,16.113,36.133
1532385181.508,18.066,22.461,35.156,13.184,11.230
1532385181.512,20.508,26.855,36.133,14.160,-18.555
1532385181.516,22.461,18.066,34.668,14.160,12.695
1532385181.520,25.391,19.043,30.273,17.090,64.453
1532385181.523,26.367,13.672,27.344,20.996,57.617
1532385181.527,28.809,17.578,28.809,23.438,26.855
1532385181.531,30.273,23.926,28.809,27.344,13.184
1532385181.535,24.414,14.160,25.879,27.344,56.152
1532385181.539,26.855,23.438,34.180,25.879,62.988
1532385181.543,32.227,33.203,44.922,29.785,45.898
1532385181.547,35.156,32.227,41.504,29.785,35.156
1532385181.551,31.738,26.855,29.785,27.344,36.133
1532385181.555,23.926,20.508,26.367,25.391,52.246
1532385181.559,21.484,14.648,23.926,22.461,60.547
1532385181.563,19.531,17.090,20.996,21.484,30.273
1532385181.566,18.066,23.926,19.043,23.438,10.254
1532385181.570,15.137,24.414,16.113,16.602,13.184
1532385181.574,15.625,26.367,18.555,15.137,14.160
1532385181.578,16.602,21.973,19.043,25.391,34.180
1532385181.582,16.113,18.066,17.090,23.438,47.363
1532385181.586,18.555,28.320,18.555,24.414,48.828
1532385181.590,23.438,32.227,20.996,28.320,61.035
1532385181.594,27.832,21.484,24.414,27.344,45.410
1532385181.598,28.809,14.648,22.949,20.508,20.996
1532385181.602,23.926,13.184,17.578,17.578,31.250
1532385181.605,25.391,21.484,26.367,24.902,42.480
1532385181.609,26.855,24.414,23.438,22.949,22.461
1532385181.613,20.508,11.230,10.254,17.090,3.906
1532385181.617,17.578,7.324,15.137,20.508,40.039
1532385181.621,19.043,12.207,18.555,20.020,52.734
1532385181.625,20.996,13.184,20.996,19.531,55.664
1532385181.629,20.996,13.672,20.508,20.020,11.719
1532385181.633,20.996,15.137,15.137,16.602,-0.977
1532385181.637,20.508,20.020,11.230,24.414,44.922
1532385181.641,14.160,14.160,13.184,29.297,43.457
1532385181.645,10.254,12.207,19.531,21.484,31.250
1532385181.648,15.625,23.926,21.484,19.043,19.531
1532385181.652,15.137,23.438,19.531,16.602,18.555
1532385181.656,10.254,20.508,8.789,12.695,53.223
1532385181.660,7.324,17.090,9.766,15.137,58.594
1532385181.664,6.348,10.742,20.508,15.137,43.457
1532385181.668,8.789,13.672,17.578,14.648,48.340
1532385181.672,15.625,10.254,10.254,19.043,61.035
1532385181.676,24.414,5.859,15.625,28.809,60.547
1532385181.680,19.043,13.184,15.625,23.926,33.691
1532385181.684,13.184,11.230,7.812,12.207,28.809
1532385181.688,16.602,9.277,8.789,13.672,30.762
1532385181.691,20.508,14.160,9.766,11.719,5.371
1532385181.695,22.461,12.207,8.789,13.184,-5.859
1532385181.699,25.391,16.113,9.766,21.484,11.719
1532385181.703,22.461,16.113,9.766,19.043,33.203
1532385181.707,20.996,10.742,10.742,17.090,46.387
1532385181.711,22.461,12.207,8.789,20.508,31.738
1532385181.715,22.949,18.066,14.648,28.809,14.160
1532385181.719,19.043,10.742,19.043,24.414,23.438
1532385181.723,15.625,1.465,10.254,19.043,50.293
1532385181.727,18.555,0.977,1.465,24.414,30.273
1532385181.730,24.414,6.348,2.441,26.367,12.207
1532385181.734,22.461,15.625,4.395,22.949,28.320
1532385181.738,16.113,10.254,6.348,20.508,33.691
1532385181.742,26.367,10.742,12.695,23.926,17.578
1532385181.746,23.926,14.648,10.254,24.414,16.113
1532385181.750,15.625,13.184,4.395,20.508,6.836
1532385181.754,21.973,15.625,8.301,20.508,2.441
1532385181.758,24.902,16.602,11.719,26.367,28.809
1532385181.762,28.809,13.184,14.648,36.621,13.672
1532385181.766,38.574,13.184,18.066,46.387,7.324
1532385181.770,37.109,8.301,9.277,39.062,60.547
1532385181.773,23.926,2.930,6.348,27.344,62.012
1532385181.777,23.926,9.766,13.672,28.320,29.297
1532385181.781,29.785,16.113,12.695,30.273,19.043
1532385181.785,27.832,13.672,8.789,28.320,22.461
1532385181.789,25.391,4.395,11.719,28.320,25.391
1532385181.793,28.320,0.000,13.672,29.785,6.348
1532385181.797,28.809,12.207,12.207,31.738,13.184
1532385181.801,22.949,21.973,10.254,29.785,51.758
1532385181.805,32.227,26.855,10.254,33.203,65.430
1532385181.809,41.016,28.809,9.766,36.621,30.273
1532385181.813,35.156,17.578,16.113,36.133,8.789
1532385181.816,36.133,7.324,23.926,40.039,12.695
1532385181.820,38.574,15.137,24.902,40.527,35.156
1532385181.824,41.016,22.461,28.320,41.504,30.762
1532385181.828,33.203,13.184,29.297,30.762,4.883
1532385181.832,24.414,7.324,20.508,16.602,10.742
1532385181.836,29.297,16.602,16.602,23.438,32.227
1532385181.840,27.832,18.555,21.484,24.902,48.828
1532385181.844,29.297,14.648,26.367,22.949,23.926
1532385181.848,32.227,17.090,30.273,30.762,-3.906
1532385181.852,26.367,8.301,25.879,27.832,13.184
1532385181.855,25.879,0.000,22.461,22.949,40.039
1532385181.859,30.762,13.184,29.785,27.832,42.969
1532385181.863,33.691,18.555,27.832,28.809,16.602
1532385181.867,38.086,12.207,25.391,31.250,19.043
1532385181.871,39.062,20.508,30.762,33.203,49.316
1532385181.875,38.574,31.250,29.785,32.227,40.527
1532385181.879,38.574,25.879,32.227,31.250,3.906
1532385181.883,38.086,25.391,39.062,28.320,17.578
1532385181.887,41.016,28.809,41.992,29.785,23.926
1532385181.891,30.273,18.555,30.762,24.414,-2.441
1532385181.895,24.902,11.230,27.832,20.508,2.930
1532385181.898,29.297,11.230,34.180,24.902,18.555
1532385181.902,32.715,15.137,28.320,26.855,46.875
1532385181.906,36.621,16.602,28.320,28.320,64.453
1532385181.910,35.645,15.625,36.133,27.344,43.457
1532385181.914,35.645,16.113,44.434,30.762,32.227
1532385181.918,30.273,18.066,49.316,34.668,55.176
1532385181.922,26.855,19.043,41.992,31.250,62.988
1532385181.926,28.320,20.508,40.527,30.273,46.875
1532385181.930,21.973,16.113,48.340,27.832,2.930
1532385181.934,20.508,14.160,39.551,20.020,0.000
1532385181.937,32.715,21.484,33.203,27.344,38.086
1532385181.941,39.551,26.367,46.875,39.551,33.691
1532385181.945,27.832,16.113,45.898,34.180,37.598
1532385181.949,20.508,8.301,37.109,25.391,16.113
1532385181.953,23.926,14.648,44.434,25.391,17.578
1532385181.957,27.832,19.531,49.316,29.785,54.199
1532385181.961,33.203,20.508,43.945,26.855,40.527
1532385181.965,33.203,22.461,43.457,28.320,45.898
1532385181.969,27.344,18.555,48.828,26.367,42.480
1532385181.973,23.926,14.648,51.758,17.090,44.434
1532385181.977,27.832,16.602,43.945,24.414,20.020
1532385181.980,30.273,15.137,35.156,29.297,7.324
1532385181.984,26.367,9.766,43.457,30.273,42.969
1532385181.988,28.320,18.066,49.805,34.180,36.621
1532385181.992,35.645,29.297,52.246,35.645,52.246
1532385181.996,32.715,16.602,56.152,31.250,72.754
1532385182.000,34.180,16.113,62.012,30.762,57.617
1532385182.004,39.551,27.832,61.035,33.691,47.363
1532385182.008,32.715,27.344,50.781,27.344,32.227
1532385182.012,26.855,22.949,44.922,24.414,11.719
1532385182.016,26.367,12.207,40.527,26.367,7.324
1532385182.020,26.855,13.184,45.898,26.855,12.695
1532385182.023,29.297,20.996,57.129,31.250,68.359
1532385182.027,27.832,21.973,58.105,32.227,46.387
1532385182.031,26.367,15.137,59.082,31.250,-1.953
1532385182.035,35.645,7.324,62.988,41.016,11.719
1532385182.039,43.457,11.719,62.012,40.527,36.133
1532385182.043,44.922,28.320,57.617,33.203,52.734
1532385182.047,43.945,24.902,51.758,28.320,26.855
1532385182.051,42.480,22.461,56.152,31.250,24.902
1532385182.055,41.992,28.809,62.012,31.250,53.223
1532385182.059,41.992,22.461,56.641,21.973,39.551
1532385182.062,47.852,18.555,52.734,20.020,9.766
1532385182.066,53.711,23.438,45.898,20.996,37.109
1532385182.070,53.711,33.691,44.922,22.949,29.785
1532385182.074,53.223,34.668,54.688,29.785,-11.230
1532385182.078,57.617,22.949,60.547,39.062,7.324
1532385182.082,45.898,11.719,60.059,44.434,41.992
1532385182.086,35.156,18.066,58.105,50.781,47.363
1532385182.090,37.109,23.926,59.082,49.805,51.758
1532385182.094,35.645,18.066,57.129,51.270,56.641
1532385182.098,33.203,11.230,56.641,57.129,16.113
1532385182.102,32.227,13.184,59.082,49.805,28.320
1532385182.105,39.062,16.113,59.570,48.340,58.105
1532385182.109,44.922,19.043,66.406,53.223,43.457
1532385182.113,44.434,22.461,74.219,51.758,13.672
1532385182.117,39.062,17.578,70.312,44.434,30.273
1532385182.121,33.203,19.043,60.547,34.668,46.875
1532385182.125,35.645,20.020,56.641,36.133,37.109
1532385182.129,37.109,15.137,52.734,41.504,27.344
1532385182.133,32.715,14.648,48.828,38.574,14.160
1532385182.137,37.109,14.648,51.758,41.992,23.926
1532385182.141,42.480,15.625,50.293,45.410,52.246
1532385182.145,41.504,17.090,44.434,41.016,57.617
1532385182.148,42.969,19.531,47.363,43.945,44.922
1532385182.152,44.922,20.508,48.340,48.828,45.410
1532385182.156,45.898,23.438,46.875,47.363,34.180
1532385182.160,44.922,23.926,49.316,44.434,33.691
1532385182.164,41.016,23.926,41.504,43.457,63.477
1532385182.168,40.039,22.461,29.297,42.969,45.898
1532385182.172,41.504,21.973,36.621,43.457,5.371
1532385182.176,41.992,14.160,42.480,41.016,19.531
1532385182.180,36.621,7.812,31.738,38.086,31.250
1532385182.184,35.645,15.625,23.438,39.551,26.367
1532385182.187,39.551,16.602,29.297,41.016,45.898
1532385182.191,43.457,20.020,25.391,43.457,70.312
1532385182.195,45.410,20.996,18.066,44.922,36.133
1532385182.199,41.992,15.625,23.926,41.016,26.855
1532385182.203,41.992,21.973,30.273,42.969,43.457
1532385182.207,43.457,27.832,31.738,48.828,21.484
1532385182.211,40.039,26.855,23.926,40.039,20.996
1532385182.215,37.109,25.879,17.578,34.180,25.391
1532385182.219,37.598,26.367,10.254,38.574,50.781
1532385182.223,45.898,26.367,17.090,41.992,61.523
1532385182.227,50.293,21.484,20.996,43.945,49.316
1532385182.230,50.293,18.555,18.066,46.387,35.645
1532385182.234,47.852,15.137,9.277,48.828,39.062
1532385182.238,54.199,22.461,15.625,57.617,50.293
1532385182.242,59.082,32.227,30.762,62.500,69.824
1532385182.246,48.340,26.367,19.531,51.758,42.969
1532385182.250,43.457,18.555,5.371,41.992,7.324
1532385182.254,41.016,18.066,11.230,38.086,24.414
1532385182.258,41.504,21.484,15.137,39.062,58.594
1532385182.262,49.316,24.902,8.789,46.387,36.133
1532385182.266,54.199,23.438,8.789,48.340,6.348
1532385182.270,49.316,23.438,12.207,42.969,23.926
1532385182.273,50.781,23.438,10.742,41.504,26.367
1532385182.277,49.805,15.625,6.348,46.875,20.020
1532385182.281,44.434,15.137,6.836,47.363,20.020
1532385182.285,49.316,19.043,4.395,45.898,25.391
1532385182.289,48.340,17.090,4.395,46.387,39.551
1532385182.293,48.340,18.066,7.324,45.898,47.363
1532385182.297,47.363,24.902,9.277,43.945,22.461
1532385182.301,37.598,25.879,6.836,39.551,20.020
1532385182.305,45.898,24.902,14.160,47.852,33.203
1532385182.309,49.805,24.414,17.578,48.340,22.949
1532385182.312,34.668,14.160,5.371,28.809,-8.789
1532385182.316,28.809,8.789,-3.418,26.367,5.371
1532385182.320,31.250,20.508,-2.441,34.668,32.715
1532385182.324,33.691,24.414,3.906,40.527,54.688
1532385182.328,37.109,20.020,7.812,45.898,62.012
1532385182.332,39.551,19.043,4.883,46.875,37.109
1532385182.336,43.457,21.973,-0.488,42.969,24.414
1532385182.340,48.828,25.879,7.812,46.387,6.348
1532385182.344,49.316,22.461,16.602,49.316,18.066
1532385182.348,44.922,19.531,13.672,47.363,51.758
1532385182.352,41.504,19.043,8.789,41.504,41.016
1532385182.355,38.086,24.414,0.488,39.551,34.668
1532385182.359,34.668,15.625,-4.883,44.434,61.523
1532385182.363,38.086,7.324,0.000,43.945,28.320
1532385182.367,40.039,15.137,12.695,47.852,30.762
1532385182.371,39.062,17.090,12.695,47.852,53.223
1532385182.375,40.527,22.949,3.906,44.434,48.340
1532385182.379,43.945,30.762,9.277,47.363,54.688
1532385182.383,43.945,29.297,5.859,41.504,30.273
1532385182.387,45.410,25.391,1.465,41.016,40.039
1532385182.391,46.875,27.832,1.465,43.945,54.688
1532385182.395,51.758,31.738,-4.883,42.969,32.227
1532385182.398,50.293,27.832,-0.977,44.434,22.461
1532385182.402,47.363,20.996,10.254,43.457,21.973
1532385182.406,46.387,18.555,7.324,37.109,30.273
1532385182.410,37.109,26.367,4.883,32.715,16.113
1532385182.414,38.574,32.227,4.395,30.273,-15.625
1532385182.418,43.457,25.391,-6.348,37.598,2.930
1532385182.422,42.969,22.949,-2.930,41.992,52.246
1532385182.426,35.156,26.855,-0.488,33.203,68.359
1532385182.430,31.250,24.902,-4.395,31.738,23.926
1532385182.434,33.203,24.414,-1.465,37.598,5.859
1532385182.437,32.715,24.902,0.000,40.039,40.527
1532385182.441,31.738,25.391,1.465,38.086,29.297
1532385182.445,35.156,24.902,2.441,40.039,21.484
1532385182.449,45.410,26.367,5.859,42.969,49.316
1532385182.453,46.875,30.762,8.789,39.062,55.664
1532385182.457,31.738,20.020,-5.371,30.762,75.684
1532385182.461,22.461,12.207,-10.254,24.902,48.340
1532385182.465,26.367,19.531,0.000,25.879,20.020
1532385182.469,30.273,21.484,6.836,29.785,32.715
1532385182.473,31.738,21.973,2.441,31.738,51.758
1532385182.477,30.273,22.949,0.977,32.227,41.992
1532385182.480,32.715,23.438,2.930,35.645,17.090
1532385182.484,37.598,24.902,-0.488,39.551,43.457
1532385182.488,35.156,23.926,-0.488,35.156,76.172
1532385182.492,37.109,18.555,6.348,34.180,40.039
1532385182.496,39.551,20.508,5.859,40.527,6.348
1532385182.500,32.227,25.879,-4.883,36.133,64.941
1532385182.504,28.320,23.438,-9.277,29.297,74.219
1532385182.508,32.227,18.555,-9.766,30.273,16.602
1532385182.512,41.504,15.625,-9.766,32.227,33.691
1532385182.516,39.551,20.996,0.000,35.156,52.246
1532385182.519,41.504,25.391,7.812,37.109,58.105
1532385182.523,44.434,27.344,5.371,38.574,71.289
1532385182.527,36.621,28.809,-1.953,37.109,60.547
1532385182.531,33.691,22.461,-7.324,33.203,25.391
1532385182.535,32.715,21.973,-10.254,32.227,40.527
1532385182.539,31.738,28.320,-9.277,36.621,77.148
1532385182.543,30.762,27.344,-10.254,38.086,56.152
1532385182.547,33.203,23.926,-4.395,34.180,27.832
1532385182.551,30.762,24.414,0.000,29.785,9.766
1532385182.555,28.320,23.438,-7.324,31.738,21.484
1532385182.559,30.273,19.043,-6.836,32.227,74.219
1532385182.562,37.109,18.066,-4.395,35.156,83.984
1532385182.566,38.086,18.555,-9.766,37.598,39.551
1532385182.570,30.762,27.344,-20.020,33.203,22.461
1532385182.574,32.715,24.902,-20.020,32.227,57.617
1532385182.578,33.691,27.344,-11.719,31.738,53.223
1532385182.582,34.668,35.156,-11.719,32.715,53.223
1532385182.586,41.016,35.156,-8.301,39.551,89.844
1532385182.590,37.109,33.203,-9.277,34.668,63.477
1532385182.594,32.715,28.320,-5.859,30.762,29.785
1532385182.598,41.992,30.273,4.395,40.527,14.160
1532385182.602,38.574,18.555,0.000,41.016,5.859
1532385182.605,25.879,7.324,-11.230,36.621,50.781
1532385182.609,23.438,12.207,-11.230,28.809,57.617
1532385182.613,25.391,20.996,-6.348,25.391,39.062
1532385182.617,25.391,26.367,-11.230,26.855,35.645
1532385182.621,25.391,26.855,-16.602,24.902,42.969
1532385182.625,27.832,16.602,-16.602,23.438,49.316
1532385182.629,38.086,6.836,-14.648,22.949,24.902
1532385182.633,35.645,20.508,-7.812,22.949,18.555
1532385182.637,33.691,37.109,-6.836,24.414,46.875
1532385182.641,39.551,34.180,-3.418,25.391,49.805
1532385182.644,39.062,24.902,0.000,28.809,36.621
1532385182.648,34.180,20.508,-7.812,26.367,13.184
1532385182.652,30.273,21.973,-10.742,18.555,0.488
1532385182.656,29.297,26.855,-17.090,18.555,29.785
1532385182.660,34.668,26.855,-8.789,25.879,41.504
1532385182.664,30.762,20.508,2.930,26.367,45.898
1532385182.668,23.926,19.043,-2.930,20.996,46.387
1532385182.672,27.832,16.113,-6.348,24.902,23.926
1532385182.676,23.438,8.301,-3.906,27.344,40.039
1532385182.680,18.066,6.836,3.418,23.926,41.992
1532385182.684,20.996,17.578,3.906,20.508,17.090
1532385182.687,30.273,28.320,-1.465,22.949,46.875
1532385182.691,32.715,27.832,-4.883,18.066,39.551
1532385182.695,28.320,21.973,-5.859,18.066,-12.695
1532385182.699,29.785,24.414,-9.277,25.391,6.836
1532385182.703,35.645,25.391,-16.113,27.344,24.902
1532385182.707,37.109,27.832,-12.207,33.203,27.344
1532385182.711,35.645,31.738,2.441,38.574,24.902
1532385182.715,39.551,28.320,8.301,41.504,9.766
1532385182.719,41.016,33.691,13.184,39.551,19.531
1532385182.723,37.109,33.203,9.766,40.039,59.082
1532385182.727,36.621,22.461,1.465,41.992,33.691
1532385182.730,36.621,14.648,1.465,35.645,-4.883
1532385182.734,40.039,26.855,6.348,40.039,13.672
1532385182.738,41.504,31.250,6.348,41.992,44.434
1532385182.742,39.062,24.902,-1.953,36.133,52.246
1532385182.746,36.621,33.203,-5.371,37.598,14.160
1532385182.750,38.086,38.086,-0.977,30.762,0.000
1532385182.754,40.039,32.227,-0.488,26.367,26.367
1532385182.758,36.133,27.832,4.883,31.738,29.297
1532385182.762,33.691,26.855,0.977,32.715,24.902
1532385182.766,33.691,27.344,-2.930,36.133,18.066
1532385182.769,35.645,31.250,5.859,41.016,-3.906
1532385182.773,38.574,33.203,1.953,45.410,5.371
1532385182.777,44.434,28.809,-1.465,51.758,50.781
1532385182.781,49.805,36.133,10.254,59.570,50.781
1532385182.785,51.758,32.715,7.324,58.105,56.152
1532385182.789,43.945,25.391,-11.230,48.340,67.871
1532385182.793,38.574,34.668,-14.160,43.945,25.391
1532385182.797,45.410,34.180,-7.812,44.922,8.789
1532385182.801,51.270,26.855,-6.836,48.828,24.902
1532385182.805,49.805,27.344,-10.254,48.828,28.809
1532385182.809,42.969,32.227,-10.742,44.434,29.297
1532385182.812,44.434,38.574,-13.184,47.363,19.531
1532385182.816,46.875,38.086,-8.789,49.805,21.973
1532385182.820,53.223,44.922,-4.883,52.734,31.738
1532385182.824,63.477,49.805,-2.930,64.453,50.781
1532385182.828,59.082,37.109,-1.465,58.594,36.621
1532385182.832,51.758,31.738,-2.441,45.410,-9.766
1532385182.836,54.688,35.645,-7.812,43.945,20.508
1532385182.840,67.383,45.898,-8.789,51.758,50.781
1532385182.844,73.242,49.805,-1.953,54.199,37.109
1532385182.848,61.035,36.133,-4.395,38.086,7.812
1532385182.852,54.199,31.250,-7.324,34.180,3.906
1532385182.855,52.246,35.645,-6.836,40.527,65.918
1532385182.859,53.223,34.668,-0.488,46.875,70.312
1532385182.863,52.734,30.273,0.977,57.129,2.930
1532385182.867,48.340,30.273,-2.441,64.453,20.020
1532385182.871,47.852,35.156,0.977,64.941,57.129
1532385182.875,54.199,34.180,2.930,62.012,43.945
1532385182.879,45.410,36.621,-0.488,59.082,24.414
1532385182.883,38.574,37.109,-2.441,61.523,31.738
1532385182.887,39.062,26.855,-2.930,60.547,44.922
1532385182.891,33.203,26.367,-1.465,53.223,23.438
1532385182.894,31.738,32.227,4.395,48.340,14.160
1532385182.898,30.762,27.832,8.789,49.316,23.438
1532385182.902,27.832,20.020,10.254,45.898,20.020
1532385182.906,29.297,29.297,15.137,43.457,25.879
1532385182.910,30.762,31.250,20.508,39.551,28.809
1532385182.914,21.973,13.672,15.625,28.320,30.762
1532385182.918,14.648,6.836,5.859,22.461,46.875
1532385182.922,9.277,14.648,6.348,20.020,20.996
1532385182.926,9.766,18.555,6.836,21.973,7.812
1532385182.930,22.949,17.578,13.672,23.926,10.742
1532385182.934,25.879,17.090,23.926,21.973,28.320
1532385182.937,21.484,13.184,20.508,18.555,70.312
1532385182.941,21.973,19.531,14.160,18.066,60.547
1532385182.945,19.043,24.902,17.090,22.461,16.113
1532385182.949,20.508,21.484,20.996,24.414,10.742
1532385182.953,16.113,18.555,27.344,20.996,24.414
1532385182.957,10.254,15.625,23.438,22.461,51.758
1532385182.961,13.672,11.230,20.508,24.902,52.246
1532385182.965,17.578,0.488,30.762,23.926,26.367
1532385182.969,16.602,-1.465,31.738,23.438,20.996
1532385182.973,20.020,18.555,28.809,29.785,24.902
1532385182.976,18.555,17.578,30.273,26.367,42.480
1532385182.980,16.602,5.371,25.879,18.555,27.832
1532385182.984,17.578,8.301,17.090,17.578,46.387
1532385182.988,16.113,4.883,22.949,14.648,52.246
1532385182.992,17.090,1.953,31.250,13.672,17.090
1532385182.996,15.625,9.766,30.273,12.207,31.738
1532385183.000,21.973,16.113,26.367,10.254,29.297
1532385183.004,20.996,8.301,27.344,12.695,57.129
1532385183.008,14.648,4.395,36.133,12.695,37.598
1532385183.012,15.137,12.207,40.039,9.277,-14.160
1532385183.016,16.602,15.137,41.016,11.719,25.391
1532385183.019,17.090,10.742,38.574,13.672,32.227
1532385183.023,17.090,4.883,36.133,13.184,39.551
1532385183.027,20.020,-0.977,38.574,15.137,20.508
1532385183.031,17.090,5.371,35.645,12.695,-0.977
1532385183.035,12.207,8.789,39.551,10.742,17.090
1532385183.039,16.113,6.348,52.734,15.625,29.785
1532385183.043,20.508,9.766,62.500,18.555,54.688
1532385183.047,20.508,7.324,58.594,17.090,20.996
1532385183.051,20.996,13.672,60.547,15.137,-16.113
1532385183.055,14.160,17.090,65.918,15.137,10.742
1532385183.059,10.254,14.160,59.082,12.695,43.457
1532385183.062,11.719,16.602,53.711,4.395,33.203
1532385183.066,11.230,14.160,52.246,2.441,29.785
1532385183.070,16.113,15.137,53.711,4.395,41.504
1532385183.074,18.555,16.113,53.711,4.883,55.664
1532385183.078,18.066,11.230,52.246,7.812,58.594
1532385183.082,19.531,13.184,48.828,10.254,43.457
1532385183.086,18.555,18.066,47.852,12.207,50.781
1532385183.090,19.043,10.742,61.035,14.160,40.039
1532385183.094,17.578,1.953,69.824,12.207,13.672
1532385183.098,17.578,9.277,62.988,8.789,4.395
1532385183.101,15.625,14.648,59.082,5.371,0.488
1532385183.105,10.742,12.207,62.012,5.371,5.859
1532385183.109,13.184,7.324,62.012,6.348,7.812
1532385183.113,21.484,10.254,60.059,13.672,16.602
1532385183.117,21.973,18.066,61.523,19.043,15.137
1532385183.121,9.766,15.137,62.500,15.625,12.695
1532385183.125,11.230,9.766,61.035,16.113,43.457
1532385183.129,8.789,1.953,52.734,15.137,10.254
1532385183.133,3.906,4.883,49.805,19.531,6.348
1532385183.137,7.812,10.742,60.547,25.879,57.129
1532385183.141,11.230,9.277,62.988,24.902,37.109
1532385183.144,12.207,9.277,59.570,28.809,25.391
1532385183.148,12.207,19.043,58.105,30.762,17.090
1532385183.152,10.742,26.367,55.176,24.902,14.160
1532385183.156,11.230,23.438,53.711,20.508,34.668
1532385183.160,10.742,18.555,54.688,18.066,21.484
1532385183.164,12.695,13.672,56.152,12.207,7.324
1532385183.168,10.742,19.043,54.688,5.371,11.230
1532385183.172,8.789,17.090,48.340,3.418,46.875
1532385183.176,7.812,8.301,39.551,-0.488,66.895
1532385183.180,9.277,21.484,40.039,1.953,33.691
1532385183.184,14.648,30.273,41.992,9.277,23.438
1532385183.187,11.719,25.391,36.621,5.371,37.109
1532385183.191,6.836,20.508,32.715,0.488,8.789
1532385183.195,8.301,3.418,34.180,5.859,-16.113
1532385183.199,8.789,4.883,33.203,18.066,22.949
1532385183.203,0.000,17.090,28.809,19.043,40.039
1532385183.207,-4.395,11.719,31.738,13.184,36.621
1532385183.211,-2.441,9.277,35.645,10.742,22.949
1532385183.215,0.000,11.230,34.668,10.742,-10.742
1532385183.219,1.465,9.277,29.297,13.672,13.184
1532385183.223,0.000,10.254,31.250,15.625,28.320
1532385183.226,-3.418,14.160,35.645,10.254,24.902
1532385183.230,0.000,7.812,31.250,8.301,-8.789
1532385183.234,-0.488,11.230,33.691,9.277,0.977
1532385183.238,-0.488,23.926,37.109,11.719,42.969
1532385183.242,0.000,21.973,32.715,11.719,26.855
1532385183.246,-0.488,20.020,31.250,8.301,16.113
1532385183.250,-0.488,15.625,33.203,4.395,-0.977
1532385183.254,3.418,21.973,30.762,5.859,1.465
1532385183.258,10.254,29.785,26.367,13.672,20.996
1532385183.262,3.906,20.020,24.414,5.371,11.719
1532385183.266,-2.441,11.719,26.367,-6.836,17.090
1532385183.269,0.977,15.625,22.949,-5.859,38.086
1532385183.273,5.371,14.160,21.973,-2.930,42.480
1532385183.277,6.348,7.324,25.391,-3.906,43.457
1532385183.281,5.859,16.113,21.973,-3.906,14.160
1532385183.285,1.953,21.484,19.531,-2.930,11.230
1532385183.289,4.395,15.137,20.996,-0.488,19.531
1532385183.293,8.789,8.301,21.484,0.488,20.996
1532385183.297,5.859,7.324,22.461,-0.977,30.762
1532385183.301,2.930,19.043,20.508,-2.441,27.832
1532385183.305,4.395,23.438,16.113,3.906,50.293
1532385183.309,14.648,24.414,22.949,13.672,45.410
1532385183.312,14.648,33.691,24.902,14.648,21.484
1532385183.316,12.695,34.668,21.484,15.137,37.109
1532385183.320,12.207,29.297,21.973,15.625,57.617
1532385183.324,9.277,22.949,22.949,13.672,58.594
1532385183.328,10.254,19.043,20.996,14.648,24.902
1532385183.332,10.254,23.438,13.184,10.254,4.883
1532385183.336,14.648,31.250,18.066,14.160,28.809
1532385183.340,13.184,27.344,20.020,14.648,27.344
1532385183.344,3.906,17.578,12.695,7.812,20.508
1532385183.348,2.441,20.508,13.184,5.859,22.461
1532385183.351,8.789,18.555,11.230,7.812,18.066
1532385183.355,18.066,13.184,10.254,12.695,50.781
1532385183.359,18.555,25.879,8.789,11.719,66.406
1532385183.363,19.043,35.156,5.371,13.672,42.480
1532385183.367,23.438,30.762,5.859,15.625,28.320
1532385183.371,22.949,26.855,5.371,15.137,44.922
1532385183.375,16.113,29.785,10.254,18.555,47.852
1532385183.379,11.719,27.344,12.207,17.578,18.066
1532385183.383,14.160,18.555,9.277,19.531,-10.254
1532385183.387,12.695,16.113,9.277,16.113,29.785
1532385183.391,0.977,17.578,6.836,1.953,31.250
1532385183.394,0.000,23.438,6.836,1.465,3.418
1532385183.398,0.488,26.367,5.371,2.441,28.809
1532385183.402,-6.348,25.879,6.348,-0.488,13.672
1532385183.406,-5.859,23.926,5.859,0.488,45.898
1532385183.410,-3.418,25.391,9.277,-1.953,40.039
1532385183.414,-1.465,22.461,16.113,1.465,2.930
1532385183.418,0.000,11.719,19.043,2.930,20.508
1532385183.422,0.488,12.695,15.625,-0.488,24.414
1532385183.426,-2.441,12.207,12.207,-2.441,47.363
1532385183.430,-6.348,16.113,5.371,-3.418,16.602
1532385183.434,-5.859,21.484,0.488,-3.418,12.207
1532385183.437,-3.418,21.484,8.789,-2.441,67.871
1532385183.441,-2.930,19.043,16.113,-5.371,56.641
1532385183.445,-2.930,12.695,11.230,-7.812,36.621
1532385183.449,1.465,11.230,8.301,-3.906,37.109
1532385183.453,5.371,14.160,9.766,-0.488,50.293
1532385183.457,1.953,16.113,9.277,-0.977,49.316
1532385183.461,0.488,14.648,10.742,-0.977,33.691
1532385183.465,9.277,13.184,15.137,3.906,12.207
1532385183.469,12.695,8.301,15.137,12.207,-12.207
1532385183.473,6.348,7.324,13.672,7.324,29.785
1532385183.476,6.348,20.020,17.578,4.883,41.992
1532385183.480,9.277,20.020,11.230,7.324,22.461
1532385183.484,6.348,4.395,5.371,1.953,47.363
1532385183.488,1.465,6.348,9.277,0.977,55.664
1532385183.492,4.395,18.066,10.254,1.465,16.113
1532385183.496,13.672,20.508,15.137,8.789,-13.184
1532385183.500,20.508,20.020,22.949,18.066,15.137
1532385183.504,21.973,16.602,22.461,20.020,43.457
1532385183.508,25.391,13.672,17.090,21.484,42.969
1532385183.512,25.879,23.926,14.648,24.414,40.039
1532385183.516,20.020,27.832,23.438,26.367,52.246
1532385183.519,20.508,21.973,28.809,21.484,47.363
1532385183.523,19.531,20.996,26.367,21.484,39.551
1532385183.527,17.090,20.020,22.949,22.461,45.898
1532385183.531,16.113,17.090,22.949,19.531,14.160
1532385183.535,12.207,12.207,24.902,16.602,15.625
1532385183.539,11.719,20.508,26.367,21.484,67.383
1532385183.543,13.184,23.438,34.668,24.414,82.031
1532385183.547,13.184,18.555,35.645,20.020,48.828
1532385183.551,12.695,22.461,29.297,17.578,60.547
1532385183.555,14.160,24.414,34.180,17.578,66.406
1532385183.558,22.461,27.344,43.457,24.414,62.500
1532385183.562,23.438,28.320,43.945,24.902,22.949
1532385183.566,18.555,24.902,41.504,22.461,13.672
1532385183.570,17.090,23.926,41.504,20.508,18.555
1532385183.574,16.602,18.066,38.086,14.648,-1.465
1532385183.578,10.254,17.578,42.480,14.160,16.113
1532385183.582,9.766,14.648,45.898,17.578,14.160
1532385183.586,11.719,9.766,43.945,26.855,31.738
1532385183.590,10.742,12.207,34.668,25.391,57.617
1532385183.594,10.742,8.301,42.480,19.043,50.781
1532385183.598,12.207,-1.953,58.105,20.508,36.621
1532385183.601,11.230,10.254,62.500,17.578,41.504
1532385183.605,12.207,27.832,60.547,16.113,59.082
1532385183.609,17.090,22.949,59.082,16.602,36.621
1532385183.613,19.043,20.020,59.570,15.625,0.488
1532385183.617,23.438,20.996,56.152,18.555,12.695
1532385183.621,28.809,20.508,51.758,20.020,25.879
1532385183.625,33.203,20.508,50.293,23.926,37.598
1532385183.629,42.969,21.973,59.082,25.879,28.809
1532385183.633,47.852,16.113,63.477,23.438,8.301
1532385183.637,46.387,16.113,59.082,18.555,47.852
1532385183.641,45.898,23.438,56.641,15.137,62.988
1532385183.644,40.527,18.066,58.105,18.555,35.156
1532385183.648,29.785,13.672,61.035,20.508,25.879
1532385183.652,20.996,13.184,55.664,22.949,20.996
1532385183.656,16.113,13.184,56.152,28.320,23.438
1532385183.660,10.254,16.602,61.523,28.320,48.828
1532385183.664,7.812,23.926,57.129,24.902,42.480
1532385183.668,5.371,32.227,51.758,27.344,22.949
1532385183.672,4.395,26.855,56.641,27.832,34.180
1532385183.676,3.906,16.602,64.453,20.508,25.879
1532385183.680,5.859,8.301,66.895,19.531,6.348
1532385183.683,10.254,20.020,65.918,20.020,23.926
1532385183.687,11.719,35.156,63.965,15.137,32.715
1532385183.691,13.184,31.738,63.965,10.742,8.301
1532385183.695,18.066,31.250,58.594,15.137,10.254
1532385183.699,28.809,34.180,60.547,22.461,64.453
1532385183.703,30.762,29.785,60.059,20.020,51.758
1532385183.707,29.297,31.250,45.410,15.137,54.199
1532385183.711,27.832,33.203,46.875,13.184,31.250
1532385183.715,19.531,29.297,54.688,14.160,-1.465
1532385183.719,19.531,33.203,49.316,16.113,31.250
1532385183.723,18.555,29.785,55.664,17.090,44.434
1532385183.726,16.113,25.879,62.500,15.137,65.430
1532385183.730,11.230,22.949,60.059,14.160,31.738
1532385183.734,8.301,20.020,58.594,13.184,28.809
1532385183.738,11.230,23.926,58.594,15.137,62.012
1532385183.742,11.719,30.273,60.059,15.137,64.941
1532385183.746,12.207,35.645,57.129,13.672,58.594
1532385183.750,17.578,32.715,55.176,15.625,37.598
1532385183.754,24.414,23.438,60.547,18.066,27.344
1532385183.758,23.438,27.344,62.012,13.184,26.367
1532385183.762,13.184,27.344,47.852,4.883,-4.883
1532385183.766,6.836,19.043,42.480,1.465,6.348
1532385183.769,8.789,23.438,50.293,-0.977,21.973
1532385183.773,4.883,22.949,57.617,1.465,20.996
1532385183.777,0.488,9.766,58.594,11.230,43.457
1532385183.781,-1.953,14.160,53.711,11.719,27.832
1532385183.785,-3.906,24.414,54.199,11.230,32.715
1532385183.789,1.953,20.508,54.199,18.555,49.805
1532385183.793,9.766,21.973,49.316,22.949,43.945
1532385183.797,9.277,26.367,49.805,22.949,20.020
1532385183.801,9.766,20.020,50.781,22.461,31.738
1532385183.805,19.043,13.672,44.922,22.949,51.270
1532385183.808,22.949,14.160,43.945,21.973,45.898
1532385183.812,23.438,21.484,46.387,19.531,-4.883
1532385183.816,29.785,26.855,39.062,25.391,-24.414
1532385183.820,29.785,24.414,40.527,24.902,41.504
1532385183.824,28.320,22.461,50.781,20.508,55.176
1532385183.828,28.809,22.949,51.270,16.113,24.414
1532385183.832,30.762,26.367,53.223,20.508,43.457
1532385183.836,28.320,16.602,49.316,20.996,76.172
1532385183.840,19.531,11.719,42.480,10.254,83.496
1532385183.844,14.648,22.461,43.945,11.230,77.637
1532385183.848,9.766,22.949,42.969,16.113,45.410
1532385183.851,8.301,19.043,41.992,14.648,20.996
1532385183.855,12.695,27.832,36.621,13.184,34.180
1532385183.859,11.230,32.715,30.762,15.625,47.852
1532385183.863,16.113,26.855,38.574,18.066,44.434
1532385183.867,27.832,21.484,46.875,22.949,20.020
1532385183.871,31.250,20.508,48.828,22.461,36.133
1532385183.875,31.738,18.066,48.340,21.484,71.289
1532385183.879,36.133,15.625,44.922,23.926,50.781
1532385183.883,37.109,22.461,45.898,21.973,36.621
1532385183.887,39.551,30.273,49.316,24.414,51.758
1532385183.891,41.504,18.066,47.852,22.949,31.738
1532385183.894,38.574,16.113,42.969,17.578,0.000
1532385183.898,31.250,24.902,43.945,12.695,4.395
1532385183.902,27.344,22.461,34.668,9.766,33.691
1532385183.906,27.344,26.855,27.832,14.160,41.504
1532385183.910,19.531,23.438,37.109,4.883,-2.930
1532385183.914,9.766,11.719,41.504,-2.930,-20.996
1532385183.918,6.836,11.719,36.621,8.301,10.254
1532385183.922,10.254,23.926,33.203,13.184,51.270
1532385183.926,13.184,26.855,41.016,13.184,61.523
1532385183.930,13.672,15.625,40.527,15.137,14.648
1532385183.933,20.020,9.277,38.574,19.043,3.906
1532385183.937,19.043,6.836,38.574,20.996,51.270
1532385183.941,7.324,6.348,36.133,18.066,68.359
1532385183.945,6.836,8.789,33.691,18.066,36.133
1532385183.949,4.395,16.113,33.203,9.766,16.602
1532385183.953,0.488,23.438,30.762,2.441,27.832
1532385183.957,-0.488,23.438,33.203,8.789,46.387
1532385183.961,1.465,20.020,39.551,15.137,33.691
1532385183.965,-0.488,13.184,37.109,13.184,35.645
1532385183.969,1.953,16.602,36.133,16.602,52.246
1532385183.973,12.207,27.832,43.457,28.320,46.875
1532385183.976,10.742,11.719,42.969,31.738,29.785
1532385183.980,3.906,0.977,36.621,26.367,24.902
1532385183.984,1.953,14.648,31.738,17.578,39.062
1532385183.988,3.906,20.996,31.738,13.672,46.387
1532385183.992,7.812,18.066,29.297,11.719,47.852
1532385183.996,11.719,17.578,25.391,8.301,26.367
1532385184.000,14.160,26.367,19.531,8.789,4.883
1532385184.004,19.531,31.738,14.648,14.648,29.785
1532385184.008,20.996,34.668,24.902,17.578,39.551
1532385184.012,18.066,29.297,34.180,18.066,-12.695
1532385184.015,16.602,18.066,33.691,19.531,-6.836
1532385184.019,12.207,23.926,29.297,21.973,48.828
1532385184.023,15.625,34.180,29.785,28.809,59.082
1532385184.027,14.160,31.738,31.738,28.809,41.992
1532385184.031,6.836,29.785,31.250,17.090,26.855
1532385184.035,9.766,35.156,37.109,18.066,32.715
1532385184.039,12.695,30.273,39.062,23.926,49.805
1532385184.043,11.230,22.461,24.902,14.160,51.758
1532385184.047,8.789,18.555,20.996,10.254,17.090
1532385184.051,11.230,20.020,26.855,10.254,-17.578
1532385184.055,20.020,26.367,25.391,9.277,-7.324
1532385184.058,21.484,20.020,30.273,14.648,24.414
1532385184.062,15.625,16.602,36.133,18.066,34.668
1532385184.066,17.578,20.020,34.180,17.090,32.227
1532385184.070,19.043,24.902,33.691,16.113,40.039
1532385184.074,17.578,33.691,33.691,21.484,37.598
1532385184.078,19.531,36.621,35.645,25.391,-5.371
1532385184.082,18.555,33.691,33.691,21.973,-14.160
1532385184.086,16.602,27.832,26.855,20.020,29.297
1532385184.090,12.207,20.508,24.902,15.625,3.418
1532385184.094,9.766,17.090,28.320,12.207,-32.715
1532385184.098,11.230,12.695,33.203,15.625,7.324
1532385184.101,12.207,12.695,36.133,18.066,31.250
1532385184.105,16.113,19.043,34.180,22.461,40.527
1532385184.109,10.254,19.043,37.109,18.066,9.277
1532385184.113,2.930,19.043,42.480,12.207,-7.812
1532385184.117,9.277,24.414,35.645,17.578,10.742
1532385184.121,17.090,28.320,28.809,16.602,27.832
1532385184.125,19.531,31.738,33.691,19.531,30.273
1532385184.129,19.043,23.438,30.762,20.508,2.441
1532385184.133,16.602,13.672,20.996,13.184,7.324
1532385184.137,18.066,22.461,15.137,11.719,36.133
1532385184.140,13.184,23.926,8.301,10.742,34.668
1532385184.144,14.648,20.508,10.742,13.184,23.926
1532385184.148,21.973,18.555,19.531,18.555,9.766
1532385184.152,17.578,14.160,22.461,17.090,12.207
1532385184.156,13.184,13.672,15.137,19.531,13.672
1532385184.160,13.672,14.160,8.301,19.531,13.672
1532385184.164,17.090,17.578,7.812,15.137,14.648
1532385184.168,16.113,23.438,5.859,12.695,-2.930
1532385184.172,12.207,25.391,0.488,8.789,7.812
1532385184.176,8.789,23.438,0.000,8.301,27.344
1532385184.180,16.113,24.902,9.766,16.113,8.789
1532385184.183,28.809,20.996,10.742,24.902,5.859
1532385184.187,24.414,16.602,-0.977,17.578,29.785
1532385184.191,18.066,26.855,-5.371,11.230,41.504
1532385184.195,16.602,29.785,-2.441,10.254,32.227
1532385184.199,19.531,28.320,-5.371,17.578,23.926
1532385184.203,26.367,25.879,-9.766,25.391,51.758
1532385184.207,26.855,22.461,-7.324,19.531,58.105
1532385184.211,22.949,26.855,-2.441,16.602,7.812
1532385184.215,18.555,22.949,0.488,20.020,2.441
1532385184.219,13.184,18.066,-2.930,14.648,23.438
1532385184.223,12.695,26.367,-3.906,10.742,41.992
1532385184.226,12.695,34.668,-4.395,9.277,40.527
1532385184.230,9.277,31.250,-7.812,0.977,-3.418
1532385184.234,10.254,25.879,-9.766,0.488,9.766
1532385184.238,13.672,27.832,-13.672,9.766,48.828
1532385184.242,19.043,26.855,-7.324,14.160,32.227
1532385184.246,20.020,20.996,-2.930,13.184,18.555
1532385184.250,23.926,29.297,-4.883,17.578,22.949
1532385184.254,29.297,41.504,0.000,25.391,42.480
1532385184.258,26.855,28.809,-8.301,24.414,58.105
1532385184.262,22.949,16.113,-10.742,21.484,21.973
1532385184.265,15.625,18.555,-2.930,19.043,0.000
1532385184.269,23.438,24.902,-7.812,21.484,9.766
1532385184.273,34.180,26.855,-6.348,27.344,14.160
1532385184.277,24.414,25.391,1.465,21.484,25.391
1532385184.281,22.949,34.180,1.465,22.461,15.625
1532385184.285,28.809,39.062,-3.418,23.438,27.832
1532385184.289,24.414,33.203,-0.488,13.672,35.156
1532385184.293,19.043,25.391,0.977,12.207,23.926
1532385184.297,22.461,29.785,-1.953,12.695,41.504
1532385184.301,27.832,30.762,-3.906,14.648,39.551
1532385184.305,23.438,24.414,-6.836,11.230,41.504
1532385184.308,21.973,21.973,-3.418,7.324,62.988
1532385184.312,34.180,26.367,0.488,18.555,50.293
1532385184.316,36.133,29.297,3.418,25.879,21.973
1532385184.320,31.250,22.461,6.836,27.344,34.668
1532385184.324,32.227,28.809,5.859,32.227,51.270
1532385184.328,35.156,42.480,7.812,37.598,18.066
1532385184.332,29.297,34.668,8.789,32.227,12.695
1532385184.336,20.996,21.484,4.395,21.973,42.969
1532385184.340,15.137,18.555,0.488,20.996,66.406
1532385184.344,9.277,20.508,1.953,22.461,47.363
1532385184.348,7.812,21.973,8.789,19.531,6.836
1532385184.351,8.789,13.672,15.625,17.578,5.371
1532385184.355,10.742,8.789,12.207,16.602,36.133
1532385184.359,12.207,15.137,8.301,11.719,58.594
1532385184.363,15.137,24.902,5.859,14.160,30.273
1532385184.367,19.531,22.949,2.441,19.043,14.648
1532385184.371,19.531,17.090,3.418,18.555,26.367
1532385184.375,19.531,18.555,7.812,17.578,33.691
1532385184.379,21.484,25.879,11.719,16.113,32.715
1532385184.383,22.949,32.715,10.742,18.066,24.902
1532385184.387,29.297,31.738,7.324,26.367,30.273
1532385184.390,30.273,22.461,15.625,23.438,23.438
1532385184.394,29.785,27.832,23.926,21.484,26.855
1532385184.398,33.203,40.527,27.832,30.762,47.852
1532385184.402,24.902,31.250,23.438,23.926,58.105
1532385184.406,17.090,24.414,14.648,20.020,74.219
1532385184.410,20.020,27.832,13.184,20.996,37.598
1532385184.414,19.531,30.762,18.066,24.414,-8.301
1532385184.418,19.531,16.602,30.273,33.203,42.969
1532385184.422,28.320,18.555,36.621,32.715,72.266
1532385184.426,26.367,34.668,31.250,27.344,48.340
1532385184.430,18.066,27.832,31.738,28.320,26.855
1532385184.433,21.484,27.832,28.320,26.855,43.457
1532385184.437,30.273,32.227,33.203,27.344,72.754
1532385184.441,29.297,31.738,37.109,22.461,81.543
1532385184.445,22.461,31.250,23.926,9.766,76.172
1532385184.449,27.344,33.203,16.602,7.324,42.480
1532385184.453,31.738,31.738,19.531,6.348,38.574
1532385184.457,35.156,35.645,24.902,4.395,62.988
1532385184.461,48.340,45.898,31.738,20.996,56.641
1532385184.465,46.875,44.434,32.715,31.250,49.805
1532385184.469,32.715,29.297,27.832,21.484,49.805
1532385184.473,33.691,23.926,30.273,32.715,38.086
1532385184.476,32.227,29.785,33.203,46.387,63.477
1532385184.480,30.762,34.180,25.391,42.480,69.336
1532385184.484,35.645,35.156,20.996,42.480,62.012
1532385184.488,32.227,38.086,27.344,46.387,79.102
1532385184.492,24.902,31.738,28.320,41.504,79.102
1532385184.496,27.344,21.484,27.344,37.598,67.383
1532385184.500,28.809,29.785,34.668,34.668,26.855
1532385184.504,28.320,41.992,35.156,34.180,38.574
1532385184.508,31.738,40.039,30.273,34.668,57.617
1532385184.512,29.297,39.062,31.738,21.484,19.043
1532385184.515,23.438,40.527,31.250,11.230,25.391
1532385184.519,28.809,37.598,28.320,20.996,50.781
1532385184.523,34.180,35.645,25.879,24.902,33.691
1532385184.527,28.809,36.133,21.484,22.949,25.391
1532385184.531,32.715,43.457,33.691,29.785,1.465
1532385184.535,32.227,43.945,38.086,29.785,16.602
1532385184.539,28.809,31.250,23.926,22.461,64.941
1532385184.543,24.902,24.414,23.926,21.973,61.035
1532385184.547,13.184,21.484,26.367,22.949,29.297
1532385184.551,19.043,21.484,28.809,20.508,-22.949
1532385184.555,23.926,28.320,31.738,19.043,25.391
1532385184.558,24.414,24.414,29.297,24.414,79.102
1532385184.562,30.273,24.902,24.902,27.832,16.602
1532385184.566,31.250,32.715,25.879,24.414,11.719
1532385184.570,22.461,31.250,25.879,19.531,49.805
1532385184.574,25.879,30.273,29.297,24.902,50.781
1532385184.578,30.273,42.969,28.809,30.762,21.973
1532385184.582,25.391,41.016,26.855,28.809,28.320
1532385184.586,25.879,29.297,28.320,32.715,58.594
1532385184.590,24.902,29.785,25.879,29.297,49.316
1532385184.594,26.367,30.273,31.738,24.414,40.527
1532385184.597,29.297,27.832,33.691,33.203,4.883
1532385184.601,20.020,18.066,22.949,30.273,-5.859
1532385184.605,16.602,26.367,23.926,20.996,41.992
1532385184.609,20.996,41.016,28.320,21.973,26.367
1532385184.613,20.020,37.109,26.367,21.484,-31.250
1532385184.617,17.090,33.691,23.438,19.531,-14.160
1532385184.621,15.137,35.645,25.879,19.531,22.461
1532385184.625,20.508,30.762,23.438,22.949,33.691
1532385184.629,28.809,19.531,20.996,26.855,7.324
1532385184.633,33.203,24.414,20.020,30.762,20.020
1532385184.637,27.832,36.133,23.438,33.691,44.434
1532385184.640,23.926,35.156,27.344,28.809,39.551
1532385184.644,22.461,26.855,26.855,22.461,23.438
1532385184.648,23.926,14.648,24.414,19.531,-18.555
1532385184.652,23.926,4.883,27.344,18.555,4.395
1532385184.656,19.531,13.184,28.320,22.461,34.180
1532385184.660,24.414,32.227,28.320,26.367,23.438
1532385184.664,34.180,47.363,29.785,30.273,17.090
1532385184.668,27.344,45.410,19.531,24.414,29.297
1532385184.672,22.461,32.227,17.090,18.555,34.180
1532385184.676,28.320,30.762,20.508,20.020,46.875
1532385184.680,30.762,34.180,14.648,22.461,51.270
1532385184.683,31.250,24.902,9.766,29.297,42.969
1532385184.687,37.109,21.973,18.066,30.273,50.781
1532385184.691,44.434,29.297,24.902,30.273,26.367
1532385184.695,46.387,25.391,23.438,35.156,11.230
1532385184.699,42.480,23.926,19.531,37.598,13.672
1532385184.703,39.551,32.227,21.973,38.574,28.320
1532385184.707,37.598,40.527,26.367,33.691,33.691
1532385184.711,40.527,45.410,27.344,26.367,7.812
1532385184.715,35.645,40.039,24.414,25.879,9.766
1532385184.719,28.809,32.227,16.113,27.832,34.180
1532385184.722,25.879,37.109,11.719,24.414,40.039
1532385184.726,14.648,39.062,16.113,17.090,35.156
1532385184.730,14.160,29.297,14.160,15.137,15.625
1532385184.734,19.531,22.949,10.742,17.090,25.391
1532385184.738,18.066,25.391,15.137,19.043,56.641
1532385184.742,21.484,21.484,17.578,21.484,57.129
1532385184.746,25.391,27.832,20.996,27.344,27.832
1532385184.750,27.832,40.527,20.508,27.832,-7.812
1532385184.754,31.250,36.133,16.113,26.855,-8.301
1532385184.758,33.203,34.180,15.137,34.180,20.020
1532385184.762,30.762,32.227,28.320,36.621,32.227
1532385184.765,26.855,25.391,31.250,29.297,0.000
1532385184.769,20.508,28.809,24.902,23.926,-8.301
1532385184.773,13.184,25.391,21.973,21.973,21.484
1532385184.777,11.230,19.043,24.414,20.020,0.488
1532385184.781,21.973,24.902,31.738,28.809,-39.551
1532385184.785,28.320,26.855,28.320,35.156,-16.602
1532385184.789,23.926,33.691,23.926,25.391,13.672
1532385184.793,23.438,34.180,15.625,21.484,14.648
1532385184.797,31.738,25.391,18.066,34.668,35.156
1532385184.801,37.598,26.367,25.879,39.062,26.855
1532385184.805,39.062,39.062,22.461,37.598,32.715
1532385184.808,41.016,47.852,24.414,38.086,44.434
1532385184.812,41.016,38.086,30.762,37.109,18.066
1532385184.816,37.109,31.250,30.273,37.109,1.465
1532385184.820,37.109,35.156,29.785,40.039,26.855
1532385184.824,38.574,34.180,34.668,41.992,53.711
1532385184.828,35.645,26.855,37.598,36.133,47.363
1532385184.832,32.227,34.668,34.668,30.273,0.000
1532385184.836,25.879,38.086,35.156,28.320,-9.277
1532385184.840,20.996,28.809,43.945,28.809,31.250
1532385184.844,28.809,28.809,49.805,35.156,48.340
1532385184.847,32.715,27.832,48.340,34.180,28.320
1532385184.851,22.949,25.391,42.480,20.996,17.090
1532385184.855,20.508,27.344,41.992,20.996,33.691
1532385184.859,26.367,29.297,40.039,26.855,46.387
1532385184.863,24.414,26.855,40.527,20.020,16.602
1532385184.867,19.043,22.949,44.922,19.531,22.461
1532385184.871,18.555,13.184,45.410,22.461,41.992
1532385184.875,19.043,18.555,43.945,24.414,58.105
1532385184.879,22.461,24.414,47.363,23.926,35.645
1532385184.883,29.785,17.090,53.223,27.344,13.672
1532385184.887,35.156,10.254,52.734,39.062,41.504
1532385184.890,39.551,10.742,47.852,41.992,44.434
1532385184.894,40.039,17.578,46.875,34.668,29.297
1532385184.898,39.551,28.320,51.758,40.039,10.742
1532385184.902,45.410,42.480,60.059,47.852,16.113
1532385184.906,41.016,41.504,59.082,41.992,56.641
1532385184.910,32.715,28.809,48.828,35.156,68.848
1532385184.914,36.133,21.484,42.969,30.762,47.852
1532385184.918,34.668,16.113,44.434,24.902,30.273
1532385184.922,29.785,13.184,51.270,22.949,31.738
1532385184.926,28.320,16.602,52.734,23.926,28.809
1532385184.930,24.414,22.949,55.664,15.625,24.902
1532385184.933,20.020,23.926,57.129,9.277,6.836
1532385184.937,19.043,16.113,55.176,18.066,33.203
1532385184.941,18.066,10.742,57.617,22.461,54.199
1532385184.945,19.531,18.555,64.453,20.020,23.926
1532385184.949,19.043,29.297,67.383,18.066,-14.648
1532385184.953,15.625,27.344,62.012,20.020,1.465
1532385184.957,16.602,13.184,57.129,23.926,60.059
1532385184.961,21.484,14.648,55.664,29.785,64.941
1532385184.965,35.156,21.973,63.965,35.156,31.738
1532385184.969,36.133,18.066,68.359,31.738,15.137
1532385184.972,32.715,18.555,59.570,26.855,1.953
1532385184.976,35.156,22.949,50.781,32.227,14.160
1532385184.980,31.250,28.809,51.758,37.109,27.832
1532385184.984,30.762,20.996,52.246,34.668,29.297
1532385184.988,32.227,22.949,55.176,32.715,46.875
1532385184.992,29.297,27.832,62.012,36.133,55.176
1532385184.996,26.855,15.137,62.988,33.203,53.223
1532385185.000,22.461,17.578,58.594,24.902,42.480
1532385185.004,18.066,31.738,61.523,21.484,21.973
1532385185.008,17.090,24.414,66.406,20.996,44.434
1532385185.012,18.555,12.207,61.523,15.137,33.691
1532385185.015,15.625,19.043,53.711,10.254,-5.371
1532385185.019,9.277,25.391,55.176,14.160,39.551
1532385185.023,13.184,27.344,59.570,18.555,61.035
1532385185.027,16.602,26.367,52.246,18.555,48.828
1532385185.031,16.602,17.578,47.363,15.625,28.809
1532385185.035,21.484,19.531,48.828,21.484,14.648
1532385185.039,26.367,25.879,51.758,27.344,51.758
1532385185.043,27.344,26.367,52.734,28.320,93.262
1532385185.047,32.227,27.344,45.898,32.715,62.012
1532385185.051,38.086,27.344,41.504,35.645,20.508
1532385185.054,37.109,29.785,42.480,31.250,28.809
1532385185.058,40.527,37.109,37.598,28.320,56.152
1532385185.062,42.480,39.551,29.785,26.855,48.828
1532385185.066,38.086,32.227,32.715,27.344,36.621
1532385185.070,40.527,23.438,38.086,28.809,59.082
1532385185.074,44.434,27.344,39.062,32.715,71.289
1532385185.078,42.480,30.273,41.992,35.645,76.172
1532385185.082,37.598,28.320,45.410,35.645,61.523
1532385185.086,48.828,30.273,49.316,39.551,92.773
1532385185.090,49.805,33.203,40.039,42.480,98.633
1532385185.094,29.297,33.691,39.551,37.598,68.359
1532385185.097,26.367,21.973,49.805,32.227,42.480
1532385185.101,25.879,11.719,39.062,25.879,47.852
1532385185.105,26.855,19.531,31.250,27.344,61.035
1532385185.109,31.250,23.926,38.086,29.297,31.738
1532385185.113,33.691,26.367,43.945,27.344,-14.160
1532385185.117,39.062,28.809,43.457,37.109,0.000
1532385185.121,46.387,28.320,41.016,44.922,35.156
1532385185.125,45.410,20.020,42.480,46.875,43.457
1532385185.129,41.504,16.113,47.363,43.457,29.297
1532385185.133,45.898,32.715,56.152,46.387,12.695
1532385185.137,48.828,39.551,60.059,50.781,43.945
1532385185.140,40.039,28.809,50.781,42.480,54.199
1532385185.144,29.297,21.973,44.922,39.062,35.156
1532385185.148,22.949,21.973,47.852,40.039,7.812
1532385185.152,22.461,23.926,52.246,33.691,9.766
1532385185.156,23.926,20.020,54.688,31.738,38.574
1532385185.160,21.484,12.207,51.758,32.227,40.039
1532385185.164,18.066,20.996,51.270,31.250,2.930
1532385185.168,17.578,27.344,54.688,30.762,13.672
1532385185.172,20.508,22.949,53.711,27.344,24.414
1532385185.176,22.949,26.367,47.852,23.926,7.812
1532385185.179,23.438,30.762,47.852,22.949,13.184
1532385185.183,25.879,38.574,48.828,27.832,25.391
1532385185.187,25.879,29.785,41.016,24.902,66.406
1532385185.191,33.203,23.438,46.387,28.320,49.805
1532385185.195,34.180,31.250,46.875,29.785,9.277
1532385185.199,23.438,30.762,37.109,20.020,14.648
1532385185.203,23.438,26.367,42.480,20.020,14.160
1532385185.207,25.879,22.949,48.828,23.926,12.207
1532385185.211,29.297,21.973,46.875,20.020,-7.812
1532385185.215,24.414,22.949,46.387,19.531,-18.066
1532385185.219,22.461,23.926,46.387,30.273,12.695
1532385185.222,24.902,20.996,41.016,33.691,24.902
1532385185.226,21.973,18.555,39.551,31.250,26.367
1532385185.230,20.996,17.090,43.945,30.273,-1.953
1532385185.234,19.043,21.484,46.875,28.809,-3.906
1532385185.238,11.719,22.949,40.527,20.508,33.691
1532385185.242,5.859,19.043,34.180,12.207,31.250
1532385185.246,5.859,22.461,38.086,5.371,18.555
1532385185.250,16.602,28.809,48.340,2.930,14.648
1532385185.254,30.273,23.926,50.293,5.371,35.645
1532385185.258,29.297,13.184,38.086,2.441,73.730
1532385185.262,31.738,15.625,43.945,5.859,56.641
1532385185.265,34.668,20.020,44.434,14.648,42.969
1532385185.269,25.879,10.254,36.621,18.555,30.273
1532385185.273,19.531,9.766,39.062,22.949,16.113
1532385185.277,20.020,14.648,37.598,30.273,55.176
1532385185.281,23.926,15.625,38.086,34.668,33.691
1532385185.285,26.367,17.090,36.621,36.621,22.949
1532385185.289,29.297,19.531,33.691,36.133,25.879
1532385185.293,29.785,25.391,36.621,36.133,20.020
1532385185.297,24.414,20.996,33.203,29.297,9.766
1532385185.301,26.367,15.625,28.809,25.391,7.812
1532385185.304,21.484,8.789,26.367,20.996,16.602
1532385185.308,19.043,15.625,26.367,16.113,26.367
1532385185.312,19.043,23.438,32.715,10.254,-16.602
1532385185.316,10.742,17.578,32.227,2.441,-34.180
1532385185.320,1.465,12.207,24.414,-0.977,18.066
1532385185.324,0.488,4.883,22.949,0.488,51.270
1532385185.328,4.883,-6.836,23.926,9.277,33.203
1532385185.332,4.395,-4.395,21.484,13.672,6.836
1532385185.336,3.418,14.160,22.461,15.625,42.969
1532385185.340,3.906,12.207,21.973,18.555,45.898
1532385185.344,10.742,1.465,21.484,23.926,43.457
1532385185.347,18.066,0.977,24.414,28.320,51.758
1532385185.351,20.996,7.324,27.344,30.273,0.488
1532385185.355,21.484,20.508,30.762,32.227,-5.859
1532385185.359,21.973,17.578,29.785,36.621,33.203
1532385185.363,22.461,6.348,25.391,37.109,24.414
1532385185.367,24.414,10.742,24.902,34.180,14.160
1532385185.371,29.297,20.020,32.715,40.527,4.883
1532385185.375,22.461,12.207,32.715,37.598,20.020
1532385185.379,10.254,4.883,25.879,21.484,30.762
1532385185.383,5.371,2.441,22.461,12.695,13.184
1532385185.387,6.836,1.953,18.066,12.695,16.602
1532385185.390,17.578,3.418,18.555,16.602,21.484
1532385185.394,21.484,-0.488,20.020,15.625,-4.395
1532385185.398,17.578,-2.441,18.066,18.066,3.906
1532385185.402,24.902,3.418,10.742,21.973,40.039
1532385185.406,33.691,13.672,5.371,21.973,48.340
1532385185.410,33.203,12.207,3.906,18.555,36.621
1532385185.414,33.691,3.418,3.906,11.230,-1.465
1532385185.418,36.621,-0.977,-2.930,13.184,5.859
1532385185.422,41.016,6.836,-2.441,21.484,24.902
1532385185.426,41.504,20.020,6.836,24.902,53.223
1532385185.429,41.016,22.461,5.859,25.879,58.594
1532385185.433,44.922,14.160,6.836,30.762,8.789
1532385185.437,51.270,12.207,14.648,35.645,31.250
1532385185.441,45.898,13.672,10.742,26.367,68.848
1532385185.445,30.762,6.836,2.441,15.625,45.898
1532385185.449,25.391,0.488,3.906,11.719,19.043
1532385185.453,25.391,-6.348,-1.465,13.184,28.809
1532385185.457,20.508,-16.113,-5.371,12.207,65.918
1532385185.461,21.973,-13.672,-4.395,4.883,74.707
1532385185.465,20.020,-0.488,-3.906,4.395,26.367
1532385185.469,10.742,6.836,-2.930,5.371,0.977
1532385185.472,9.277,-1.465,-2.930,2.441,-3.906
1532385185.476,11.230,-7.324,-4.883,6.836,-12.207
1532385185.480,17.090,-1.465,-10.254,13.184,7.812
1532385185.484,21.973,5.371,-9.766,15.137,23.438
1532385185.488,21.484,6.836,-4.883,16.113,43.457
1532385185.492,19.531,5.371,-11.230,13.672,36.133
1532385185.496,21.973,4.883,-22.461,8.789,37.109
1532385185.500,37.109,4.395,-16.602,17.090,35.156
1532385185.504,43.457,6.836,-7.324,21.484,54.688
1532385185.508,37.598,-0.977,-9.766,9.766,73.242
1532385185.512,35.156,-11.719,-15.625,4.883,30.273
1532385185.515,29.785,-11.230,-21.973,4.883,-7.324
1532385185.519,27.344,-2.441,-20.020,5.859,29.297
1532385185.523,28.809,3.418,-9.766,6.836,78.125
1532385185.527,24.414,3.906,-13.184,6.348,54.199
1532385185.531,24.414,5.371,-15.137,1.953,-9.766
1532385185.535,24.414,9.277,-15.137,0.488,-21.973
1532385185.539,19.531,10.254,-13.184,5.859,8.301
1532385185.543,23.926,11.719,-4.883,16.602,47.363
1532385185.547,27.832,11.719,-2.930,24.414,41.016
1532385185.551,18.066,3.418,-10.742,22.461,13.672
1532385185.554,22.949,-0.977,-6.836,31.250,39.551
1532385185.558,32.227,6.836,2.930,41.016,43.457
1532385185.562,20.020,3.906,-2.441,36.621,24.902
1532385185.566,9.766,-12.695,-7.812,29.297,40.527
1532385185.570,11.230,-14.648,-10.254,32.227,44.434
1532385185.574,13.672,3.418,-11.230,40.039,32.227
1532385185.578,18.066,12.207,-10.742,41.504,27.344
1532385185.582,20.020,6.836,-12.207,39.062,1.953
1532385185.586,17.578,8.301,-13.672,35.645,19.043
1532385185.590,18.066,13.184,-12.207,32.715,35.645
1532385185.594,23.438,10.742,-7.324,33.203,11.230
1532385185.597,31.250,5.371,-5.371,36.621,30.762
1532385185.601,33.691,4.883,-13.672,38.574,37.109
1532385185.605,32.715,11.230,-18.555,38.574,41.992
1532385185.609,30.273,9.277,-18.555,30.273,53.223
1532385185.613,28.809,6.836,-16.602,28.320,53.223
1532385185.617,31.738,10.742,-10.742,32.227,51.758
1532385185.621,26.367,16.113,-17.578,24.414,57.129
1532385185.625,20.508,17.090,-24.902,19.043,61.035
1532385185.629,15.137,6.836,-22.461,12.207,43.457
1532385185.633,16.602,4.883,-18.555,10.254,7.812
1532385185.636,24.414,13.672,-19.043,20.020,41.016
1532385185.640,29.785,13.184,-20.020,29.785,89.844
1532385185.644,32.715,4.883,-13.672,33.203,56.641
1532385185.648,33.203,11.230,-16.602,32.715,41.016
1532385185.652,32.227,19.531,-24.414,33.691,30.762
1532385185.656,27.832,11.230,-22.949,36.621,57.617
1532385185.660,30.273,13.672,-22.461,38.574,67.871
1532385185.664,31.738,15.137,-20.508,39.062,23.438
1532385185.668,30.762,11.230,-19.531,32.227,28.320
1532385185.672,35.156,21.973,-20.508,30.273,41.992
1532385185.676,37.109,20.996,-13.184,35.156,64.941
1532385185.679,37.109,12.207,-12.207,35.156,63.477
1532385185.683,51.270,29.785,-10.254,44.434,30.762
1532385185.687,63.965,41.992,-10.254,56.641,55.176
1532385185.691,60.547,35.645,-5.859,53.223,74.219
1532385185.695,65.918,43.457,10.742,56.641,58.105
1532385185.699,76.660,48.828,18.555,65.430,75.195
1532385185.703,81.055,58.594,27.344,68.848,85.938
1532385185.707,83.496,70.801,35.156,79.590,74.707
1532385185.711,92.773,70.312,40.039,88.867,34.180
1532385185.715,101.562,79.102,37.598,93.750,7.324
1532385185.719,105.469,89.355,41.504,104.004,62.988
1532385185.722,107.422,86.426,56.152,115.234,83.008
1532385185.726,109.375,81.055,65.430,120.605,82.031
1532385185.730,114.746,82.031,63.477,116.211,42.480
1532385185.734,122.070,88.379,65.918,116.699,-1.953
1532385185.738,124.023,86.426,71.289,121.094,33.203
1532385185.742,132.324,100.098,76.172,133.789,40.039
1532385185.746,136.230,114.746,79.590,135.742,31.738
1532385185.750,130.859,103.516,74.707,123.535,33.203
1532385185.754,130.859,104.004,71.777,127.930,65.918
1532385185.758,140.625,101.562,74.219,130.371,91.309
1532385185.761,142.090,103.027,83.008,126.465,63.477
1532385185.765,131.348,109.375,92.285,125.000,33.691
1532385185.769,130.371,106.934,89.844,119.629,33.691
1532385185.773,132.324,105.957,81.543,114.258,20.996
1532385185.777,134.277,103.516,82.520,116.699,14.648
1532385185.781,127.930,98.633,83.008,112.305,8.789
1532385185.785,117.676,86.426,64.941,98.145,39.551
1532385185.789,109.375,76.660,51.270,94.727,71.289
1532385185.793,96.680,68.359,55.176,91.309,65.918
1532385185.797,81.055,45.410,45.410,77.637,44.922
1532385185.801,71.777,30.273,28.320,74.219,27.344
1532385185.804,64.453,34.668,23.438,76.660,39.062
1532385185.808,64.453,32.715,18.066,74.219,53.223
1532385185.812,67.383,23.438,9.277,78.613,33.203
1532385185.816,62.012,17.090,4.395,77.148,3.906
1532385185.820,52.734,20.020,7.324,64.453,25.879
1532385185.824,50.293,19.531,7.324,57.129,49.805
1532385185.828,47.363,17.578,-0.488,51.758,22.949
1532385185.832,48.828,20.996,-7.324,40.527,-20.020
1532385185.836,46.387,16.602,-13.184,36.621,19.043
1532385185.840,34.668,11.719,-13.672,36.621,61.035
1532385185.844,29.297,7.812,-6.348,31.250,29.297
1532385185.847,32.227,0.000,-13.672,29.297,1.465
1532385185.851,31.738,-17.578,-19.531,31.738,23.438
1532385185.855,33.691,-16.602,-7.324,35.645,47.852
1532385185.859,35.156,7.812,-11.230,37.109,43.457
1532385185.863,20.996,3.418,-20.508,23.926,2.441
1532385185.867,19.043,-13.184,-17.578,18.066,2.441
1532385185.871,23.926,-16.113,-20.508,16.113,9.766
1532385185.875,23.438,-0.977,-18.555,13.672,-0.488
1532385185.879,24.902,8.301,-21.484,22.461,-11.230
1532385185.883,19.531,5.859,-26.855,24.414,-30.762
1532385185.886,17.090,1.465,-22.461,21.484,-4.395
1532385185.890,18.555,-1.953,-12.695,21.484,-2.441
1532385185.894,18.555,-9.766,-6.348,21.484,-0.977
1532385185.898,20.996,-10.254,-9.277,22.461,17.090
1532385185.902,20.996,-3.906,-16.602,18.555,22.461
1532385185.906,15.137,-4.883,-25.391,10.742,30.273
1532385185.910,15.137,-0.488,-27.344,8.789,13.184
1532385185.914,16.602,-11.719,-25.879,5.859,-7.812
1532385185.918,16.602,-20.020,-26.855,7.812,-6.348
1532385185.922,29.297,1.953,-25.391,19.531,20.996
1532385185.926,33.691,19.531,-20.020,28.320,25.879
1532385185.929,25.879,10.742,-20.508,20.508,-5.859
1532385185.933,27.344,-2.441,-18.066,20.020,-16.602
1532385185.937,31.738,-9.766,-18.066,27.832,26.367
1532385185.941,33.691,-6.348,-25.879,31.250,50.293
1532385185.945,35.645,4.883,-30.762,35.645,9.277
1532385185.949,35.156,4.395,-28.809,33.691,3.418
1532385185.953,28.809,-4.883,-26.855,28.320,13.184
1532385185.957,28.809,-4.883,-25.391,30.762,30.762
1532385185.961,32.227,1.953,-24.902,35.645,20.508
1532385185.965,27.832,0.000,-25.391,28.320,-13.672
1532385185.969,23.926,-5.371,-22.461,20.996,-35.645
1532385185.972,26.855,-2.930,-20.020,22.461,-29.785
1532385185.976,26.855,-2.441,-20.996,29.297,21.973
1532385185.980,25.879,3.906,-18.066,32.715,16.113
1532385185.984,21.973,1.953,-24.902,28.320,8.301
1532385185.988,17.578,-6.348,-29.785,27.832,-1.953
1532385185.992,21.973,-7.812,-30.273,23.438,-3.906
1532385185.996,18.555,-10.254,-27.344,19.043,21.973
1532385186.000,18.555,-5.859,-19.531,22.461,6.348
1532385186.004,26.367,3.418,-18.066,26.855,13.672
1532385186.008,24.902,4.883,-19.531,26.855,44.922
1532385186.011,22.949,4.883,-16.602,26.367,5.371
1532385186.015,23.438,-1.953,-18.066,24.902,-32.715
1532385186.019,21.973,-6.348,-25.391,26.855,5.371
1532385186.023,19.043,-2.441,-21.973,29.297,53.711
1532385186.027,16.113,3.906,-18.066,30.273,51.758
1532385186.031,21.484,1.465,-22.949,32.227,0.000
1532385186.035,23.926,-8.789,-26.855,28.320,-3.906
1532385186.039,19.043,-9.277,-21.484,20.020,39.551
1532385186.043,21.484,-1.953,-17.578,23.926,41.016
1532385186.047,32.715,-0.488,-12.695,37.598,23.926
1532385186.051,32.715,-10.254,-13.184,26.855,17.090
1532385186.054,25.391,-6.348,-20.508,3.906,30.762
1532385186.058,25.879,3.906,-21.973,3.906,35.645
1532385186.062,27.344,5.859,-23.438,6.348,20.996
1532385186.066,29.297,7.324,-25.391,14.648,42.969
1532385186.070,33.691,8.789,-23.438,17.090,17.578
1532385186.074,35.156,2.930,-20.020,14.160,21.973
1532385186.078,47.852,-0.488,-16.602,21.484,48.340
1532385186.082,57.129,5.371,-20.020,23.438,38.574
1532385186.086,53.711,9.277,-21.484,22.949,40.039
1532385186.090,53.711,6.836,-20.508,25.391,7.324
1532385186.093,44.922,9.277,-23.926,31.250,0.000
1532385186.097,30.762,6.348,-25.879,32.227,26.855
1532385186.101,25.391,-4.395,-21.973,37.109,11.719
1532385186.105,38.086,14.160,-5.371,58.594,18.066
1532385186.109,46.387,38.574,3.418,71.289,27.344
1532385186.113,39.062,37.598,0.000,68.848,3.418
1532385186.117,43.945,37.598,0.488,79.102,-3.418
1532385186.121,58.594,43.457,12.207,87.891,32.715
1532385186.125,71.289,47.363,33.203,94.238,59.082
1532385186.129,80.566,53.711,30.762,95.215,37.109
1532385186.133,85.938,65.430,26.855,91.797,3.906
1532385186.136,91.309,74.219,30.762,94.238,-2.930
1532385186.140,98.633,75.684,24.414,98.633,12.207
1532385186.144,108.398,82.520,30.762,103.516,-3.418
1532385186.148,114.258,80.078,37.598,103.027,-30.273
1532385186.152,114.258,68.848,35.645,101.562,-10.254
1532385186.156,110.840,68.848,30.762,98.633,20.020
1532385186.160,104.492,69.824,16.113,91.797,26.367
1532385186.164,88.867,58.594,3.906,82.520,31.738
1532385186.168,70.801,39.551,-4.883,63.965,20.508
1532385186.172,60.547,34.180,-11.230,56.641,39.551
1532385186.176,58.594,30.762,-9.766,59.082,59.082
1532385186.179,54.688,20.508,-11.230,54.688,41.504
1532385186.183,47.852,13.672,-15.625,48.340,44.434
1532385186.187,44.434,9.766,-19.043,45.898,47.363
1532385186.191,44.434,20.996,-24.414,41.992,51.270
1532385186.195,37.109,23.926,-24.414,33.691,31.738
1532385186.199,31.738,17.090,-24.414,36.133,24.902
1532385186.203,32.715,14.648,-23.926,39.551,42.480
1532385186.207,34.668,5.859,-22.949,38.574,51.270
1532385186.211,32.715,3.906,-30.762,38.574,58.105
1532385186.215,37.109,15.137,-32.715,43.945,38.086
1532385186.218,40.527,14.648,-32.227,43.457,24.902
1532385186.222,30.273,5.859,-40.527,29.297,61.523
1532385186.226,26.855,5.371,-37.109,27.832,54.688
1532385186.230,24.902,-3.906,-34.180,30.762,30.273
1532385186.234,21.484,-10.254,-39.551,26.855,10.742
1532385186.238,19.531,2.930,-42.480,22.461,14.160
1532385186.242,24.902,9.277,-46.387,20.020,8.789
1532385186.246,32.227,0.977,-46.387,21.973,34.668
1532385186.250,31.250,-0.977,-41.016,23.438,35.645
1532385186.254,36.621,4.883,-37.598,22.949,1.953
1532385186.258,37.109,5.371,-42.969,23.926,16.602
1532385186.261,35.645,4.883,-45.410,26.855,37.109
1532385186.265,33.691,0.977,-48.340,25.391,35.645
1532385186.269,32.227,0.977,-46.875,24.414,41.992
1532385186.273,36.621,6.836,-46.875,27.832,55.664
1532385186.277,36.621,1.953,-42.969,24.414,42.969
1532385186.281,39.551,2.930,-31.250,25.879,28.809
1532385186.285,35.645,4.395,-37.109,23.926,26.855
1532385186.289,30.273,-4.883,-45.410,17.090,35.645
1532385186.293,30.762,-6.836,-43.457,13.672,25.391
1532385186.297,30.762,-3.418,-41.992,12.695,23.438
1532385186.301,34.180,2.930,-40.527,21.973,34.180
1532385186.304,34.180,4.883,-41.504,30.273,74.219
1532385186.308,31.738,1.953,-43.457,27.832,78.125
1532385186.312,28.809,-3.418,-49.316,24.414,34.180
1532385186.316,28.320,-4.395,-47.363,23.926,33.203
1532385186.320,20.996,0.000,-43.945,20.508,60.547
1532385186.324,20.996,6.836,-45.410,18.555,74.219
1532385186.328,24.902,0.977,-33.203,15.137,64.453
1532385186.332,20.996,-7.812,-33.203,6.836,19.043
1532385186.336,20.996,-1.465,-39.062,8.789,7.812
1532385186.340,18.066,4.395,-41.504,9.766,53.223
1532385186.343,23.438,11.230,-41.504,13.672,60.547
1532385186.347,30.273,11.719,-36.133,19.531,47.363
1532385186.351,19.531,-5.859,-34.180,12.695,47.852
1532385186.355,15.625,-3.418,-41.504,11.230,40.039
1532385186.359,18.066,12.207,-47.852,15.137,53.711
1532385186.363,20.508,7.812,-43.457,17.090,41.992
1532385186.367,23.926,-0.977,-38.086,23.926,9.766
1532385186.371,20.996,5.371,-32.715,25.391,38.574
1532385186.375,21.973,11.230,-31.250,23.926,43.945
1532385186.379,27.344,0.977,-34.180,27.344,7.324
1532385186.383,31.250,-0.977,-36.133,25.879,-0.488
1532385186.386,32.715,8.301,-33.203,25.879,22.461
1532385186.390,35.645,9.277,-29.785,24.414,25.879
1532385186.394,33.691,6.836,-34.180,19.043,20.508
1532385186.398,30.273,4.883,-34.668,16.602,34.180
1532385186.402,23.438,4.395,-37.109,11.230,34.180
1532385186.406,20.996,8.301,-40.527,11.719,44.922
1532385186.410,28.809,20.996,-26.367,18.555,54.688
1532385186.414,25.879,22.461,-29.785,20.020,4.395
1532385186.418,20.020,11.719,-38.086,18.555,-0.977
1532385186.422,23.438,8.789,-28.809,19.043,28.320
1532385186.426,19.531,6.836,-23.438,19.531,26.367
1532385186.429,13.672,3.906,-21.484,17.578,9.277
1532385186.433,12.207,6.348,-26.367,13.184,-26.855
1532385186.437,7.812,15.137,-27.832,14.160,13.672
1532385186.441,10.742,19.043,-24.902,16.602,45.898
1532385186.445,14.648,19.531,-29.785,16.113,16.113
1532385186.449,12.207,19.043,-35.645,15.625,20.020
1532385186.453,11.719,16.602,-32.715,19.043,31.250
1532385186.457,16.113,11.230,-27.344,23.926,45.898
1532385186.461,15.137,1.465,-21.973,20.996,37.109
1532385186.465,17.578,6.836,-18.555,22.461,-11.719
1532385186.468,23.438,22.461,-16.113,24.414,-11.719
1532385186.472,18.555,25.391,-18.555,16.602,-2.441
1532385186.476,14.160,21.484,-21.484,12.695,10.742
1532385186.480,17.090,19.531,-27.832,10.742,3.418
1532385186.484,19.043,12.207,-36.133,12.695,-21.484
1532385186.488,24.902,4.883,-33.203,19.043,5.859
1532385186.492,29.785,11.719,-24.414,20.996,30.762
1532385186.496,30.762,23.438,-26.367,24.414,32.715
1532385186.500,32.715,25.391,-28.320,25.879,32.715
1532385186.504,28.809,17.090,-28.809,22.461,31.250
1532385186.508,24.902,13.672,-28.809,19.531,46.875
1532385186.511,26.855,11.719,-23.926,20.996,32.227
1532385186.515,31.738,9.766,-22.461,21.973,24.902
1532385186.519,32.227,11.719,-26.367,24.902,32.227
1532385186.523,27.344,18.066,-34.180,23.438,27.344
1532385186.527,26.855,26.367,-27.344,21.484,33.691
1532385186.531,30.273,25.391,-18.066,22.949,-2.930
1532385186.535,21.973,19.531,-25.879,15.137,-21.973
1532385186.539,14.648,19.531,-32.715,11.719,27.344
1532385186.543,18.066,19.043,-34.180,11.230,41.992
1532385186.547,22.461,12.695,-32.227,7.324,36.133
1532385186.551,18.555,5.371,-31.738,7.324,21.973
1532385186.554,13.184,5.859,-31.738,14.648,51.270
1532385186.558,23.438,20.020,-27.832,24.902,52.734
1532385186.562,28.809,16.602,-27.344,27.832,28.320
1532385186.566,28.320,11.230,-29.297,29.297,29.785
1532385186.570,32.715,12.695,-30.762,30.762,22.461
1532385186.574,29.785,13.184,-33.691,31.250,18.555
1532385186.578,22.461,18.555,-37.598,37.598,25.391
1532385186.582,18.066,11.230,-42.969,36.133,25.391
1532385186.586,12.695,12.695,-47.363,30.273,35.645
1532385186.590,19.043,29.297,-38.574,34.668,30.273
1532385186.593,23.926,20.508,-35.645,35.645,21.484
1532385186.597,11.719,7.812,-46.387,20.508,29.297
1532385186.601,9.277,9.277,-47.852,11.719,28.809
1532385186.605,16.602,3.906,-46.875,15.137,53.711
1532385186.609,22.461,6.348,-46.875,20.996,50.293
1532385186.613,20.508,18.066,-41.504,14.648,2.441
1532385186.617,22.461,20.996,-37.598,13.184,10.254
1532385186.621,33.203,14.160,-39.551,18.555,56.152
1532385186.625,28.320,12.207,-38.574,14.160,66.895
1532385186.629,18.555,13.672,-35.645,11.719,50.293
1532385186.633,20.996,10.254,-36.621,12.207,41.992
1532385186.636,24.414,6.348,-32.715,17.090,22.949
1532385186.640,25.879,14.160,-26.855,22.949,15.137
1532385186.644,20.996,20.508,-33.691,21.973,40.039
1532385186.648,15.625,11.719,-41.016,23.926,20.020
1532385186.652,16.113,5.859,-39.062,20.508,4.395
1532385186.656,23.926,13.672,-27.832,25.391,19.531
1532385186.660,24.414,19.043,-22.461,32.227,24.414
1532385186.664,16.602,15.625,-32.715,20.996,26.855
1532385186.668,10.742,5.859,-39.551,10.742,27.344
1532385186.672,5.859,6.348,-34.180,6.836,26.367
1532385186.675,1.953,15.625,-25.391,5.859,39.062
1532385186.679,3.418,20.020,-21.484,12.207,30.273
1532385186.683,13.672,21.484,-21.973,20.020,22.461
1532385186.687,20.996,13.672,-22.461,28.320,40.039
1532385186.691,20.996,8.301,-19.531,33.203,31.738
1532385186.695,21.973,11.719,-18.555,34.180,45.410
1532385186.699,24.414,13.184,-20.020,37.598,41.992
1532385186.703,21.484,11.230,-21.973,37.598,13.672
1532385186.707,20.020,17.090,-19.531,36.133,32.715
1532385186.711,21.973,27.344,-10.742,29.297,23.438
1532385186.715,19.043,18.555,-15.625,20.996,13.672
1532385186.718,28.320,17.578,-20.508,29.297,9.766
1532385186.722,35.156,27.344,-11.719,35.645,30.762
1532385186.726,27.832,20.020,-16.113,28.320,77.148
1532385186.730,24.902,12.207,-19.531,22.949,31.738
1532385186.734,23.926,13.672,-15.625,24.414,13.672
1532385186.738,23.926,12.695,-16.602,26.855,54.688
1532385186.742,24.902,11.230,-11.230,25.391,54.199
1532385186.746,26.855,18.066,-9.766,25.391,45.410
1532385186.750,27.832,20.996,-17.578,26.367,19.531
1532385186.754,26.367,22.461,-17.578,27.832,24.902
1532385186.758,27.344,26.367,-20.020,29.297,50.293
1532385186.761,28.320,26.855,-19.043,29.297,28.809
1532385186.765,26.855,29.297,-9.766,31.738,9.766
1532385186.769,30.273,32.227,-5.371,30.273,21.484
1532385186.773,34.180,21.973,-3.418,28.809,27.344
1532385186.777,28.320,17.090,-3.906,28.320,58.105
1532385186.781,26.855,22.461,0.000,29.297,48.340
1532385186.785,32.715,22.461,4.883,35.156,40.527
1532385186.789,39.551,28.809,11.719,39.551,54.688
1532385186.793,42.969,34.180,12.695,41.504,35.156
1532385186.797,37.109,30.273,5.371,39.551,20.508
1532385186.800,30.762,28.320,0.977,33.203,14.648
1532385186.804,28.809,25.391,-3.906,29.785,49.805
1532385186.808,29.785,17.578,-3.906,30.762,66.406
1532385186.812,28.809,23.438,2.930,27.344,37.598
1532385186.816,24.902,28.809,2.441,26.855,13.672
1532385186.820,26.855,28.320,3.418,28.809,16.113
1532385186.824,31.738,36.621,15.137,29.785,54.688
1532385186.828,32.715,35.156,23.438,30.762,61.035
1532385186.832,30.273,30.762,19.043,27.344,20.508
1532385186.836,26.367,32.715,17.090,28.809,42.480
1532385186.840,26.855,32.227,21.484,34.180,67.383
1532385186.843,29.297,28.809,22.949,35.156,49.316
1532385186.847,27.832,20.508,21.973,33.203,36.133
1532385186.851,22.949,21.484,22.949,26.367,0.977
1532385186.855,24.414,23.926,27.344,22.949,19.531
1532385186.859,31.738,25.879,33.203,30.273,60.059
1532385186.863,26.855,29.785,26.367,28.320,40.039
1532385186.867,23.926,21.973,18.066,21.973,21.484
1532385186.871,23.926,24.902,22.949,24.414,43.945
1532385186.875,23.926,26.855,31.250,21.973,63.477
1532385186.879,26.367,27.832,36.621,20.996,39.062
1532385186.883,23.438,31.738,34.180,22.949,-2.441
1532385186.886,25.879,34.180,30.762,24.902,16.113
1532385186.890,32.227,32.227,33.203,32.227,37.109
1532385186.894,39.551,26.367,37.109,36.621,45.410
1532385186.898,48.340,24.414,32.227,33.203,41.016
1532385186.902,53.711,29.297,31.250,30.762,32.227
1532385186.906,58.594,36.621,38.574,32.227,65.430
1532385186.910,65.918,29.297,38.574,26.855,59.082
1532385186.914,67.383,20.508,35.156,19.043,23.438
1532385186.918,55.664,28.320,37.109,20.996,13.184
1532385186.922,49.316,40.527,41.504,30.273,26.855
1532385186.925,43.457,34.668,40.039,36.133,33.691
1532385186.929,34.180,30.762,38.574,37.598,20.508
1532385186.933,35.645,41.504,42.969,42.969,18.066
1532385186.937,26.855,34.668,41.992,39.551,44.434
1532385186.941,14.160,20.508,37.109,28.809,38.086
1532385186.945,11.719,18.066,31.738,24.414,24.414
1532385186.949,15.625,18.066,34.668,31.250,7.812
1532385186.953,28.809,20.996,41.016,33.203,19.531
1532385186.957,29.297,22.461,41.504,35.156,36.133
1532385186.961,24.414,22.949,44.434,40.039,19.043
1532385186.965,25.879,24.414,45.898,36.133,37.109
1532385186.968,26.367,26.855,40.039,32.715,23.926
1532385186.972,27.344,30.762,38.086,30.273,8.789
1532385186.976,28.320,31.250,43.945,31.250,50.781
1532385186.980,31.738,24.902,51.758,33.691,48.340
1532385186.984,31.250,19.043,53.711,33.203,13.184
1532385186.988,33.691,23.438,47.852,34.668,31.250
1532385186.992,33.691,22.461,45.898,31.738,48.340
1532385186.996,27.344,11.230,50.293,25.391,35.156
1532385187.000,25.391,15.625,46.875,22.949,12.207
1532385187.004,33.691,36.133,49.316,32.227,-2.930
1532385187.008,35.156,38.574,53.223,32.715,25.391
1532385187.011,25.879,26.855,47.852,24.902,56.641
1532385187.015,23.926,21.484,43.945,27.832,56.152
1532385187.019,28.809,19.043,43.457,32.227,41.992
1532385187.023,29.785,23.926,46.387,34.668,45.898
1532385187.027,28.809,28.320,47.852,36.133,82.031
1532385187.031,26.855,24.902,45.898,29.785,38.086
1532385187.035,28.320,27.344,45.410,28.320,-1.465
1532385187.039,29.785,24.902,42.480,35.156,24.414
1532385187.043,27.832,22.949,34.668,36.621,39.062
1532385187.047,29.785,20.020,41.016,36.133,39.551
1532385187.050,30.273,17.090,44.922,33.691,5.859
1532385187.054,30.273,21.973,36.621,30.273,18.555
1532385187.058,32.715,23.438,38.086,33.203,53.711
1532385187.062,36.133,30.762,48.340,37.598,47.852
1532385187.066,34.668,28.320,48.828,35.645,17.578
1532385187.070,37.109,25.391,44.922,35.645,20.020
1532385187.074,38.574,30.762,43.945,37.598,42.969
1532385187.078,33.691,26.367,39.062,34.180,32.715
1532385187.082,30.762,22.949,37.109,33.203,-10.254
1532385187.086,21.973,24.414,38.574,33.203,12.695
1532385187.090,23.438,20.996,33.691,28.809,34.180
1532385187.093,33.203,24.902,37.598,28.809,24.902
1532385187.097,36.133,28.320,43.945,31.250,34.668
1532385187.101,31.250,26.367,39.551,31.250,38.086
1532385187.105,30.273,23.438,36.133,31.250,40.527
1532385187.109,37.598,21.973,39.551,31.250,42.969
1532385187.113,40.039,22.949,41.992,35.156,35.156
1532385187.117,39.062,19.531,32.715,37.598,31.738
1532385187.121,35.156,14.160,31.738,31.738,29.785
1532385187.125,34.180,21.973,38.574,33.203,9.766
1532385187.129,38.574,28.320,37.598,35.156,1.465
1532385187.132,37.598,28.809,37.109,26.855,-16.113
1532385187.136,39.551,37.598,44.434,28.320,22.461
1532385187.140,39.551,37.109,47.363,31.738,90.332
1532385187.144,33.691,29.785,28.809,24.414,76.172
1532385187.148,31.250,29.785,26.367,18.555,28.809
1532385187.152,35.645,26.367,35.156,21.484,30.762
1532385187.156,38.086,20.996,35.156,23.438,49.316
1532385187.160,35.156,14.160,35.156,20.020,43.945
1532385187.164,38.574,19.531,32.715,22.461,50.293
1532385187.168,35.156,30.762,27.344,22.461,18.066
1532385187.172,36.133,29.297,27.832,24.414,-7.324
1532385187.175,33.691,25.391,34.668,30.273,21.973
1532385187.179,25.879,31.738,41.016,28.320,27.344
1532385187.183,25.879,34.180,38.574,23.438,19.531
1532385187.187,21.973,33.691,36.621,22.949,23.926
1532385187.191,23.926,30.762,32.715,16.113,-5.859
1532385187.195,25.391,29.785,27.344,14.648,-6.836
1532385187.199,20.020,29.785,27.344,21.973,24.414
1532385187.203,23.926,34.180,36.621,28.809,40.039
1532385187.207,27.832,32.227,42.969,34.668,42.969
1532385187.211,21.484,14.648,37.109,35.645,33.691
1532385187.215,18.555,14.648,29.297,32.715,21.973
1532385187.218,24.902,19.043,29.297,33.203,18.066
1532385187.222,28.320,18.555,31.250,34.668,33.691
1532385187.226,25.391,28.809,27.344,32.227,44.434
1532385187.230,25.879,25.879,30.273,33.203,1.465
1532385187.234,24.414,21.484,32.715,31.250,0.977
1532385187.238,24.902,30.762,32.715,33.691,53.711
1532385187.242,29.785,34.180,35.156,36.621,25.879
1532385187.246,29.785,30.762,34.180,37.598,10.742
1532385187.250,23.926,28.320,31.738,34.180,9.766
1532385187.254,36.621,28.809,36.133,39.062,10.254
1532385187.257,44.434,29.785,41.016,45.898,46.875
1532385187.261,29.297,24.414,35.645,35.156,43.457
1532385187.265,30.273,20.996,33.203,30.762,25.879
1532385187.269,29.785,26.855,29.785,29.297,13.184
1532385187.273,25.391,27.832,27.344,27.344,16.113
1532385187.277,28.320,26.855,29.785,31.738,28.809
1532385187.281,28.320,32.227,28.809,29.297,3.418
1532385187.285,25.879,31.738,31.250,28.320,15.137
1532385187.289,29.297,23.438,34.180,35.156,33.691
1532385187.293,31.250,23.438,27.832,30.762,0.000
1532385187.297,31.738,32.227,17.090,28.809,8.301
1532385187.300,27.344,32.227,24.902,30.273,19.531
1532385187.304,24.414,25.879,37.598,29.297,2.441
1532385187.308,26.367,32.715,33.203,29.785,19.531
1532385187.312,23.438,37.598,27.832,27.344,22.461
1532385187.316,24.414,32.227,30.762,29.297,7.324
1532385187.320,34.668,33.691,31.738,32.715,16.113
1532385187.324,27.832,29.297,26.855,25.391,28.809
1532385187.328,19.043,18.555,27.344,16.113,25.391
1532385187.332,19.043,16.602,27.832,7.324,-14.160
1532385187.336,20.508,24.902,21.484,9.277,17.578
1532385187.340,21.484,24.414,22.461,17.090,43.945
1532385187.343,20.996,16.602,23.926,25.391,16.602
1532385187.347,20.996,18.555,23.438,29.297,17.090
1532385187.351,22.949,22.461,20.996,26.855,29.785
1532385187.355,18.066,19.043,18.555,27.832,81.055
1532385187.359,17.090,25.391,23.926,31.738,68.848
1532385187.363,19.043,33.203,32.227,28.809,9.277
1532385187.367,17.578,30.273,32.715,25.879,-3.906
1532385187.371,25.391,31.738,37.109,31.250,16.602
1532385187.375,25.879,32.227,31.738,27.832,47.363
1532385187.379,22.461,23.438,21.973,25.879,52.734
1532385187.382,23.926,14.648,25.391,28.320,43.945
1532385187.386,23.438,17.578,23.926,26.367,36.133
1532385187.390,24.414,22.461,22.461,24.902,40.039
1532385187.394,25.391,18.066,22.949,24.414,48.828
1532385187.398,26.855,24.902,19.043,26.367,31.738
1532385187.402,28.320,34.180,12.207,22.949,2.930
1532385187.406,26.855,37.598,13.184,21.484,21.973
1532385187.410,27.344,33.203,18.555,21.484,35.645
1532385187.414,28.809,26.367,21.973,19.531,35.156
1532385187.418,31.250,31.250,28.809,25.391,21.484
1532385187.422,32.227,33.203,23.926,34.180,23.438
1532385187.425,32.227,30.273,17.090,35.645,53.711
1532385187.429,27.832,31.738,19.043,29.297,30.762
1532385187.433,24.902,30.762,26.367,31.738,5.371
1532385187.437,27.344,30.273,29.785,30.762,38.574
1532385187.441,19.043,27.344,20.020,19.043,57.129
1532385187.445,15.625,24.902,16.113,15.625,27.832
1532385187.449,19.531,23.438,13.184,14.160,19.531
1532385187.453,20.996,26.855,5.859,13.672,21.973
1532385187.457,24.414,36.133,8.789,17.578,23.926
1532385187.461,29.297,31.250,14.160,22.461,38.574
1532385187.465,27.832,26.367,15.625,21.484,45.410
1532385187.468,28.809,33.691,19.043,18.555,46.387
1532385187.472,31.738,34.180,18.066,20.020,70.312
1532385187.476,30.273,27.344,21.973,28.809,64.453
1532385187.480,35.156,24.414,28.809,33.691,24.414
1532385187.484,33.203,30.762,31.738,31.250,33.203
1532385187.488,21.973,26.367,22.949,22.949,58.594
1532385187.492,26.367,19.043,14.160,19.043,43.457
1532385187.496,28.320,25.879,15.625,26.855,35.156
1532385187.500,27.832,30.762,13.184,31.250,22.949
1532385187.504,32.715,32.227,13.672,36.621,17.578
1532385187.507,31.250,39.062,18.066,41.992,43.945
1532385187.511,32.715,36.133,24.902,37.598,20.020
1532385187.515,31.738,25.391,27.344,37.598,0.977
1532385187.519,32.715,26.367,18.555,37.598,59.570
1532385187.523,38.086,38.086,25.879,39.551,87.891
1532385187.527,37.109,38.574,27.832,35.156,54.688
1532385187.531,29.297,28.320,13.184,20.020,32.715
1532385187.535,25.391,24.414,12.207,18.066,44.922
1532385187.539,33.203,30.273,14.160,26.367,58.594
1532385187.543,36.621,30.762,16.602,27.832,23.926
1532385187.547,35.156,32.227,25.879,30.273,6.348
1532385187.550,38.574,36.133,23.926,31.738,7.812
1532385187.554,30.762,27.832,19.043,24.414,2.930
1532385187.558,27.832,26.367,25.391,24.902,36.133
1532385187.562,35.156,34.180,23.438,28.809,19.531
1532385187.566,25.879,35.156,11.719,23.438,3.906
1532385187.570,20.508,34.180,15.137,22.461,29.785
1532385187.574,24.902,27.832,22.461,26.367,50.781
1532385187.578,24.902,30.762,14.160,27.832,37.109
1532385187.582,24.414,37.109,15.137,28.320,15.137
1532385187.586,28.320,38.086,20.020,26.367,40.039
1532385187.590,37.109,40.527,26.855,30.273,44.434
1532385187.593,40.039,31.738,31.250,35.156,30.273
1532385187.597,32.715,23.438,21.484,26.367,22.949
1532385187.601,28.809,30.762,17.090,21.973,4.883
1532385187.605,29.297,26.855,16.602,24.414,43.945
1532385187.609,24.414,29.785,13.184,15.625,47.363
1532385187.613,21.973,42.480,8.301,10.254,9.277
1532385187.617,25.391,32.715,8.301,22.461,24.414
1532385187.621,23.438,21.973,10.742,28.320,53.223
1532385187.625,20.508,33.203,16.113,29.297,39.062
1532385187.629,21.973,33.691,26.367,35.156,11.230
1532385187.632,24.414,27.832,30.273,36.621,3.906
1532385187.636,22.949,31.738,29.297,36.133,30.762
1532385187.640,26.855,21.484,25.879,38.086,54.688
1532385187.644,34.180,22.949,30.762,46.387,29.297
1532385187.648,31.250,42.480,31.738,40.527,35.156
1532385187.652,28.809,38.086,22.949,27.344,29.785
1532385187.656,26.367,29.297,16.113,27.832,35.645
1532385187.660,26.367,28.809,15.625,29.297,65.918
1532385187.664,26.855,20.996,24.902,30.273,38.574
1532385187.668,26.367,20.020,25.879,29.785,28.809
1532385187.672,29.785,27.832,26.367,31.250,51.270
1532385187.675,28.809,27.832,22.461,32.715,61.035
1532385187.679,25.391,30.762,21.484,29.785,56.641
1532385187.683,22.949,30.762,27.832,27.832,42.480
1532385187.687,23.438,22.461,26.855,31.738,39.551
1532385187.691,23.926,17.090,27.832,29.297,33.203
1532385187.695,25.391,22.461,27.832,29.297,-6.836
1532385187.699,36.621,31.738,29.785,41.016,0.488
1532385187.703,40.039,35.156,29.785,42.969,63.965
1532385187.707,33.691,22.461,25.391,31.250,80.078
1532385187.711,33.203,24.414,21.484,25.391,79.590
1532385187.714,35.156,45.410,19.531,26.367,54.688
1532385187.718,35.645,45.410,23.438,26.367,37.109
1532385187.722,39.062,34.668,24.414,22.949,75.684
1532385187.726,49.805,40.039,25.391,23.926,73.242
1532385187.730,54.688,42.480,34.668,27.344,35.645
1532385187.734,45.410,29.297,34.668,25.391,39.551
1532385187.738,36.133,24.414,20.020,24.902,48.828
1532385187.742,31.738,23.438,16.602,25.391,49.316
1532385187.746,32.715,31.738,24.414,28.320,58.594
1532385187.750,30.273,34.180,30.762,32.715,23.926
1532385187.754,25.879,21.973,31.738,33.203,-3.906
1532385187.757,21.484,22.461,28.809,35.156,44.922
1532385187.761,20.996,33.203,30.273,36.133,60.059
1532385187.765,22.949,30.273,28.809,33.691,33.203
1532385187.769,21.484,28.809,26.367,26.855,39.551
1532385187.773,23.926,33.203,32.227,25.879,54.199
1532385187.777,22.461,34.668,31.738,28.809,40.527
1532385187.781,31.250,38.574,28.320,34.668,9.766
1532385187.785,33.203,34.668,32.227,36.621,22.461
1532385187.789,30.273,33.203,38.574,39.062,40.039
1532385187.793,32.715,36.621,39.551,41.992,35.645
1532385187.797,24.414,33.203,33.691,34.668,30.762
1532385187.800,26.367,21.484,33.691,32.227,27.832
1532385187.804,27.344,18.555,33.203,35.645,53.223
1532385187.808,24.414,26.855,31.738,35.645,49.316
1532385187.812,29.785,27.832,33.203,30.762,12.207
1532385187.816,33.203,30.273,30.762,31.250,35.645
1532385187.820,31.250,33.203,34.180,30.762,61.523
1532385187.824,31.250,32.227,41.016,27.832,58.105
1532385187.828,32.715,33.203,43.457,28.320,40.039
1532385187.832,33.203,36.621,42.480,26.367,-14.160
1532385187.836,32.715,32.227,38.574,24.414,-6.836
1532385187.839,33.203,26.367,34.668,24.902,23.438
1532385187.843,32.227,28.320,34.668,25.879,55.664
1532385187.847,28.320,28.320,35.156,27.832,67.383
1532385187.851,32.227,23.926,40.039,35.156,45.898
1532385187.855,38.574,30.762,41.992,42.969,47.363
1532385187.859,43.457,47.363,45.898,45.898,73.242
1532385187.863,41.016,47.363,43.945,42.969,79.590
1532385187.867,32.715,32.227,33.691,33.203,68.359
1532385187.871,32.227,30.273,31.250,32.227,61.523
1532385187.875,46.387,40.527,37.598,39.551,59.570
1532385187.879,44.434,41.016,40.039,38.574,50.781
1532385187.882,33.691,36.621,36.621,33.691,25.879
1532385187.886,40.527,29.785,39.551,35.645,61.035
1532385187.890,48.828,31.250,42.480,40.039,60.059
1532385187.894,47.363,30.273,41.016,34.180,49.316
1532385187.898,39.551,30.273,41.504,27.344,58.105
1532385187.902,37.598,43.457,45.410,25.879,25.391
1532385187.906,34.180,46.875,47.852,30.762,59.570
1532385187.910,31.738,41.016,49.805,28.320,74.707
1532385187.914,35.645,39.062,49.316,22.461,14.160
1532385187.918,39.551,33.691,47.363,30.273,19.531
1532385187.922,38.574,25.391,48.340,33.691,60.059
1532385187.925,45.410,38.086,52.734,43.945,50.293
1532385187.929,43.457,45.898,51.758,46.875,49.316
1532385187.933,32.715,33.203,37.109,34.180,51.270
1532385187.937,38.086,27.832,28.320,33.203,43.945
1532385187.941,41.992,25.879,38.574,37.598,57.617
1532385187.945,39.062,28.809,44.434,39.062,67.871
1532385187.949,39.062,34.668,41.992,34.668,57.129
1532385187.953,40.039,40.527,47.363,32.715,50.781
1532385187.957,38.086,42.969,43.945,35.156,60.059
1532385187.961,38.574,41.504,38.574,35.156,42.480
1532385187.964,41.504,42.480,42.480,39.062,18.555
1532385187.968,41.016,41.504,42.480,41.016,40.527
1532385187.972,37.598,40.527,46.387,37.109,58.105
1532385187.976,37.109,43.457,47.363,40.039,41.504
1532385187.980,36.133,43.945,40.039,39.062,21.973
1532385187.984,32.715,37.598,36.621,34.180,30.762
1532385187.988,32.227,36.621,39.062,35.645,36.133
1532385187.992,35.156,30.273,37.598,33.691,42.480
1532385187.996,43.945,32.227,46.875,38.086,48.828
1532385188.000,50.293,45.410,51.270,46.387,31.250
1532385188.004,46.387,42.480,40.039,41.992,51.758
1532385188.007,39.062,38.574,34.668,40.039,75.684
1532385188.011,39.062,31.738,32.227,39.062,32.715
1532385188.015,42.969,33.203,35.645,39.551,-7.812
1532385188.019,46.875,43.457,43.457,44.434,33.691
1532385188.023,40.527,40.039,41.992,40.039,66.895
1532385188.027,41.016,29.785,40.527,41.016,61.523
1532385188.031,49.316,35.156,41.016,48.828,-9.277
1532385188.035,45.898,47.852,32.715,43.945,-32.715
1532385188.039,40.527,44.434,36.621,38.574,34.668
1532385188.043,40.527,38.086,43.945,44.922,54.199
1532385188.047,40.527,36.621,39.062,44.434,40.039
1532385188.050,39.062,39.062,34.180,37.109,30.273
1532385188.054,37.598,41.504,33.691,38.086,43.457
1532385188.058,38.086,43.945,34.180,38.086,59.570
1532385188.062,38.086,42.480,33.691,36.133,68.848
1532385188.066,45.898,40.527,26.367,42.969,37.109
1532385188.070,51.270,43.945,22.949,42.480,16.113
1532385188.074,50.781,40.527,25.879,39.062,19.043
1532385188.078,50.781,39.551,15.137,43.457,10.742
1532385188.082,40.527,39.551,6.836,33.691,21.484
1532385188.086,38.086,29.785,3.906,27.344,33.203
1532385188.089,40.039,25.391,1.953,32.227,38.574
1532385188.093,42.969,33.203,4.883,34.668,38.574
1532385188.097,44.922,42.969,7.812,38.574,33.691
1532385188.101,39.551,45.898,10.254,40.039,29.785
1532385188.105,34.668,42.480,8.301,38.574,51.758
1532385188.109,29.297,40.039,6.348,38.086,52.734
1532385188.113,25.879,36.133,6.836,42.480,12.207
1532385188.117,28.320,30.762,3.418,43.457,3.906
1532385188.121,31.250,31.738,4.395,43.945,53.711
1532385188.125,37.109,33.203,4.883,49.316,54.199
1532385188.129,40.527,27.344,2.441,50.293,11.719
1532385188.132,36.621,22.949,1.465,47.363,-28.320
1532385188.136,37.109,33.203,-0.977,48.340,2.441
1532385188.140,40.527,48.828,0.488,51.758,39.551
1532385188.144,39.062,48.828,-1.953,47.363,28.320
1532385188.148,34.180,39.551,-4.395,42.480,2.441
1532385188.152,30.273,37.109,-5.859,40.527,-3.906
1532385188.156,27.832,34.180,-8.301,33.691,47.363
1532385188.160,30.273,30.762,-5.371,30.273,48.828
1532385188.164,33.203,34.668,-6.348,31.738,11.230
1532385188.168,34.180,25.879,-11.230,35.156,30.762
1532385188.172,40.527,21.484,-9.277,40.039,33.203
1532385188.175,35.645,29.785,-7.812,40.039,13.672
1532385188.179,29.297,29.297,-9.277,35.156,19.043
1532385188.183,29.785,28.320,-13.672,34.668,33.691
1532385188.187,29.297,26.367,-14.648,39.062,29.785
1532385188.191,33.691,34.180,-7.812,36.621,27.832
1532385188.195,36.133,37.598,-4.883,35.645,27.832
1532385188.199,38.086,26.367,-7.324,37.109,15.137
1532385188.203,37.109,27.344,-9.277,37.598,34.180
1532385188.207,34.668,32.227,-7.812,37.109,46.875
1532385188.211,35.645,30.762,-6.836,34.668,30.273
1532385188.214,39.551,36.621,-4.395,38.086,25.391
1532385188.218,41.016,36.133,-2.930,41.504,15.137
1532385188.222,37.109,32.715,-10.742,35.156,25.391
1532385188.226,32.227,26.855,-12.695,30.273,38.086
1532385188.230,25.391,23.438,-5.371,24.414,-11.719
1532385188.234,27.832,34.180,-3.418,19.043,-19.531
1532385188.238,36.621,30.273,-4.883,27.832,32.715
1532385188.242,34.668,20.508,-7.812,30.273,29.785
1532385188.246,27.832,31.250,-9.766,24.902,25.879
1532385188.250,28.320,39.551,-9.766,22.461,31.738
1532385188.254,35.645,33.203,-10.254,22.461,3.906
1532385188.257,32.715,30.273,-7.812,25.391,27.832
1532385188.261,26.855,27.832,-11.719,24.414,48.340
1532385188.265,30.273,25.879,-17.578,30.273,37.598
1532385188.269,32.715,25.391,-20.508,35.156,42.480
1532385188.273,29.785,32.715,-20.996,32.227,50.293
1532385188.277,25.879,41.992,-19.531,29.297,40.039
1532385188.281,25.879,38.086,-23.926,25.879,16.602
1532385188.285,36.621,31.250,-25.879,36.621,19.531
1532385188.289,41.504,30.762,-30.762,40.527,29.785
1532385188.293,34.180,35.645,-46.387,33.691,47.363
1532385188.296,30.273,30.273,-55.664,36.133,30.762
1532385188.300,31.738,21.484,-63.477,38.086,10.254
1532385188.304,37.109,30.273,-69.824,39.062,33.691
1532385188.308,36.133,35.156,-72.754,34.668,47.363
1532385188.312,33.203,28.320,-73.730,32.227,11.719
1532385188.316,40.039,26.367,-77.148,36.621,-10.254
1532385188.320,38.086,29.297,-81.055,34.180,17.090
1532385188.324,36.621,33.203,-88.867,36.133,48.340
1532385188.328,43.457,39.551,-95.703,39.551,47.852
1532385188.332,39.062,39.062,-90.332,31.250,10.742
1532385188.336,36.133,37.109,-88.867,29.297,-20.508
1532385188.339,42.480,33.203,-93.262,38.574,-8.301
1532385188.343,42.969,37.109,-94.238,41.016,37.598
1532385188.347,41.016,40.527,-93.750,41.504,31.250
1532385188.351,48.340,31.250,-92.773,41.504,-21.484
1532385188.355,49.316,32.227,-90.332,38.574,2.441
1532385188.359,46.875,44.922,-84.961,41.016,32.227
1532385188.363,49.316,43.945,-82.031,44.434,10.254
1532385188.367,47.363,37.598,-88.867,38.086,10.742
1532385188.371,46.387,46.387,-91.309,35.645,17.578
1532385188.375,48.340,45.410,-92.285,37.598,49.316
1532385188.379,46.387,37.598,-93.750,37.109,67.383
1532385188.382,46.875,37.109,-85.449,43.457,18.066
1532385188.386,50.781,41.992,-83.984,45.898,6.836
1532385188.390,48.828,49.316,-85.449,39.062,21.973
1532385188.394,42.969,50.293,-75.684,40.527,20.996
1532385188.398,44.434,42.969,-68.359,44.922,11.230
1532385188.402,43.945,35.645,-67.871,44.434,5.859
1532385188.406,42.480,29.297,-64.453,46.387,34.180
1532385188.410,43.945,36.133,-62.988,46.875,25.391
1532385188.414,41.992,48.340,-64.941,42.480,3.418
1532385188.418,41.504,49.316,-66.406,43.457,33.691
1532385188.421,44.434,47.363,-74.219,42.480,62.012
1532385188.425,42.969,44.922,-66.406,41.504,67.871
1532385188.429,38.574,44.922,-50.293,42.480,14.160
1532385188.433,41.504,47.852,-53.223,40.039,12.695
1532385188.437,51.270,54.199,-48.828,50.293,42.969
1532385188.441,55.664,54.199,-41.504,57.129,46.875
1532385188.445,46.387,41.016,-46.875,43.945,67.383
1532385188.449,40.527,42.480,-50.293,41.504,11.719
1532385188.453,46.875,45.898,-50.293,41.992,-23.926
1532385188.457,44.922,32.715,-45.898,34.668,22.461
1532385188.461,35.645,28.320,-43.457,35.645,41.016
1532385188.464,39.062,43.945,-44.434,39.062,48.340
1532385188.468,41.992,51.270,-47.363,38.086,30.762
1532385188.472,45.898,50.293,-40.039,45.410,35.156
1532385188.476,49.805,55.664,-28.809,51.270,58.594
1532385188.480,54.688,48.340,-29.297,52.246,33.203
1532385188.484,58.594,37.109,-31.738,52.734,18.066
1532385188.488,52.734,35.156,-27.344,48.828,47.363
1532385188.492,48.828,45.410,-18.066,43.945,27.832
1532385188.496,41.016,50.293,-20.508,35.645,0.977
1532385188.500,35.645,44.922,-25.879,35.645,29.297
1532385188.504,36.621,43.945,-27.344,38.574,41.504
1532385188.507,41.992,50.293,-26.367,41.016,61.035
1532385188.511,43.945,47.363,-19.531,39.062,42.969
1532385188.515,48.828,49.316,-15.625,39.062,10.742
1532385188.519,58.594,53.711,-13.184,41.016,13.672
1532385188.523,62.500,47.852,-10.254,36.133,37.109
1532385188.527,69.824,43.945,-15.625,29.785,37.109
1532385188.531,67.871,43.457,-18.066,25.879,-20.996
1532385188.535,59.082,44.922,-12.207,22.461,-20.020
1532385188.539,52.734,41.992,-10.742,22.461,23.926
1532385188.543,44.434,40.527,-10.254,26.367,44.434
1532385188.546,36.621,41.992,-13.672,33.691,46.387
1532385188.550,30.762,46.875,-13.184,29.785,15.137
1532385188.554,29.785,49.316,-0.977,28.809,-7.812
1532385188.558,29.297,43.945,-3.906,34.180,22.949
1532385188.562,27.344,39.062,-9.277,36.133,31.250
1532385188.566,30.273,32.227,-2.441,42.969,10.254
1532385188.570,31.738,32.227,0.488,43.457,17.090
1532385188.574,38.086,45.898,4.395,45.898,43.945
1532385188.578,41.016,46.387,3.418,48.340,32.227
1532385188.582,33.203,41.992,-7.812,36.133,-3.418
1532385188.586,27.344,42.480,-14.160,28.809,19.043
1532385188.589,28.809,41.016,-6.836,32.227,14.648
1532385188.593,35.156,37.109,1.465,35.156,0.488
1532385188.597,36.133,35.156,0.488,33.203,2.441
1532385188.601,31.738,38.086,-1.465,32.227,28.809
1532385188.605,26.855,37.598,-0.488,32.227,56.641
1532385188.609,34.668,28.809,-0.977,31.738,42.969
1532385188.613,37.109,26.367,-5.371,31.738,-3.418
1532385188.617,33.691,38.086,-4.883,34.180,4.395
1532385188.621,34.180,39.551,0.000,34.668,29.297
1532385188.625,32.227,35.156,-2.930,31.250,36.133
1532385188.629,28.320,41.016,-5.371,25.391,26.367
1532385188.632,29.297,45.898,-2.441,22.461,-12.695
1532385188.636,32.227,46.387,3.906,28.809,-1.953
1532385188.640,29.297,34.180,5.371,36.133,34.668
1532385188.644,24.902,27.344,-0.977,36.133,49.316
1532385188.648,24.902,40.527,6.836,37.598,13.672
1532385188.652,27.832,38.086,12.695,44.434,1.465
1532385188.656,26.367,23.926,3.906,40.039,64.453
1532385188.660,26.367,28.809,-0.977,35.156,36.133
1532385188.664,29.297,26.855,-5.371,34.668,-5.859
1532385188.668,24.902,31.250,-8.301,29.297,25.879
1532385188.671,22.949,37.598,-4.883,25.879,45.898
