timestamps,TP9,AF7,AF8,TP10,Right AUX
1532281044.008,20.508,46.875,42.969,31.738,155.273
1532281044.012,18.066,46.875,45.410,26.367,-20.508
1532281044.016,22.949,44.434,46.387,28.320,-107.910
1532281044.020,29.297,41.992,43.457,35.645,39.062
1532281044.024,30.762,46.387,41.992,38.086,160.645
1532281044.028,24.414,48.828,41.016,36.133,51.270
1532281044.032,26.855,48.828,42.969,33.691,-112.305
1532281044.036,33.691,47.852,42.480,37.109,-17.578
1532281044.040,34.180,44.434,40.527,43.457,189.941
1532281044.043,34.180,42.480,42.969,40.039,144.531
1532281044.047,28.809,43.945,42.969,33.691,-63.477
1532281044.051,26.855,43.945,41.016,31.738,-80.566
1532281044.055,32.227,41.504,40.527,33.691,121.582
1532281044.059,32.227,42.480,41.016,35.156,148.926
1532281044.063,24.902,42.480,41.992,33.691,-43.945
1532281044.067,19.531,39.062,41.016,30.273,-88.379
1532281044.071,22.949,37.109,37.598,28.809,81.543
1532281044.075,26.855,39.062,36.133,32.715,173.828
1532281044.079,25.879,38.574,35.156,30.762,17.090
1532281044.083,25.879,38.086,35.156,28.809,-119.629
1532281044.086,23.438,40.039,32.227,30.273,41.992
1532281044.090,26.855,40.039,28.809,24.414,177.246
1532281044.094,29.785,37.109,30.273,19.043,34.668
1532281044.098,29.297,37.598,31.738,21.484,-118.652
1532281044.102,33.691,41.504,30.762,27.832,-43.945
1532281044.106,34.668,41.016,30.273,29.785,131.348
1532281044.110,26.855,38.574,32.227,25.879,113.770
1532281044.114,21.973,39.062,33.691,23.438,-73.730
1532281044.118,24.902,37.109,32.227,26.367,-77.637
1532281044.122,25.879,36.133,30.273,25.391,117.188
1532281044.126,20.996,36.133,33.203,20.996,162.109
1532281044.129,21.484,35.156,34.668,19.531,-51.270
1532281044.133,20.508,37.109,33.203,12.695,-164.062
1532281044.137,20.996,37.598,33.203,19.531,31.250
1532281044.141,20.508,36.133,33.691,30.273,174.316
1532281044.145,22.461,37.598,31.738,24.414,22.461
1532281044.149,27.344,39.551,29.785,20.996,-152.832
1532281044.153,29.297,38.574,30.273,26.855,-21.484
1532281044.157,30.762,38.574,27.344,27.344,176.270
1532281044.161,26.855,41.504,26.367,22.461,85.938
1532281044.165,23.438,42.480,27.832,20.020,-87.402
1532281044.168,19.531,40.039,33.203,18.555,-42.969
1532281044.172,23.438,39.062,34.180,22.461,128.418
1532281044.176,31.738,41.016,31.738,27.832,120.117
1532281044.180,32.227,42.969,28.809,24.414,-52.246
1532281044.184,22.461,41.504,29.297,17.578,-91.797
1532281044.188,15.625,40.039,31.250,16.113,65.430
1532281044.192,21.484,41.992,32.227,20.996,123.535
1532281044.196,29.785,40.039,31.738,28.809,-29.785
1532281044.200,30.762,35.645,32.227,29.297,-120.117
1532281044.204,27.344,35.156,31.738,23.926,40.527
1532281044.208,25.391,37.109,30.762,24.414,176.758
1532281044.211,25.391,37.598,31.738,21.973,7.812
1532281044.215,27.344,35.645,33.203,24.414,-143.066
1532281044.219,29.785,32.715,35.156,32.227,-34.180
1532281044.223,28.320,33.691,32.227,32.227,151.367
1532281044.227,23.926,34.668,33.691,33.203,104.004
1532281044.231,23.926,35.156,39.551,27.832,-105.469
1532281044.235,25.879,34.668,37.598,24.414,-76.172
1532281044.239,27.832,33.203,35.645,31.738,136.230
1532281044.243,27.832,30.762,37.109,30.273,134.766
1532281044.247,29.785,31.250,35.156,26.855,-70.312
1532281044.250,30.273,31.250,33.203,26.367,-124.512
1532281044.254,29.785,30.762,34.180,32.227,71.289
1532281044.258,30.273,32.227,32.715,32.715,177.734
1532281044.262,35.156,34.668,32.227,30.273,7.812
1532281044.266,35.645,32.715,32.715,34.180,-118.652
1532281044.270,33.203,33.691,31.250,35.645,17.090
1532281044.274,32.715,35.156,32.227,35.156,193.359
1532281044.278,32.227,32.227,33.691,35.645,94.727
1532281044.282,29.785,32.227,34.180,35.156,-108.398
1532281044.286,27.344,32.227,34.180,34.180,-32.715
1532281044.290,26.855,34.668,32.227,30.273,149.414
1532281044.293,22.949,35.156,32.715,24.414,107.910
1532281044.297,23.926,33.691,32.715,28.809,-70.312
1532281044.301,25.879,33.691,30.762,33.203,-98.145
1532281044.305,23.926,34.668,31.738,33.691,98.633
1532281044.309,26.855,34.668,32.715,32.227,168.457
1532281044.313,28.809,35.156,33.203,25.391,-17.090
1532281044.317,28.320,34.180,31.250,23.438,-98.633
1532281044.321,30.273,33.203,31.738,30.762,98.633
1532281044.325,27.832,33.203,33.203,33.691,202.148
1532281044.329,28.809,35.645,32.227,31.738,20.020
1532281044.333,34.180,38.086,31.250,31.250,-110.840
1532281044.336,32.715,37.598,33.691,33.691,34.668
1532281044.340,28.809,36.133,35.156,33.203,176.270
1532281044.344,30.273,36.133,33.203,29.785,60.547
1532281044.348,30.762,35.645,31.250,26.367,-104.492
1532281044.352,33.203,36.133,31.738,25.879,-31.738
1532281044.356,33.691,35.645,32.227,34.180,170.410
1532281044.360,30.273,36.621,31.738,36.621,147.949
1532281044.364,30.762,41.016,32.227,31.738,-67.383
1532281044.368,30.762,40.039,33.203,34.180,-91.309
1532281044.372,23.438,36.133,32.715,25.879,92.285
1532281044.375,20.020,38.086,33.203,17.578,167.969
1532281044.379,20.508,39.551,30.273,19.531,-8.301
1532281044.383,21.484,37.109,27.344,16.113,-103.516
1532281044.387,23.926,35.645,27.832,20.996,55.176
1532281044.391,23.438,36.133,27.344,25.391,177.734
1532281044.395,19.043,33.691,24.414,18.066,42.969
1532281044.399,17.090,31.250,25.391,18.066,-81.543
1532281044.403,18.555,29.297,28.320,25.879,15.625
1532281044.407,17.578,28.809,27.832,25.879,164.551
1532281044.411,15.625,26.367,25.879,18.066,87.402
1532281044.415,14.648,24.902,24.414,14.648,-132.324
1532281044.418,20.996,27.344,20.508,21.484,-81.543
1532281044.422,24.902,29.297,18.066,27.344,127.930
1532281044.426,20.508,27.832,18.066,25.391,149.414
1532281044.430,15.625,27.344,18.555,16.113,-43.945
1532281044.434,15.625,25.391,19.043,16.602,-101.074
1532281044.438,20.020,23.926,19.043,24.902,83.496
1532281044.442,21.484,28.320,18.066,26.367,179.199
1532281044.446,20.996,29.297,18.066,23.438,3.418
1532281044.450,20.996,27.832,18.066,18.555,-139.160
1532281044.454,19.043,27.832,16.113,19.531,6.348
1532281044.458,20.508,28.809,17.090,22.461,157.227
1532281044.461,19.531,29.297,19.531,20.020,55.176
1532281044.465,19.531,29.297,20.020,19.531,-109.863
1532281044.469,20.508,29.297,20.020,23.438,-32.715
1532281044.473,19.043,30.762,17.090,22.461,166.992
1532281044.477,23.926,29.297,17.578,22.461,124.512
1532281044.481,26.367,29.297,22.461,24.902,-94.727
1532281044.485,25.391,32.715,23.438,25.879,-62.500
1532281044.489,30.273,37.109,24.414,26.855,132.324
1532281044.493,32.227,38.086,27.832,24.902,145.508
1532281044.497,39.062,37.109,29.297,23.438,-21.484
1532281044.500,45.410,39.551,27.832,24.414,-74.707
1532281044.504,41.992,39.551,28.809,22.949,111.816
1532281044.508,41.016,38.574,31.250,25.879,188.477
1532281044.512,41.504,37.598,32.715,31.250,2.441
1532281044.516,37.598,36.133,36.621,37.109,-113.281
1532281044.520,33.203,34.668,36.133,44.922,23.926
1532281044.524,28.809,34.668,34.668,46.875,181.152
1532281044.528,25.391,35.156,38.086,46.875,77.148
1532281044.532,26.367,34.668,37.598,39.551,-137.207
1532281044.536,24.902,34.668,35.645,39.062,-43.945
1532281044.540,21.973,35.156,37.598,46.387,165.039
1532281044.543,26.855,35.156,41.016,44.922,108.398
1532281044.547,30.273,37.598,40.527,43.945,-78.125
1532281044.551,28.320,43.457,39.551,35.645,-113.281
1532281044.555,26.367,43.457,41.992,30.762,65.430
1532281044.559,20.996,39.062,40.527,33.691,170.898
1532281044.563,23.926,39.062,39.551,34.180,-20.508
1532281044.567,29.785,40.039,41.992,36.133,-101.562
1532281044.571,30.762,39.062,42.969,38.574,84.961
1532281044.575,29.785,40.527,41.992,38.086,182.129
1532281044.579,25.391,41.504,43.945,33.203,41.504
1532281044.583,24.902,40.527,42.480,31.738,-134.766
1532281044.586,23.926,39.551,41.016,34.180,-12.207
1532281044.590,19.043,41.992,44.434,31.738,173.340
1532281044.594,19.531,44.434,43.457,27.344,69.824
1532281044.598,20.996,41.992,39.551,25.391,-104.980
1532281044.602,20.996,40.527,39.551,28.809,-34.180
1532281044.606,25.879,40.039,40.039,34.668,164.062
1532281044.610,29.297,40.039,40.527,31.738,142.578
1532281044.614,26.367,40.527,41.504,27.344,-66.406
1532281044.618,28.809,41.504,39.062,28.809,-86.426
1532281044.622,38.086,41.992,37.109,36.133,99.121
1532281044.625,38.086,42.969,39.062,39.551,178.223
1532281044.629,25.879,42.969,39.062,30.762,1.465
1532281044.633,28.320,41.504,37.598,30.762,-97.656
1532281044.637,37.598,42.480,37.598,38.086,78.125
1532281044.641,31.250,41.504,37.598,35.156,191.406
1532281044.645,27.344,39.551,38.574,30.762,49.805
1532281044.649,24.414,37.598,38.086,26.367,-105.957
1532281044.653,24.902,37.598,37.109,20.508,-25.879
1532281044.657,27.832,37.598,36.133,27.344,147.949
1532281044.661,25.879,38.086,34.668,28.809,96.191
1532281044.665,27.344,39.551,33.691,26.367,-93.750
1532281044.668,30.273,40.527,33.203,30.273,-79.590
1532281044.672,31.250,38.086,35.156,30.762,131.348
1532281044.676,34.180,36.621,36.133,31.738,193.359
1532281044.680,35.645,39.551,33.691,31.738,1.465
1532281044.684,35.156,37.598,30.273,31.738,-81.055
1532281044.688,34.668,35.645,29.785,34.180,89.355
1532281044.692,33.203,36.621,29.297,28.320,136.719
1532281044.696,30.762,35.645,30.273,25.391,-18.555
1532281044.700,35.156,36.621,31.250,35.645,-95.703
1532281044.704,40.039,33.203,30.273,39.551,39.551
1532281044.707,38.086,31.250,30.762,36.621,196.289
1532281044.711,40.527,34.180,29.785,36.133,67.383
1532281044.715,44.434,31.738,27.832,36.621,-128.418
1532281044.719,41.016,29.785,28.809,38.574,-22.461
1532281044.723,37.598,29.297,29.297,39.551,178.711
1532281044.727,39.551,31.250,27.832,35.645,107.910
1532281044.731,44.922,32.715,25.391,32.715,-106.934
1532281044.735,43.945,30.762,26.367,32.715,-116.211
1532281044.739,40.527,27.832,27.832,36.133,92.773
1532281044.743,41.504,28.809,27.344,35.645,155.273
1532281044.747,37.109,28.809,24.902,31.250,-33.691
1532281044.750,31.250,26.367,21.973,27.344,-104.492
1532281044.754,33.203,24.902,22.461,30.273,79.102
1532281044.758,30.762,24.902,22.461,30.273,182.617
1532281044.762,27.832,24.414,22.461,27.832,27.344
1532281044.766,29.785,25.879,22.461,27.832,-113.770
1532281044.770,28.809,29.297,23.926,28.809,-2.930
1532281044.774,25.391,29.785,26.855,28.320,169.922
1532281044.778,23.438,28.320,27.344,26.367,89.355
1532281044.782,23.438,26.367,28.809,26.367,-101.562
1532281044.786,22.949,26.367,27.832,30.762,-40.039
1532281044.790,20.996,26.855,26.367,26.855,137.207
1532281044.793,20.996,29.785,28.320,20.996,91.797
1532281044.797,25.391,30.762,30.762,25.879,-115.723
1532281044.801,28.809,27.344,29.785,30.762,-135.742
1532281044.805,23.438,24.414,29.785,31.738,93.262
1532281044.809,21.973,25.391,30.273,31.250,166.992
1532281044.813,22.949,26.855,30.273,28.809,-42.480
1532281044.817,21.484,27.832,30.762,29.785,-136.230
1532281044.821,27.832,27.344,27.832,34.180,51.270
1532281044.825,29.785,25.879,26.367,35.645,202.148
1532281044.829,23.926,28.320,30.762,33.203,30.273
1532281044.832,21.484,30.273,32.715,31.250,-116.699
1532281044.836,24.902,28.320,31.738,33.203,21.484
1532281044.840,34.668,27.344,34.668,39.062,173.828
1532281044.844,36.621,27.832,36.621,41.016,104.492
1532281044.848,29.785,29.297,34.180,35.645,-82.031
1532281044.852,20.996,28.809,32.715,24.902,-58.594
1532281044.856,20.508,26.855,34.180,26.855,129.395
1532281044.860,26.367,27.344,37.109,38.086,130.859
1532281044.864,23.438,29.297,36.133,29.297,-55.664
1532281044.868,14.160,27.832,33.691,20.996,-80.566
1532281044.872,11.719,27.832,33.691,22.461,105.469
1532281044.875,14.648,29.297,32.715,22.461,171.387
1532281044.879,17.578,29.297,31.250,20.020,-21.484
1532281044.883,20.508,29.297,29.785,18.555,-127.930
1532281044.887,16.602,29.297,32.227,22.949,26.367
1532281044.891,14.160,30.762,32.715,18.555,145.020
1532281044.895,16.113,28.809,33.691,13.184,22.461
1532281044.899,23.926,25.879,34.668,22.949,-116.699
1532281044.903,26.855,31.250,25.879,24.902,-16.113
1532281044.907,22.461,35.645,21.973,21.973,148.438
1532281044.911,13.184,32.715,25.879,18.066,86.426
1532281044.915,10.254,30.762,25.391,14.160,-95.215
1532281044.918,17.578,28.320,21.973,18.066,-80.566
1532281044.922,20.020,26.855,25.391,21.973,132.812
1532281044.926,19.043,24.414,29.297,25.391,173.828
1532281044.930,15.625,23.926,25.879,17.578,-41.016
1532281044.934,16.602,24.414,22.949,18.066,-131.836
1532281044.938,26.855,25.879,21.973,31.250,57.129
1532281044.942,27.832,25.391,23.438,28.320,184.082
1532281044.946,22.461,23.438,25.391,21.973,19.043
1532281044.950,27.832,25.391,23.438,26.855,-110.840
1532281044.954,30.762,23.438,22.461,29.785,5.371
1532281044.957,22.949,23.926,21.973,24.902,150.879
1532281044.961,19.043,27.832,21.973,19.531,56.641
1532281044.965,20.020,28.809,22.949,17.578,-116.211
1532281044.969,20.508,27.344,21.973,17.090,-28.809
1532281044.973,17.578,23.926,21.484,9.277,156.250
1532281044.977,19.043,25.391,21.973,12.207,121.582
1532281044.981,17.090,26.367,20.508,16.602,-77.148
1532281044.985,10.742,22.461,21.484,14.648,-70.801
1532281044.989,15.625,21.973,25.391,20.996,124.023
1532281044.993,18.555,22.949,25.879,24.902,179.199
1532281044.997,14.160,24.414,26.855,21.484,17.090
1532281045.000,10.742,24.902,26.855,17.578,-69.824
1532281045.004,10.742,23.926,26.855,18.066,94.727
1532281045.008,17.578,24.902,27.344,19.531,195.312
1532281045.012,18.066,27.344,26.367,20.996,31.250
1532281045.016,13.184,29.785,25.391,19.043,-127.441
1532281045.020,11.719,28.809,27.344,18.555,-19.531
1532281045.024,20.020,29.785,29.785,20.996,182.617
1532281045.028,18.555,32.227,28.809,22.461,106.445
1532281045.032,11.230,31.250,25.879,17.578,-142.578
1532281045.036,12.207,30.273,25.391,11.719,-101.074
1532281045.040,15.137,30.762,23.438,17.090,127.930
1532281045.043,20.996,30.762,23.438,20.996,130.371
1532281045.047,19.531,29.785,25.391,18.066,-39.062
1532281045.051,15.137,30.762,24.414,15.625,-91.797
1532281045.055,14.160,27.832,25.391,16.113,83.008
1532281045.059,13.184,23.438,26.855,18.555,189.453
1532281045.063,13.672,21.973,27.832,19.043,4.883
1532281045.067,15.137,23.438,26.367,23.438,-119.141
1532281045.071,18.066,22.949,24.414,24.902,20.020
1532281045.075,20.508,23.438,25.391,24.902,155.273
1532281045.079,19.043,26.367,27.832,27.832,42.480
1532281045.082,17.090,25.879,27.832,27.344,-109.375
1532281045.086,18.555,24.414,29.297,30.273,-2.930
1532281045.090,20.020,22.949,28.809,33.203,177.734
1532281045.094,20.996,21.973,26.855,33.203,96.191
1532281045.098,21.484,22.949,28.320,31.738,-112.305
1532281045.102,18.555,22.461,26.855,28.320,-64.453
1532281045.106,15.625,22.949,24.902,27.344,149.414
1532281045.110,18.555,23.926,24.902,22.949,141.113
1532281045.114,22.461,24.414,25.879,21.973,-75.684
1532281045.118,24.902,23.438,27.832,30.273,-109.863
1532281045.122,23.926,24.414,27.344,34.180,82.031
1532281045.125,20.996,24.902,26.855,33.691,183.594
1532281045.129,21.973,24.414,29.297,33.203,4.883
1532281045.133,21.973,23.438,26.855,33.691,-135.254
1532281045.137,24.902,23.926,24.902,36.133,26.367
1532281045.141,28.320,26.855,27.344,35.156,169.922
1532281045.145,23.438,27.344,27.344,28.320,50.293
1532281045.149,17.578,26.855,27.832,22.461,-111.328
1532281045.153,19.531,28.320,26.855,24.414,-44.922
1532281045.157,22.461,28.320,27.832,26.855,144.531
1532281045.161,24.414,26.367,28.809,25.879,103.027
1532281045.164,27.344,28.320,28.320,24.414,-96.191
1532281045.168,25.879,30.762,26.367,22.461,-72.266
1532281045.172,24.902,30.762,27.344,20.508,110.352
1532281045.176,21.484,26.367,30.762,22.461,145.508
1532281045.180,24.902,22.461,31.738,26.367,-28.320
1532281045.184,33.203,29.297,28.320,26.855,-91.797
1532281045.188,34.668,36.133,25.879,26.367,78.613
1532281045.192,27.344,33.691,28.809,23.926,181.641
1532281045.196,19.531,32.715,28.809,23.926,44.922
1532281045.200,23.438,33.203,29.785,28.809,-113.770
1532281045.204,28.809,31.250,31.250,29.785,-24.902
1532281045.207,25.391,30.273,31.738,27.344,152.832
1532281045.211,20.508,34.180,31.738,18.555,48.828
1532281045.215,24.902,35.645,30.273,17.578,-142.578
1532281045.219,27.344,32.715,30.762,30.273,-39.062
1532281045.223,22.949,32.227,30.762,29.785,157.227
1532281045.227,20.020,32.227,32.715,24.902,120.605
1532281045.231,19.531,31.738,31.738,23.926,-96.680
1532281045.235,21.973,28.809,30.273,20.020,-109.863
1532281045.239,19.043,29.297,30.762,17.090,118.652
1532281045.243,12.207,29.297,30.762,14.648,182.129
1532281045.247,10.742,28.809,31.738,10.254,-24.414
1532281045.250,15.625,29.785,33.691,9.277,-127.441
1532281045.254,17.090,28.320,35.156,8.789,-2.930
1532281045.258,17.090,28.320,35.156,18.066,144.043
1532281045.262,25.391,30.273,34.668,27.344,43.457
1532281045.266,29.785,33.203,31.250,28.320,-112.305
1532281045.270,24.902,33.203,27.832,26.855,-7.324
1532281045.274,17.578,32.715,27.832,20.996,159.180
1532281045.278,18.066,34.180,30.273,18.555,109.375
1532281045.282,17.578,33.691,28.809,17.090,-80.078
1532281045.286,15.625,30.273,30.273,18.066,-59.570
1532281045.289,17.578,29.297,29.785,19.531,149.414
1532281045.293,17.090,29.785,26.367,13.184,135.254
1532281045.297,20.996,30.762,24.414,8.301,-66.895
1532281045.301,23.926,30.762,23.926,11.230,-104.004
1532281045.305,20.508,28.320,24.414,9.766,83.496
1532281045.309,22.949,25.391,25.391,6.836,167.480
1532281045.313,32.715,23.438,27.344,7.324,-46.875
1532281045.317,40.527,24.414,28.320,19.531,-181.641
1532281045.321,34.668,25.391,25.391,27.832,4.883
1532281045.325,29.785,25.391,26.367,29.785,171.875
1532281045.329,24.414,23.926,31.250,33.203,42.969
1532281045.332,17.090,23.438,30.762,34.180,-125.977
1532281045.336,18.555,27.344,28.320,34.180,-7.324
1532281045.340,29.785,32.227,26.367,38.086,159.180
1532281045.344,33.691,34.180,27.832,42.969,101.562
1532281045.348,26.367,31.250,29.785,40.527,-67.871
1532281045.352,25.391,28.809,29.297,36.621,-66.895
1532281045.356,28.809,29.297,29.785,38.086,124.023
1532281045.360,30.273,30.273,33.203,42.480,160.156
1532281045.364,34.180,29.297,35.645,42.480,-20.020
1532281045.368,35.645,28.809,32.715,42.480,-89.844
1532281045.372,34.668,30.273,30.762,38.574,64.453
1532281045.375,33.203,32.227,31.738,32.715,175.781
1532281045.379,30.762,33.203,33.691,30.762,30.273
1532281045.383,32.715,32.715,35.645,28.809,-98.633
1532281045.387,31.738,34.180,34.180,31.738,43.945
1532281045.391,29.785,36.133,32.227,28.809,179.199
1532281045.395,34.668,35.156,30.762,24.902,44.922
1532281045.399,37.109,35.156,32.715,33.203,-119.141
1532281045.403,37.598,35.156,30.762,37.109,-18.555
1532281045.407,36.621,33.691,28.809,37.109,168.945
1532281045.411,40.039,31.250,32.715,40.527,105.957
1532281045.414,44.434,29.297,35.156,44.434,-87.402
1532281045.418,38.574,30.762,32.227,40.039,-87.402
1532281045.422,40.039,35.156,28.809,39.551,103.516
1532281045.426,44.434,36.621,31.250,45.410,154.785
1532281045.430,43.945,37.109,34.180,45.410,-48.340
1532281045.434,42.969,40.039,35.156,46.387,-130.859
1532281045.438,37.598,38.086,36.133,49.805,53.223
1532281045.442,35.645,35.156,37.109,47.363,153.320
1532281045.446,37.598,33.691,35.156,43.945,27.344
1532281045.450,42.969,32.227,35.645,45.410,-105.469
1532281045.454,51.270,34.668,38.574,47.363,-18.066
1532281045.457,53.223,36.133,35.645,49.805,167.480
1532281045.461,54.199,36.133,36.133,53.223,76.660
1532281045.465,50.293,38.574,34.668,53.223,-121.094
1532281045.469,53.223,38.574,34.668,53.711,-65.918
1532281045.473,60.547,37.598,36.133,56.152,143.066
1532281045.477,64.453,39.551,37.109,61.035,149.902
1532281045.481,62.012,41.016,40.039,59.570,-57.129
1532281045.485,60.059,42.480,38.086,58.105,-78.613
1532281045.489,62.500,41.016,37.109,61.523,104.004
1532281045.493,62.500,42.480,39.551,57.617,141.602
1532281045.497,60.059,41.992,38.086,53.711,-23.926
1532281045.500,57.129,38.574,35.156,57.129,-118.164
1532281045.504,58.105,38.574,38.086,59.082,57.617
1532281045.508,56.641,39.551,37.598,59.082,198.242
1532281045.512,56.641,40.527,36.133,57.129,33.691
1532281045.516,57.129,39.551,37.598,53.711,-122.070
1532281045.520,55.176,39.062,38.086,55.176,-14.648
1532281045.524,51.758,39.062,41.504,56.641,151.367
1532281045.528,52.246,39.062,42.480,57.617,85.449
1532281045.532,52.734,38.086,41.016,54.199,-122.559
1532281045.536,52.246,39.062,42.480,53.223,-126.953
1532281045.539,54.688,41.504,41.992,56.641,115.234
1532281045.543,56.152,41.992,41.016,54.688,134.277
1532281045.547,56.641,42.480,40.039,51.758,-82.031
1532281045.551,56.641,41.504,40.039,48.828,-124.023
1532281045.555,54.688,39.551,40.039,48.828,63.477
1532281045.559,56.152,40.039,39.551,49.805,168.945
1532281045.563,57.129,41.504,38.574,46.875,21.973
1532281045.567,54.688,41.992,36.133,45.898,-113.770
1532281045.571,54.688,40.039,37.598,47.363,-3.906
1532281045.575,51.758,38.574,40.039,48.828,145.020
1532281045.579,49.805,40.527,40.527,50.293,41.016
1532281045.582,49.805,41.992,40.039,47.852,-121.094
1532281045.586,44.922,41.992,35.645,47.852,-29.297
1532281045.590,41.992,40.527,36.621,47.852,153.809
1532281045.594,39.551,38.574,41.016,42.480,85.938
1532281045.598,40.527,39.551,42.969,44.922,-85.938
1532281045.602,38.574,40.527,42.480,47.363,-72.266
1532281045.606,31.738,38.086,41.016,46.387,125.977
1532281045.610,31.738,38.574,41.992,42.480,157.227
1532281045.614,29.785,39.551,46.387,37.109,-43.945
1532281045.618,25.391,40.039,44.434,34.668,-114.258
1532281045.621,24.414,41.016,40.039,33.203,72.266
1532281045.625,28.809,41.504,39.062,36.621,187.988
1532281045.629,27.832,42.969,37.109,28.809,-14.648
1532281045.633,23.438,46.387,37.598,20.996,-161.133
1532281045.637,24.902,47.852,36.621,25.879,9.766
1532281045.641,29.785,49.805,36.621,30.273,187.500
1532281045.645,26.367,51.758,39.551,25.391,105.469
1532281045.649,22.461,49.805,43.457,22.461,-94.238
1532281045.653,26.855,47.852,44.434,30.273,-52.734
1532281045.657,34.668,45.898,43.945,38.086,169.922
1532281045.661,36.621,44.922,43.457,37.598,137.695
1532281045.664,26.367,42.480,42.480,26.855,-68.848
1532281045.668,23.438,38.574,42.480,23.438,-58.594
1532281045.672,28.809,41.016,41.504,26.855,129.883
1532281045.676,30.762,42.480,41.504,31.250,179.688
1532281045.680,27.832,41.504,41.992,32.227,6.836
1532281045.684,22.949,39.062,43.457,29.297,-91.797
1532281045.688,29.297,38.086,44.922,34.180,65.918
1532281045.692,37.109,42.969,42.480,38.574,192.871
1532281045.696,35.645,43.457,41.016,37.109,48.340
1532281045.700,25.391,41.992,42.480,31.738,-114.258
1532281045.704,21.973,42.480,41.504,29.785,-1.953
1532281045.707,27.832,44.434,39.551,30.762,186.035
1532281045.711,28.320,41.992,38.086,27.832,121.582
1532281045.715,21.484,40.039,38.574,25.391,-63.477
1532281045.719,20.020,40.039,38.086,26.855,-45.410
1532281045.723,22.461,40.527,37.598,30.273,131.836
1532281045.727,23.438,41.016,39.062,28.809,153.320
1532281045.731,22.461,42.480,41.992,25.391,-83.984
1532281045.735,23.926,41.992,42.969,26.367,-138.184
1532281045.739,30.762,40.527,41.992,30.273,100.586
1532281045.743,27.832,41.992,39.551,29.785,187.012
1532281045.746,21.484,42.969,41.992,26.367,18.555
1532281045.750,20.508,42.969,43.457,25.391,-97.168
1532281045.754,19.531,42.480,41.016,25.879,44.434
1532281045.758,26.855,37.598,41.504,27.832,205.566
1532281045.762,29.297,33.691,40.039,26.855,78.125
1532281045.766,25.879,36.133,36.133,25.879,-96.191
1532281045.770,28.809,37.109,35.156,28.809,-28.320
1532281045.774,29.785,35.156,34.668,29.785,151.367
1532281045.778,26.367,33.203,32.227,29.785,135.254
1532281045.782,22.461,32.227,32.227,24.902,-70.801
1532281045.786,20.508,32.227,33.691,23.926,-57.129
1532281045.789,22.949,29.785,35.156,30.273,142.090
1532281045.793,22.949,27.344,35.156,22.461,112.793
1532281045.797,24.902,29.785,34.180,19.043,-47.363
1532281045.801,31.250,33.203,33.691,26.855,-83.496
1532281045.805,31.738,33.203,32.715,32.227,76.172
1532281045.809,27.344,34.668,33.691,27.344,183.105
1532281045.813,21.484,35.156,34.668,15.625,7.324
1532281045.817,28.320,35.645,35.645,22.461,-133.301
1532281045.821,27.832,37.109,34.180,30.273,37.109
1532281045.825,23.926,33.691,30.762,27.832,228.516
1532281045.829,27.832,32.715,31.738,30.273,77.148
1532281045.832,30.762,34.668,33.203,30.273,-122.070
1532281045.836,31.250,35.156,32.227,29.785,-13.184
1532281045.840,26.367,36.621,30.762,30.762,168.457
1532281045.844,26.855,36.621,31.250,29.297,108.398
1532281045.848,34.180,36.133,33.203,29.785,-78.613
1532281045.852,32.227,36.621,33.691,25.879,-86.426
1532281045.856,33.691,36.133,31.738,26.855,108.887
1532281045.860,36.133,31.738,29.785,32.715,149.414
1532281045.864,25.879,29.297,30.273,24.902,-23.926
1532281045.868,26.855,29.785,28.809,23.926,-91.797
1532281045.871,31.738,29.785,26.367,25.879,38.086
1532281045.875,29.785,29.785,28.320,24.902,159.668
1532281045.879,26.855,27.344,30.273,27.832,42.480
1532281045.883,25.391,27.832,29.297,28.320,-111.816
1532281045.887,27.832,30.273,26.367,31.250,-2.930
1532281045.891,26.855,30.273,26.855,30.762,160.156
1532281045.895,27.344,28.320,29.297,28.809,83.008
1532281045.899,31.250,27.344,31.250,29.297,-92.285
1532281045.903,27.832,23.926,31.738,29.297,-57.129
1532281045.907,26.367,23.926,29.785,28.320,113.281
1532281045.911,31.738,27.344,31.250,26.855,104.492
1532281045.914,35.156,30.273,30.762,25.879,-93.262
1532281045.918,32.227,28.809,27.832,26.855,-97.168
1532281045.922,27.344,27.832,23.438,27.344,102.539
1532281045.926,26.855,28.809,25.391,27.832,144.043
1532281045.930,27.344,29.297,27.832,26.855,-21.484
1532281045.934,31.250,28.809,27.344,25.879,-103.516
1532281045.938,33.203,26.367,28.809,30.273,42.480
1532281045.942,25.391,25.391,25.879,31.250,181.641
1532281045.946,23.438,25.879,24.902,29.785,89.355
1532281045.950,33.203,24.414,25.391,33.691,-109.375
1532281045.954,32.227,19.531,25.879,31.738,-35.156
1532281045.957,26.855,15.625,23.438,29.785,179.199
1532281045.961,28.320,16.602,20.508,30.762,105.469
1532281045.965,28.320,18.066,22.461,26.855,-83.984
1532281045.969,30.273,15.625,23.926,25.391,-51.270
1532281045.973,31.738,10.742,25.879,23.438,156.738
1532281045.977,25.391,10.742,28.320,22.461,178.711
1532281045.981,20.020,13.184,26.367,24.902,-31.738
1532281045.985,22.949,14.648,25.391,25.391,-77.637
1532281045.989,22.949,12.695,26.367,26.367,109.863
1532281045.993,20.508,14.160,24.902,22.949,189.941
1532281045.996,23.438,16.113,24.902,23.438,52.734
1532281046.000,28.320,17.578,24.902,26.367,-67.871
1532281046.004,29.297,19.043,20.996,25.391,49.805
1532281046.008,28.320,16.602,20.020,26.367,192.871
1532281046.012,21.973,16.113,23.438,16.113,57.617
1532281046.016,20.020,17.090,22.949,14.160,-109.863
1532281046.020,25.879,18.066,23.438,26.367,2.441
1532281046.024,25.391,18.066,25.879,28.809,190.430
1532281046.028,28.320,17.090,24.414,26.367,128.418
1532281046.032,32.227,21.484,25.391,24.902,-87.402
1532281046.036,27.832,21.484,26.855,25.879,-75.684
1532281046.039,26.367,19.531,26.855,24.902,152.344
1532281046.043,23.438,22.461,27.832,19.531,161.133
1532281046.047,29.297,24.414,32.227,21.973,-41.504
1532281046.051,40.039,26.367,33.203,28.320,-120.605
1532281046.055,41.504,27.344,33.203,31.250,50.781
1532281046.059,36.621,27.832,37.109,34.180,194.824
1532281046.063,35.156,29.785,39.062,30.273,38.086
1532281046.067,38.574,31.738,39.062,29.297,-91.309
1532281046.071,36.133,31.738,40.039,34.180,33.203
1532281046.075,36.133,32.715,41.504,35.645,184.082
1532281046.078,35.645,33.691,43.945,35.156,83.496
1532281046.082,39.062,35.156,44.434,38.086,-96.680
1532281046.086,45.410,37.598,45.898,43.457,-38.574
1532281046.090,42.480,35.156,47.852,42.969,124.512
1532281046.094,39.062,34.668,47.363,38.086,73.730
1532281046.098,42.480,36.621,45.898,37.109,-90.332
1532281046.102,49.316,36.133,42.969,42.969,-85.938
1532281046.106,50.293,34.668,43.945,47.363,100.586
1532281046.110,51.270,35.645,42.969,39.551,168.457
1532281046.114,54.688,37.109,40.527,37.109,-41.992
1532281046.118,61.035,39.062,40.039,36.133,-133.301
1532281046.121,63.477,39.062,35.645,33.203,36.133
1532281046.125,62.012,37.598,35.156,36.621,157.715
1532281046.129,63.477,36.133,36.621,40.039,27.344
1532281046.133,58.105,31.738,35.156,46.387,-91.309
1532281046.137,47.852,29.297,34.180,49.805,19.043
1532281046.141,41.992,29.297,34.180,51.270,159.668
1532281046.145,40.527,25.879,35.645,51.270,87.891
1532281046.149,36.133,26.367,36.133,47.363,-103.516
1532281046.153,35.645,26.855,36.621,38.574,-89.355
1532281046.157,32.715,23.438,35.645,37.109,110.840
1532281046.161,28.320,23.438,35.156,40.527,146.973
1532281046.164,30.273,27.344,32.715,39.551,-46.387
1532281046.168,31.738,26.855,32.227,40.039,-107.422
1532281046.172,28.809,25.879,33.203,37.109,84.473
1532281046.176,28.809,26.855,34.180,37.109,183.105
1532281046.180,30.273,25.391,32.715,36.621,-0.977
1532281046.184,27.344,25.879,29.297,31.250,-125.488
1532281046.188,25.391,25.391,31.250,29.785,44.922
1532281046.192,25.879,25.879,33.203,23.926,184.570
1532281046.196,25.391,28.320,30.762,20.508,38.574
1532281046.200,32.715,29.297,28.809,27.344,-132.812
1532281046.203,34.668,28.320,29.785,30.273,-25.391
1532281046.207,29.785,30.762,30.273,29.297,181.641
1532281046.211,32.227,33.203,31.738,25.879,120.605
1532281046.215,34.180,30.273,31.738,26.367,-91.797
1532281046.219,29.297,29.785,28.809,27.832,-70.801
1532281046.223,26.367,33.203,29.785,26.855,147.949
1532281046.227,25.391,35.645,32.227,24.902,177.734
1532281046.231,19.531,30.762,31.738,15.137,-28.809
1532281046.235,20.020,29.297,28.320,11.230,-107.422
1532281046.239,23.438,32.227,26.855,14.160,59.570
1532281046.243,15.625,30.762,28.320,11.230,197.266
1532281046.246,13.672,32.227,26.855,8.301,54.688
1532281046.250,23.926,36.133,24.902,10.254,-113.281
1532281046.254,29.297,35.645,25.879,17.578,9.277
1532281046.258,28.809,36.133,25.391,23.926,151.367
1532281046.262,23.926,38.086,27.344,20.020,62.988
1532281046.266,19.043,35.645,26.855,17.090,-104.492
1532281046.270,24.414,36.621,26.367,19.043,-46.875
1532281046.274,23.438,37.109,27.832,18.555,139.160
1532281046.278,20.020,34.180,29.785,19.043,98.145
1532281046.282,21.484,36.133,25.879,17.578,-95.215
1532281046.286,20.508,36.133,22.461,13.184,-91.309
1532281046.289,18.555,35.645,23.926,13.184,94.238
1532281046.293,12.207,37.598,26.367,9.277,123.535
1532281046.297,10.254,36.133,28.809,8.301,-37.598
1532281046.301,14.648,33.203,27.344,11.230,-102.539
1532281046.305,17.578,33.203,25.391,14.648,80.078
1532281046.309,18.066,33.691,28.809,17.578,187.012
1532281046.313,20.996,33.691,28.809,20.996,37.598
1532281046.317,24.414,37.598,22.949,22.461,-98.145
1532281046.321,26.367,41.504,22.461,22.461,2.441
1532281046.325,25.391,41.016,20.996,19.531,158.203
1532281046.328,26.855,43.457,16.113,16.602,85.938
1532281046.332,26.367,43.945,17.578,12.695,-121.094
1532281046.336,20.508,38.574,19.531,11.230,-106.445
1532281046.340,20.020,35.156,16.602,17.090,116.211
1532281046.344,22.461,38.086,16.602,18.066,132.324
1532281046.348,19.531,39.551,17.090,9.766,-59.082
1532281046.352,18.555,38.086,14.648,9.766,-101.562
1532281046.356,20.508,38.086,15.137,18.555,67.383
1532281046.360,18.555,37.598,16.602,14.648,174.316
1532281046.364,17.578,38.574,17.090,9.277,22.949
1532281046.368,18.066,39.062,18.555,11.719,-122.070
1532281046.371,18.555,35.156,23.438,16.113,23.438
1532281046.375,17.578,34.668,25.879,17.578,161.621
1532281046.379,15.625,35.156,25.879,17.578,36.133
1532281046.383,18.555,31.250,27.832,20.508,-108.398
1532281046.387,26.367,31.738,27.832,25.391,0.000
1532281046.391,29.297,34.668,25.391,22.949,154.785
1532281046.395,24.414,34.668,24.414,16.113,58.594
1532281046.399,22.461,34.180,26.855,17.578,-119.629
1532281046.403,23.926,32.227,30.762,20.996,-76.660
1532281046.407,23.438,30.762,32.227,22.949,124.023
1532281046.411,19.531,32.715,28.809,17.578,152.832
1532281046.414,14.160,32.715,24.414,9.766,-38.086
1532281046.418,17.578,32.227,21.973,15.137,-123.047
1532281046.422,16.113,29.297,24.902,18.555,84.961
1532281046.426,10.742,24.902,28.320,19.043,190.430
1532281046.430,15.625,25.879,25.879,16.602,14.648
1532281046.434,19.531,27.344,24.902,10.742,-118.164
1532281046.438,17.090,27.344,21.484,9.277,36.133
1532281046.442,16.113,29.297,23.438,11.230,230.957
1532281046.446,14.648,27.344,29.297,15.137,112.305
1532281046.450,11.230,25.391,28.320,12.207,-98.633
1532281046.453,4.883,23.926,27.832,8.301,-18.555
1532281046.457,4.395,22.461,30.762,14.648,190.430
1532281046.461,11.719,21.484,32.227,22.461,135.742
1532281046.465,15.625,24.414,29.785,23.438,-78.125
1532281046.469,19.043,26.855,28.320,21.484,-76.660
1532281046.473,26.855,28.809,27.832,20.996,98.145
1532281046.477,28.320,27.344,33.203,28.809,129.883
1532281046.481,21.484,26.367,34.668,25.879,-26.855
1532281046.485,21.973,30.762,27.832,19.043,-85.449
1532281046.489,27.344,34.180,24.902,24.414,77.148
1532281046.493,27.344,32.227,27.832,27.344,153.809
1532281046.496,23.926,28.809,30.762,23.438,12.695
1532281046.500,22.949,29.297,27.344,21.973,-92.773
1532281046.504,23.926,28.809,25.879,22.949,23.438
1532281046.508,25.879,25.879,30.273,25.879,172.363
1532281046.512,29.785,26.367,33.691,28.320,79.102
1532281046.516,30.273,30.762,31.738,25.391,-118.164
1532281046.520,22.949,32.227,27.832,17.578,-54.688
1532281046.524,18.555,29.297,28.320,14.160,156.250
1532281046.528,21.973,29.785,29.785,23.438,131.836
1532281046.532,24.414,31.250,30.762,19.043,-90.820
1532281046.535,23.438,25.879,33.691,16.113,-121.094
1532281046.539,24.414,22.461,35.156,29.785,102.051
1532281046.543,28.809,25.391,34.668,30.762,166.504
1532281046.547,27.832,30.273,32.227,24.414,-21.973
1532281046.551,25.879,34.180,28.809,21.484,-94.727
1532281046.555,32.715,35.645,29.297,27.344,56.641
1532281046.559,31.738,33.203,31.738,30.762,168.945
1532281046.563,26.367,29.297,31.250,27.832,27.344
1532281046.567,32.227,31.250,30.273,31.738,-116.211
1532281046.571,34.180,32.715,29.785,34.668,7.324
1532281046.575,30.762,30.762,28.809,34.668,151.855
1532281046.578,29.297,28.809,32.715,32.227,97.656
1532281046.582,25.391,27.832,33.203,27.344,-67.871
1532281046.586,33.203,27.832,26.367,29.297,-32.715
1532281046.590,39.551,27.832,23.438,34.180,156.250
1532281046.594,35.645,30.273,24.902,34.668,129.395
1532281046.598,37.598,34.180,25.879,34.180,-66.406
1532281046.602,41.992,33.691,24.902,36.133,-77.637
1532281046.606,41.504,31.250,22.461,36.133,104.492
1532281046.610,34.180,31.250,24.414,27.344,176.758
1532281046.614,32.715,31.250,28.320,22.461,-25.879
1532281046.618,31.738,28.809,29.297,26.367,-129.883
1532281046.621,30.762,27.832,29.297,33.691,44.922
1532281046.625,33.691,27.832,27.832,35.156,192.871
1532281046.629,35.645,30.273,28.320,31.738,50.781
1532281046.633,36.621,35.645,26.367,33.691,-142.578
1532281046.637,36.621,39.062,21.484,37.598,-47.852
1532281046.641,31.738,39.062,23.438,37.109,164.062
1532281046.645,29.297,39.551,27.832,38.086,122.559
1532281046.649,27.344,38.574,30.273,36.133,-100.586
1532281046.653,31.738,36.621,31.250,36.133,-88.379
1532281046.657,31.738,38.574,31.738,39.062,120.605
1532281046.660,26.367,39.062,31.250,34.180,147.461
1532281046.664,26.367,39.551,31.250,31.738,-38.574
1532281046.668,30.762,41.504,29.297,35.645,-98.145
1532281046.672,36.133,40.527,26.367,37.109,67.383
1532281046.676,33.691,38.086,25.879,36.621,152.344
1532281046.680,32.715,37.598,28.809,39.062,21.484
1532281046.684,39.551,40.039,30.273,38.574,-97.168
1532281046.688,38.574,41.504,27.344,39.062,18.555
1532281046.692,37.598,41.504,26.367,39.551,168.945
1532281046.696,38.574,42.480,26.855,40.527,74.707
1532281046.700,38.574,41.016,26.367,40.039,-110.840
1532281046.703,34.668,38.574,28.320,34.668,-40.527
1532281046.707,30.273,38.086,31.738,33.203,175.781
1532281046.711,32.227,36.621,31.250,33.203,119.629
1532281046.715,41.992,37.109,27.832,39.551,-82.520
1532281046.719,49.805,40.039,28.809,44.922,-55.664
1532281046.723,43.457,41.504,28.809,41.992,146.484
1532281046.727,38.574,39.551,26.367,41.016,168.945
1532281046.731,39.551,41.992,25.391,36.133,-29.785
1532281046.735,41.504,43.457,27.832,36.133,-93.262
1532281046.739,42.969,39.062,31.738,46.387,69.336
1532281046.743,41.504,38.574,29.785,46.387,168.457
1532281046.746,44.434,42.480,27.832,46.387,19.531
1532281046.750,49.805,42.969,26.855,45.898,-142.578
1532281046.754,49.316,41.504,26.367,45.410,-15.625
1532281046.758,44.434,39.062,26.367,47.363,179.199
1532281046.762,42.480,41.016,28.320,42.480,107.422
1532281046.766,46.875,44.922,30.273,44.434,-92.285
1532281046.770,50.781,42.969,28.809,45.410,-59.082
1532281046.774,54.688,44.434,29.297,44.922,146.484
1532281046.778,49.805,43.945,30.273,46.875,157.715
1532281046.782,41.504,41.504,30.273,40.527,-25.391
1532281046.785,40.039,41.016,31.250,42.969,-60.547
1532281046.789,39.551,39.551,34.180,45.898,95.703
1532281046.793,40.527,39.551,35.645,42.480,147.949
1532281046.797,44.434,40.039,36.621,45.410,0.977
1532281046.801,44.922,41.016,35.645,45.898,-115.234
1532281046.805,43.457,41.016,33.203,47.852,54.199
1532281046.809,45.410,39.062,34.668,48.340,187.012
1532281046.813,41.992,38.574,38.574,41.992,30.762
1532281046.817,39.551,39.551,37.598,40.527,-100.586
1532281046.821,39.551,39.551,33.203,43.457,0.488
1532281046.825,35.156,39.062,32.227,41.992,173.340
1532281046.828,38.086,39.551,34.180,43.945,120.117
1532281046.832,39.551,41.016,33.691,45.898,-89.844
1532281046.836,41.504,40.039,32.715,46.387,-83.008
1532281046.840,43.457,40.039,34.180,48.828,123.535
1532281046.844,42.480,41.016,33.691,45.898,172.363
1532281046.848,42.480,41.504,33.203,42.480,-12.207
1532281046.852,39.551,42.480,34.668,39.062,-111.816
1532281046.856,37.598,41.504,35.156,37.109,43.457
1532281046.860,36.133,40.039,34.180,40.527,151.367
1532281046.864,35.156,41.016,34.180,37.109,-10.742
1532281046.868,34.668,41.992,35.645,35.156,-113.770
1532281046.871,33.691,40.039,33.691,36.621,32.227
1532281046.875,33.691,41.016,29.785,36.621,163.574
1532281046.879,31.738,41.504,31.738,33.691,43.457
1532281046.883,26.367,40.039,29.297,30.762,-128.906
1532281046.887,26.367,39.551,25.879,33.203,-19.531
1532281046.891,27.344,39.062,26.367,29.297,129.883
1532281046.895,27.344,39.062,28.320,23.926,60.059
1532281046.899,28.809,39.062,29.297,28.320,-82.031
1532281046.903,31.250,40.527,26.367,29.297,-58.105
1532281046.907,34.668,41.504,25.879,28.320,134.277
1532281046.910,37.598,41.016,27.832,25.391,143.555
1532281046.914,43.457,41.016,26.367,22.949,-33.203
1532281046.918,49.316,42.480,22.949,23.926,-100.586
1532281046.922,53.223,41.504,21.484,23.926,62.012
1532281046.926,47.852,38.086,20.996,25.391,195.801
1532281046.930,41.504,38.574,22.461,28.809,36.133
1532281046.934,38.086,37.598,25.391,34.180,-113.770
1532281046.938,31.738,33.203,27.344,40.527,20.508
1532281046.942,31.250,31.250,28.320,46.875,168.457
1532281046.946,31.250,34.180,27.832,49.316,80.566
1532281046.950,26.855,35.156,27.344,43.457,-97.656
1532281046.953,20.508,33.691,26.367,36.133,-72.266
1532281046.957,15.625,34.668,25.879,33.691,140.137
1532281046.961,14.160,35.156,23.438,30.762,144.531
1532281046.965,16.602,34.668,22.461,31.738,-76.660
1532281046.969,19.043,34.180,22.461,35.156,-108.887
1532281046.973,19.531,32.227,23.926,34.668,89.355
1532281046.977,18.066,34.180,22.949,32.227,182.129
1532281046.981,21.484,37.109,21.484,30.273,-7.324
1532281046.985,21.973,36.133,21.484,27.832,-127.930
1532281046.989,18.066,33.691,19.531,31.738,19.043
1532281046.992,17.578,33.691,19.531,29.785,140.137
1532281046.996,11.719,34.668,20.996,19.043,29.297
1532281047.000,12.207,35.156,20.020,19.531,-94.727
1532281047.004,21.973,36.133,18.555,25.879,7.812
1532281047.008,22.461,35.156,19.531,27.344,165.039
1532281047.012,19.043,35.156,20.020,23.926,94.727
1532281047.016,14.648,35.645,20.020,21.484,-81.055
1532281047.020,15.137,36.621,20.996,22.949,-44.434
1532281047.024,21.973,39.551,23.438,25.879,147.461
1532281047.028,20.996,37.598,24.414,28.320,133.301
1532281047.032,17.090,39.551,26.855,17.578,-93.750
1532281047.035,17.090,42.969,28.809,10.742,-134.277
1532281047.039,21.973,42.480,26.855,24.414,81.055
1532281047.043,23.438,44.434,29.785,34.180,158.203
1532281047.047,23.926,46.387,31.250,35.645,-16.113
1532281047.051,26.855,44.922,30.273,35.156,-139.648
1532281047.055,23.438,42.480,32.227,33.691,28.809
1532281047.059,17.578,42.969,30.762,31.250,204.102
1532281047.063,26.367,43.945,31.738,34.180,68.848
1532281047.067,31.738,44.434,34.668,33.691,-105.957
1532281047.071,24.414,44.922,32.715,29.785,-23.438
1532281047.075,28.320,44.434,32.227,28.320,137.207
1532281047.078,34.180,46.875,35.645,32.227,98.145
1532281047.082,25.391,47.852,37.109,33.203,-99.609
1532281047.086,28.809,47.852,38.086,33.203,-73.730
1532281047.090,33.203,49.805,38.086,35.156,99.609
1532281047.094,30.273,49.316,36.621,28.320,109.863
1532281047.098,30.273,46.387,38.086,25.879,-15.137
1532281047.102,31.250,45.410,40.039,31.250,-55.664
1532281047.106,35.156,48.340,39.062,37.598,83.008
1532281047.110,36.133,49.316,36.621,36.621,162.109
1532281047.114,31.250,49.805,39.062,31.250,20.508
1532281047.117,31.738,49.316,41.016,29.297,-114.258
1532281047.121,35.156,47.852,40.039,34.180,9.277
1532281047.125,36.621,49.316,37.109,38.574,163.574
1532281047.129,39.062,49.805,35.645,38.574,35.645
1532281047.133,33.203,48.340,36.133,29.297,-147.461
1532281047.137,27.344,44.922,35.156,26.855,-53.711
1532281047.141,26.855,43.457,36.621,32.227,150.879
1532281047.145,28.809,43.945,35.645,33.203,125.488
1532281047.149,32.715,44.434,34.180,33.203,-88.379
1532281047.153,35.156,46.875,34.180,31.250,-98.633
1532281047.157,35.156,49.316,34.668,32.715,103.516
1532281047.160,35.645,47.363,36.133,35.156,158.203
1532281047.164,34.180,44.922,36.621,33.203,-22.461
1532281047.168,37.109,43.457,36.621,36.133,-136.719
1532281047.172,38.086,39.062,36.621,32.715,2.930
1532281047.176,35.645,36.133,35.645,32.715,146.973
1532281047.180,34.668,36.621,37.109,36.621,21.484
1532281047.184,33.203,39.062,34.668,34.180,-133.301
1532281047.188,34.668,40.527,34.668,36.621,-15.625
1532281047.192,36.133,42.969,34.180,38.574,156.250
1532281047.196,34.180,43.945,33.203,39.551,59.570
1532281047.200,31.250,42.480,34.668,41.016,-109.375
1532281047.203,34.180,41.992,32.715,43.457,-26.367
1532281047.207,36.621,41.992,32.227,47.852,174.805
1532281047.211,34.668,43.945,31.738,44.434,141.113
1532281047.215,29.297,43.945,31.738,39.062,-78.613
1532281047.219,25.879,42.969,32.715,38.086,-97.656
1532281047.223,23.926,42.480,32.715,35.645,93.750
1532281047.227,23.438,42.969,32.227,35.156,167.969
1532281047.231,24.414,42.969,32.227,31.250,-23.926
1532281047.235,25.391,43.945,32.227,29.785,-136.230
1532281047.239,27.832,43.945,31.738,33.691,38.574
1532281047.242,33.203,42.969,34.668,35.645,190.918
1532281047.246,30.273,42.480,35.645,36.621,71.289
1532281047.250,27.832,42.480,35.645,34.180,-108.398
1532281047.254,28.320,41.992,35.156,35.156,-17.090
1532281047.258,26.367,42.969,32.715,36.621,190.918
1532281047.262,29.785,43.945,32.715,35.156,123.047
1532281047.266,27.832,43.457,31.738,33.203,-98.145
1532281047.270,24.414,41.016,32.227,31.250,-80.566
1532281047.274,26.855,40.527,35.156,30.273,117.188
1532281047.278,31.250,40.039,35.156,34.180,160.645
1532281047.282,30.762,39.062,36.133,36.133,-52.734
1532281047.285,27.344,39.062,37.109,36.133,-127.930
1532281047.289,31.738,38.086,36.133,41.504,55.176
1532281047.293,35.645,38.086,35.645,41.016,153.320
1532281047.297,28.320,36.621,36.621,34.180,7.324
1532281047.301,27.344,35.156,37.598,34.180,-120.605
1532281047.305,29.785,37.598,35.645,34.668,20.020
1532281047.309,30.273,41.992,31.738,32.715,171.387
1532281047.313,32.715,41.992,32.227,28.809,43.945
1532281047.317,34.180,39.551,33.203,28.320,-115.234
1532281047.321,36.621,39.551,32.227,33.691,-12.695
1532281047.325,39.551,41.504,29.785,38.574,167.969
1532281047.328,41.016,41.992,30.273,40.039,108.398
1532281047.332,44.434,40.039,33.691,41.992,-88.867
1532281047.336,44.922,39.551,31.738,43.945,-65.430
1532281047.340,39.062,39.551,31.250,40.039,116.211
1532281047.344,34.180,36.621,29.785,33.203,162.109
1532281047.348,33.691,35.645,29.297,28.809,-10.742
1532281047.352,30.762,37.598,33.203,27.344,-83.008
1532281047.356,29.785,40.039,33.691,29.297,96.680
1532281047.360,30.273,39.062,33.691,34.668,191.406
1532281047.364,27.344,37.109,32.227,36.133,37.109
1532281047.367,25.391,38.086,32.715,35.156,-102.051
1532281047.371,21.484,38.574,34.180,31.250,1.953
1532281047.375,24.414,37.598,34.180,29.785,160.156
1532281047.379,22.949,36.133,34.668,30.762,70.801
1532281047.383,22.949,38.086,34.668,29.297,-117.676
1532281047.387,30.762,38.086,33.203,32.227,-41.016
1532281047.391,35.156,37.109,36.133,36.621,158.691
1532281047.395,36.133,39.062,37.109,38.574,134.766
1532281047.399,37.598,39.062,35.645,37.598,-55.664
1532281047.403,38.086,40.039,34.180,37.109,-89.355
1532281047.407,35.156,38.086,35.645,39.551,90.332
1532281047.410,28.809,37.598,35.156,34.668,147.949
1532281047.414,24.902,38.574,36.133,28.320,-34.668
1532281047.418,23.926,37.598,38.574,30.273,-128.418
1532281047.422,25.391,38.574,36.621,36.621,40.039
1532281047.426,22.461,39.551,36.621,37.109,190.918
1532281047.430,21.484,41.016,37.109,33.203,46.387
1532281047.434,25.879,41.992,36.621,33.203,-98.633
1532281047.438,26.367,40.527,37.598,35.156,11.719
1532281047.442,21.973,39.551,34.668,33.691,156.250
1532281047.446,20.996,37.598,33.203,33.203,102.051
1532281047.449,23.438,35.645,33.203,32.227,-85.938
1532281047.453,23.438,34.180,34.180,27.344,-65.430
1532281047.457,24.414,31.738,32.715,28.320,145.996
1532281047.461,26.855,31.250,29.785,30.273,127.930
1532281047.465,26.855,32.227,33.203,29.785,-45.410
1532281047.469,25.879,35.156,31.250,28.320,-78.613
1532281047.473,27.344,39.062,29.297,29.785,74.219
1532281047.477,26.367,40.039,34.180,34.180,159.180
1532281047.481,26.855,39.551,35.156,31.250,-8.301
1532281047.485,25.879,35.156,34.668,31.250,-138.672
1532281047.489,25.879,34.668,35.156,35.645,0.488
1532281047.492,29.785,38.574,36.133,35.645,139.160
1532281047.496,29.297,38.574,36.621,33.203,35.156
1532281047.500,33.691,40.039,35.156,33.691,-143.066
1532281047.504,32.715,41.016,33.691,34.668,-44.922
1532281047.508,28.809,39.551,34.180,36.133,161.621
1532281047.512,31.738,40.039,36.133,32.715,69.824
1532281047.516,34.668,41.504,36.133,31.250,-133.789
1532281047.520,33.203,41.504,37.109,37.598,-84.473
1532281047.524,29.785,41.016,37.598,36.621,140.137
1532281047.528,27.344,41.016,35.645,32.227,160.645
1532281047.532,25.879,39.551,36.133,27.832,-41.016
1532281047.535,26.367,39.551,35.156,27.344,-115.723
1532281047.539,27.344,41.992,35.645,26.855,55.176
1532281047.543,24.902,43.945,35.645,21.973,163.086
1532281047.547,21.484,42.480,35.156,19.531,14.648
1532281047.551,21.973,42.969,33.691,17.090,-135.254
1532281047.555,28.809,42.969,32.715,16.602,-26.367
1532281047.559,27.832,41.016,32.715,23.926,165.039
1532281047.563,23.438,38.574,31.250,23.438,91.309
1532281047.567,28.320,41.016,31.250,24.414,-93.750
1532281047.571,25.391,43.457,31.738,23.438,-55.664
1532281047.574,22.461,42.480,29.297,19.531,162.109
1532281047.578,24.414,43.945,28.320,18.555,166.992
1532281047.582,20.508,41.504,29.297,16.113,-84.961
1532281047.586,20.996,41.016,29.785,18.555,-99.121
1532281047.590,23.438,42.969,29.785,18.555,109.863
1532281047.594,20.020,39.551,25.879,15.625,136.719
1532281047.598,20.996,36.621,24.414,13.672,-33.691
1532281047.602,20.508,35.156,23.438,14.648,-96.680
1532281047.606,19.043,35.645,22.461,19.043,74.707
1532281047.610,18.555,36.133,24.902,20.508,208.008
1532281047.614,18.555,35.156,24.902,20.996,65.430
1532281047.617,16.602,35.156,25.391,21.484,-96.680
1532281047.621,20.020,35.156,27.832,28.320,12.695
1532281047.625,24.414,34.180,27.832,33.691,186.035
1532281047.629,27.832,36.133,27.344,31.738,94.238
1532281047.633,35.156,37.109,28.320,32.227,-98.145
1532281047.637,33.691,36.133,25.879,34.180,-59.082
1532281047.641,31.250,38.574,25.391,33.203,152.344
1532281047.645,28.809,37.598,25.391,31.738,144.531
1532281047.649,29.785,35.645,25.879,35.156,-68.848
1532281047.653,31.250,38.574,27.344,32.715,-95.703
1532281047.657,27.832,37.598,27.344,28.809,86.426
1532281047.660,25.879,34.180,29.297,28.809,147.949
1532281047.664,22.461,34.180,30.762,27.344,-30.762
1532281047.668,27.832,35.645,28.320,29.297,-129.883
1532281047.672,36.621,33.203,25.391,33.203,34.180
1532281047.676,32.227,29.785,26.367,33.203,175.781
1532281047.680,26.367,29.297,28.809,34.668,46.875
1532281047.684,33.203,32.227,30.762,39.551,-122.559
1532281047.688,39.062,32.227,29.785,43.945,-25.879
1532281047.692,41.016,31.738,28.809,42.969,165.527
1532281047.696,40.527,33.203,30.273,40.527,90.820
1532281047.699,39.551,32.715,29.297,39.551,-103.516
1532281047.703,42.480,31.738,27.344,36.621,-60.547
1532281047.707,46.387,31.738,26.367,34.668,133.301
1532281047.711,49.316,32.715,29.297,26.855,140.625
1532281047.715,52.734,30.762,29.785,23.438,-49.316
1532281047.719,51.270,31.250,27.832,26.855,-84.473
1532281047.723,44.922,31.738,26.367,31.738,111.328
1532281047.727,37.109,29.297,28.320,40.039,193.848
1532281047.731,31.738,29.297,30.762,39.062,-2.930
1532281047.735,29.785,27.832,31.250,38.574,-167.480
1532281047.739,27.832,24.414,32.227,43.945,-28.320
1532281047.742,24.902,24.902,32.715,44.434,172.363
1532281047.746,24.902,25.879,30.762,43.945,95.703
1532281047.750,27.832,28.809,30.762,41.016,-107.422
1532281047.754,26.855,31.250,32.227,37.598,-65.918
1532281047.758,25.879,28.809,29.297,33.203,123.535
1532281047.762,24.414,27.832,27.832,27.832,95.215
1532281047.766,20.508,27.832,26.367,23.926,-104.980
1532281047.770,20.508,27.832,28.320,21.973,-86.914
1532281047.774,19.531,27.832,31.250,26.367,141.602
1532281047.778,20.996,26.855,33.691,30.762,169.434
1532281047.782,22.949,26.855,33.691,27.832,-46.387
1532281047.785,26.367,26.855,32.715,30.273,-129.395
1532281047.789,30.762,26.367,32.227,34.668,77.637
1532281047.793,31.250,25.879,30.762,26.855,188.965
1532281047.797,26.855,24.902,31.250,24.902,18.555
1532281047.801,26.367,26.367,30.762,33.691,-107.422
1532281047.805,26.855,25.391,27.832,36.133,22.461
1532281047.809,26.855,21.973,25.879,33.203,175.781
1532281047.813,22.461,21.973,24.414,25.391,77.148
1532281047.817,19.043,23.438,22.949,20.996,-95.215
1532281047.821,19.531,22.949,20.020,24.902,-25.391
1532281047.824,18.555,22.949,18.066,21.973,141.113
1532281047.828,12.207,22.949,16.113,16.113,124.512
1532281047.832,11.230,24.414,14.648,11.719,-81.055
1532281047.836,16.113,27.832,15.137,12.695,-110.840
1532281047.840,18.066,27.344,15.137,18.066,126.465
1532281047.844,20.508,26.367,16.602,20.020,175.781
1532281047.848,20.020,28.320,16.602,20.020,-14.160
1532281047.852,19.531,28.809,16.113,21.484,-107.910
1532281047.856,24.902,27.832,18.555,24.414,40.527
1532281047.860,25.391,26.367,20.508,25.879,175.781
1532281047.864,23.438,26.855,20.508,23.926,58.594
1532281047.867,20.996,28.809,18.555,22.461,-95.703
1532281047.871,19.043,27.832,18.555,20.508,-9.277
1532281047.875,23.438,28.809,21.973,20.508,149.414
1532281047.879,25.879,30.273,20.996,20.020,63.965
1532281047.883,23.438,30.762,17.090,17.090,-125.488
1532281047.887,24.902,30.273,19.531,19.531,-62.012
1532281047.891,24.902,31.738,21.973,18.066,115.723
1532281047.895,24.902,33.691,21.973,17.090,125.488
1532281047.899,24.414,34.180,21.484,16.602,-55.664
1532281047.903,23.438,31.250,21.973,15.137,-115.723
1532281047.906,20.996,30.762,22.461,15.625,83.496
1532281047.910,20.996,32.227,22.949,15.137,161.621
1532281047.914,22.461,31.250,22.949,15.137,-22.461
1532281047.918,16.602,30.273,20.996,11.719,-129.395
1532281047.922,16.602,30.273,21.484,10.254,14.160
1532281047.926,20.020,29.297,21.484,15.137,176.758
1532281047.930,22.949,28.809,20.996,13.672,46.387
1532281047.934,17.578,29.785,19.531,2.441,-153.809
1532281047.938,13.672,30.762,19.531,3.906,-31.738
1532281047.942,17.578,30.273,23.438,12.207,168.457
1532281047.946,21.973,32.715,25.391,17.578,101.074
1532281047.949,21.484,35.645,24.414,16.602,-92.285
1532281047.953,19.043,33.203,24.902,12.695,-79.590
1532281047.957,20.508,32.227,25.391,14.160,105.957
1532281047.961,22.949,33.691,23.926,12.695,150.879
1532281047.965,21.973,33.691,23.438,13.184,-13.672
1532281047.969,20.508,34.668,25.879,14.648,-90.332
1532281047.973,21.484,35.645,25.879,9.277,61.035
1532281047.977,23.438,36.621,23.926,13.184,146.973
1532281047.981,24.902,39.551,26.367,21.484,-0.977
1532281047.985,20.020,39.062,27.832,19.531,-118.652
1532281047.989,21.484,36.621,28.809,21.484,29.785
1532281047.992,25.391,35.645,28.809,26.367,191.895
1532281047.996,20.996,36.133,27.344,26.367,68.848
1532281048.000,17.090,36.133,29.297,23.438,-120.605
1532281048.004,15.625,33.203,28.809,22.461,-29.785
1532281048.008,14.160,32.227,28.320,24.902,166.992
1532281048.012,12.207,31.250,28.809,24.902,104.492
1532281048.016,12.207,25.879,29.785,20.508,-88.379
1532281048.020,13.672,26.367,29.297,20.996,-80.078
1532281048.024,19.043,28.809,27.832,26.855,116.211
1532281048.028,23.926,31.250,30.273,28.809,180.176
1532281048.031,18.066,30.273,32.227,20.996,-33.691
1532281048.035,16.602,27.832,34.668,20.508,-145.020
1532281048.039,20.508,25.879,34.180,28.809,46.875
1532281048.043,20.020,26.367,33.203,27.832,170.410
1532281048.047,17.578,27.832,31.738,21.484,18.555
1532281048.051,18.555,27.832,31.250,21.973,-139.648
1532281048.055,21.484,28.320,32.715,26.367,-15.625
1532281048.059,22.949,29.785,32.227,27.344,174.805
1532281048.063,20.508,31.250,32.715,25.879,87.402
1532281048.067,14.648,30.762,33.691,21.973,-86.914
1532281048.071,16.602,31.250,33.691,20.996,-50.293
1532281048.074,20.508,30.273,35.645,22.461,120.117
1532281048.078,19.531,30.273,38.086,27.832,130.859
1532281048.082,21.484,32.227,37.598,28.809,-83.496
1532281048.086,22.949,32.227,36.621,27.832,-114.258
1532281048.090,23.438,32.715,34.180,26.855,62.500
1532281048.094,22.949,33.691,33.691,28.320,137.207
1532281048.098,25.391,31.738,36.133,31.738,-20.020
1532281048.102,21.484,29.297,33.203,27.344,-110.840
1532281048.106,16.602,28.320,32.227,25.391,61.035
1532281048.110,23.438,28.809,32.227,27.832,185.547
1532281048.114,24.902,28.809,31.250,26.367,33.203
1532281048.117,22.461,29.785,34.668,25.391,-133.789
1532281048.121,20.996,29.785,34.180,27.344,-33.203
1532281048.125,20.020,27.344,34.180,26.855,153.809
1532281048.129,23.926,28.809,33.203,28.320,91.797
1532281048.133,35.156,29.785,30.273,30.273,-84.473
1532281048.137,32.715,28.809,31.250,29.297,-36.621
1532281048.141,21.484,30.762,31.738,27.344,145.996
1532281048.145,20.020,32.715,33.203,22.949,158.691
1532281048.149,21.484,30.273,35.156,24.414,-30.762
1532281048.153,19.531,29.297,34.668,20.996,-121.094
1532281048.156,17.578,30.273,36.133,20.996,69.824
1532281048.160,21.484,29.785,38.086,26.855,178.711
1532281048.164,25.391,28.809,36.133,26.367,7.324
1532281048.168,23.438,29.297,34.668,27.344,-120.605
1532281048.172,19.531,33.691,31.738,26.367,4.395
1532281048.176,19.531,36.133,30.762,24.902,160.156
1532281048.180,23.438,35.645,34.180,25.879,57.129
1532281048.184,28.320,37.109,35.156,26.855,-110.352
1532281048.188,25.879,37.109,34.180,24.414,-25.391
1532281048.192,21.973,35.156,32.715,26.855,181.152
1532281048.196,20.020,32.715,29.297,25.879,148.926
1532281048.199,20.020,33.203,29.297,21.973,-95.703
1532281048.203,22.949,35.156,31.738,26.855,-86.914
1532281048.207,25.879,33.203,27.832,31.738,114.746
1532281048.211,26.855,33.691,26.367,28.320,112.793
1532281048.215,27.344,37.598,30.273,20.508,-69.824
1532281048.219,24.902,35.645,32.227,25.391,-110.352
1532281048.223,24.414,36.133,31.738,31.250,92.285
1532281048.227,23.926,36.133,28.809,27.832,183.594
1532281048.231,20.020,35.645,27.832,22.949,23.438
1532281048.235,22.461,37.109,28.809,24.902,-93.750
1532281048.239,28.320,36.621,30.273,31.250,55.664
1532281048.242,31.250,40.039,30.273,31.250,206.543
1532281048.246,30.762,42.480,32.715,30.273,83.496
1532281048.250,31.738,41.992,35.156,31.738,-110.840
1532281048.254,32.715,41.504,39.062,33.691,-61.035
1532281048.258,30.762,39.062,40.039,37.598,138.672
1532281048.262,31.250,36.621,41.992,40.039,123.535
1532281048.266,34.668,36.621,43.457,41.992,-79.590
1532281048.270,35.645,37.598,41.992,39.551,-121.582
1532281048.274,39.551,41.016,42.480,41.504,112.305
1532281048.278,43.457,42.969,44.434,46.387,187.988
1532281048.281,45.898,43.945,42.480,44.922,-17.090
1532281048.285,50.293,45.410,43.945,44.922,-81.055
1532281048.289,45.898,43.457,47.852,44.922,64.453
1532281048.293,44.922,44.922,49.316,45.898,173.340
1532281048.297,49.316,47.363,49.316,46.875,49.805
1532281048.301,48.340,48.340,50.293,45.898,-102.539
1532281048.305,45.410,49.316,49.316,47.363,5.859
1532281048.309,45.898,49.805,48.340,50.293,173.828
1532281048.313,44.922,51.270,50.293,47.363,61.035
1532281048.317,43.945,52.246,51.758,47.363,-139.160
1532281048.321,45.410,50.781,52.734,54.199,-77.148
1532281048.324,44.922,47.852,51.270,53.711,147.461
1532281048.328,45.898,47.363,52.246,51.758,141.113
1532281048.332,42.480,48.828,51.758,46.875,-74.707
1532281048.336,37.598,48.340,50.293,44.434,-106.445
1532281048.340,38.574,48.828,51.758,46.875,76.172
1532281048.344,40.527,50.781,52.734,46.875,174.805
1532281048.348,41.504,50.781,53.711,47.363,27.832
1532281048.352,41.992,47.852,51.270,42.480,-107.910
1532281048.356,42.480,47.852,50.293,39.062,35.645
1532281048.360,40.527,50.293,48.828,41.992,182.129
1532281048.363,40.039,52.246,48.828,41.504,56.641
1532281048.367,39.062,48.828,51.270,41.016,-123.535
1532281048.371,41.504,46.875,49.805,41.992,-27.344
1532281048.375,43.457,47.852,48.340,42.969,167.480
1532281048.379,43.945,46.875,49.316,41.992,113.770
1532281048.383,46.875,47.363,52.246,42.969,-87.402
1532281048.387,44.922,44.434,54.688,45.898,-73.730
1532281048.391,41.504,43.457,54.199,42.969,104.492
1532281048.395,41.504,45.410,54.688,40.039,117.188
1532281048.399,41.016,46.875,54.199,41.992,-41.992
1532281048.403,39.551,49.805,52.734,43.457,-71.777
1532281048.406,40.527,50.781,50.781,43.457,109.863
1532281048.410,41.504,50.781,50.781,43.457,176.270
1532281048.414,42.969,51.758,54.199,41.992,19.531
1532281048.418,41.504,50.781,56.641,42.969,-121.582
1532281048.422,39.551,48.340,55.176,42.969,11.230
1532281048.426,36.133,42.480,54.688,43.457,189.453
1532281048.430,36.621,39.551,55.176,47.363,69.336
1532281048.434,37.598,39.062,54.199,48.340,-152.832
1532281048.438,38.086,38.574,50.781,51.270,-91.309
1532281048.442,38.086,39.551,48.340,53.711,115.723
1532281048.446,36.621,38.086,47.363,50.293,103.027
1532281048.449,35.645,37.598,45.410,42.969,-91.797
1532281048.453,38.574,37.109,43.457,37.598,-119.629
1532281048.457,45.898,37.109,41.016,42.480,87.402
1532281048.461,41.992,38.086,38.086,39.551,164.062
1532281048.465,43.945,39.062,38.086,34.180,-4.395
1532281048.469,50.293,40.527,38.574,39.062,-108.398
1532281048.473,50.293,41.016,38.086,42.480,55.176
1532281048.477,53.223,41.016,36.133,39.062,199.219
1532281048.481,51.270,41.016,37.109,34.180,49.805
1532281048.485,53.711,39.062,38.086,34.668,-94.727
1532281048.488,53.711,38.086,36.133,41.016,20.020
1532281048.492,49.316,39.551,38.086,42.969,164.551
1532281048.496,45.410,41.016,40.527,43.945,61.523
1532281048.500,38.086,42.969,39.551,49.316,-116.211
1532281048.504,37.598,41.992,40.039,55.176,-76.172
1532281048.508,37.109,38.574,41.504,58.594,143.555
1532281048.512,34.180,38.086,43.945,53.223,142.090
1532281048.516,33.691,38.574,43.945,46.387,-57.617
1532281048.520,34.180,40.039,41.016,45.410,-72.754
1532281048.524,32.715,40.039,41.016,44.922,111.816
1532281048.528,31.738,39.551,42.480,43.457,177.246
1532281048.531,32.227,40.527,42.969,37.598,-41.016
1532281048.535,31.250,39.551,44.922,33.691,-158.203
1532281048.539,32.227,38.574,41.992,41.016,46.387
1532281048.543,35.156,38.086,41.992,42.969,201.172
1532281048.547,30.762,36.621,42.480,40.527,53.711
1532281048.551,29.297,36.621,41.504,38.086,-118.164
1532281048.555,31.250,36.133,42.480,44.922,-4.395
1532281048.559,34.668,36.621,43.945,51.758,174.805
1532281048.563,32.227,36.133,42.480,44.922,130.859
1532281048.567,28.320,30.273,40.039,37.598,-59.082
1532281048.571,27.832,26.855,40.527,33.203,-60.547
1532281048.574,26.367,25.879,41.504,32.227,121.094
1532281048.578,29.785,21.973,40.527,36.621,124.023
1532281048.582,29.297,17.090,39.551,36.621,-73.730
1532281048.586,26.367,15.137,41.016,34.668,-103.027
1532281048.590,31.250,15.625,38.086,36.621,71.777
1532281048.594,34.668,15.625,35.156,34.668,143.066
1532281048.598,37.598,15.137,35.645,34.668,5.371
1532281048.602,39.551,16.602,35.156,39.551,-116.211
1532281048.606,38.086,15.137,36.133,37.598,36.621
1532281048.610,37.598,10.742,36.133,35.645,181.152
1532281048.613,35.156,11.230,36.621,36.133,53.223
1532281048.617,35.645,11.719,35.156,35.645,-95.703
1532281048.621,41.992,10.742,35.156,39.551,-22.949
1532281048.625,44.922,11.719,34.668,41.992,149.902
1532281048.629,36.133,9.277,32.227,35.156,68.848
1532281048.633,34.668,7.812,31.738,34.668,-145.020
1532281048.637,38.574,9.766,28.320,39.551,-108.398
1532281048.641,34.180,10.742,24.902,37.598,91.797
1532281048.645,30.762,8.789,20.996,34.668,150.879
1532281048.649,34.180,8.301,17.578,35.645,-20.996
1532281048.653,34.668,10.742,16.113,31.250,-125.000
1532281048.656,31.738,9.766,11.230,29.297,62.500
1532281048.660,31.738,7.324,7.324,31.738,172.852
1532281048.664,37.109,7.812,7.324,31.738,14.160
1532281048.668,41.992,9.766,6.348,32.715,-112.793
1532281048.672,35.156,8.789,5.859,22.461,-12.207
1532281048.676,30.273,7.324,4.883,15.625,170.410
1532281048.680,32.715,7.812,4.395,25.879,86.426
1532281048.684,37.109,5.859,5.371,32.227,-110.352
1532281048.688,39.062,5.371,2.441,31.738,-43.457
1532281048.692,37.109,7.324,0.488,28.320,147.461
1532281048.696,33.203,7.324,2.441,29.297,113.281
1532281048.699,30.762,6.348,5.371,33.691,-92.773
1532281048.703,32.715,8.789,7.324,37.598,-105.469
1532281048.707,35.645,9.766,4.395,39.062,102.539
1532281048.711,35.156,7.812,2.930,34.180,164.551
1532281048.715,34.180,9.277,0.977,30.762,1.465
1532281048.719,33.203,7.812,-0.488,28.809,-96.680
1532281048.723,30.762,5.371,0.000,25.391,47.363
1532281048.727,33.691,6.836,-2.441,28.809,191.895
1532281048.731,33.203,7.812,-2.930,23.926,41.992
1532281048.735,34.668,5.859,-1.953,19.043,-122.559
1532281048.738,33.691,2.930,-0.488,27.344,6.348
1532281048.742,31.738,0.488,-0.488,31.738,174.805
1532281048.746,34.668,0.977,0.488,32.715,93.750
1532281048.750,36.621,1.953,3.906,33.203,-99.121
1532281048.754,33.691,2.441,2.930,31.738,-72.754
1532281048.758,31.250,3.906,-0.488,36.133,139.648
1532281048.762,30.762,4.395,0.000,35.645,138.184
1532281048.766,28.809,4.395,2.930,31.738,-70.312
1532281048.770,25.879,4.395,0.977,28.320,-116.699
1532281048.774,25.879,4.395,0.000,25.391,64.941
1532281048.778,24.414,4.395,-0.488,25.879,172.852
1532281048.781,21.973,5.371,-3.418,23.438,17.578
1532281048.785,21.973,5.859,-0.977,23.438,-95.215
1532281048.789,21.973,4.883,-0.977,26.367,40.039
1532281048.793,15.625,1.953,-0.977,24.902,180.176
1532281048.797,15.137,-0.977,0.488,25.879,64.941
1532281048.801,15.137,-4.395,2.441,26.367,-126.953
1532281048.805,14.160,-4.883,1.953,28.320,-14.648
1532281048.809,17.578,-4.395,-1.953,32.227,201.172
1532281048.813,17.578,-0.977,-0.977,24.902,103.027
1532281048.817,16.602,1.465,-2.441,21.973,-111.328
1532281048.820,17.578,0.977,-3.906,28.320,-61.035
1532281048.824,18.555,1.465,-1.953,32.715,140.625
1532281048.828,18.555,1.465,-2.441,30.273,160.645
1532281048.832,16.113,1.465,-3.906,24.902,-57.617
1532281048.836,18.066,0.488,-1.953,27.832,-93.262
1532281048.840,20.020,3.418,-1.465,32.227,106.934
1532281048.844,20.996,4.883,-1.953,33.203,176.758
1532281048.848,19.043,4.883,0.000,31.250,16.113
1532281048.852,16.113,3.418,0.977,27.832,-120.605
1532281048.856,17.578,2.930,-1.465,26.855,21.973
1532281048.860,15.625,4.883,-3.418,24.902,174.805
1532281048.863,16.113,5.371,-0.977,23.926,56.152
1532281048.867,21.973,7.324,0.488,26.367,-117.676
1532281048.871,21.973,10.254,-0.488,21.973,-64.941
1532281048.875,18.066,10.742,-3.906,11.230,131.836
1532281048.879,21.484,13.184,-3.418,15.625,122.559
1532281048.883,19.043,17.090,-4.395,20.508,-71.777
1532281048.887,13.672,17.090,-9.277,21.484,-76.172
1532281048.891,14.648,14.160,-5.859,24.902,123.047
1532281048.895,16.602,14.648,-1.953,26.367,165.039
1532281048.899,20.996,14.648,-3.418,29.785,-30.762
1532281048.903,21.484,14.648,-2.441,29.297,-116.211
1532281048.906,19.043,16.113,-1.953,26.855,64.941
1532281048.910,21.973,16.113,-2.441,24.414,165.527
1532281048.914,21.484,17.578,-1.953,19.043,19.531
1532281048.918,17.578,18.555,-1.465,19.531,-105.957
1532281048.922,15.137,17.578,-2.930,21.484,-4.395
1532281048.926,17.090,17.090,-2.441,24.414,183.105
1532281048.930,20.996,16.602,4.395,26.855,91.797
1532281048.934,18.555,15.625,7.324,26.855,-96.680
1532281048.938,19.531,16.113,5.859,32.227,-25.879
1532281048.942,30.273,16.602,7.324,42.480,166.504
1532281048.945,34.180,17.090,5.859,43.457,147.949
1532281048.949,29.785,18.066,5.371,34.180,-88.867
1532281048.953,27.344,18.066,7.812,26.855,-141.113
1532281048.957,29.785,18.555,5.859,33.203,81.055
1532281048.961,27.832,18.066,3.418,35.156,154.785
1532281048.965,22.949,18.066,5.859,29.785,-5.859
1532281048.969,22.949,19.043,9.277,26.855,-92.773
1532281048.973,24.902,18.066,7.812,27.832,36.621
1532281048.977,27.832,19.043,4.883,30.273,156.738
1532281048.981,29.785,20.996,6.348,28.809,41.504
1532281048.985,28.320,19.531,7.324,28.809,-106.445
1532281048.988,28.809,17.578,10.254,28.809,-16.602
1532281048.992,27.832,17.578,12.695,25.879,147.949
1532281048.996,26.367,19.043,14.160,24.414,70.312
1532281049.000,26.855,18.066,13.672,25.391,-108.887
1532281049.004,22.461,17.090,11.230,24.414,-51.758
1532281049.008,19.531,16.602,10.742,21.973,128.418
1532281049.012,21.973,18.066,11.719,19.043,106.445
1532281049.016,21.973,19.531,8.789,17.578,-83.008
1532281049.020,21.973,19.531,9.277,23.438,-108.398
1532281049.024,21.484,19.043,12.207,25.391,81.055
1532281049.028,21.484,18.555,14.648,22.461,176.758
1532281049.031,22.461,20.508,14.648,21.484,13.672
1532281049.035,25.391,20.996,16.113,25.391,-137.695
1532281049.039,26.367,19.043,18.555,27.344,3.906
1532281049.043,26.855,21.973,15.137,27.344,170.410
1532281049.047,28.320,25.391,16.113,26.367,43.945
1532281049.051,20.508,23.926,16.113,16.113,-134.277
1532281049.055,15.137,22.949,15.625,12.695,-72.266
1532281049.059,19.043,21.973,18.555,23.926,115.723
1532281049.063,23.438,24.414,17.578,31.250,119.629
1532281049.067,24.414,23.438,18.555,33.203,-66.895
1532281049.070,22.949,19.531,20.508,32.715,-78.613
1532281049.074,25.391,18.555,18.066,33.203,128.906
1532281049.078,26.855,19.531,17.578,30.762,174.316
1532281049.082,21.973,19.043,17.090,22.461,-15.625
1532281049.086,19.043,19.531,16.602,22.949,-97.168
1532281049.090,19.531,23.926,18.066,22.949,50.293
1532281049.094,19.531,25.879,16.602,14.648,139.648
1532281049.098,14.648,21.973,19.043,18.066,3.906
1532281049.102,12.695,19.043,21.484,21.484,-109.375
1532281049.106,17.578,20.508,20.020,24.902,0.977
1532281049.110,17.090,20.020,19.043,27.344,168.945
1532281049.113,20.508,19.531,19.531,25.391,70.801
1532281049.117,23.926,20.508,20.020,25.879,-109.375
1532281049.121,19.043,20.020,21.484,28.320,-44.922
1532281049.125,16.113,20.996,21.973,31.250,157.715
1532281049.129,15.137,23.438,21.484,30.273,140.137
1532281049.133,15.137,21.973,20.996,26.855,-82.520
1532281049.137,12.695,18.555,20.996,22.461,-81.055
1532281049.141,10.742,20.020,19.531,23.438,138.672
1532281049.145,16.602,20.508,19.043,25.391,188.965
1532281049.149,21.484,20.020,20.020,28.320,-4.883
1532281049.152,20.996,22.461,23.926,23.926,-123.047
1532281049.156,17.090,22.461,23.438,20.020,35.156
1532281049.160,16.602,20.508,20.020,27.832,154.785
1532281049.164,12.695,19.531,21.973,25.391,30.273
1532281049.168,10.254,20.020,24.414,19.043,-95.215
1532281049.172,10.742,19.043,21.973,20.020,-18.066
1532281049.176,12.695,19.531,17.578,24.414,136.230
1532281049.180,17.090,22.949,17.090,24.902,70.312
1532281049.184,15.137,26.367,21.484,20.996,-132.324
1532281049.188,18.066,28.809,23.926,24.902,-77.148
1532281049.192,22.949,27.344,25.391,27.832,127.930
1532281049.195,19.531,25.879,29.297,23.438,105.469
1532281049.199,20.996,27.344,30.762,24.414,-53.711
1532281049.203,23.438,28.809,29.297,31.738,-76.660
1532281049.207,30.273,29.297,28.809,38.086,108.398
1532281049.211,34.180,31.250,32.227,37.109,187.988
1532281049.215,31.738,32.227,33.203,36.621,-3.418
1532281049.219,30.762,30.762,31.738,35.156,-117.188
1532281049.223,32.715,31.250,30.273,35.156,50.293
1532281049.227,32.227,33.203,30.762,36.133,192.383
1532281049.231,28.809,32.715,31.250,30.273,70.801
1532281049.235,30.762,31.738,31.738,29.297,-105.957
1532281049.238,35.645,31.250,34.180,34.668,-5.371
1532281049.242,38.086,32.227,35.645,40.527,171.875
1532281049.246,38.574,34.180,38.574,41.992,116.699
1532281049.250,43.457,34.180,41.016,40.527,-90.332
1532281049.254,52.734,35.156,40.039,41.016,-77.148
1532281049.258,53.223,37.109,39.062,35.156,129.883
1532281049.262,53.223,36.621,38.574,31.250,145.508
1532281049.266,52.734,36.621,37.598,34.180,-43.457
1532281049.270,45.410,36.133,35.645,35.156,-95.703
1532281049.274,39.551,36.133,36.621,37.598,88.867
1532281049.277,34.668,34.668,38.574,43.945,175.781
1532281049.281,26.367,30.762,38.574,42.969,25.879
1532281049.285,22.461,30.273,38.086,39.551,-77.148
1532281049.289,22.461,31.250,35.645,40.527,23.438
1532281049.293,20.020,31.738,37.109,37.109,133.789
1532281049.297,18.555,31.738,39.551,35.645,63.965
1532281049.301,21.973,30.762,40.527,40.039,-103.027
1532281049.305,27.344,32.227,37.109,42.480,-40.039
1532281049.309,26.855,33.691,37.109,44.922,169.434
1532281049.313,24.902,33.203,39.551,44.434,133.301
1532281049.317,25.391,31.250,39.551,41.016,-88.379
1532281049.320,25.391,31.250,37.109,38.574,-83.984
1532281049.324,26.367,32.227,35.156,39.062,125.488
1532281049.328,27.344,30.762,35.156,37.109,160.156
1532281049.332,31.738,31.738,33.203,32.227,-41.016
1532281049.336,29.785,34.180,32.715,28.809,-150.879
1532281049.340,30.273,34.180,32.715,34.668,42.480
1532281049.344,39.062,33.203,33.203,39.551,176.270
1532281049.348,41.504,32.715,31.738,37.598,28.320
1532281049.352,40.527,35.156,30.273,29.785,-120.117
1532281049.356,39.551,33.691,30.273,26.855,15.137
1532281049.360,40.527,31.738,30.273,30.762,188.965
1532281049.363,41.992,32.715,29.785,30.762,85.449
1532281049.367,39.062,30.762,30.762,28.320,-99.609
1532281049.371,35.156,29.297,29.297,29.785,-49.805
1532281049.375,33.691,28.809,28.809,35.156,141.602
1532281049.379,33.203,30.762,28.809,35.645,133.789
1532281049.383,32.227,29.785,28.809,33.691,-60.059
1532281049.387,31.738,27.832,30.273,38.086,-94.727
1532281049.391,33.203,28.320,29.297,34.180,75.684
1532281049.395,34.180,30.762,27.344,27.344,147.461
1532281049.399,32.227,33.203,27.832,29.297,-43.945
1532281049.402,31.250,31.738,28.320,28.320,-158.203
1532281049.406,31.738,29.297,25.879,28.809,28.320
1532281049.410,36.133,30.273,29.297,31.738,166.016
1532281049.414,36.133,31.250,29.297,32.715,22.949
1532281049.418,30.762,28.320,26.855,32.227,-126.465
1532281049.422,35.156,27.832,25.879,33.691,-15.137
1532281049.426,39.062,28.809,25.391,38.086,165.039
1532281049.430,33.203,27.832,30.273,34.180,80.078
1532281049.434,26.367,25.391,31.738,22.461,-148.438
1532281049.438,28.320,23.438,30.273,25.879,-75.684
1532281049.442,31.738,24.902,30.273,31.738,171.875
1532281049.445,29.297,25.879,29.785,29.297,163.086
1532281049.449,27.832,28.320,31.250,28.320,-63.477
1532281049.453,25.391,28.809,30.762,27.832,-121.582
1532281049.457,26.367,26.855,28.809,31.738,86.914
1532281049.461,29.785,28.320,28.809,31.738,201.172
1532281049.465,28.809,25.879,28.320,26.367,23.438
1532281049.469,29.297,23.438,28.320,27.832,-124.512
1532281049.473,33.691,25.391,28.809,33.691,27.832
1532281049.477,31.250,25.879,24.902,33.203,196.777
1532281049.481,26.855,23.438,24.902,26.855,84.961
1532281049.485,23.438,23.926,25.879,24.414,-91.797
1532281049.488,24.902,22.461,26.855,27.344,-16.113
1532281049.492,31.250,21.973,27.832,25.879,150.879
1532281049.496,27.832,23.926,24.902,21.973,91.797
1532281049.500,27.344,25.391,22.949,25.391,-96.680
1532281049.504,29.785,25.391,19.531,29.297,-95.215
1532281049.508,27.832,23.438,17.578,28.809,109.863
1532281049.512,29.297,22.949,18.066,26.367,124.023
1532281049.516,28.320,22.949,18.066,25.391,-71.289
1532281049.520,27.832,22.949,18.066,27.832,-121.094
1532281049.524,30.762,23.926,17.578,28.809,92.773
1532281049.527,26.855,25.879,14.648,27.344,216.797
1532281049.531,24.902,24.902,14.648,22.949,24.902
1532281049.535,26.855,24.902,17.578,24.902,-128.418
1532281049.539,23.926,26.367,16.602,30.762,13.184
1532281049.543,21.973,24.902,14.648,28.320,200.684
1532281049.547,22.949,25.391,15.625,25.391,99.121
1532281049.551,24.902,28.809,15.137,25.391,-116.699
1532281049.555,23.926,26.855,14.648,27.832,-52.246
1532281049.559,20.996,23.926,16.113,28.809,166.016
1532281049.563,15.625,24.902,14.160,25.391,139.648
1532281049.567,15.137,23.438,11.719,26.367,-77.637
1532281049.570,17.090,22.461,14.160,24.902,-121.094
1532281049.574,13.184,22.949,15.137,19.043,73.730
1532281049.578,11.719,21.973,11.719,23.438,148.438
1532281049.582,14.648,23.926,11.230,27.344,-16.602
1532281049.586,12.207,22.949,12.207,24.414,-94.727
1532281049.590,9.766,19.531,12.207,22.461,78.613
1532281049.594,10.254,20.996,13.184,21.484,192.383
1532281049.598,14.160,21.484,10.254,20.996,63.477
1532281049.602,17.578,20.508,6.836,25.879,-96.191
1532281049.606,19.531,21.484,7.324,28.320,-1.465
1532281049.609,17.090,22.461,6.348,23.926,177.734
1532281049.613,10.742,23.438,7.812,20.020,87.891
1532281049.617,7.812,21.484,12.695,20.996,-98.633
1532281049.621,7.324,20.996,13.184,22.949,-53.711
1532281049.625,11.719,20.020,11.719,21.973,143.066
1532281049.629,13.672,20.020,12.695,22.461,112.793
1532281049.633,15.137,19.531,13.672,20.996,-86.914
1532281049.637,14.648,19.043,13.672,21.973,-102.051
1532281049.641,8.789,18.066,12.695,22.461,122.070
1532281049.645,11.230,19.043,10.254,20.996,207.031
1532281049.649,18.066,20.020,8.789,22.949,12.207
1532281049.652,20.996,23.438,6.348,25.391,-114.746
1532281049.656,13.672,24.414,4.395,20.996,39.062
1532281049.660,9.766,22.949,8.301,18.555,180.176
1532281049.664,11.230,23.438,8.789,17.090,46.875
1532281049.668,8.301,23.438,8.789,15.137,-113.770
1532281049.672,7.324,21.973,9.766,15.625,-34.668
1532281049.676,6.348,20.996,9.766,15.625,168.457
1532281049.680,6.348,19.043,9.766,16.602,122.070
1532281049.684,6.836,17.578,10.254,18.066,-95.215
1532281049.688,10.254,19.043,12.207,23.438,-67.383
1532281049.692,13.672,20.996,12.695,23.438,114.746
1532281049.695,12.207,22.461,12.695,18.066,154.297
1532281049.699,6.348,21.484,14.648,16.602,-40.039
1532281049.703,7.812,21.484,16.602,18.066,-122.070
1532281049.707,10.742,21.973,17.578,24.414,69.336
1532281049.711,5.371,22.461,18.555,15.625,155.762
1532281049.715,6.348,24.902,19.531,3.906,-23.438
1532281049.719,8.789,24.902,19.531,12.695,-146.484
1532281049.723,6.836,25.391,21.484,14.648,14.648
1532281049.727,10.742,26.855,21.973,12.207,202.148
1532281049.731,18.555,27.344,22.949,16.113,102.051
1532281049.734,18.066,25.879,24.414,14.648,-79.102
1532281049.738,16.602,27.832,23.926,17.578,-0.977
1532281049.742,17.578,29.785,23.926,19.531,199.707
1532281049.746,18.066,29.297,23.926,17.090,173.340
1532281049.750,21.973,31.738,25.879,17.090,-63.965
1532281049.754,21.484,34.668,24.902,13.672,-113.281
1532281049.758,20.996,34.668,19.043,16.113,98.145
1532281049.762,22.461,34.668,20.996,22.949,171.875
1532281049.766,23.438,33.691,22.461,23.438,-24.414
1532281049.770,28.809,34.668,22.461,23.438,-116.211
1532281049.774,35.645,38.086,23.926,28.809,55.176
1532281049.777,38.086,38.574,26.367,35.156,186.035
1532281049.781,33.691,35.156,29.785,33.203,50.781
1532281049.785,33.203,35.156,30.273,32.715,-108.887
1532281049.789,36.621,37.598,29.785,34.180,2.441
1532281049.793,34.668,39.551,30.762,30.762,181.152
1532281049.797,32.715,39.062,32.227,29.785,88.867
1532281049.801,31.250,38.086,32.715,27.344,-84.473
1532281049.805,28.809,38.086,34.668,29.297,-25.391
1532281049.809,30.762,38.086,34.668,34.668,154.785
1532281049.813,35.645,37.109,35.156,36.133,98.145
1532281049.817,37.109,35.645,35.645,39.551,-102.051
1532281049.820,38.086,37.109,34.668,41.992,-58.594
1532281049.824,36.621,40.039,35.156,39.062,141.602
1532281049.828,37.598,42.969,33.691,37.598,192.383
1532281049.832,45.410,43.457,34.668,41.016,-14.160
1532281049.836,44.434,41.504,36.133,39.062,-119.629
1532281049.840,38.086,39.062,37.109,37.598,64.941
1532281049.844,36.133,38.574,39.062,39.551,206.543
1532281049.848,39.062,38.086,39.551,42.969,62.988
1532281049.852,42.969,37.598,42.969,41.016,-114.258
1532281049.856,41.016,39.062,45.410,37.598,3.418
1532281049.859,39.551,39.062,43.945,42.480,214.355
1532281049.863,38.574,41.992,41.016,41.504,136.230
1532281049.867,40.039,43.945,38.574,37.109,-95.703
1532281049.871,41.016,43.457,37.598,38.086,-83.008
1532281049.875,37.598,41.992,39.551,37.598,129.883
1532281049.879,32.715,40.527,41.016,31.250,154.785
1532281049.883,32.715,39.551,41.016,29.297,-54.199
1532281049.887,33.691,39.551,40.039,33.203,-110.352
1532281049.891,36.133,38.574,38.574,32.715,69.336
1532281049.895,33.691,36.621,37.109,33.691,159.668
1532281049.899,35.645,37.109,36.133,38.574,10.254
1532281049.902,42.480,37.598,38.086,41.992,-109.375
1532281049.906,41.016,37.109,40.527,46.875,50.781
1532281049.910,35.156,37.598,40.527,39.551,187.988
1532281049.914,32.715,38.086,38.086,30.762,30.273
1532281049.918,30.762,36.621,36.133,33.691,-120.117
1532281049.922,27.832,35.645,36.621,36.621,-22.461
1532281049.926,30.273,38.086,38.086,40.527,164.062
1532281049.930,30.273,38.086,37.109,34.668,110.352
1532281049.934,27.832,36.621,34.180,29.785,-112.305
1532281049.938,29.297,35.645,33.203,31.738,-88.867
1532281049.942,31.250,36.133,30.273,32.715,134.766
1532281049.945,36.133,35.645,28.320,39.062,149.414
1532281049.949,39.062,36.133,30.273,44.434,-45.898
1532281049.953,30.762,35.156,30.762,36.133,-115.723
1532281049.957,22.949,32.227,30.273,27.832,60.059
1532281049.961,20.508,34.668,30.273,24.902,192.871
1532281049.965,19.531,35.156,31.250,22.949,42.969
1532281049.969,20.996,32.227,32.715,25.391,-122.559
1532281049.973,21.484,31.738,30.273,29.297,-11.719
1532281049.977,20.508,33.691,28.320,31.250,176.758
1532281049.981,22.461,35.156,27.344,30.273,99.609
1532281049.984,29.297,34.180,25.879,31.738,-96.680
1532281049.988,32.715,32.715,27.344,39.551,-48.828
1532281049.992,28.320,30.762,28.809,36.133,149.902
1532281049.996,27.832,31.738,28.809,28.320,101.074
1532281050.000,26.855,32.227,27.832,30.762,-89.355
1532281050.004,29.785,28.809,25.879,33.691,-62.012
1532281050.008,29.785,26.855,26.855,37.109,139.648
1532281050.012,24.902,27.832,29.785,33.691,167.969
1532281050.016,29.785,29.785,26.855,31.738,-3.906
1532281050.020,33.691,32.227,20.996,31.738,-68.848
1532281050.024,34.668,32.715,22.461,34.180,81.543
1532281050.027,32.227,31.250,25.879,30.762,195.312
1532281050.031,29.785,32.227,27.344,24.414,23.926
1532281050.035,36.133,33.691,24.414,27.344,-140.625
1532281050.039,41.504,32.715,22.461,34.668,16.113
1532281050.043,36.621,32.227,24.902,35.156,172.852
1532281050.047,33.691,30.273,26.367,30.273,87.891
1532281050.051,38.574,31.738,25.391,29.297,-113.281
1532281050.055,42.480,35.156,22.949,29.297,-71.777
1532281050.059,41.992,32.715,24.902,29.297,152.344
1532281050.063,42.969,32.715,26.855,23.926,150.391
1532281050.066,47.363,34.180,24.414,23.926,-34.668
1532281050.070,47.852,33.691,23.926,30.762,-83.008
1532281050.074,40.527,34.180,25.391,32.715,87.402
1532281050.078,25.879,32.227,23.926,28.320,162.109
1532281050.082,16.113,28.320,22.461,25.391,-9.766
1532281050.086,20.996,28.809,22.949,29.297,-116.699
1532281050.090,29.297,29.297,23.438,40.039,28.809
1532281050.094,31.738,28.320,25.391,42.480,164.551
1532281050.098,30.762,29.785,26.855,41.504,73.730
1532281050.102,35.156,31.250,26.855,46.387,-81.543
1532281050.106,38.086,31.250,22.461,47.852,-13.672
1532281050.109,36.133,32.715,20.508,47.852,169.434
1532281050.113,32.715,34.180,21.484,38.086,108.887
1532281050.117,27.344,32.227,21.484,33.203,-57.129
1532281050.121,19.043,30.273,22.461,32.715,-49.316
1532281050.125,10.742,28.320,20.508,26.367,138.672
1532281050.129,13.672,27.344,20.020,23.438,164.551
1532281050.133,15.137,27.344,22.461,15.625,-61.035
1532281050.137,11.230,28.320,22.949,14.648,-96.680
1532281050.141,13.184,28.809,21.973,24.902,93.750
1532281050.145,20.996,30.273,20.508,27.832,166.992
1532281050.149,26.367,32.715,19.531,27.344,5.371
1532281050.152,26.367,34.180,20.020,24.902,-128.906
1532281050.156,28.809,35.645,22.461,26.855,14.160
1532281050.160,27.832,34.668,23.438,34.668,165.039
1532281050.164,27.344,33.203,23.926,36.133,58.105
1532281050.168,28.320,30.762,26.367,33.203,-97.168
1532281050.172,27.344,27.832,22.461,29.785,-37.598
1532281050.176,23.926,26.367,19.531,25.879,147.949
1532281050.180,22.461,26.367,22.949,27.344,147.949
1532281050.184,27.832,26.855,22.461,28.809,-73.242
1532281050.188,31.738,26.855,22.461,30.273,-76.660
1532281050.191,33.203,28.809,21.484,32.715,131.836
1532281050.195,33.203,29.785,18.555,34.180,168.457
1532281050.199,32.227,29.297,20.020,32.227,-19.043
1532281050.203,32.227,28.320,21.973,33.691,-104.980
1532281050.207,33.203,28.809,21.973,36.621,70.312
1532281050.211,31.738,29.785,21.484,34.180,181.152
1532281050.215,29.297,27.344,21.484,32.715,10.742
1532281050.219,28.320,24.902,21.973,30.762,-121.582
1532281050.223,27.344,24.414,22.949,33.203,24.902
1532281050.227,19.531,25.391,21.484,32.227,194.824
1532281050.231,17.578,25.879,21.484,21.973,62.988
1532281050.234,26.367,24.414,24.414,17.578,-144.531
1532281050.238,29.785,22.949,22.949,20.020,-52.246
1532281050.242,21.484,24.414,19.043,16.602,142.578
1532281050.246,16.602,23.438,18.066,13.672,130.371
1532281050.250,19.531,23.438,17.578,15.625,-77.148
1532281050.254,26.367,25.391,16.602,17.090,-101.562
1532281050.258,30.273,23.926,20.508,22.461,115.234
1532281050.262,26.855,21.484,23.438,27.344,168.457
1532281050.266,25.391,20.996,20.996,24.414,-7.812
1532281050.270,29.785,20.020,21.484,26.367,-117.188
1532281050.274,31.738,20.508,24.414,29.785,29.297
1532281050.277,30.273,21.973,22.461,30.273,168.457
1532281050.281,27.344,21.484,19.043,26.855,40.039
1532281050.285,25.879,19.531,20.020,22.461,-94.238
1532281050.289,25.391,21.484,19.531,20.508,6.348
1532281050.293,21.484,20.020,17.578,18.555,145.508
1532281050.297,17.578,19.531,16.602,16.602,76.172
1532281050.301,17.090,23.438,17.090,17.090,-83.496
1532281050.305,18.555,22.949,17.578,18.555,-62.012
1532281050.309,21.484,22.949,15.625,21.484,123.535
1532281050.313,21.484,25.391,15.137,15.625,115.723
1532281050.316,21.484,25.879,14.648,9.766,-95.703
1532281050.320,23.438,24.902,12.695,16.602,-101.074
1532281050.324,22.461,25.879,13.184,23.438,114.746
1532281050.328,20.996,24.902,16.113,25.391,186.035
1532281050.332,21.973,22.949,17.578,24.414,-1.465
1532281050.336,25.879,24.414,19.531,24.902,-107.910
1532281050.340,26.367,23.926,18.066,26.855,34.668
1532281050.344,21.973,21.484,19.043,26.855,186.523
1532281050.348,18.555,22.461,21.973,24.902,60.059
1532281050.352,18.555,22.949,22.461,24.414,-130.371
1532281050.356,19.043,22.461,21.973,25.391,-25.391
1532281050.359,17.578,22.461,18.066,24.902,157.227
1532281050.363,14.160,22.949,17.578,20.996,121.582
1532281050.367,16.602,20.996,19.043,22.461,-49.316
1532281050.371,21.484,19.531,20.996,28.320,-75.195
1532281050.375,17.578,20.508,20.020,28.809,124.512
1532281050.379,15.137,19.043,21.484,27.832,184.570
1532281050.383,15.137,17.090,24.414,22.461,-23.438
1532281050.387,16.113,17.090,21.973,22.461,-110.840
1532281050.391,21.973,18.066,21.973,28.809,83.008
1532281050.395,24.414,18.555,23.438,29.785,200.684
1532281050.399,24.902,20.996,22.949,25.879,26.855
1532281050.402,22.461,22.461,24.414,25.391,-137.207
1532281050.406,19.531,22.461,25.879,24.414,22.949
1532281050.410,18.066,21.973,24.902,22.949,187.500
1532281050.414,16.113,21.484,24.902,23.438,63.965
1532281050.418,16.602,22.461,25.391,24.902,-110.840
1532281050.422,18.066,21.973,26.855,24.902,-52.734
1532281050.426,22.461,21.484,25.879,30.273,186.035
1532281050.430,28.320,22.461,25.879,31.250,134.277
1532281050.434,24.902,23.438,26.855,21.973,-107.910
1532281050.438,17.090,21.973,25.391,21.484,-76.172
1532281050.441,17.578,20.996,22.949,23.926,114.258
1532281050.445,20.508,21.973,22.461,25.879,161.621
1532281050.449,20.508,20.996,23.438,26.367,-9.277
1532281050.453,25.391,20.508,24.902,23.926,-113.770
1532281050.457,30.762,21.484,22.949,28.320,65.918
1532281050.461,25.879,20.508,20.996,30.273,186.523
1532281050.465,22.461,22.461,23.438,29.785,32.227
1532281050.469,21.484,23.438,21.973,28.809,-112.793
1532281050.473,17.578,23.438,22.461,25.391,-9.277
1532281050.477,22.461,22.461,25.879,28.320,165.527
1532281050.481,26.367,20.996,27.344,32.227,87.402
1532281050.484,19.531,19.531,28.809,30.762,-83.984
1532281050.488,20.020,18.066,27.344,30.273,-43.457
1532281050.492,22.949,19.531,25.879,30.273,130.371
1532281050.496,25.391,22.461,26.367,30.273,129.883
1532281050.500,28.320,23.438,26.367,30.273,-82.031
1532281050.504,26.367,22.461,25.391,29.297,-110.840
1532281050.508,20.996,20.508,23.926,29.785,108.398
1532281050.512,17.578,22.949,23.926,23.926,165.527
1532281050.516,17.578,22.949,24.414,20.020,-33.691
1532281050.520,17.090,21.484,24.414,25.391,-136.719
1532281050.523,17.578,21.973,23.926,28.320,6.348
1532281050.527,20.020,21.973,23.438,29.297,162.598
1532281050.531,23.438,22.949,25.391,26.367,37.109
1532281050.535,25.391,23.438,25.391,25.391,-169.434
1532281050.539,26.367,20.996,26.367,29.297,-29.785
1532281050.543,23.926,21.484,25.879,27.832,168.457
1532281050.547,20.508,20.996,24.902,24.902,95.703
1532281050.551,19.043,18.555,25.879,22.461,-95.703
1532281050.555,16.113,19.043,26.367,22.461,-97.656
1532281050.559,17.578,20.020,27.344,23.926,125.977
1532281050.563,21.973,21.484,26.855,25.391,157.715
1532281050.566,22.949,24.414,24.902,25.879,-64.453
1532281050.570,23.926,23.926,23.926,25.391,-126.953
1532281050.574,23.438,23.438,22.949,26.367,72.754
1532281050.578,28.809,25.879,21.973,29.785,164.062
1532281050.582,31.250,24.902,21.973,30.762,-1.465
1532281050.586,26.367,23.438,21.973,28.320,-131.348
1532281050.590,29.297,23.438,22.461,29.297,3.418
1532281050.594,26.367,22.949,23.926,19.043,140.137
1532281050.598,21.484,23.926,26.367,15.137,44.434
1532281050.602,21.484,23.926,26.367,25.391,-77.637
1532281050.606,21.484,22.949,25.879,30.762,7.812
1532281050.609,24.414,24.414,27.344,33.203,187.012
1532281050.613,22.949,23.438,26.855,29.785,159.668
1532281050.617,21.973,21.973,24.902,26.855,-32.227
1532281050.621,26.855,21.973,25.879,27.832,-77.637
1532281050.625,22.461,22.949,27.344,27.832,123.535
1532281050.629,20.996,24.414,26.855,26.367,184.570
1532281050.633,23.926,25.879,26.855,24.414,-26.855
1532281050.637,22.461,24.414,27.832,23.438,-118.652
1532281050.641,27.344,23.926,26.855,29.297,57.617
1532281050.645,29.297,24.902,27.344,34.668,175.293
1532281050.648,24.902,23.438,27.832,32.715,14.648
1532281050.652,22.461,22.949,28.809,33.691,-150.391
1532281050.656,20.508,23.438,29.785,37.109,-15.625
1532281050.660,20.508,24.414,30.762,36.133,171.387
1532281050.664,21.973,23.926,33.203,34.668,71.777
1532281050.668,22.949,23.438,30.762,35.156,-111.328
1532281050.672,26.855,23.926,31.738,35.156,-91.797
1532281050.676,30.273,24.414,31.738,37.598,123.047
1532281050.680,31.738,25.391,27.832,38.086,132.324
1532281050.684,31.250,24.902,26.367,31.738,-83.008
1532281050.688,27.832,24.902,25.391,31.250,-91.797
1532281050.691,25.879,24.414,24.902,30.273,72.754
1532281050.695,24.902,23.926,23.926,26.367,127.930
1532281050.699,24.902,25.391,23.926,30.273,-22.461
1532281050.703,25.879,24.414,24.902,29.785,-107.422
1532281050.707,24.414,21.973,26.367,29.297,61.035
1532281050.711,26.855,20.996,25.879,30.762,187.500
1532281050.715,28.320,21.484,22.949,28.320,50.781
1532281050.719,26.855,22.461,23.926,26.367,-120.117
1532281050.723,24.414,22.461,23.926,23.926,11.719
1532281050.727,19.531,20.996,20.996,19.531,193.848
1532281050.731,16.602,21.484,20.020,15.625,74.219
1532281050.734,18.066,20.996,19.531,17.090,-119.629
1532281050.738,22.949,22.949,20.508,26.367,-77.148
1532281050.742,32.227,25.391,24.414,35.645,133.789
1532281050.746,34.180,25.391,26.367,41.992,148.438
1532281050.750,32.715,24.414,27.344,37.598,-62.988
1532281050.754,34.180,25.879,29.785,33.203,-111.816
1532281050.758,33.691,27.344,28.320,37.109,102.051
1532281050.762,32.715,28.320,29.297,41.016,191.406
1532281050.766,32.227,31.250,33.203,40.527,10.254
1532281050.770,33.203,32.715,35.156,39.551,-119.629
1532281050.773,33.691,34.180,32.715,38.086,4.395
1532281050.777,32.227,32.715,32.715,36.133,165.527
1532281050.781,29.785,30.273,38.086,34.180,60.059
1532281050.785,26.367,31.250,40.039,29.297,-130.859
1532281050.789,27.344,31.738,37.109,29.785,-32.227
1532281050.793,29.297,31.250,34.668,31.250,150.879
1532281050.797,31.738,32.715,35.156,35.645,104.492
1532281050.801,37.109,35.156,34.180,40.527,-66.406
1532281050.805,39.551,35.645,32.715,44.434,-52.734
1532281050.809,41.016,38.574,31.250,48.828,132.812
1532281050.813,40.527,40.039,31.738,47.852,162.598
1532281050.816,40.527,41.016,34.180,45.410,-30.762
1532281050.820,40.039,41.016,34.180,46.387,-103.027
1532281050.824,41.016,39.062,33.691,48.340,86.426
1532281050.828,44.922,38.086,31.250,51.758,187.500
1532281050.832,44.434,38.574,31.738,46.875,3.906
1532281050.836,44.922,39.062,32.227,43.457,-139.648
1532281050.840,49.316,39.551,32.715,49.805,23.926
1532281050.844,49.316,39.062,33.691,51.758,178.711
1532281050.848,44.434,37.109,31.250,49.316,88.379
1532281050.852,40.039,36.621,30.762,42.969,-107.910
1532281050.856,38.086,34.668,30.762,41.992,-45.898
1532281050.859,38.574,34.180,32.227,48.340,166.016
1532281050.863,36.621,36.621,34.668,50.781,130.859
1532281050.867,34.180,34.180,34.180,47.852,-61.523
1532281050.871,39.062,34.180,32.715,48.828,-70.312
1532281050.875,45.898,37.598,35.156,56.641,109.375
1532281050.879,41.016,35.645,33.203,54.688,154.297
1532281050.883,37.598,33.691,32.715,50.781,-43.945
1532281050.887,44.434,34.668,33.203,55.664,-136.719
1532281050.891,48.828,37.598,30.273,53.223,33.691
1532281050.895,46.875,40.527,28.320,47.363,149.414
1532281050.898,43.945,41.992,28.320,43.945,21.973
1532281050.902,43.457,39.551,26.855,35.156,-132.324
1532281050.906,42.969,37.598,24.902,29.297,13.672
1532281050.910,45.410,39.551,24.902,26.855,175.781
1532281050.914,49.805,40.527,23.926,25.879,46.387
1532281050.918,47.363,38.086,21.484,35.156,-137.695
1532281050.922,41.504,34.180,22.949,42.480,-69.336
1532281050.926,41.016,29.785,23.926,48.828,160.645
1532281050.930,40.527,30.762,26.855,53.711,137.695
1532281050.934,39.062,35.645,26.855,45.898,-98.633
1532281050.938,40.527,38.086,21.973,44.434,-125.000
1532281050.941,38.086,36.621,22.949,46.387,109.375
1532281050.945,33.203,35.645,21.973,42.969,174.316
1532281050.949,29.785,36.133,20.996,41.504,-27.832
1532281050.953,25.391,35.645,20.996,35.645,-124.512
1532281050.957,25.879,33.691,21.973,34.180,55.664
1532281050.961,27.832,31.738,22.949,34.180,166.992
1532281050.965,30.273,33.691,21.484,33.203,32.715
1532281050.969,31.738,38.086,17.578,31.250,-92.773
1532281050.973,28.809,38.574,16.113,27.832,-32.227
1532281050.977,30.273,35.645,20.508,31.250,142.090
1532281050.980,33.691,34.668,22.461,39.062,135.254
1532281050.984,35.156,34.180,22.949,44.922,-65.430
1532281050.988,35.156,34.668,25.879,47.363,-68.848
1532281050.992,31.738,37.109,23.438,41.992,122.559
1532281050.996,29.785,37.598,21.973,40.527,153.320
1532281051.000,32.227,35.645,23.438,43.457,-54.688
1532281051.004,28.320,33.691,22.461,38.574,-99.609
1532281051.008,25.391,33.691,23.438,38.086,112.305
1532281051.012,26.367,33.691,23.926,38.086,172.363
1532281051.016,29.297,32.227,23.438,37.109,0.488
1532281051.020,28.320,29.785,24.902,36.621,-115.723
1532281051.023,29.297,29.297,26.367,37.109,11.719
1532281051.027,30.762,31.738,23.438,37.598,177.246
1532281051.031,22.949,33.691,21.484,25.391,64.941
1532281051.035,22.461,35.645,20.508,21.484,-147.461
1532281051.039,25.391,33.203,20.020,28.809,-50.781
1532281051.043,26.367,31.250,21.484,29.785,172.363
1532281051.047,26.367,30.273,22.949,30.762,121.094
1532281051.051,24.414,27.832,22.949,28.320,-98.145
1532281051.055,20.508,27.832,21.484,26.855,-101.562
1532281051.059,20.996,28.809,21.484,28.320,111.816
1532281051.063,24.902,30.762,19.531,26.855,139.648
1532281051.066,27.832,31.738,17.578,29.785,-31.250
1532281051.070,29.297,30.762,20.020,29.785,-94.727
1532281051.074,26.367,31.250,20.020,24.414,60.059
1532281051.078,22.949,28.809,19.043,28.809,162.598
1532281051.082,25.391,26.855,20.020,33.203,5.859
1532281051.086,26.855,24.902,19.531,30.273,-125.000
1532281051.090,27.344,25.391,16.113,30.762,-0.488
1532281051.094,30.762,28.320,13.672,34.180,170.898
1532281051.098,25.879,26.855,15.625,29.785,81.055
1532281051.102,23.926,26.855,17.578,23.438,-111.328
1532281051.105,31.250,28.809,18.066,31.250,-77.148
1532281051.109,33.203,28.320,17.578,37.598,120.605
1532281051.113,30.762,26.367,17.578,29.297,95.703
1532281051.117,32.227,26.855,16.113,25.391,-104.980
1532281051.121,33.203,29.785,12.695,27.344,-94.727
1532281051.125,31.738,29.297,13.672,30.762,85.938
1532281051.129,25.879,26.855,17.578,29.297,153.809
1532281051.133,20.996,27.344,18.555,27.832,-28.320
1532281051.137,25.879,29.297,18.066,30.762,-152.344
1532281051.141,25.879,28.320,16.113,33.203,24.902
1532281051.145,22.949,25.391,16.113,31.250,166.504
1532281051.148,25.879,25.391,14.648,28.809,27.344
1532281051.152,27.832,28.320,12.695,27.344,-143.555
1532281051.156,26.367,27.344,15.137,24.414,-20.996
1532281051.160,26.855,27.832,15.137,23.926,161.621
1532281051.164,32.227,30.273,13.184,27.832,91.309
1532281051.168,33.691,30.273,15.137,28.320,-80.078
1532281051.172,30.273,29.785,14.160,20.508,-67.383
1532281051.176,25.879,29.297,14.648,14.648,136.230
1532281051.180,27.344,25.879,17.578,23.926,137.207
1532281051.184,30.762,24.414,19.043,30.273,-59.570
1532281051.188,29.297,26.855,15.625,28.809,-98.145
1532281051.191,26.367,30.762,9.277,24.414,72.266
1532281051.195,24.414,32.715,7.324,22.949,156.250
1532281051.199,24.414,31.250,11.719,25.879,-13.672
1532281051.203,22.949,29.297,18.066,26.367,-131.348
1532281051.207,19.531,28.320,16.602,24.902,41.016
1532281051.211,19.043,26.367,18.066,23.438,191.895
1532281051.215,22.949,24.414,19.531,22.949,35.156
1532281051.219,21.973,25.391,14.648,21.973,-130.859
1532281051.223,19.531,26.367,14.160,22.949,-51.758
1532281051.227,19.531,26.367,13.672,28.320,133.301
1532281051.230,23.926,26.855,13.184,32.227,89.355
1532281051.234,25.879,27.832,14.648,31.738,-110.352
1532281051.238,21.973,29.297,14.648,29.785,-61.523
1532281051.242,19.531,28.809,13.184,27.344,152.344
1532281051.246,24.414,29.297,11.230,30.273,163.574
1532281051.250,29.297,33.203,8.789,30.273,-48.340
1532281051.254,28.320,34.180,10.254,25.879,-144.531
1532281051.258,25.879,31.738,11.719,28.809,61.523
1532281051.262,22.461,29.785,11.719,29.297,188.965
1532281051.266,22.949,28.320,12.695,28.809,5.859
1532281051.270,24.902,27.832,12.695,31.738,-122.070
1532281051.273,25.391,28.809,11.230,33.691,8.301
1532281051.277,22.949,27.344,12.207,31.250,178.223
1532281051.281,20.996,27.832,12.207,25.391,98.145
1532281051.285,22.949,30.762,9.766,22.461,-88.867
1532281051.289,25.391,30.273,10.254,24.902,-37.109
1532281051.293,28.320,30.762,11.719,25.879,104.980
1532281051.297,29.785,34.180,10.254,25.879,79.590
1532281051.301,26.855,33.203,9.277,28.320,-70.312
1532281051.305,24.414,31.250,8.301,30.273,-85.449
1532281051.309,23.438,27.344,10.742,29.785,116.699
1532281051.313,23.926,28.320,11.230,27.344,153.809
1532281051.316,24.414,30.762,13.184,26.855,-51.270
1532281051.320,25.391,30.762,13.672,30.273,-101.562
1532281051.324,24.414,32.715,12.207,33.203,78.125
1532281051.328,24.414,31.250,15.625,34.180,165.039
1532281051.332,26.367,28.320,15.137,31.250,2.441
1532281051.336,26.855,27.344,14.648,28.809,-104.980
1532281051.340,28.809,25.391,16.602,29.297,16.113
1532281051.344,29.297,28.320,15.625,25.879,163.086
1532281051.348,27.832,30.762,11.719,25.879,97.656
1532281051.352,25.391,29.297,13.672,20.996,-123.047
1532281051.355,17.578,26.367,17.578,13.184,-72.754
1532281051.359,18.066,23.438,18.555,21.484,179.199
1532281051.363,22.461,24.902,17.578,25.879,185.547
1532281051.367,19.531,25.879,13.672,21.484,-33.691
1532281051.371,21.973,27.832,11.719,22.949,-98.633
1532281051.375,23.438,29.785,14.160,26.367,81.543
1532281051.379,26.855,31.250,15.137,30.762,161.621
1532281051.383,27.344,31.738,11.719,29.297,-20.996
1532281051.387,22.461,31.250,13.672,29.297,-125.977
1532281051.391,25.391,28.320,17.578,30.273,50.293
1532281051.395,31.738,28.809,17.578,32.715,187.500
1532281051.398,28.320,32.715,16.113,32.227,54.199
1532281051.402,20.020,35.156,13.184,25.391,-128.418
1532281051.406,16.602,34.668,10.742,22.461,-23.438
1532281051.410,17.578,32.227,11.719,22.949,171.387
1532281051.414,22.461,31.250,13.184,26.855,96.680
1532281051.418,18.066,30.762,10.742,22.949,-84.473
1532281051.422,17.090,35.645,9.766,20.020,-53.223
1532281051.426,22.949,34.668,8.789,22.461,154.297
1532281051.430,17.090,30.273,8.789,17.578,170.898
1532281051.434,14.160,30.273,11.719,15.625,-49.316
1532281051.437,16.113,29.785,10.742,20.508,-99.609
1532281051.441,19.043,35.645,9.766,22.949,86.426
1532281051.445,18.066,39.062,9.277,18.555,147.461
1532281051.449,14.648,40.039,9.766,12.207,-34.668
1532281051.453,15.137,38.086,10.254,12.695,-155.273
1532281051.457,14.648,34.668,10.254,16.113,0.977
1532281051.461,16.602,34.180,14.160,21.973,161.133
1532281051.465,15.625,34.180,15.137,21.973,31.738
1532281051.469,13.672,36.621,10.742,13.184,-146.484
1532281051.473,12.695,38.574,9.277,11.719,-38.574
1532281051.477,12.207,38.086,10.742,16.602,169.922
1532281051.480,18.555,38.574,14.160,18.066,104.492
1532281051.484,20.996,40.039,16.602,19.043,-89.844
1532281051.488,17.578,41.016,14.160,23.926,-70.801
1532281051.492,16.602,43.945,11.230,19.531,124.023
1532281051.496,12.695,41.504,10.742,14.648,148.926
1532281051.500,12.695,40.527,11.719,19.043,-38.086
1532281051.504,18.066,41.504,14.160,20.996,-94.727
1532281051.508,19.043,39.062,15.625,18.066,80.078
1532281051.512,17.578,38.574,13.184,11.719,176.758
1532281051.516,22.461,38.574,10.254,11.230,26.855
1532281051.520,24.414,39.062,10.254,9.277,-100.098
1532281051.523,21.973,40.527,9.766,10.254,-5.859
1532281051.527,15.625,39.551,10.254,14.648,153.320
1532281051.531,14.160,40.039,13.184,13.184,69.336
1532281051.535,15.625,42.480,13.184,13.672,-123.047
1532281051.539,8.301,41.992,9.766,18.555,-52.734
1532281051.543,1.465,41.992,7.324,16.113,157.715
1532281051.547,1.953,39.062,5.859,12.207,144.043
1532281051.551,4.883,38.086,9.277,9.277,-95.703
1532281051.555,3.418,37.109,12.207,10.254,-122.070
1532281051.559,5.371,33.203,8.789,14.160,96.191
1532281051.562,6.348,35.645,7.324,11.230,146.973
1532281051.566,5.371,39.551,6.348,7.324,-31.250
1532281051.570,8.789,39.551,6.836,6.836,-125.977
1532281051.574,16.602,36.133,8.789,17.090,32.715
1532281051.578,19.043,33.203,9.766,21.973,176.758
1532281051.582,16.602,33.691,12.695,19.043,43.457
1532281051.586,19.043,36.133,10.742,19.043,-118.652
1532281051.590,21.484,38.086,5.859,18.555,-5.371
1532281051.594,20.508,38.086,8.301,12.695,140.137
1532281051.598,19.531,36.133,8.789,12.695,57.617
1532281051.602,18.066,36.133,5.859,17.578,-95.703
1532281051.605,18.066,33.691,6.836,16.602,-46.387
1532281051.609,15.625,32.227,6.348,17.090,140.625
1532281051.613,14.160,33.203,5.859,16.602,132.812
1532281051.617,15.625,32.227,4.883,10.254,-49.316
1532281051.621,17.578,32.715,5.371,12.207,-101.562
1532281051.625,20.020,33.203,8.301,19.043,81.055
1532281051.629,16.113,32.227,6.348,12.207,176.758
1532281051.633,15.137,35.645,4.395,3.418,-11.230
1532281051.637,20.020,37.598,4.883,11.230,-114.258
1532281051.641,18.066,31.738,6.348,17.578,44.922
1532281051.645,18.555,32.227,6.836,13.672,205.566
1532281051.648,22.949,35.156,7.324,17.578,71.289
1532281051.652,24.902,36.133,6.348,18.555,-113.281
1532281051.656,21.973,35.645,3.906,18.066,4.883
1532281051.660,19.043,37.109,5.859,20.996,193.359
1532281051.664,19.531,38.086,8.789,15.625,123.047
1532281051.668,21.973,42.480,12.695,17.578,-96.191
1532281051.672,18.066,44.922,12.207,15.625,-92.285
1532281051.676,17.578,42.480,12.207,12.207,121.582
1532281051.680,23.438,41.504,14.648,21.973,167.969
1532281051.684,30.273,41.016,17.578,28.809,-25.879
1532281051.687,33.691,39.062,20.020,32.227,-69.824
1532281051.691,34.180,41.504,18.066,33.691,111.328
1532281051.695,34.180,45.410,16.602,32.715,187.500
1532281051.699,33.203,46.387,16.602,31.250,8.789
1532281051.703,36.133,47.363,18.555,33.203,-134.277
1532281051.707,33.691,44.922,23.438,35.156,13.184
1532281051.711,26.855,41.504,25.391,32.715,180.664
1532281051.715,24.902,42.480,22.461,25.391,73.730
1532281051.719,22.949,46.387,19.043,19.531,-113.770
1532281051.723,25.391,46.875,20.508,22.461,-32.227
1532281051.727,35.156,44.922,21.484,31.250,166.992
1532281051.730,36.133,41.992,21.973,28.320,104.004
1532281051.734,32.715,45.410,21.973,19.043,-115.723
1532281051.738,37.109,48.340,20.020,21.484,-104.004
1532281051.742,37.109,45.410,18.555,28.320,105.957
1532281051.746,34.668,44.922,19.531,30.273,163.574
1532281051.750,31.738,44.434,20.020,29.785,-23.438
1532281051.754,29.785,40.039,21.484,31.738,-116.211
1532281051.758,34.668,36.621,25.391,35.156,67.383
1532281051.762,35.645,36.621,25.879,30.762,193.359
1532281051.766,39.062,39.551,22.461,25.879,24.902
1532281051.770,46.387,42.969,21.973,25.879,-115.234
1532281051.773,47.852,44.922,21.484,15.625,-10.742
1532281051.777,47.852,44.434,17.090,9.766,159.668
1532281051.781,38.574,44.922,16.602,19.043,104.492
1532281051.785,31.250,45.410,18.555,24.414,-87.891
1532281051.789,41.992,41.016,18.555,32.227,-50.781
1532281051.793,38.574,38.574,19.043,38.086,126.465
1532281051.797,18.555,41.504,16.113,27.344,125.488
1532281051.801,11.230,46.387,14.160,21.973,-60.059
1532281051.805,13.184,46.875,15.625,27.344,-89.844
1532281051.809,21.484,42.480,18.555,35.156,105.469
1532281051.812,19.531,38.086,21.973,33.203,123.535
1532281051.816,11.230,37.109,22.461,24.902,-98.145
1532281051.820,16.602,39.551,20.996,28.809,-146.973
1532281051.824,21.484,39.062,21.973,33.691,45.898
1532281051.828,19.531,39.062,24.414,31.250,170.410
1532281051.832,17.090,39.551,24.902,25.391,36.133
1532281051.836,17.090,41.504,24.902,26.367,-104.980
1532281051.840,16.602,41.992,20.020,30.762,17.090
1532281051.844,24.414,41.992,19.531,33.691,200.684
1532281051.848,31.738,41.992,24.902,37.109,123.047
1532281051.852,32.227,41.992,24.414,34.180,-86.426
1532281051.855,35.156,43.457,21.484,31.250,-90.332
1532281051.859,40.039,45.410,20.996,35.645,98.633
1532281051.863,36.133,46.875,18.555,33.203,135.254
1532281051.867,33.203,48.340,15.137,28.809,-34.668
1532281051.871,35.156,47.363,15.137,27.344,-66.895
1532281051.875,33.203,43.945,17.578,26.855,96.680
1532281051.879,26.367,39.551,24.414,30.273,188.965
1532281051.883,27.832,37.109,29.785,33.691,8.301
1532281051.887,34.180,38.574,27.832,34.668,-101.562
1532281051.891,30.273,40.039,25.391,27.344,30.273
1532281051.894,26.367,41.016,25.391,23.438,152.344
1532281051.898,28.320,42.480,22.461,25.391,61.035
1532281051.902,30.273,41.992,20.020,29.297,-120.117
1532281051.906,33.691,38.086,23.926,35.645,-33.691
1532281051.910,32.227,34.668,26.855,34.180,157.227
1532281051.914,32.715,37.109,24.902,26.367,64.453
1532281051.918,33.691,41.992,24.414,29.297,-93.262
1532281051.922,26.367,37.598,23.438,29.297,-67.383
1532281051.926,23.438,35.156,21.484,27.832,116.211
1532281051.930,27.832,36.621,20.508,32.227,150.879
1532281051.934,24.902,36.621,16.602,30.762,-66.895
1532281051.937,19.043,32.227,20.020,27.832,-139.160
1532281051.941,18.555,28.320,23.926,24.902,44.922
1532281051.945,20.996,29.785,20.020,25.391,159.180
1532281051.949,24.902,29.785,21.484,31.250,22.461
1532281051.953,30.273,26.367,26.855,37.598,-104.980
1532281051.957,26.855,25.879,24.414,35.156,27.832
1532281051.961,21.973,32.227,19.043,24.902,178.223
1532281051.965,26.367,35.645,15.625,23.926,62.500
1532281051.969,28.809,36.621,15.625,30.273,-102.051
1532281051.973,23.438,33.203,20.020,30.273,-56.152
1532281051.977,15.625,27.344,24.414,27.832,112.305
1532281051.980,14.160,24.902,25.391,31.738,114.746
1532281051.984,19.531,26.367,25.879,32.715,-62.500
1532281051.988,25.391,26.855,23.926,34.668,-86.426
1532281051.992,22.949,26.367,21.973,31.738,85.938
1532281051.996,14.648,25.879,21.484,24.902,163.574
1532281052.000,11.230,25.391,23.926,22.461,-13.184
1532281052.004,15.625,26.855,24.902,22.949,-134.766
1532281052.008,16.113,29.297,21.973,24.902,31.738
1532281052.012,16.113,31.738,18.555,24.414,149.902
1532281052.016,21.973,32.715,19.043,23.438,-22.461
1532281052.019,22.949,30.762,21.973,30.273,-146.484
1532281052.023,24.902,30.273,23.926,36.621,-6.836
1532281052.027,25.879,29.785,23.926,34.180,155.762
1532281052.031,24.414,27.344,20.996,31.250,85.449
1532281052.035,23.438,28.809,20.508,28.809,-92.773
1532281052.039,21.973,28.320,19.531,26.367,-49.805
1532281052.043,14.160,26.367,21.484,25.879,154.297
1532281052.047,7.812,24.902,23.926,26.855,137.695
1532281052.051,14.160,25.879,21.484,28.320,-65.918
1532281052.055,18.555,29.297,21.973,22.949,-128.906
1532281052.059,21.973,29.785,20.508,25.879,74.707
1532281052.062,21.484,26.855,20.020,30.762,197.754
1532281052.066,15.137,29.297,18.555,30.762,11.230
1532281052.070,13.184,28.320,17.090,31.738,-107.422
1532281052.074,14.160,23.926,20.508,35.645,49.316
1532281052.078,17.578,24.414,20.996,40.039,191.406
1532281052.082,16.602,23.438,22.461,39.062,61.523
1532281052.086,11.719,23.438,26.855,39.062,-123.047
1532281052.090,11.719,22.949,22.461,34.668,-17.090
1532281052.094,12.695,25.879,17.090,26.855,177.734
1532281052.098,13.672,28.809,14.160,29.297,123.535
1532281052.102,11.719,27.344,15.137,31.738,-65.918
1532281052.105,13.184,22.949,18.066,31.250,-51.758
1532281052.109,16.113,22.949,17.578,27.832,149.414
1532281052.113,22.461,27.832,16.113,26.855,151.855
1532281052.117,20.508,29.785,16.602,27.832,-58.594
1532281052.121,18.555,27.344,20.996,32.227,-111.328
1532281052.125,24.414,26.367,22.949,39.551,77.637
1532281052.129,22.461,27.344,22.949,41.504,190.430
1532281052.133,20.020,27.344,25.879,37.598,14.160
1532281052.137,20.996,27.344,24.414,35.645,-124.512
1532281052.141,22.949,29.297,23.438,35.156,26.855
1532281052.144,28.809,31.738,24.414,36.621,183.105
1532281052.148,31.738,30.762,25.391,41.504,79.590
1532281052.152,28.320,30.762,28.320,39.551,-118.652
1532281052.156,25.879,32.227,27.344,39.551,-50.293
1532281052.160,28.809,31.738,28.320,50.293,150.879
1532281052.164,37.598,33.203,32.715,58.105,101.074
1532281052.168,44.922,35.156,30.762,54.199,-92.773
1532281052.172,41.992,37.109,31.738,51.758,-110.840
1532281052.176,30.762,35.645,34.180,52.246,93.750
1532281052.180,31.250,32.227,36.133,48.828,159.668
1532281052.184,35.156,32.715,36.621,46.387,-30.762
1532281052.187,35.156,30.762,36.133,47.852,-128.906
1532281052.191,41.504,29.785,39.551,51.270,27.832
1532281052.195,41.016,31.738,38.574,48.340,143.555
1532281052.199,36.133,33.691,34.180,52.246,16.113
1532281052.203,39.551,36.621,32.715,58.105,-133.301
1532281052.207,37.598,35.156,34.180,53.711,6.836
1532281052.211,36.621,33.203,36.133,48.340,193.359
1532281052.215,37.109,32.227,33.203,48.340,91.309
1532281052.219,36.133,28.809,31.738,49.805,-76.660
1532281052.223,35.645,28.809,32.715,52.246,-24.902
1532281052.227,39.062,28.809,32.227,54.199,147.949
1532281052.230,39.551,26.855,35.645,49.805,149.414
1532281052.234,34.180,28.809,34.668,35.645,-53.711
1532281052.238,32.715,28.809,31.250,37.109,-94.727
1532281052.242,39.551,26.367,30.273,51.758,123.047
1532281052.246,41.992,25.879,30.273,56.152,176.270
1532281052.250,45.898,26.367,31.250,57.617,-31.250
1532281052.254,48.828,23.438,31.738,63.477,-105.469
1532281052.258,48.828,21.973,31.738,68.848,59.082
1532281052.262,49.316,23.926,30.273,63.965,187.500
1532281052.266,46.875,26.855,27.344,58.105,77.637
1532281052.269,51.758,26.367,27.344,59.082,-94.238
1532281052.273,52.246,22.461,30.273,65.430,-24.902
1532281052.277,42.969,20.020,33.691,67.383,136.719
1532281052.281,40.527,19.531,34.668,63.477,68.359
1532281052.285,41.504,20.020,31.250,61.035,-92.285
1532281052.289,47.852,21.973,29.785,61.523,-52.734
1532281052.293,51.758,26.367,29.785,61.523,110.840
1532281052.297,44.434,24.902,29.785,55.664,91.797
1532281052.301,39.551,22.461,31.738,51.758,-73.242
1532281052.305,43.945,22.461,31.250,54.688,-79.590
1532281052.309,47.852,21.973,30.273,58.105,90.332
1532281052.312,51.270,21.484,29.785,58.594,173.828
1532281052.316,54.199,19.531,32.227,61.523,41.016
1532281052.320,50.293,18.555,32.715,62.012,-93.262
1532281052.324,47.363,18.555,27.344,56.641,23.438
1532281052.328,48.828,21.484,25.391,55.176,177.734
1532281052.332,46.387,23.438,27.832,49.805,49.316
1532281052.336,47.363,22.461,29.297,47.363,-140.625
1532281052.340,50.781,21.973,29.785,58.105,-31.738
1532281052.344,49.316,21.973,31.250,64.453,181.152
1532281052.348,54.688,21.973,33.203,62.012,149.414
1532281052.351,54.199,22.461,31.738,57.129,-81.543
1532281052.355,55.176,23.438,29.785,61.523,-71.289
1532281052.359,57.129,23.926,28.320,69.336,151.855
1532281052.363,56.152,25.391,31.250,66.895,162.109
1532281052.367,49.805,23.926,34.668,59.082,-20.508
1532281052.371,42.969,23.926,36.133,47.852,-97.656
1532281052.375,40.527,24.414,33.691,44.922,64.941
1532281052.379,40.039,25.391,31.738,52.246,173.340
1532281052.383,39.551,27.832,32.715,50.781,22.461
1532281052.387,34.180,28.320,32.715,45.898,-96.191
1532281052.391,33.203,26.367,32.227,41.504,9.277
1532281052.394,37.598,26.855,32.715,41.016,158.691
1532281052.398,36.133,27.832,32.227,44.922,78.125
1532281052.402,35.156,27.832,30.762,42.969,-101.074
1532281052.406,32.715,25.879,29.785,43.457,-12.695
1532281052.410,30.762,25.391,30.273,40.527,175.293
1532281052.414,35.156,26.367,29.785,35.156,122.070
1532281052.418,37.598,26.367,28.809,39.062,-66.406
1532281052.422,37.109,24.414,28.809,38.086,-115.723
1532281052.426,29.785,23.926,31.250,37.598,61.035
1532281052.430,24.902,22.949,30.273,36.621,161.133
1532281052.434,20.996,23.926,29.297,28.320,-51.270
1532281052.437,16.113,24.902,28.809,24.414,-143.066
1532281052.441,19.043,22.949,25.879,27.832,59.570
1532281052.445,26.367,24.414,26.367,31.738,200.195
1532281052.449,29.297,28.809,28.809,33.203,57.617
1532281052.453,26.855,28.809,27.344,32.227,-132.324
1532281052.457,24.414,25.391,28.320,32.227,-4.395
1532281052.461,25.391,24.902,30.273,36.621,192.383
1532281052.465,21.484,23.438,29.297,37.598,112.793
1532281052.469,21.484,22.461,28.320,32.715,-97.168
1532281052.473,29.297,24.902,25.879,34.180,-99.121
1532281052.476,29.297,24.902,25.391,34.668,100.098
1532281052.480,23.438,24.414,26.855,32.715,141.602
1532281052.484,18.555,26.367,24.902,29.785,-40.039
1532281052.488,20.020,26.855,22.949,28.320,-75.195
1532281052.492,16.602,25.879,25.879,28.809,106.445
1532281052.496,9.766,26.367,27.344,24.414,187.500
1532281052.500,8.301,23.926,29.297,22.949,21.484
1532281052.504,9.277,21.973,28.320,25.879,-92.773
1532281052.508,14.648,23.438,24.902,30.762,60.547
1532281052.512,11.230,22.949,23.926,27.832,196.777
1532281052.516,9.766,22.461,28.809,23.926,60.547
1532281052.519,14.160,24.902,28.809,26.367,-112.793
1532281052.523,11.230,21.973,25.391,27.344,-4.395
1532281052.527,9.766,20.508,29.297,28.809,170.410
1532281052.531,8.301,20.996,30.273,18.555,91.797
1532281052.535,9.277,20.020,31.250,12.207,-109.375
1532281052.539,10.742,19.531,31.738,23.438,-63.965
1532281052.543,13.672,19.531,31.738,26.367,159.180
1532281052.547,20.020,22.461,29.297,20.020,155.762
1532281052.551,18.555,25.391,27.344,21.973,-58.105
1532281052.555,13.672,26.367,26.855,23.926,-91.797
1532281052.559,14.648,23.438,29.785,25.879,96.680
1532281052.562,12.207,20.996,31.738,29.297,166.016
1532281052.566,9.766,22.949,29.297,27.832,-9.277
1532281052.570,15.137,23.926,26.367,27.344,-118.652
1532281052.574,20.508,24.902,25.391,27.344,28.320
1532281052.578,22.461,28.809,24.902,28.809,198.242
1532281052.582,25.879,29.785,22.949,25.391,88.379
1532281052.586,24.414,27.344,21.484,21.484,-89.844
1532281052.590,21.484,24.414,25.391,19.043,-29.785
1532281052.594,28.320,24.902,25.879,18.066,143.555
1532281052.598,38.086,26.367,23.926,20.020,131.836
1532281052.601,32.715,22.461,24.902,21.973,-57.617
1532281052.605,25.391,20.020,25.879,27.344,-71.777
1532281052.609,23.438,19.043,27.344,30.273,121.582
1532281052.613,17.578,18.066,30.762,29.785,145.996
1532281052.617,14.648,17.090,33.203,33.203,-42.480
1532281052.621,9.277,14.648,33.203,34.668,-91.797
1532281052.625,9.766,16.113,32.715,34.668,80.078
1532281052.629,10.742,16.602,31.738,34.180,187.500
1532281052.633,12.207,19.531,29.785,33.203,3.906
1532281052.637,17.578,21.973,27.832,35.156,-121.582
1532281052.641,14.160,20.996,28.809,37.598,25.879
1532281052.644,12.207,20.020,30.762,35.156,182.129
1532281052.648,10.254,20.020,29.297,26.855,76.660
1532281052.652,9.766,18.555,28.809,18.555,-128.906
1532281052.656,13.672,20.020,27.832,14.160,-86.426
1532281052.660,12.207,20.996,25.391,17.578,144.043
1532281052.664,5.859,20.996,26.855,18.555,127.930
1532281052.668,5.859,21.484,28.809,20.508,-86.426
1532281052.672,10.254,21.484,29.785,26.855,-92.773
1532281052.676,11.719,20.996,30.273,32.715,123.047
1532281052.680,14.160,19.043,26.367,34.180,189.453
1532281052.684,20.996,20.508,25.879,34.180,-9.277
1532281052.687,22.949,23.926,22.949,34.668,-105.469
1532281052.691,23.438,23.926,21.973,37.598,54.688
1532281052.695,22.461,21.973,28.320,39.551,173.340
1532281052.699,19.043,20.996,31.250,34.668,12.207
1532281052.703,19.531,20.996,30.762,34.180,-144.043
1532281052.707,22.461,21.973,28.320,38.574,6.348
1532281052.711,20.020,23.438,26.367,33.203,166.992
1532281052.715,18.555,22.461,27.344,23.926,66.406
1532281052.719,20.996,21.973,28.809,31.250,-91.309
1532281052.723,24.414,20.508,29.785,41.016,-49.805
1532281052.726,23.438,22.461,29.297,37.109,144.043
1532281052.730,18.066,24.902,27.344,33.691,156.250
1532281052.734,19.531,23.926,27.832,33.691,-59.082
1532281052.738,23.438,22.461,29.297,31.250,-92.773
1532281052.742,25.391,23.438,29.785,33.203,104.980
1532281052.746,24.902,24.414,29.785,32.715,177.734
1532281052.750,23.438,25.391,27.832,29.297,-3.418
1532281052.754,21.484,26.367,28.809,24.414,-143.555
1532281052.758,22.461,24.414,31.250,21.973,35.645
1532281052.762,18.555,22.949,30.762,23.438,211.426
1532281052.766,13.672,22.461,31.738,22.461,58.105
1532281052.769,14.160,20.508,32.227,20.020,-115.723
1532281052.773,18.555,20.020,31.250,23.438,-29.785
1532281052.777,24.414,22.461,26.855,26.855,149.414
1532281052.781,19.531,24.414,23.926,24.902,102.539
1532281052.785,15.625,23.438,27.344,24.902,-96.191
1532281052.789,19.043,21.484,31.738,26.855,-69.824
1532281052.793,16.113,20.996,31.738,26.855,126.953
1532281052.797,17.090,23.438,32.227,25.391,141.113
1532281052.801,23.926,26.855,35.645,28.809,-69.336
1532281052.805,29.297,29.297,36.621,39.551,-122.070
1532281052.808,32.715,28.320,35.156,41.016,77.148
1532281052.812,29.785,28.320,38.086,31.250,151.855
1532281052.816,29.785,27.832,39.062,28.320,-19.531
1532281052.820,29.785,28.320,37.109,30.762,-148.926
1532281052.824,28.809,32.227,39.062,31.738,8.789
1532281052.828,28.809,33.203,38.086,33.691,196.289
1532281052.832,30.273,32.715,36.133,28.809,78.613
1532281052.836,32.715,31.738,38.574,26.367,-140.625
1532281052.840,36.133,33.203,41.016,36.621,-50.293
1532281052.844,40.039,35.156,41.504,44.434,184.082
1532281052.848,40.039,35.156,41.016,44.434,152.344
1532281052.851,45.410,35.156,43.457,42.480,-74.219
1532281052.855,43.945,36.133,43.457,39.551,-113.281
1532281052.859,36.621,34.668,43.457,43.457,109.375
1532281052.863,30.762,30.762,46.387,46.875,160.645
1532281052.867,30.273,30.273,46.875,46.387,-35.156
1532281052.871,36.133,31.250,43.457,47.363,-129.883
1532281052.875,34.668,32.227,41.504,46.875,55.664
1532281052.879,34.180,35.156,40.527,43.945,200.684
1532281052.883,34.180,35.645,40.527,39.062,41.504
1532281052.887,30.762,32.715,41.992,36.621,-141.602
1532281052.891,32.715,32.227,42.969,42.480,-15.625
1532281052.894,32.715,32.227,41.992,44.922,150.391
1532281052.898,30.273,32.227,38.574,42.480,56.152
1532281052.902,34.180,35.156,36.621,43.945,-102.539
1532281052.906,34.180,34.668,36.133,42.969,-41.016
1532281052.910,28.809,32.715,34.180,43.945,153.320
1532281052.914,28.320,32.715,35.156,45.410,146.484
1532281052.918,31.250,33.203,35.645,46.875,-37.109
1532281052.922,30.273,32.227,35.645,49.316,-58.105
1532281052.926,28.809,29.785,39.551,47.363,124.023
1532281052.930,32.715,29.297,39.551,46.387,166.016
1532281052.933,34.180,26.367,41.504,47.363,-26.367
1532281052.937,31.250,25.391,41.992,45.410,-103.027
1532281052.941,30.273,25.879,39.062,45.898,43.945
1532281052.945,27.344,26.855,39.062,44.922,162.598
1532281052.949,21.484,26.367,41.016,41.016,43.945
1532281052.953,21.484,24.902,41.504,33.203,-147.461
1532281052.957,27.344,24.414,37.598,35.156,-44.434
1532281052.961,32.715,25.391,36.133,48.340,164.062
1532281052.965,30.273,27.832,39.551,50.293,97.656
1532281052.969,26.367,27.344,39.551,44.922,-71.289
1532281052.973,27.344,26.367,40.039,40.039,-72.754
1532281052.976,24.414,25.879,39.062,38.086,114.746
1532281052.980,21.973,24.414,39.551,35.645,162.598
1532281052.984,20.508,23.438,41.504,33.691,-41.016
1532281052.988,21.973,26.367,40.039,36.133,-98.633
1532281052.992,21.973,28.320,39.062,32.715,69.824
1532281052.996,17.578,25.879,40.039,27.832,166.504
1532281053.000,19.531,26.855,40.039,32.715,1.953
1532281053.004,19.043,27.832,39.551,35.645,-128.418
1532281053.008,19.531,25.879,38.574,38.086,35.645
1532281053.012,18.066,24.902,37.598,35.645,198.242
1532281053.016,19.043,26.367,39.062,34.668,81.543
1532281053.019,20.020,26.855,41.504,39.062,-96.680
1532281053.023,20.508,26.855,42.969,39.551,-10.254
1532281053.027,23.926,28.809,41.504,40.527,167.969
1532281053.031,26.367,31.250,37.598,37.109,85.938
1532281053.035,26.367,33.691,37.598,34.668,-114.746
1532281053.039,21.973,34.180,40.527,37.598,-82.520
1532281053.043,23.926,32.227,44.434,41.992,124.512
1532281053.047,28.809,32.227,45.410,47.363,161.621
1532281053.051,27.832,31.738,44.922,44.922,-41.504
