timestamps,TP9,AF7,AF8,TP10,Right AUX
1532509865.933,24.414,30.762,23.926,-9.277,-77.148
1532509865.937,20.508,28.809,25.391,-9.766,-18.555
1532509865.940,19.043,26.367,25.391,-0.977,65.918
1532509865.944,24.902,27.832,27.344,0.000,150.879
1532509865.948,20.996,26.367,28.320,-5.371,93.262
1532509865.952,19.531,24.414,28.320,-6.348,-68.848
1532509865.956,21.484,23.926,28.320,-6.836,-63.965
1532509865.960,19.043,24.902,22.949,-7.812,90.820
1532509865.964,17.090,26.367,19.531,-13.184,152.344
1532509865.968,16.113,25.391,21.973,-12.207,-17.578
1532509865.972,19.531,30.273,21.973,-8.789,-185.547
1532509865.976,20.508,36.621,25.391,-4.395,5.371
1532509865.979,24.902,34.180,23.438,1.953,123.535
1532509865.983,31.250,32.227,19.531,9.277,61.035
1532509865.987,21.484,28.320,24.902,1.465,-0.977
1532509865.991,14.160,22.461,31.250,-2.441,26.855
1532509865.995,14.648,23.438,33.203,3.906,126.953
1532509865.999,16.602,25.879,30.273,2.930,33.203
1532509866.003,24.414,26.855,24.414,6.348,-60.547
1532509866.007,15.137,27.344,26.855,2.930,-6.348
1532509866.011,8.301,27.832,27.832,-1.953,52.734
1532509866.015,13.184,26.855,25.391,0.488,76.172
1532509866.019,16.602,26.367,28.809,7.324,16.113
1532509866.022,20.020,26.855,29.297,11.230,30.273
1532509866.026,24.414,29.785,30.273,2.930,132.812
1532509866.030,28.809,27.344,34.668,-4.395,23.926
1532509866.034,23.438,26.367,31.738,-1.465,-81.055
1532509866.038,19.531,27.344,30.273,5.371,-12.695
1532509866.042,24.414,27.832,33.203,-2.441,90.332
1532509866.046,22.461,33.203,28.320,-0.488,113.281
1532509866.050,23.438,30.273,25.391,-3.418,-97.656
1532509866.054,26.855,24.414,30.273,-4.883,-146.973
1532509866.058,22.461,26.855,30.273,9.277,58.594
1532509866.062,20.020,28.320,32.227,6.836,163.086
1532509866.065,20.996,27.344,34.668,-3.418,110.840
1532509866.069,25.391,32.227,31.738,-6.836,-11.230
1532509866.073,27.832,33.203,26.855,-0.977,35.645
1532509866.077,24.414,29.297,29.297,-6.836,160.156
1532509866.081,29.297,30.762,30.273,-18.555,126.953
1532509866.085,32.227,30.273,26.855,-20.020,16.602
1532509866.089,38.574,28.320,25.879,-18.066,-41.016
1532509866.093,48.340,26.855,24.902,-9.277,21.973
1532509866.097,39.551,29.297,26.367,0.977,39.062
1532509866.101,31.738,29.297,27.344,5.859,-33.691
1532509866.104,28.320,25.391,25.879,11.230,19.531
1532509866.108,20.020,22.949,27.832,19.043,27.344
1532509866.112,21.484,25.879,28.320,14.160,-18.066
1532509866.116,12.207,26.855,30.273,0.000,41.016
1532509866.120,6.348,25.879,33.691,5.859,0.000
1532509866.124,11.230,26.855,30.762,11.719,64.453
1532509866.128,5.859,25.391,30.273,11.230,136.230
1532509866.132,4.395,23.438,32.715,5.371,42.480
1532509866.136,9.277,24.414,30.762,3.906,4.395
1532509866.140,13.672,27.344,25.879,3.906,-18.555
1532509866.144,19.043,27.344,27.832,-0.488,90.820
1532509866.147,17.578,25.879,29.785,-0.488,74.219
1532509866.151,14.160,24.902,25.391,-5.859,-143.066
1532509866.155,14.160,25.391,23.926,-3.906,-49.316
1532509866.159,22.461,27.832,26.855,1.953,106.445
1532509866.163,23.438,30.273,26.855,0.488,159.668
1532509866.167,15.137,31.738,28.320,0.488,74.219
1532509866.171,15.137,29.297,26.367,-6.836,-50.781
1532509866.175,18.066,29.785,23.438,-11.230,62.988
1532509866.179,20.508,28.320,21.973,-5.859,168.457
1532509866.183,22.949,28.320,22.949,-9.766,81.055
1532509866.186,27.344,30.762,24.902,-4.883,-44.434
1532509866.190,28.809,31.250,26.855,-0.977,-116.211
1532509866.194,31.250,32.227,25.879,-0.977,3.906
1532509866.198,31.250,32.227,21.484,4.883,78.613
1532509866.202,28.320,32.227,20.996,4.395,-13.184
1532509866.206,20.996,26.367,22.461,-2.930,4.883
1532509866.210,24.902,27.832,23.926,0.488,80.566
1532509866.214,31.250,33.691,24.414,3.418,126.465
1532509866.218,23.926,35.156,22.461,-4.395,33.691
1532509866.222,21.973,32.227,23.926,4.395,-5.859
1532509866.226,19.531,28.809,27.344,4.883,112.305
1532509866.229,16.113,31.250,28.809,-8.301,128.906
1532509866.233,18.555,31.250,26.367,-12.207,3.418
1532509866.237,22.949,31.250,26.367,-5.859,-80.078
1532509866.241,24.414,30.762,28.809,-5.371,5.371
1532509866.245,18.555,29.785,25.879,-8.789,160.156
1532509866.249,15.625,30.762,25.391,-8.789,-2.930
1532509866.253,20.508,32.227,24.414,-4.395,-163.574
1532509866.257,24.902,34.668,25.391,-1.465,12.207
1532509866.261,23.438,32.227,26.855,-1.953,129.395
1532509866.265,21.973,31.250,27.832,3.418,106.934
1532509866.269,20.508,32.715,29.297,5.859,-0.977
1532509866.272,20.508,31.738,26.855,-7.812,-3.906
1532509866.276,20.508,32.715,27.344,-12.207,148.926
1532509866.280,21.484,33.203,28.320,-4.395,111.328
1532509866.284,23.438,32.715,29.297,-4.883,-3.418
1532509866.288,24.414,31.738,30.762,-7.812,-61.523
1532509866.292,24.414,28.809,29.785,-7.324,-62.500
1532509866.296,24.414,30.762,25.879,-7.812,86.914
1532509866.300,23.926,31.738,25.879,-3.418,60.547
1532509866.304,26.367,26.855,30.762,0.000,12.695
1532509866.308,32.715,25.879,32.227,-0.977,62.988
1532509866.311,32.227,27.344,28.809,-2.930,105.469
1532509866.315,29.297,30.762,27.832,-6.348,85.449
1532509866.319,32.715,32.227,30.762,-4.395,-3.906
1532509866.323,33.691,30.273,28.809,2.441,9.766
1532509866.327,40.527,33.203,29.785,2.441,70.312
1532509866.331,43.457,37.109,31.738,-7.812,-12.695
1532509866.335,33.203,32.227,29.297,0.488,-40.527
1532509866.339,24.902,28.809,25.879,3.418,0.488
1532509866.343,23.926,29.785,26.855,-7.324,86.914
1532509866.347,22.461,27.832,31.738,-6.836,109.863
1532509866.351,18.555,23.926,35.156,-11.230,-28.320
1532509866.354,18.066,22.949,29.297,-20.996,-11.230
1532509866.358,22.461,26.367,27.344,-20.508,100.586
1532509866.362,22.949,27.344,30.273,-10.254,125.488
1532509866.366,23.926,29.785,27.832,-6.348,37.598
1532509866.370,30.762,33.203,21.484,-13.184,-57.617
1532509866.374,24.902,29.785,25.391,-8.789,5.371
1532509866.378,18.555,30.273,32.227,2.441,69.336
1532509866.382,23.438,35.645,28.320,-14.160,48.828
1532509866.386,26.855,33.203,28.320,-12.207,51.758
1532509866.390,29.785,30.762,29.785,-6.348,-58.105
1532509866.394,27.344,32.715,30.762,-9.766,-39.551
1532509866.397,21.973,28.809,30.762,-6.348,122.070
1532509866.401,22.949,27.344,30.273,-12.695,19.531
1532509866.405,25.391,31.250,29.297,-17.090,8.301
1532509866.409,20.996,32.227,27.832,-13.672,119.629
1532509866.413,19.043,31.250,27.832,-14.648,109.375
1532509866.417,20.996,29.785,30.273,-12.695,30.762
1532509866.421,29.785,30.762,33.203,-5.859,-73.730
1532509866.425,24.414,34.668,33.691,2.441,12.207
1532509866.429,17.090,33.203,34.180,-3.418,57.617
1532509866.433,24.414,30.762,33.203,-7.812,-94.238
1532509866.436,21.484,27.832,30.273,-3.906,-36.133
1532509866.440,21.484,27.344,31.250,-6.836,55.176
1532509866.444,27.832,27.832,35.156,-3.906,125.977
1532509866.448,26.855,27.344,33.691,-3.418,56.152
1532509866.452,17.090,29.297,33.203,-9.766,-56.641
1532509866.456,16.113,26.367,33.691,-9.766,12.695
1532509866.460,20.020,25.391,31.738,-2.930,125.488
1532509866.464,14.160,25.879,30.273,-5.371,127.930
1532509866.468,12.695,25.879,33.691,-6.836,-44.922
1532509866.472,18.555,28.320,27.344,-17.578,-156.738
1532509866.476,21.484,30.762,19.043,-16.113,27.344
1532509866.479,23.926,29.785,27.344,-4.883,150.391
1532509866.483,27.832,28.809,36.621,-3.906,40.039
1532509866.487,28.320,27.832,34.668,-0.977,-65.430
1532509866.491,22.949,27.344,31.738,-1.465,7.324
1532509866.495,22.949,26.367,30.762,-12.695,131.348
1532509866.499,22.949,28.320,28.809,-18.555,67.871
1532509866.503,23.926,29.297,26.855,-13.184,20.020
1532509866.507,29.785,26.855,28.320,-10.742,34.668
1532509866.511,28.320,32.715,29.297,-4.395,64.453
1532509866.515,27.832,34.668,24.414,-4.883,33.203
1532509866.519,32.715,31.250,21.484,-6.348,-77.637
1532509866.522,35.156,31.738,24.902,-3.906,-18.555
1532509866.526,32.715,31.738,24.414,-4.395,133.789
1532509866.530,28.320,30.273,25.391,-15.625,0.000
1532509866.534,27.832,32.227,26.367,-16.602,-113.281
1532509866.538,25.391,30.762,24.414,-12.207,-13.184
1532509866.542,22.949,29.297,22.461,-11.719,94.727
1532509866.546,27.344,33.203,20.508,-5.371,149.902
1532509866.550,32.715,34.668,20.996,-6.348,9.766
1532509866.554,36.133,33.691,21.484,-5.371,-37.109
1532509866.558,28.809,31.250,19.531,-2.441,55.176
1532509866.561,25.391,30.762,20.020,-1.953,81.055
1532509866.565,25.391,33.203,19.531,-12.207,40.527
1532509866.569,21.484,30.762,18.555,-14.648,-110.352
1532509866.573,34.180,25.391,19.531,-5.859,-137.207
1532509866.577,41.016,25.879,20.020,1.465,90.820
1532509866.581,31.250,30.273,20.508,-1.953,110.840
1532509866.585,26.855,32.227,20.508,-4.395,-3.906
1532509866.589,23.926,32.227,20.020,-6.836,-26.855
1532509866.593,30.273,31.738,20.020,-3.906,83.008
1532509866.597,29.785,26.855,20.508,-5.859,134.277
1532509866.601,23.926,25.879,17.578,-13.184,1.465
1532509866.604,27.344,28.809,19.531,-8.301,-3.906
1532509866.608,33.691,30.273,23.926,-1.953,9.766
1532509866.612,32.227,31.738,22.949,-5.371,17.578
1532509866.616,26.367,30.762,20.020,-7.324,74.707
1532509866.620,29.297,30.273,16.602,-11.230,-7.812
1532509866.624,28.809,32.227,18.066,-9.277,62.500
1532509866.628,28.320,32.715,22.461,-11.719,109.375
1532509866.632,28.320,31.250,24.414,-16.113,12.207
1532509866.636,22.949,27.832,21.973,-9.766,5.371
1532509866.640,24.414,27.832,26.367,-3.418,31.738
1532509866.643,24.414,30.762,30.762,-11.719,131.348
1532509866.647,27.832,34.668,32.227,-14.648,98.633
1532509866.651,37.109,41.504,40.527,6.836,-31.738
1532509866.655,41.504,44.434,38.086,4.883,-66.406
1532509866.659,21.973,39.062,26.855,-17.090,-2.930
1532509866.663,0.000,41.016,30.762,-32.715,108.398
1532509866.667,-3.418,44.434,39.062,-40.527,37.598
1532509866.671,-6.836,45.898,35.156,-51.270,-144.531
1532509866.675,-8.789,50.781,44.922,-46.875,-27.832
1532509866.679,-22.461,53.223,46.387,-64.453,165.527
1532509866.683,-37.109,53.711,40.527,-78.125,115.234
1532509866.686,-33.691,57.129,51.758,-74.219,18.066
1532509866.690,-47.363,62.500,54.688,-83.496,0.488
1532509866.694,-63.477,65.918,53.223,-97.168,120.117
1532509866.698,-67.383,69.336,53.711,-114.258,118.164
1532509866.702,-78.125,72.754,49.805,-123.535,-55.176
1532509866.706,-91.309,72.754,52.246,-127.930,-72.754
1532509866.710,-101.562,70.801,59.570,-139.648,-41.992
1532509866.714,-103.027,71.777,61.035,-147.461,-9.277
1532509866.718,-98.145,73.730,59.082,-136.719,55.176
1532509866.722,-94.238,71.777,59.570,-132.812,35.645
1532509866.726,-77.637,69.824,56.641,-124.512,107.422
1532509866.729,-64.453,70.312,55.664,-107.910,150.879
1532509866.733,-66.895,65.430,54.688,-97.656,70.801
1532509866.737,-61.523,56.641,49.805,-91.797,-20.020
1532509866.741,-48.340,49.316,46.875,-72.266,56.152
1532509866.745,-37.598,45.898,39.551,-64.941,142.578
1532509866.749,-35.156,41.992,35.156,-59.570,0.000
1532509866.753,-23.926,29.297,33.691,-48.340,-109.375
1532509866.757,-9.766,21.973,26.367,-40.039,6.836
1532509866.761,-2.441,24.414,26.367,-19.531,134.766
1532509866.765,5.859,22.461,27.832,-13.672,146.484
1532509866.768,14.160,21.973,26.367,-11.230,-70.312
1532509866.772,25.879,20.996,23.438,3.906,-160.645
1532509866.776,36.621,20.020,22.461,18.555,68.359
1532509866.780,40.039,18.066,24.414,19.043,128.906
1532509866.784,45.410,13.672,22.461,12.695,41.504
1532509866.788,50.293,8.789,18.066,21.973,-52.246
1532509866.792,52.734,8.789,18.555,31.738,-4.883
1532509866.796,52.734,11.719,22.949,36.133,62.012
1532509866.800,55.664,14.160,23.926,39.062,-18.066
1532509866.804,60.547,13.184,20.020,35.645,-21.973
1532509866.808,58.105,13.184,20.996,34.668,20.996
1532509866.811,59.570,17.578,23.438,32.227,0.000
1532509866.815,61.035,19.043,18.555,42.480,15.137
1532509866.819,63.477,18.066,20.020,54.688,3.906
1532509866.823,67.871,18.066,24.414,43.945,18.555
1532509866.827,64.941,18.555,24.414,39.062,86.914
1532509866.831,58.594,14.160,21.484,33.203,81.055
1532509866.835,61.035,12.695,23.438,30.762,33.203
1532509866.839,62.988,15.137,25.879,37.598,1.953
1532509866.843,62.012,15.137,24.414,36.133,56.641
1532509866.847,68.359,16.602,24.414,27.832,42.969
1532509866.851,72.266,22.949,20.996,20.020,-134.766
1532509866.854,76.172,21.484,17.090,13.184,-124.512
1532509866.858,77.637,15.625,20.508,19.531,69.336
1532509866.862,78.613,17.578,22.949,25.391,142.578
1532509866.866,78.125,20.020,19.531,23.926,75.195
1532509866.870,68.848,21.973,18.555,28.320,-49.316
1532509866.874,63.477,21.484,22.461,28.320,33.203
1532509866.878,59.570,15.137,28.809,32.715,123.047
1532509866.882,52.246,15.137,28.809,41.992,94.238
1532509866.886,45.898,14.648,32.227,47.363,26.367
1532509866.890,58.105,10.254,38.574,61.523,-38.574
1532509866.893,60.547,15.625,30.273,54.688,32.715
1532509866.897,40.527,24.414,20.020,26.855,78.125
1532509866.901,35.156,25.879,20.020,20.996,-11.719
1532509866.905,37.598,25.391,20.508,21.973,2.930
1532509866.909,35.645,26.367,22.461,14.160,12.207
1532509866.913,43.945,27.344,23.438,11.719,-10.254
1532509866.917,37.598,24.902,21.484,8.301,31.738
1532509866.921,30.273,23.438,21.973,13.184,1.465
1532509866.925,43.945,24.414,24.414,21.484,55.176
1532509866.929,46.875,24.902,23.438,20.996,116.211
1532509866.933,46.387,28.320,21.484,19.531,41.016
1532509866.936,45.898,31.250,22.949,20.508,-78.125
1532509866.940,47.363,28.809,20.508,20.508,-52.734
1532509866.944,44.922,23.438,20.020,13.672,122.070
1532509866.948,41.504,23.926,23.438,7.324,52.246
1532509866.952,39.551,25.879,24.414,9.277,-119.629
1532509866.956,37.598,26.855,22.949,18.066,16.113
1532509866.960,40.039,28.809,19.043,15.137,153.809
1532509866.964,38.086,28.320,19.531,7.324,181.641
1532509866.968,38.574,26.855,21.973,2.930,14.648
1532509866.972,34.180,23.438,22.949,4.883,-99.121
1532509866.975,32.227,22.461,24.414,13.672,62.012
1532509866.979,35.156,26.367,24.414,10.742,136.719
1532509866.983,28.809,25.879,22.461,7.324,9.277
1532509866.987,36.133,24.414,23.926,9.766,-104.980
1532509866.991,42.969,27.832,22.949,6.836,-111.816
1532509866.995,36.133,26.855,19.043,7.324,43.457
1532509866.999,38.574,23.438,19.531,9.766,83.496
1532509867.003,39.551,30.273,23.438,1.953,-20.996
1532509867.007,40.039,34.180,26.855,3.906,-22.461
1532509867.011,43.945,30.762,28.320,17.578,67.383
1532509867.015,42.480,28.320,30.762,21.484,93.750
1532509867.018,44.434,30.762,28.809,12.207,9.277
1532509867.022,39.551,32.715,26.855,3.906,25.391
1532509867.026,31.250,32.715,25.391,5.371,91.797
1532509867.030,31.738,33.203,20.996,6.348,48.828
1532509867.034,30.762,33.203,25.879,8.301,-64.941
1532509867.038,29.785,29.297,28.809,0.977,-41.504
1532509867.042,33.691,28.320,30.273,4.395,79.590
1532509867.046,40.527,33.691,31.250,12.207,162.109
1532509867.050,41.016,34.668,29.785,2.441,-55.176
1532509867.054,41.504,32.227,30.273,-2.441,-159.180
1532509867.058,45.898,31.738,28.809,3.906,58.594
1532509867.061,51.758,32.227,28.809,9.766,145.020
1532509867.065,50.781,32.715,26.855,9.766,128.418
1532509867.069,42.480,34.668,22.949,1.953,-6.348
1532509867.073,37.109,35.156,21.484,-3.906,2.930
1532509867.077,41.016,36.133,25.879,0.488,79.590
1532509867.081,41.504,29.297,26.855,2.930,12.695
1532509867.085,39.551,26.367,25.391,1.953,-29.785
1532509867.089,43.457,29.785,31.250,2.930,-73.730
1532509867.093,39.062,29.297,29.297,-0.977,6.348
1532509867.097,32.227,27.832,21.973,-3.906,129.883
1532509867.100,34.180,26.367,19.531,-5.371,38.086
1532509867.104,45.410,25.879,20.996,-6.836,8.301
1532509867.108,39.551,27.344,24.414,-10.254,-0.488
1532509867.112,29.785,30.762,26.367,-3.906,12.695
1532509867.116,35.645,30.273,26.855,3.906,73.242
1532509867.120,36.133,31.250,26.367,-3.418,21.484
1532509867.124,31.250,34.668,27.832,-1.953,14.160
1532509867.128,31.738,31.738,30.273,1.465,23.438
1532509867.132,31.250,31.250,27.832,-5.371,-69.824
1532509867.136,21.484,30.273,22.461,-13.184,-59.570
1532509867.140,25.391,29.785,22.461,-11.719,25.879
1532509867.143,32.715,33.691,25.391,-7.324,127.441
1532509867.147,16.602,31.250,25.879,-7.324,109.863
1532509867.151,10.742,29.297,27.344,-8.789,-23.926
1532509867.155,18.555,30.762,26.855,-10.254,0.000
1532509867.159,21.973,32.715,27.832,-5.371,107.422
1532509867.163,20.020,29.785,25.879,7.324,148.438
1532509867.167,17.090,26.367,20.508,-0.977,35.156
1532509867.171,18.066,29.297,26.855,-11.230,-88.867
1532509867.175,14.648,28.320,32.227,-8.789,-19.043
1532509867.179,12.207,25.879,30.762,-8.301,107.422
1532509867.183,20.020,26.367,29.785,-5.371,74.219
1532509867.186,22.461,26.855,26.367,-3.418,-0.977
1532509867.190,21.973,23.926,22.949,-6.348,-96.680
1532509867.194,22.461,20.508,25.391,-7.324,-5.371
1532509867.198,22.461,25.879,28.320,-1.465,113.281
1532509867.202,21.973,29.297,28.320,5.371,6.348
1532509867.206,17.578,21.484,24.902,6.348,1.465
1532509867.210,18.555,19.531,26.855,6.348,94.238
1532509867.214,22.949,26.855,31.738,6.348,129.883
1532509867.218,21.973,30.762,32.227,5.371,-15.137
1532509867.222,21.484,28.320,30.762,6.348,-104.492
1532509867.225,26.855,25.391,30.762,9.277,49.805
1532509867.229,24.902,25.391,29.297,0.977,32.715
1532509867.233,22.461,31.738,27.832,-3.906,-89.355
1532509867.237,20.996,33.691,29.785,0.000,10.254
1532509867.241,24.414,26.855,32.227,-2.441,89.844
1532509867.245,34.668,25.391,33.691,0.977,169.434
1532509867.249,29.785,25.879,29.785,-1.953,84.473
1532509867.253,19.043,28.320,29.297,-5.859,-49.805
1532509867.257,19.043,32.227,31.250,-5.371,26.367
1532509867.261,26.855,33.203,27.832,-8.301,162.109
1532509867.265,26.855,32.227,24.414,-6.836,113.770
1532509867.268,26.855,29.785,22.949,-8.789,-99.121
1532509867.272,33.203,29.297,28.809,-6.348,-132.324
1532509867.276,30.273,29.297,30.273,3.906,96.680
1532509867.280,20.996,28.320,25.879,-1.465,151.367
1532509867.284,19.531,26.855,26.855,-1.465,28.320
1532509867.288,27.832,27.344,28.320,1.953,-45.410
1532509867.292,26.855,30.273,28.809,1.465,46.387
1532509867.296,24.902,26.367,26.367,-0.977,158.691
1532509867.300,25.879,23.438,21.484,-1.465,74.707
1532509867.304,27.832,28.320,21.484,-1.953,9.766
1532509867.307,28.809,27.832,22.949,-3.418,26.855
1532509867.311,27.344,24.902,26.855,3.906,42.969
1532509867.315,26.367,27.344,30.273,4.395,17.090
1532509867.319,22.461,30.273,29.785,-6.836,-25.391
1532509867.323,28.809,31.250,27.344,0.000,38.086
1532509867.327,29.785,31.250,28.320,6.348,97.656
1532509867.331,17.578,26.855,33.203,0.488,-31.250
1532509867.335,20.020,25.879,30.762,-3.906,-87.891
1532509867.339,23.438,26.367,26.855,-2.441,1.465
1532509867.343,21.484,24.414,25.879,5.371,104.004
1532509867.347,31.250,26.855,23.438,-1.465,133.301
1532509867.350,47.852,34.180,18.066,-3.418,21.973
1532509867.354,38.574,29.785,21.484,10.742,-17.090
1532509867.358,10.254,19.531,30.762,10.742,-1.465
1532509867.362,9.766,22.461,30.762,-2.441,63.477
1532509867.366,22.461,22.461,26.855,0.488,79.102
1532509867.370,11.719,19.531,29.785,-4.395,-120.117
1532509867.374,8.789,23.926,37.109,-7.812,-105.957
1532509867.378,11.230,23.926,38.086,2.930,120.605
1532509867.382,7.812,21.484,35.645,5.859,109.863
1532509867.386,15.625,21.973,34.668,8.789,14.160
1532509867.390,16.113,23.926,31.738,2.930,-8.789
1532509867.393,19.043,23.926,28.809,3.418,104.492
1532509867.397,16.602,23.438,29.785,1.953,142.090
1532509867.401,9.766,26.367,27.832,-9.277,21.484
1532509867.405,31.250,26.367,23.926,-6.348,-40.039
1532509867.409,21.484,22.461,23.438,-2.930,-56.641
1532509867.413,2.930,20.508,22.461,-5.371,-42.969
1532509867.417,11.230,23.926,23.926,-2.930,33.691
1532509867.421,11.719,26.855,28.320,-7.812,3.906
1532509867.425,20.996,23.926,28.809,-8.301,13.672
1532509867.429,24.902,23.438,28.320,0.000,71.289
1532509867.432,20.508,26.367,27.832,1.953,49.805
1532509867.436,17.578,26.855,29.297,-0.488,6.348
1532509867.440,21.973,24.414,29.785,3.906,27.832
1532509867.444,30.273,26.367,27.832,3.906,138.184
1532509867.448,33.691,26.367,25.391,3.418,95.215
1532509867.452,36.621,21.973,26.855,6.348,-81.055
1532509867.456,32.227,27.832,30.273,7.812,-97.168
1532509867.460,28.320,34.668,31.738,6.836,49.805
1532509867.464,35.156,32.715,31.250,7.324,140.137
1532509867.468,36.621,32.227,28.320,8.301,6.836
1532509867.472,33.203,33.203,27.832,4.883,-145.508
1532509867.475,32.715,27.832,27.832,10.742,24.414
1532509867.479,34.180,28.809,29.297,15.137,141.113
1532509867.483,32.227,28.809,32.227,9.277,28.809
1532509867.487,24.414,25.391,33.691,11.230,-42.969
1532509867.491,31.738,29.785,29.785,8.789,-11.719
1532509867.495,34.180,29.785,29.785,2.441,117.676
1532509867.499,25.391,28.320,31.738,-2.441,40.039
1532509867.503,24.414,28.320,25.879,-4.883,-76.172
1532509867.507,23.926,28.809,26.855,0.000,-3.906
1532509867.511,28.809,28.809,29.297,3.906,-16.602
1532509867.515,21.973,27.832,25.391,2.930,8.301
1532509867.518,20.996,28.809,22.461,3.418,52.246
1532509867.522,28.809,29.297,24.902,2.441,49.805
1532509867.526,28.320,29.785,28.809,0.977,104.492
1532509867.530,31.738,29.785,30.273,0.488,87.891
1532509867.534,29.297,30.762,30.273,-3.906,37.109
1532509867.538,23.438,30.762,29.785,-6.836,5.859
1532509867.542,28.320,28.809,28.809,-2.441,83.984
1532509867.546,21.973,29.297,28.809,1.953,110.352
1532509867.550,22.461,30.273,27.344,-5.371,-114.258
1532509867.554,23.926,29.785,28.320,-6.348,-174.316
1532509867.557,22.949,31.738,27.832,3.418,44.434
1532509867.561,22.949,35.156,26.855,-2.441,160.645
1532509867.565,17.578,30.762,27.344,-13.184,112.305
1532509867.569,20.508,29.785,31.738,-10.254,-9.277
1532509867.573,21.484,34.668,35.156,-5.859,19.531
1532509867.577,13.184,27.832,35.645,-7.324,135.254
1532509867.581,9.766,23.926,33.691,-9.277,139.160
1532509867.585,12.207,30.273,32.227,-7.812,48.828
1532509867.589,14.648,34.180,33.203,-9.277,-14.648
1532509867.593,20.020,34.668,32.715,-9.766,20.996
1532509867.597,24.414,32.227,31.738,-4.395,74.707
1532509867.600,24.902,31.250,30.762,-5.859,24.902
1532509867.604,29.785,32.715,26.367,-5.371,15.625
1532509867.608,35.645,35.156,22.461,-8.789,28.320
1532509867.612,39.062,35.156,27.344,-19.531,-9.766
1532509867.616,43.945,33.691,32.227,-14.160,27.344
1532509867.620,46.387,34.668,26.855,-14.648,3.906
1532509867.624,51.270,32.715,22.461,-12.207,45.898
1532509867.628,44.922,27.832,27.344,0.488,116.699
1532509867.632,25.391,20.508,34.668,2.930,75.684
1532509867.636,14.648,17.090,37.109,6.348,-1.953
1532509867.640,9.766,23.926,33.203,11.230,-41.504
1532509867.643,15.625,28.320,30.762,9.766,80.078
1532509867.647,21.484,30.762,32.715,16.602,104.492
1532509867.651,15.137,33.691,32.227,10.254,-128.906
1532509867.655,6.348,29.785,28.320,1.953,-121.094
1532509867.659,8.301,29.297,28.809,8.301,77.148
1532509867.663,15.137,30.762,29.297,4.883,159.668
1532509867.667,21.973,25.391,28.320,1.953,57.617
1532509867.671,19.531,25.879,32.227,5.859,-45.898
1532509867.675,17.578,28.809,33.691,9.766,49.805
1532509867.679,20.996,24.902,33.203,10.742,153.320
1532509867.682,14.160,23.926,34.180,-0.977,84.473
1532509867.686,10.254,26.367,36.621,-7.324,-44.434
1532509867.690,8.301,26.855,33.691,-6.348,-140.625
1532509867.694,5.859,23.438,29.785,-7.324,-16.602
1532509867.698,12.695,21.484,33.203,-0.488,121.582
1532509867.702,18.066,24.902,32.715,1.465,25.391
1532509867.706,20.508,28.320,29.297,1.953,17.578
1532509867.710,27.832,29.785,31.250,6.836,75.684
1532509867.714,33.691,28.809,33.691,15.137,131.836
1532509867.718,19.531,28.809,28.809,9.766,79.590
1532509867.722,16.113,26.855,28.809,-6.836,8.789
1532509867.725,14.160,23.438,31.250,-0.488,100.586
1532509867.729,13.184,24.414,33.691,5.371,128.418
1532509867.733,16.113,24.902,36.621,-3.418,-6.348
1532509867.737,16.602,23.926,33.203,-3.418,-74.707
1532509867.741,20.996,23.438,31.250,3.418,17.578
1532509867.745,23.926,23.438,30.273,7.812,163.086
1532509867.749,26.855,23.926,26.367,-5.371,19.531
1532509867.753,27.344,24.902,22.461,-11.719,-168.945
1532509867.757,26.367,25.391,25.879,-9.277,-7.324
1532509867.761,25.391,25.391,26.367,-6.348,121.094
1532509867.764,30.762,26.855,25.879,8.789,127.441
1532509867.768,29.785,25.879,29.297,14.160,1.465
1532509867.772,13.184,16.113,29.785,-5.859,-26.855
1532509867.776,10.742,21.484,29.785,-13.672,100.098
1532509867.780,18.555,30.273,27.832,-9.766,84.961
1532509867.784,20.508,28.320,28.320,-5.371,9.277
1532509867.788,18.066,26.367,31.738,-1.465,-59.570
1532509867.792,18.555,25.391,30.273,-7.812,-76.172
1532509867.796,28.320,27.344,27.344,-7.812,97.168
1532509867.800,26.855,26.855,26.855,-5.371,97.168
1532509867.804,23.438,27.832,26.855,-9.766,3.418
1532509867.807,33.203,27.344,26.855,-3.418,26.855
1532509867.811,26.367,24.414,30.273,1.465,96.191
1532509867.815,20.020,26.855,27.832,-3.418,101.562
1532509867.819,19.043,28.320,23.926,-1.465,1.465
1532509867.823,25.879,24.414,31.250,4.883,31.738
1532509867.827,37.598,25.391,32.227,1.953,97.168
1532509867.831,33.691,30.762,21.484,-10.742,-47.363
1532509867.835,26.855,26.367,23.438,-5.859,-83.496
1532509867.839,27.344,20.020,29.785,2.930,41.504
1532509867.843,31.250,23.438,28.809,-5.371,120.117
1532509867.847,23.926,26.855,27.344,-15.137,121.094
1532509867.850,19.531,25.879,30.762,-12.695,1.953
1532509867.854,19.531,23.926,30.273,-7.812,-45.410
1532509867.858,20.020,20.996,31.738,-8.789,13.184
1532509867.862,22.461,18.555,37.598,-5.371,113.770
1532509867.866,22.949,25.391,31.250,-10.254,70.312
1532509867.870,26.367,34.180,22.461,-19.043,-68.359
1532509867.874,28.809,29.297,25.391,-8.301,-56.152
1532509867.878,25.879,24.414,30.273,-5.859,49.316
1532509867.882,20.020,22.949,31.738,-9.277,87.891
1532509867.886,22.461,23.926,31.250,-5.859,38.574
1532509867.889,23.438,25.879,31.250,-10.254,-105.469
1532509867.893,17.578,23.926,28.320,-12.695,-66.895
1532509867.897,25.879,20.020,26.855,-7.324,94.727
1532509867.901,31.250,21.484,31.738,-5.371,27.832
1532509867.905,20.996,25.879,35.645,2.930,-0.977
1532509867.909,15.137,22.461,32.715,11.230,68.359
1532509867.913,22.461,21.973,31.738,7.812,131.348
1532509867.917,21.973,21.973,32.715,-2.441,54.199
1532509867.921,16.113,18.555,32.715,-5.371,-65.918
1532509867.925,23.926,21.484,31.250,2.930,16.602
1532509867.929,25.879,24.902,32.227,9.766,45.410
1532509867.932,26.367,26.855,34.668,11.230,-68.848
1532509867.936,22.461,30.273,32.227,5.371,-36.133
1532509867.940,15.137,31.250,27.832,2.441,27.344
1532509867.944,20.508,25.391,27.344,5.371,140.625
1532509867.948,21.484,20.508,33.203,0.488,98.633
1532509867.952,23.438,26.367,36.133,-2.930,-34.180
1532509867.956,27.832,27.344,33.691,3.906,15.137
1532509867.960,29.785,25.391,33.203,12.207,98.633
1532509867.964,26.855,27.832,36.621,16.113,132.812
1532509867.968,24.414,31.250,39.062,3.418,-35.156
1532509867.972,23.926,34.180,38.574,-5.859,-185.547
1532509867.975,22.461,32.227,36.621,-1.953,20.020
1532509867.979,24.902,28.809,33.203,-2.441,154.785
1532509867.983,26.367,27.344,31.738,2.930,65.430
1532509867.987,22.461,29.297,32.715,0.977,-41.016
1532509867.991,20.508,29.297,34.668,-1.953,11.230
1532509867.995,21.484,26.367,36.621,3.418,147.949
1532509867.999,21.973,28.809,37.109,2.930,94.238
1532509868.003,28.320,28.320,37.109,3.906,1.953
1532509868.007,35.645,28.320,30.762,5.859,11.719
1532509868.011,26.855,33.203,29.297,1.953,85.449
1532509868.014,17.090,30.273,34.180,-0.977,67.871
1532509868.018,24.414,27.344,33.691,-4.395,-51.758
1532509868.022,25.391,27.832,35.645,-2.441,-30.762
1532509868.026,19.531,26.367,34.180,0.488,99.609
1532509868.030,25.391,27.344,32.227,-2.930,12.695
1532509868.034,22.461,29.785,30.762,-5.859,-83.496
1532509868.038,23.438,33.203,26.855,4.883,-10.742
1532509868.042,26.367,31.738,25.879,11.230,72.266
1532509868.046,27.344,27.832,26.367,5.371,136.230
1532509868.050,28.809,31.738,25.879,3.418,28.320
1532509868.054,25.391,32.715,28.320,6.348,-20.020
1532509868.057,23.438,27.344,29.785,2.441,30.762
1532509868.061,24.414,28.809,33.203,-1.465,56.152
1532509868.065,22.949,29.785,28.809,-0.977,69.336
1532509868.069,19.531,30.762,25.391,-5.371,-88.379
1532509868.073,20.996,29.297,32.715,-5.371,-122.070
1532509868.077,22.949,25.879,35.645,3.906,125.977
1532509868.081,18.555,25.879,35.645,3.418,154.297
1532509868.085,28.320,27.344,32.715,0.488,34.180
1532509868.089,33.691,30.762,29.785,0.977,-25.391
1532509868.093,26.855,31.738,30.762,1.465,74.219
1532509868.096,33.203,31.738,29.785,2.930,136.230
1532509868.100,32.715,33.203,30.762,0.488,57.617
1532509868.104,24.902,32.227,31.250,-1.953,14.648
1532509868.108,20.020,26.367,36.621,0.000,-20.508
1532509868.112,30.273,20.996,40.039,12.207,15.137
1532509868.116,30.273,27.344,32.715,11.719,78.125
1532509868.120,19.043,36.621,26.367,-5.859,16.113
1532509868.124,23.438,38.086,20.996,-8.301,47.852
1532509868.128,20.996,38.574,23.926,-5.859,68.848
1532509868.132,17.090,40.039,28.809,-6.836,1.953
1532509868.136,20.020,41.504,28.809,3.906,0.488
1532509868.139,20.508,36.133,26.367,0.977,0.000
1532509868.143,11.719,29.297,19.531,-13.672,105.469
1532509868.147,22.949,30.762,19.531,-11.719,120.605
1532509868.151,22.461,33.203,24.902,-6.836,-2.441
1532509868.155,6.836,30.273,28.320,0.000,-44.922
1532509868.159,12.695,31.738,27.344,2.930,-15.625
1532509868.163,17.578,35.645,23.438,3.906,74.219
1532509868.167,22.949,34.668,23.438,2.930,9.766
1532509868.171,20.996,31.738,25.879,-8.301,-186.523
1532509868.175,19.043,34.668,26.855,-1.465,-73.730
1532509868.179,25.879,36.133,25.391,6.836,135.254
1532509868.182,27.344,33.203,26.855,5.371,95.215
1532509868.186,28.320,37.598,27.344,6.348,-7.812
1532509868.190,30.762,36.621,20.996,12.207,-16.602
1532509868.194,26.367,33.203,18.066,10.254,99.121
1532509868.198,22.949,32.715,22.949,-0.977,118.652
1532509868.202,27.832,32.227,22.461,0.977,-31.250
1532509868.206,29.297,32.227,21.973,3.906,-58.594
1532509868.210,28.320,29.785,26.367,3.906,-42.480
1532509868.214,33.691,31.250,23.438,2.441,-43.457
1532509868.218,33.203,33.203,23.438,8.301,30.762
1532509868.221,22.949,33.203,26.367,11.230,9.766
1532509868.225,22.949,35.156,25.879,6.348,76.660
1532509868.229,28.809,34.180,24.414,5.859,136.719
1532509868.233,24.902,30.273,22.461,8.789,83.496
1532509868.237,24.414,27.344,23.926,9.277,22.949
1532509868.241,30.273,25.879,23.438,10.254,75.195
1532509868.245,30.273,29.297,23.926,15.137,151.855
1532509868.249,27.832,34.668,26.367,13.672,21.484
1532509868.253,28.320,30.762,23.438,0.977,-80.078
1532509868.257,25.391,27.344,20.508,0.000,21.973
1532509868.261,21.484,31.738,21.484,0.000,125.977
1532509868.264,23.438,34.668,23.438,2.441,130.371
1532509868.268,33.691,32.227,24.902,10.254,-73.242
1532509868.272,32.227,30.762,24.902,2.441,-138.184
1532509868.276,18.555,26.855,23.438,-5.371,103.516
1532509868.280,20.508,23.926,21.973,-4.883,169.434
1532509868.284,21.484,27.344,20.020,1.953,101.562
1532509868.288,17.090,28.320,23.438,-2.930,-5.859
1532509868.292,16.602,26.855,30.273,-2.441,16.113
1532509868.296,18.555,25.879,27.344,0.488,115.234
1532509868.300,18.555,29.785,22.949,-0.977,38.086
1532509868.304,17.578,30.762,24.902,-2.441,0.977
1532509868.307,25.391,32.227,25.391,-5.859,30.273
1532509868.311,24.902,33.203,22.949,-10.742,2.441
1532509868.315,16.602,32.227,23.926,-12.695,42.480
1532509868.319,16.113,31.250,27.832,-11.230,21.973
1532509868.323,19.531,30.273,27.344,-6.836,14.160
1532509868.327,30.762,30.762,26.855,-0.488,92.773
1532509868.331,21.973,31.738,31.738,0.000,92.773
1532509868.335,13.184,27.344,29.785,-3.418,25.879
1532509868.339,18.555,24.902,22.949,-6.836,-14.160
1532509868.343,19.531,28.809,23.926,-5.371,16.113
1532509868.346,20.996,27.832,24.902,-9.766,62.500
1532509868.350,32.227,29.785,25.391,-20.508,-102.539
1532509868.354,41.504,35.156,22.949,-12.207,-146.973
1532509868.358,43.457,36.133,20.996,-11.719,49.316
1532509868.362,48.828,35.156,23.926,-19.531,125.977
1532509868.366,52.734,31.738,23.926,-13.672,96.191
1532509868.370,50.293,31.250,26.367,-12.207,-21.973
1532509868.374,42.480,29.785,32.715,-5.859,1.953
1532509868.378,35.156,30.273,35.645,8.301,99.609
1532509868.382,30.762,28.320,32.715,12.695,94.238
1532509868.386,22.461,23.926,32.227,8.301,26.367
1532509868.389,20.996,20.020,31.738,2.930,-38.086
1532509868.393,22.949,21.973,28.320,5.859,13.672
1532509868.397,14.648,22.949,27.344,8.301,75.195
1532509868.401,8.789,21.973,26.855,3.418,8.789
1532509868.405,12.207,25.879,27.832,2.930,18.555
1532509868.409,17.090,27.344,29.297,1.465,-2.441
1532509868.413,16.602,24.414,27.832,-6.348,-33.203
1532509868.417,22.461,25.391,30.762,-1.465,24.414
1532509868.421,22.949,26.367,34.668,3.906,-3.418
1532509868.425,18.555,26.367,31.250,0.977,69.824
1532509868.429,26.855,26.367,32.227,6.348,126.465
1532509868.432,28.809,22.949,34.668,12.695,49.316
1532509868.436,23.438,24.414,32.715,5.859,-67.871
1532509868.440,18.555,30.762,29.297,-9.277,-56.641
1532509868.444,16.602,32.715,24.902,-0.977,136.719
1532509868.448,22.949,34.180,23.438,-0.488,69.336
1532509868.452,19.531,32.715,25.879,-18.555,-144.531
1532509868.456,19.531,28.320,29.297,-10.254,-50.293
1532509868.460,20.508,31.250,28.809,-6.348,111.328
1532509868.464,21.973,31.250,26.855,-6.836,132.812
1532509868.468,21.973,26.367,27.832,-13.672,-3.418
1532509868.471,17.090,24.902,28.809,-12.207,-68.359
1532509868.475,22.949,24.414,26.367,-5.371,58.105
1532509868.479,27.344,26.367,27.344,-1.953,128.906
1532509868.483,27.832,33.203,27.344,-1.465,19.043
1532509868.487,20.996,30.273,26.855,-0.977,-90.332
1532509868.491,21.973,28.809,27.344,-6.836,-120.117
1532509868.495,27.832,34.180,27.344,-4.395,31.738
1532509868.499,22.949,36.621,27.832,0.488,111.816
1532509868.503,25.879,34.668,24.902,-7.812,11.230
1532509868.507,31.250,27.832,25.391,-4.883,30.762
1532509868.511,22.461,31.250,29.297,-2.441,89.355
1532509868.514,18.555,38.086,30.762,-11.230,114.746
1532509868.518,19.043,39.551,27.832,-12.695,28.809
1532509868.522,16.602,32.715,25.391,-3.418,-3.418
1532509868.526,20.996,29.297,29.785,3.906,110.840
1532509868.530,25.391,34.668,31.250,0.977,110.840
1532509868.534,27.344,40.039,29.297,-0.488,16.113
1532509868.538,29.297,38.086,29.297,-0.488,8.789
1532509868.542,32.227,34.668,30.762,-0.977,88.379
1532509868.546,33.203,36.133,28.809,3.906,156.738
1532509868.550,36.133,33.203,30.273,-7.324,-17.090
1532509868.553,38.574,29.297,32.227,-12.695,-145.020
1532509868.557,29.297,27.832,31.250,-1.953,20.508
1532509868.561,22.949,25.879,32.227,-3.906,133.789
1532509868.565,23.438,28.809,29.297,-10.742,95.703
1532509868.569,25.879,32.227,25.879,-9.766,-17.090
1532509868.573,27.344,29.785,29.785,1.953,-3.418
1532509868.577,25.879,28.320,30.762,4.395,49.316
1532509868.581,25.391,31.250,25.879,-10.254,24.414
1532509868.585,26.367,33.691,25.391,-3.906,20.508
1532509868.589,29.297,30.762,27.344,-6.836,-71.289
1532509868.593,34.180,25.879,28.320,-14.160,-47.852
1532509868.596,37.109,26.367,25.879,-5.371,123.535
1532509868.600,31.250,30.273,24.902,-5.859,57.617
1532509868.604,35.645,33.203,27.344,-8.301,24.902
1532509868.608,41.992,36.133,29.785,-0.977,58.105
1532509868.612,24.902,32.715,27.344,1.953,83.984
1532509868.616,20.020,30.762,25.879,-3.418,69.336
1532509868.620,24.414,31.738,26.855,-4.395,-43.457
1532509868.624,27.832,35.645,23.926,-1.465,-50.781
1532509868.628,25.879,34.668,25.391,-0.977,24.414
1532509868.632,20.996,28.809,25.879,-4.395,-37.598
1532509868.636,22.949,31.250,24.414,-2.441,-53.223
1532509868.639,27.832,36.621,22.949,-4.395,23.926
1532509868.643,30.273,37.109,20.020,-2.441,107.910
1532509868.647,35.156,34.668,20.508,4.395,78.125
1532509868.651,29.785,32.227,20.996,2.441,-8.789
1532509868.655,12.695,29.785,20.508,-7.324,-2.441
1532509868.659,15.137,30.762,23.926,-5.371,75.195
1532509868.663,16.113,33.203,27.832,1.465,145.996
1532509868.667,13.672,32.227,27.344,-2.930,39.551
1532509868.671,18.066,32.227,25.391,-4.395,-104.492
1532509868.675,18.066,30.273,27.344,-0.488,-29.785
1532509868.678,22.949,32.227,26.855,0.977,125.000
1532509868.682,28.320,36.133,25.391,3.906,105.957
1532509868.686,22.461,31.250,27.832,9.766,18.555
1532509868.690,17.090,32.715,30.273,-6.836,-102.051
1532509868.694,23.438,36.621,29.785,-13.672,15.137
1532509868.698,23.926,37.109,29.785,0.000,152.832
1532509868.702,15.625,36.133,26.855,3.418,29.297
1532509868.706,16.602,30.762,26.367,5.371,24.414
1532509868.710,24.414,29.297,30.273,12.695,110.352
1532509868.714,28.809,33.203,28.809,9.277,130.371
1532509868.718,27.832,39.551,26.855,-0.488,-5.371
1532509868.721,26.367,38.574,29.297,2.441,-86.426
1532509868.725,24.414,40.527,30.273,0.488,71.289
1532509868.729,23.438,41.016,26.367,-8.301,57.617
1532509868.733,28.320,36.621,24.902,-10.742,-61.035
1532509868.737,37.109,35.156,26.367,-6.348,-5.371
1532509868.741,31.738,35.156,23.926,8.301,46.387
1532509868.745,21.484,40.039,23.926,8.301,143.555
1532509868.749,22.949,38.086,30.273,-2.441,56.641
1532509868.753,24.414,36.621,28.320,4.883,-72.266
1532509868.757,25.391,36.621,22.461,10.254,5.371
1532509868.761,30.762,33.691,24.414,10.742,124.512
1532509868.764,31.250,34.180,26.367,7.324,93.262
1532509868.768,30.762,33.691,25.391,0.488,-110.840
1532509868.772,32.227,33.691,25.391,-9.277,-148.926
1532509868.776,24.902,35.156,24.902,-6.348,65.430
1532509868.780,26.367,32.715,27.832,0.488,148.438
1532509868.784,32.227,29.785,27.832,6.348,73.242
1532509868.788,21.484,29.297,23.926,3.418,-25.391
1532509868.792,18.066,27.344,25.879,6.348,25.391
1532509868.796,23.438,24.414,26.855,12.207,157.227
1532509868.800,20.020,21.484,27.832,9.766,89.844
1532509868.803,18.555,19.043,26.367,9.766,-12.695
1532509868.807,22.461,24.414,25.391,5.371,-1.465
1532509868.811,22.461,28.320,20.020,-1.953,56.152
1532509868.815,22.461,27.344,18.066,-13.184,26.367
1532509868.819,16.602,28.809,22.461,-16.113,-52.734
1532509868.823,23.926,27.832,20.020,-8.789,0.000
1532509868.827,29.297,27.344,18.555,-1.953,91.797
1532509868.831,11.230,26.855,23.438,-4.395,-21.484
1532509868.835,4.883,26.367,27.832,-6.836,-82.031
1532509868.839,16.602,25.879,29.297,8.301,7.324
1532509868.843,25.391,24.902,30.273,19.043,103.516
1532509868.846,20.020,23.926,27.344,10.254,128.906
1532509868.850,18.555,23.438,25.391,13.184,-3.906
1532509868.854,16.113,25.391,16.113,11.230,-33.691
1532509868.858,14.160,28.320,9.277,-1.465,-1.465
1532509868.862,14.160,30.273,13.672,-5.859,36.621
1532509868.866,12.207,32.227,17.578,-15.137,40.039
1532509868.870,10.742,29.297,20.020,-19.531,-58.594
1532509868.874,19.531,25.391,20.996,-17.578,5.371
1532509868.878,22.949,23.926,19.043,-13.184,153.320
1532509868.882,18.555,26.855,19.043,-10.254,113.770
1532509868.885,24.414,30.762,23.438,-9.277,27.832
1532509868.889,32.227,30.762,24.902,-8.301,-78.125
1532509868.893,31.250,28.320,20.996,-4.395,-14.160
1532509868.897,25.391,29.785,20.020,0.000,146.973
1532509868.901,27.832,30.762,22.461,2.441,18.555
1532509868.905,29.297,26.855,20.020,10.254,-85.938
1532509868.909,27.832,28.320,19.043,8.301,-74.707
1532509868.913,32.227,30.273,18.555,2.441,-20.020
1532509868.917,39.062,29.785,16.113,11.230,57.129
1532509868.921,27.832,28.809,22.949,19.531,18.066
1532509868.925,11.230,22.461,30.762,4.883,65.430
1532509868.928,12.695,19.043,30.762,-8.301,119.141
1532509868.932,14.160,18.555,29.297,-5.371,65.430
1532509868.936,14.648,19.531,30.273,-4.395,-18.555
1532509868.940,19.043,20.508,31.738,-0.977,35.645
1532509868.944,21.484,19.043,30.273,-3.418,146.973
1532509868.948,27.832,20.996,26.367,-3.906,79.102
1532509868.952,36.621,20.996,24.414,3.906,-41.504
1532509868.956,36.133,18.555,25.391,9.766,-38.574
1532509868.960,22.949,15.137,26.367,6.348,100.586
1532509868.964,16.602,13.184,29.297,9.766,188.965
1532509868.968,15.625,18.066,32.715,16.113,17.090
1532509868.971,9.766,20.996,32.715,12.207,-96.191
1532509868.975,6.348,20.996,34.668,5.859,61.035
1532509868.979,6.836,19.531,34.668,0.977,163.086
1532509868.983,14.648,19.043,32.227,0.488,102.051
1532509868.987,16.113,21.484,30.762,-8.789,-9.766
1532509868.991,17.090,22.949,29.297,-15.137,-86.426
1532509868.995,23.438,25.391,26.367,-0.977,19.531
1532509868.999,26.367,29.785,24.902,-3.418,18.555
1532509869.003,22.461,27.344,25.879,-8.301,-93.262
1532509869.007,25.879,20.020,28.809,0.977,-13.672
1532509869.010,25.879,17.090,29.297,-2.930,-19.043
1532509869.014,19.043,17.578,27.832,-6.348,-16.602
1532509869.018,21.973,25.391,29.297,4.395,21.973
1532509869.022,25.391,24.902,31.250,10.742,21.973
1532509869.026,31.250,23.926,32.715,16.602,108.398
1532509869.030,32.715,27.832,33.691,20.508,125.000
1532509869.034,32.227,25.391,32.715,19.531,85.449
1532509869.038,30.273,20.020,32.227,22.461,41.992
1532509869.042,29.785,22.949,31.738,16.602,75.195
1532509869.046,32.227,27.344,26.367,12.695,114.258
1532509869.050,30.762,24.902,21.973,3.906,-56.152
1532509869.053,27.344,24.902,23.926,-4.883,-126.953
1532509869.057,39.551,28.809,23.438,7.812,51.758
1532509869.061,43.945,28.320,21.484,7.812,176.758
1532509869.065,28.809,25.879,21.484,7.324,151.855
1532509869.069,31.738,29.297,23.438,9.277,-12.207
1532509869.073,29.785,27.832,27.344,6.348,-21.484
1532509869.077,18.555,20.020,27.832,5.371,113.770
1532509869.081,16.602,20.020,24.414,5.859,133.301
1532509869.085,15.625,20.996,24.414,0.977,52.734
1532509869.089,12.695,19.531,27.344,1.953,-11.230
1532509869.093,20.996,20.508,31.738,9.766,1.465
1532509869.096,34.180,21.484,34.668,11.719,0.000
1532509869.100,41.016,24.414,31.250,12.695,-40.527
1532509869.104,48.828,27.832,32.227,14.160,14.648
1532509869.108,56.152,25.391,35.156,15.137,17.578
1532509869.112,63.477,19.531,36.621,17.090,-12.207
1532509869.116,57.129,20.996,40.039,19.043,37.598
1532509869.120,35.645,26.855,42.969,19.043,6.348
1532509869.124,26.367,28.809,39.551,18.066,19.043
1532509869.128,26.855,29.297,36.133,21.484,68.359
1532509869.132,19.043,27.344,32.227,17.090,79.590
1532509869.135,10.254,26.367,28.320,6.836,42.480
1532509869.139,8.301,25.391,32.227,8.789,-35.645
1532509869.143,7.812,22.949,35.156,7.812,49.316
1532509869.147,10.254,23.926,34.180,1.953,109.375
1532509869.151,14.648,28.320,28.809,-10.254,-104.980
1532509869.155,17.090,30.762,22.461,-15.137,-117.188
1532509869.159,20.020,27.832,20.996,-5.859,71.289
1532509869.163,18.555,23.926,23.926,-3.418,139.648
1532509869.167,2.930,26.367,24.414,-12.207,49.316
1532509869.171,-5.859,27.832,26.367,-10.742,-36.133
1532509869.175,-2.441,25.391,31.250,-1.465,31.738
1532509869.178,5.859,22.461,33.691,5.859,129.395
1532509869.182,12.207,25.879,29.297,6.836,85.938
1532509869.186,9.766,34.668,24.902,2.441,-44.434
1532509869.190,28.320,30.762,25.391,3.906,-121.094
1532509869.194,41.992,29.785,23.926,2.930,0.488
1532509869.198,22.949,37.109,19.531,0.488,119.141
1532509869.202,23.926,37.109,20.996,0.488,42.480
1532509869.206,31.250,36.133,23.926,-2.441,21.973
1532509869.210,30.273,36.133,20.020,0.000,97.656
1532509869.214,31.250,33.691,22.949,6.836,130.371
1532509869.218,31.250,34.668,24.902,6.836,24.902
1532509869.221,26.367,34.180,22.461,-12.695,-6.836
1532509869.225,23.926,32.715,19.043,-17.090,87.891
1532509869.229,33.691,29.785,20.508,-4.883,111.816
1532509869.233,31.738,28.320,23.438,-6.348,-4.395
1532509869.237,24.902,32.715,22.949,-3.906,-86.914
1532509869.241,25.879,34.668,20.996,-2.441,12.695
1532509869.245,21.484,32.715,20.508,-7.324,149.414
1532509869.249,19.531,35.156,22.949,-14.160,7.812
1532509869.253,21.973,36.621,22.949,-19.043,-160.645
1532509869.257,20.996,33.203,20.020,-15.625,-28.320
1532509869.260,20.020,31.738,20.996,-13.184,129.395
1532509869.264,18.555,28.809,23.926,-11.230,143.555
1532509869.268,14.160,28.809,21.484,-18.066,-26.367
1532509869.272,18.555,32.715,17.090,-16.113,-74.707
1532509869.276,23.438,30.762,20.996,-5.371,102.539
1532509869.280,35.645,22.949,23.926,-0.977,96.191
1532509869.284,37.109,27.832,23.438,2.930,-15.137
1532509869.288,20.020,36.133,27.344,7.324,-69.824
1532509869.292,22.949,31.250,30.273,2.930,-83.984
1532509869.296,30.273,28.809,27.832,4.883,78.125
1532509869.300,28.809,31.250,25.391,5.859,72.754
1532509869.303,28.320,30.762,28.320,1.465,-17.090
1532509869.307,28.809,30.273,29.297,3.906,-10.254
1532509869.311,33.203,28.320,29.297,4.395,79.102
1532509869.315,30.273,29.297,33.203,-2.441,85.938
1532509869.319,29.785,33.691,37.109,0.977,-21.484
1532509869.323,34.180,33.691,34.668,2.930,-2.930
1532509869.327,35.645,25.391,33.691,1.953,43.457
1532509869.331,34.668,24.414,39.062,0.000,-46.875
1532509869.335,20.996,29.785,37.598,-4.395,-54.199
1532509869.339,17.090,31.250,37.109,4.883,13.672
1532509869.342,18.555,31.250,39.551,6.836,79.102
1532509869.346,24.902,32.715,40.527,13.184,118.164
1532509869.350,29.297,34.668,43.457,11.230,-8.789
1532509869.354,28.809,34.668,43.457,10.254,-8.789
1532509869.358,33.691,34.668,42.969,16.113,83.984
1532509869.362,29.297,35.156,41.992,7.324,129.883
1532509869.366,27.344,39.062,40.039,0.000,61.035
1532509869.370,31.738,38.574,43.945,6.348,-30.273
1532509869.374,32.715,37.109,45.898,6.836,-21.973
1532509869.378,29.785,39.062,41.016,2.930,52.246
1532509869.382,33.203,33.691,48.828,15.137,74.707
1532509869.385,44.434,32.715,54.688,31.250,36.621
1532509869.389,41.992,41.504,44.434,15.625,-75.684
1532509869.393,32.715,42.480,40.039,1.953,-48.828
1532509869.397,28.809,43.457,40.039,1.953,111.328
1532509869.401,29.297,46.875,36.133,4.883,49.805
1532509869.405,36.133,44.922,37.598,14.160,3.906
1532509869.409,27.832,41.504,41.992,11.230,41.016
1532509869.413,25.879,41.992,41.504,7.812,84.473
1532509869.417,25.391,40.039,43.945,6.836,34.180
1532509869.421,19.531,39.551,44.434,9.277,-87.402
1532509869.425,23.438,43.945,43.457,15.625,14.160
1532509869.428,25.879,40.527,44.434,10.254,86.914
1532509869.432,27.344,36.133,47.363,11.230,-54.199
1532509869.436,31.250,35.645,46.387,8.789,-31.738
1532509869.440,29.297,36.133,41.992,0.000,30.762
1532509869.444,31.250,36.621,43.457,8.301,135.254
1532509869.448,29.785,33.691,49.316,10.742,110.840
1532509869.452,27.832,33.691,43.945,3.418,-4.883
1532509869.456,33.691,32.715,40.039,4.395,-2.441
1532509869.460,25.391,26.855,43.945,0.977,90.332
1532509869.464,20.508,31.738,44.922,-0.488,137.695
1532509869.467,22.949,35.156,41.504,2.930,-30.273
1532509869.471,20.996,33.203,35.156,-8.789,-172.852
1532509869.475,19.531,33.203,36.133,-4.395,-2.930
1532509869.479,20.508,32.227,39.062,6.348,146.484
1532509869.483,19.531,32.227,40.039,-2.930,87.402
1532509869.487,23.438,32.715,40.039,-0.977,-27.832
1532509869.491,36.133,34.180,38.086,0.977,-8.301
1532509869.495,39.062,36.621,35.156,9.277,142.578
1532509869.499,30.273,39.062,36.133,15.137,123.535
1532509869.503,23.438,39.551,38.574,0.488,22.461
1532509869.507,30.762,35.156,38.086,-3.906,-0.488
1532509869.510,28.320,31.250,37.598,4.883,46.387
1532509869.514,21.973,33.203,36.133,8.789,36.621
1532509869.518,20.020,35.156,33.203,-0.488,-33.203
1532509869.522,20.508,33.691,33.203,-1.953,-14.648
1532509869.526,26.855,34.180,28.320,3.418,89.844
1532509869.530,33.691,35.645,26.855,3.906,-7.324
1532509869.534,31.250,38.574,33.203,2.441,-133.789
1532509869.538,28.320,38.574,35.156,1.953,-54.688
1532509869.542,26.855,36.133,32.227,0.000,53.711
1532509869.546,28.320,35.645,30.762,2.441,164.062
1532509869.550,34.180,36.621,32.715,2.441,53.223
1532509869.553,31.738,35.156,33.203,3.906,-33.691
1532509869.557,32.715,35.156,37.109,3.906,56.641
1532509869.561,29.297,32.715,40.527,2.930,78.613
1532509869.565,32.715,32.227,43.457,6.348,31.250
1532509869.569,32.227,37.109,43.457,-2.441,-97.656
1532509869.573,20.020,32.227,41.504,0.488,-79.102
1532509869.577,21.973,30.762,41.016,3.906,114.258
1532509869.581,24.414,36.621,39.062,-6.348,160.645
1532509869.585,23.438,39.551,38.574,-1.953,67.871
1532509869.589,24.902,40.527,40.039,1.953,-60.547
1532509869.592,28.809,38.574,41.504,3.418,18.066
1532509869.596,40.039,37.109,41.504,6.836,128.418
1532509869.600,37.598,37.109,40.527,2.930,48.828
1532509869.604,32.715,36.621,41.504,7.812,-1.465
1532509869.608,28.320,39.062,38.086,-0.488,-15.625
1532509869.612,23.926,39.551,35.645,-18.555,-74.707
1532509869.616,25.391,36.133,39.551,-10.254,-45.898
1532509869.620,23.926,35.645,41.504,2.930,26.367
1532509869.624,25.391,35.156,41.504,2.930,51.758
1532509869.628,25.879,31.738,42.969,3.906,94.238
1532509869.632,26.855,35.645,41.992,2.441,82.031
1532509869.635,26.855,35.645,39.551,-0.977,18.555
1532509869.639,28.320,37.109,40.527,-0.977,-23.926
1532509869.643,30.273,40.527,37.598,3.418,92.285
1532509869.647,27.832,37.109,35.156,3.418,109.375
1532509869.651,28.809,39.062,35.645,-6.836,0.977
1532509869.655,33.691,41.016,34.668,-2.441,-38.574
1532509869.659,36.621,40.527,36.621,1.465,2.930
1532509869.663,28.320,37.109,37.109,-3.906,133.301
1532509869.667,20.508,34.180,36.133,-7.812,61.035
1532509869.671,21.484,36.133,37.598,-9.277,-155.762
1532509869.674,22.461,35.156,36.133,-6.836,-80.078
1532509869.678,25.391,33.203,33.691,-9.277,147.949
1532509869.682,20.020,27.344,36.133,-7.324,115.723
1532509869.686,13.672,23.438,40.039,-0.977,-40.527
1532509869.690,20.020,30.273,37.109,-4.395,-39.551
1532509869.694,25.391,33.691,35.645,-10.742,119.141
1532509869.698,22.949,33.203,37.598,-7.324,124.512
1532509869.702,23.926,34.668,36.133,-3.418,-46.875
1532509869.706,26.855,35.156,38.086,-5.859,-41.992
1532509869.710,30.762,33.691,42.480,0.488,37.598
1532509869.714,32.715,31.738,42.480,5.859,77.637
1532509869.717,34.668,31.738,43.457,0.977,76.660
1532509869.721,26.855,33.203,41.504,3.906,6.836
1532509869.725,29.785,36.133,39.551,8.789,107.910
1532509869.729,35.156,38.574,43.457,2.441,71.777
1532509869.733,24.414,39.062,44.434,-8.789,-79.590
1532509869.737,23.438,35.645,40.527,-4.395,-10.742
1532509869.741,25.391,33.691,37.598,4.883,62.988
1532509869.745,25.391,32.227,38.574,8.301,122.559
1532509869.749,19.043,32.227,38.086,-8.789,-2.930
1532509869.753,21.484,37.109,36.621,-15.625,-111.328
1532509869.757,23.926,37.109,32.227,-6.836,7.812
1532509869.760,27.832,36.133,32.227,-7.324,116.211
1532509869.764,26.855,37.109,34.668,-4.883,135.742
1532509869.768,23.438,34.668,34.180,-7.324,-26.855
1532509869.772,27.832,34.180,33.203,-3.418,-81.543
1532509869.776,27.344,38.086,34.180,4.883,68.848
1532509869.780,29.297,38.086,34.668,0.977,124.512
1532509869.784,31.250,39.551,32.227,3.418,41.016
1532509869.788,36.133,41.504,33.203,3.418,-53.711
1532509869.792,31.738,34.668,34.180,-1.465,35.645
1532509869.796,18.066,32.227,34.180,0.488,113.770
1532509869.799,17.578,32.715,34.180,-4.395,-2.441
1532509869.803,21.484,32.715,36.133,-9.277,-34.668
1532509869.807,24.902,38.086,34.668,-3.418,3.906
1532509869.811,22.949,37.109,31.738,-10.254,7.324
1532509869.815,24.414,34.668,32.227,-15.625,40.039
1532509869.819,26.855,35.156,32.715,-2.930,4.395
1532509869.823,26.367,38.086,31.738,-1.465,-5.371
1532509869.827,42.480,37.109,33.691,3.418,83.496
1532509869.831,40.527,33.691,36.133,10.254,91.797
1532509869.835,26.367,33.691,34.668,0.977,9.277
1532509869.839,30.273,37.598,33.691,2.930,-13.672
1532509869.842,27.832,39.062,32.227,-3.906,47.363
1532509869.846,26.855,37.598,33.203,-9.766,83.984
1532509869.850,34.668,38.086,36.133,-7.812,-89.844
1532509869.854,37.109,35.645,38.574,-9.766,-132.812
1532509869.858,41.016,36.133,37.598,-5.859,76.172
1532509869.862,44.434,35.156,35.156,-4.395,168.945
1532509869.866,38.574,35.645,37.109,-6.348,89.355
1532509869.870,36.621,33.203,37.598,-0.977,-44.434
1532509869.874,30.762,25.879,38.086,13.672,11.230
1532509869.878,32.227,28.809,40.039,20.508,137.695
1532509869.882,26.367,34.180,38.086,12.695,97.168
1532509869.885,15.625,27.344,38.574,19.043,13.672
1532509869.889,21.973,28.320,41.016,16.113,-35.156
1532509869.893,31.738,40.527,31.738,9.766,-0.977
1532509869.897,46.387,42.480,24.414,27.832,86.914
1532509869.901,47.363,39.062,38.086,31.738,18.066
1532509869.905,30.762,32.227,46.875,19.043,9.277
1532509869.909,17.090,27.344,47.363,9.766,20.996
1532509869.913,16.113,28.809,50.293,3.906,30.762
1532509869.917,25.879,30.273,46.875,6.836,47.363
1532509869.921,25.391,26.855,41.992,-2.930,-39.551
1532509869.924,23.438,26.855,44.922,-4.395,34.180
1532509869.928,29.297,30.273,40.527,-0.977,108.887
1532509869.932,35.645,30.273,35.645,-10.254,39.551
1532509869.936,31.250,29.297,41.992,-0.488,-68.359
1532509869.940,7.812,29.297,40.527,9.277,-60.547
1532509869.944,0.000,26.367,40.527,8.789,117.188
1532509869.948,4.883,23.926,45.898,10.254,52.734
1532509869.952,-1.465,25.879,41.504,6.348,-165.527
1532509869.956,5.371,29.785,36.133,9.277,-95.215
1532509869.960,18.066,35.156,33.691,10.742,88.379
1532509869.964,17.578,36.621,34.180,7.812,177.246
1532509869.967,20.996,34.668,38.574,9.766,40.039
1532509869.971,23.438,35.645,32.715,3.906,-38.086
1532509869.975,22.949,35.156,31.738,1.465,82.520
1532509869.979,36.621,37.598,35.645,12.695,148.926
1532509869.983,41.016,39.551,35.645,9.766,37.109
1532509869.987,28.320,40.039,39.062,5.371,-81.543
1532509869.991,35.645,41.016,39.551,5.859,-81.055
1532509869.995,41.992,43.457,36.133,6.836,67.871
1532509869.999,35.645,44.922,35.645,13.672,126.953
1532509870.003,34.180,41.992,33.691,7.812,37.598
1532509870.007,34.180,41.504,36.133,2.441,3.418
1532509870.010,24.414,38.086,38.574,2.441,76.172
1532509870.014,17.578,37.598,34.668,-4.395,126.953
1532509870.018,17.090,39.551,37.109,-5.371,25.879
1532509870.022,15.137,36.621,38.574,0.000,7.812
1532509870.026,14.648,34.668,38.574,9.766,126.953
1532509870.030,14.160,31.738,38.574,3.906,101.562
1532509870.034,16.602,30.762,35.645,0.488,-29.785
1532509870.038,20.996,34.668,37.109,3.906,-46.875
1532509870.042,23.438,39.062,37.598,8.301,24.414
1532509870.046,25.391,38.574,37.109,12.695,151.855
1532509870.049,19.531,38.574,33.691,-4.395,5.859
1532509870.053,17.578,38.086,32.227,-15.625,-151.367
1532509870.057,20.996,36.133,34.180,-5.371,1.953
1532509870.061,26.855,38.086,32.715,-0.977,116.699
1532509870.065,24.414,42.480,25.879,-10.742,116.211
1532509870.069,23.926,44.434,23.438,-15.137,-5.859
1532509870.073,20.020,40.527,25.879,-11.230,-25.391
1532509870.077,18.555,39.062,29.297,-9.766,27.344
1532509870.081,24.414,40.039,32.715,-9.766,31.250
1532509870.085,14.160,40.039,32.715,-10.254,41.504
1532509870.089,20.508,40.039,30.273,-6.836,-73.242
1532509870.092,28.320,34.668,35.156,-0.488,-71.289
1532509870.096,10.254,36.133,41.992,0.977,107.910
1532509870.100,10.742,43.945,40.527,-3.906,72.266
1532509870.104,19.043,44.922,37.109,2.441,20.508
1532509870.108,18.066,43.945,32.715,3.906,45.410
1532509870.112,12.695,44.434,29.785,0.488,99.609
1532509870.116,21.484,47.852,26.855,-1.953,80.078
1532509870.120,41.016,53.223,16.113,0.977,-0.488
1532509870.124,35.645,47.852,16.602,8.789,7.324
1532509870.128,9.277,40.039,32.227,1.465,30.762
1532509870.131,4.395,40.039,39.551,-12.207,-28.809
1532509870.135,17.090,38.086,38.574,-2.930,-36.621
1532509870.139,17.090,34.180,38.086,11.230,12.207
1532509870.143,14.160,29.785,46.875,16.113,123.047
1532509870.147,13.672,28.320,47.852,12.695,127.441
1532509870.151,8.301,25.879,42.969,7.812,-8.789
1532509870.155,22.949,23.438,43.457,18.066,1.953
1532509870.159,39.551,22.461,47.852,33.691,92.773
1532509870.163,28.320,18.555,52.246,36.621,149.414
1532509870.167,20.996,19.531,50.293,39.551,26.367
1532509870.171,24.902,19.531,53.223,40.527,-110.352
1532509870.174,35.156,15.137,57.129,49.316,-26.855
1532509870.178,40.039,13.184,59.570,57.129,95.703
1532509870.182,41.992,13.672,59.082,51.758,86.426
1532509870.186,54.688,13.184,58.594,60.059,23.926
1532509870.190,57.617,13.672,62.988,60.547,-100.586
1532509870.194,60.059,16.113,62.500,61.523,-26.855
1532509870.198,62.012,13.184,62.500,73.730,124.023
1532509870.202,65.430,8.789,63.477,78.125,9.277
1532509870.206,65.918,5.371,64.453,79.590,-14.648
1532509870.210,60.547,5.371,66.895,80.566,71.777
1532509870.214,61.523,6.836,65.918,81.055,120.117
1532509870.217,64.453,6.836,64.941,83.984,-4.883
1532509870.221,61.035,4.395,67.871,76.172,-67.383
1532509870.225,51.270,2.930,70.312,70.801,99.121
1532509870.229,53.223,7.324,68.359,67.871,69.336
1532509870.233,57.129,10.254,63.477,59.082,-86.426
1532509870.237,52.734,8.301,59.570,56.641,-23.438
1532509870.241,53.223,10.742,56.152,51.758,49.805
1532509870.245,49.805,15.625,55.176,49.805,141.113
1532509870.249,49.805,15.625,53.711,48.828,95.703
1532509870.253,44.434,17.578,52.246,37.109,-22.461
1532509870.256,38.086,21.484,52.734,35.156,39.062
1532509870.260,47.363,27.832,48.828,41.992,133.789
1532509870.264,43.457,25.391,44.922,40.527,103.027
1532509870.268,42.480,22.461,45.410,26.855,-57.617
1532509870.272,45.410,22.949,46.875,22.949,-147.461
1532509870.276,38.574,21.973,48.340,30.273,53.223
1532509870.280,30.273,21.973,47.363,23.926,160.156
1532509870.284,33.691,23.438,46.875,11.230,56.641
1532509870.288,41.992,23.438,47.363,17.578,-52.246
1532509870.292,31.250,19.531,47.363,25.391,-9.277
1532509870.296,23.438,20.508,46.387,13.672,147.949
1532509870.299,19.531,25.879,42.969,10.742,108.398
1532509870.303,18.555,27.832,41.016,18.555,-5.371
1532509870.307,27.832,31.738,41.504,23.438,1.465
1532509870.311,34.668,32.715,40.039,26.855,58.594
1532509870.315,39.551,26.855,37.598,27.832,35.156
1532509870.319,41.504,27.832,36.133,24.414,-41.016
1532509870.323,37.598,27.832,38.574,21.484,9.277
1532509870.327,30.762,26.367,39.551,19.043,82.520
1532509870.331,23.438,31.250,35.645,7.812,-14.160
1532509870.335,24.902,32.715,35.645,7.812,-58.594
1532509870.339,28.809,31.250,34.668,17.090,-1.953
1532509870.342,26.367,33.691,31.250,23.438,70.801
1532509870.346,33.203,35.645,35.156,24.414,104.004
1532509870.350,34.180,34.668,36.133,18.066,27.832
1532509870.354,38.574,37.598,33.691,19.531,-11.230
1532509870.358,41.992,39.062,33.691,20.508,8.789
1532509870.362,37.109,36.133,33.691,13.672,114.258
1532509870.366,35.645,34.668,32.227,22.949,137.695
1532509870.370,31.250,35.645,30.273,14.160,-112.305
1532509870.374,36.621,38.086,28.320,10.254,-143.555
1532509870.378,35.645,38.086,28.320,20.020,117.188
1532509870.381,36.133,39.551,26.367,7.812,118.164
1532509870.385,30.762,38.086,28.320,3.418,33.203
1532509870.389,24.414,36.133,31.250,6.836,10.742
1532509870.393,32.715,39.551,26.855,9.766,96.191
1532509870.397,32.715,40.039,24.414,11.719,163.086
1532509870.401,39.551,39.551,25.879,11.230,27.344
1532509870.405,38.086,39.551,26.855,16.602,-69.336
1532509870.409,22.461,38.086,30.762,19.531,-50.781
1532509870.413,20.020,39.062,32.715,10.742,0.977
1532509870.417,19.043,39.062,29.297,1.953,49.805
1532509870.421,16.602,40.527,27.344,2.441,5.859
1532509870.424,16.602,41.992,23.926,0.000,58.594
1532509870.428,18.066,43.457,23.926,3.418,123.535
1532509870.432,21.973,41.992,26.855,10.254,78.613
1532509870.436,20.996,40.039,29.785,7.324,22.461
1532509870.440,24.414,41.504,30.273,3.418,25.879
1532509870.444,38.086,42.480,32.715,9.766,127.441
1532509870.448,29.297,43.457,29.297,10.742,105.957
1532509870.452,23.438,43.945,22.949,9.766,-50.781
1532509870.456,32.715,44.922,23.438,6.836,-105.957
1532509870.460,37.598,46.387,25.391,4.883,35.645
1532509870.463,37.109,44.434,25.391,12.207,156.738
1532509870.467,38.086,43.457,26.855,9.277,4.883
1532509870.471,38.086,47.852,30.762,6.836,-168.457
1532509870.475,38.086,47.852,31.250,9.277,-14.648
1532509870.479,35.645,42.969,27.832,8.789,147.949
1532509870.483,34.180,45.898,27.344,12.695,63.965
1532509870.487,32.715,46.875,31.738,10.254,-58.594
1532509870.491,31.738,45.898,30.273,-0.488,-16.113
1532509870.495,30.762,46.875,25.879,9.277,155.762
1532509870.499,30.273,44.922,26.855,19.043,74.219
1532509870.503,28.809,41.992,28.809,13.184,-63.477
1532509870.506,25.879,41.992,30.273,18.555,18.066
1532509870.510,26.855,44.922,27.832,10.742,1.953
1532509870.514,27.832,47.852,23.926,5.859,31.738
1532509870.518,32.715,47.852,22.461,12.207,50.781
1532509870.522,32.227,46.875,26.855,12.207,-4.395
1532509870.526,27.344,43.457,30.273,16.113,111.328
1532509870.530,34.180,41.504,30.762,12.695,159.180
1532509870.534,35.156,42.969,32.227,14.160,59.082
1532509870.538,23.926,42.480,26.367,8.789,-20.508
1532509870.542,23.438,41.504,25.391,-0.488,52.246
1532509870.546,24.414,43.457,27.344,1.465,128.906
1532509870.549,19.043,45.410,27.344,-4.883,-57.129
1532509870.553,16.113,44.434,24.902,-7.324,-194.336
1532509870.557,18.066,41.016,27.344,5.371,15.137
1532509870.561,21.973,38.086,33.203,0.977,175.781
1532509870.565,26.367,33.691,34.180,-1.953,148.438
1532509870.569,32.715,41.016,30.273,14.160,-11.230
1532509870.573,26.855,51.270,25.879,3.906,-30.273
1532509870.577,17.090,50.293,31.250,-3.906,135.254
1532509870.581,20.508,49.316,28.809,-0.977,145.996
1532509870.585,25.391,47.363,23.926,3.418,32.227
1532509870.588,22.461,50.293,24.902,-1.465,-34.668
1532509870.592,24.902,55.176,25.391,-11.230,-4.395
1532509870.596,28.809,50.781,26.855,-1.465,98.145
1532509870.600,27.832,47.852,25.879,0.488,42.969
1532509870.604,32.227,46.875,24.414,-0.977,-6.348
1532509870.608,46.387,48.828,25.879,-11.230,7.324
1532509870.612,49.805,48.828,25.391,-19.531,2.930
1532509870.616,43.457,51.758,26.367,-6.348,42.969
1532509870.620,41.992,49.805,29.297,8.789,8.301
1532509870.624,38.574,40.039,28.320,15.137,52.246
1532509870.628,36.621,41.016,28.809,25.391,131.836
1532509870.631,35.156,42.480,32.715,36.621,112.305
1532509870.635,32.227,43.457,33.203,29.297,49.805
1532509870.639,30.273,46.875,30.762,28.809,-20.020
1532509870.643,30.762,47.852,29.297,31.738,28.809
1532509870.647,25.391,45.898,27.832,25.391,108.398
1532509870.651,27.832,43.945,28.320,14.648,-57.129
1532509870.655,25.391,43.945,26.855,11.230,-95.703
1532509870.659,22.949,42.480,25.391,21.484,84.961
1532509870.663,23.438,41.016,28.320,23.926,170.898
1532509870.667,27.832,43.457,28.320,8.789,45.410
1532509870.671,32.715,46.875,27.344,9.277,-77.148
1532509870.674,27.344,41.504,30.762,15.625,23.926
1532509870.678,30.762,39.551,35.156,14.160,135.254
1532509870.682,32.715,42.969,33.203,15.137,134.277
1532509870.686,30.273,42.480,28.320,8.301,-3.906
1532509870.690,36.621,43.945,29.785,11.719,-156.250
1532509870.694,36.133,45.410,26.367,12.695,-29.297
1532509870.698,36.621,45.410,25.391,12.695,124.023
1532509870.702,34.180,42.969,28.809,15.137,26.855
1532509870.706,32.715,40.527,28.320,20.020,-11.719
1532509870.710,34.180,41.992,29.297,18.555,62.500
1532509870.713,35.156,42.969,30.762,8.301,133.301
1532509870.717,32.227,41.992,28.320,6.348,55.664
1532509870.721,25.879,40.039,30.273,11.230,-38.574
1532509870.725,25.879,39.551,28.809,12.207,56.641
1532509870.729,26.367,40.039,26.855,13.184,129.395
1532509870.733,25.391,40.039,25.879,10.254,8.301
1532509870.737,26.367,40.039,24.414,6.836,-93.262
1532509870.741,27.344,39.062,27.344,10.254,-19.531
1532509870.745,24.902,38.574,26.367,8.301,145.996
1532509870.749,26.855,39.062,24.414,6.836,16.602
1532509870.753,22.461,40.039,21.973,3.906,-182.129
1532509870.756,20.020,37.109,16.113,3.418,-41.016
1532509870.760,23.926,34.668,15.625,4.883,109.863
1532509870.764,20.020,31.738,20.508,2.930,150.879
1532509870.768,15.137,32.227,24.902,4.395,-3.906
1532509870.772,21.973,36.133,24.414,6.836,-58.594
1532509870.776,30.762,37.598,26.855,9.766,91.797
1532509870.780,20.508,36.621,28.320,8.789,75.684
1532509870.784,13.184,31.738,26.367,14.160,13.672
1532509870.788,19.043,33.203,28.809,15.137,-62.500
1532509870.792,21.484,37.109,31.250,6.348,-81.055
1532509870.795,26.855,35.645,28.809,10.254,133.301
1532509870.799,27.832,34.668,30.762,13.184,93.750
1532509870.803,25.391,34.668,29.785,10.254,-10.254
1532509870.807,24.902,38.086,26.855,4.883,-7.812
1532509870.811,27.344,38.086,25.879,3.906,31.738
1532509870.815,27.832,36.133,26.855,7.324,123.047
1532509870.819,24.414,36.133,29.785,9.766,31.738
1532509870.823,30.273,36.621,27.832,7.812,-26.367
1532509870.827,25.391,36.133,26.367,1.953,72.754
1532509870.831,21.484,36.621,29.785,-4.395,6.836
1532509870.835,20.020,35.645,30.273,-1.953,-62.988
1532509870.838,19.531,34.668,27.344,5.371,-3.906
1532509870.842,29.297,38.086,28.320,13.184,89.844
1532509870.846,34.668,42.480,29.297,20.508,169.922
1532509870.850,26.855,41.016,30.273,8.301,49.316
1532509870.854,19.531,33.691,35.156,6.348,-27.344
1532509870.858,41.016,27.344,39.551,33.691,34.668
1532509870.862,62.988,31.250,35.156,41.504,140.137
1532509870.866,44.922,39.551,29.785,13.672,93.262
1532509870.870,25.879,46.387,27.832,-6.348,-40.039
1532509870.874,7.324,48.828,27.344,-16.113,-53.223
1532509870.878,-2.930,50.293,19.043,-27.832,40.039
1532509870.881,-5.371,56.152,14.160,-41.504,91.309
1532509870.885,-6.836,56.641,13.672,-46.387,34.180
1532509870.889,-3.418,58.594,7.812,-47.852,-120.605
1532509870.893,-19.043,62.012,4.395,-59.570,-96.191
1532509870.897,-25.391,57.617,6.348,-64.453,132.324
1532509870.901,-21.973,54.688,5.371,-66.406,66.895
1532509870.905,-23.926,58.594,-1.465,-74.219,-14.648
1532509870.909,-33.203,62.988,-6.348,-80.078,45.898
1532509870.913,-30.762,63.965,-8.789,-78.125,137.695
1532509870.917,-12.695,63.965,-8.789,-68.359,96.191
1532509870.920,-19.043,66.895,-11.230,-69.336,-73.730
1532509870.924,-24.902,70.801,-16.113,-67.383,-40.039
1532509870.928,-14.648,73.242,-16.113,-65.918,58.105
1532509870.932,-4.395,72.266,-13.672,-72.266,0.977
1532509870.936,-5.371,72.754,-13.672,-75.195,-8.301
1532509870.940,-1.953,74.219,-16.113,-66.406,14.648
1532509870.944,7.324,72.754,-14.648,-57.129,138.184
1532509870.948,-0.977,73.730,-12.207,-64.453,97.656
1532509870.952,-2.930,68.359,-13.184,-58.105,-97.168
1532509870.956,7.812,64.941,-10.742,-42.480,-42.969
1532509870.960,13.672,63.965,-7.812,-35.645,90.820
1532509870.963,16.113,60.547,-4.883,-26.855,154.785
1532509870.967,20.996,61.035,-3.418,-26.367,19.531
1532509870.971,21.973,59.570,-2.441,-35.156,-197.754
1532509870.975,23.926,58.594,3.906,-22.949,-65.918
1532509870.979,31.250,57.617,10.742,-15.137,152.832
1532509870.983,34.180,53.711,16.602,-12.207,100.586
1532509870.987,34.668,52.734,18.066,-13.672,-40.527
1532509870.991,37.598,51.270,16.602,-9.766,-33.691
1532509870.995,41.504,48.340,17.578,4.883,125.488
1532509870.999,38.574,49.805,21.973,5.371,127.441
1532509871.003,29.785,51.270,24.414,2.441,3.906
1532509871.006,34.668,44.922,26.367,4.395,-34.668
1532509871.010,35.645,41.016,28.320,4.883,34.180
1532509871.014,36.621,45.410,27.344,4.883,80.078
1532509871.018,30.273,43.457,28.809,3.906,-43.457
1532509871.022,25.391,42.480,31.738,8.789,-62.500
1532509871.026,26.855,45.898,30.273,8.301,87.891
1532509871.030,35.156,43.945,30.273,-0.977,34.668
1532509871.034,43.945,45.410,32.227,4.395,-83.008
1532509871.038,34.668,46.387,30.762,19.531,-26.367
1532509871.042,35.156,42.969,31.250,19.043,40.039
1532509871.045,41.504,41.504,35.156,12.207,151.367
1532509871.049,44.922,41.016,35.156,9.766,75.195
1532509871.053,43.945,41.504,31.738,11.230,-27.344
1532509871.057,38.574,36.133,32.715,12.207,40.527
1532509871.061,43.457,35.156,34.668,5.371,67.871
1532509871.065,41.992,37.598,33.691,9.766,95.215
1532509871.069,34.668,39.062,36.621,5.371,-40.527
1532509871.073,40.527,38.086,38.574,3.418,-150.879
1532509871.077,41.504,33.691,35.156,14.648,83.008
1532509871.081,35.645,36.133,36.133,17.578,158.691
1532509871.085,40.527,37.598,39.062,15.625,51.270
1532509871.088,38.574,37.109,40.527,15.625,-41.016
1532509871.092,32.227,38.086,39.062,17.090,35.645
1532509871.096,30.762,37.109,36.621,12.207,173.828
1532509871.100,29.297,34.180,37.598,5.371,89.844
1532509871.104,25.391,32.715,35.645,7.812,8.301
1532509871.108,24.414,32.715,32.227,2.441,-33.691
1532509871.112,26.367,31.738,36.621,1.465,-32.715
1532509871.116,26.855,31.250,37.598,4.395,68.848
1532509871.120,27.344,33.203,39.551,5.371,47.852
1532509871.124,27.832,31.738,43.457,10.742,16.113
1532509871.128,27.832,28.320,46.387,12.695,78.125
1532509871.131,38.086,26.367,51.758,22.949,90.820
1532509871.135,33.691,30.762,47.363,13.672,19.531
1532509871.139,22.949,37.598,40.039,-2.441,-12.207
1532509871.143,24.414,41.504,39.062,-1.953,100.586
1532509871.147,22.949,38.086,42.480,8.789,131.348
1532509871.151,20.020,35.156,45.410,10.742,39.551
1532509871.155,19.531,34.180,44.922,-1.465,-42.480
1532509871.159,25.879,28.320,42.480,0.977,-14.160
1532509871.163,33.203,27.344,44.922,13.184,138.184
1532509871.167,20.508,31.738,44.922,14.648,92.773
1532509871.170,19.043,32.227,45.410,12.207,-147.949
1532509871.174,23.926,31.738,48.340,7.812,-124.512
1532509871.178,21.973,28.320,50.293,9.766,133.789
1532509871.182,27.344,27.344,50.781,6.836,129.883
1532509871.186,28.809,28.809,49.316,0.488,-23.926
1532509871.190,28.809,33.203,47.852,4.395,-31.250
1532509871.194,29.785,33.691,44.434,7.812,118.164
1532509871.198,29.785,30.762,45.410,6.348,161.133
1532509871.202,32.715,30.762,50.293,12.207,-15.137
1532509871.206,38.086,35.645,48.340,17.090,-84.473
1532509871.210,36.621,37.109,46.387,12.695,-31.738
1532509871.213,34.180,32.227,43.457,7.324,16.602
1532509871.217,36.621,33.691,39.062,10.742,68.848
1532509871.221,35.645,33.691,38.574,13.672,-9.766
1532509871.225,33.203,29.785,38.574,10.254,21.484
1532509871.229,32.227,31.738,40.039,5.371,100.586
1532509871.233,35.156,32.715,39.062,7.812,52.246
1532509871.237,38.086,31.738,41.992,8.301,16.602
1532509871.241,32.715,30.273,44.922,9.766,13.184
1532509871.245,45.410,34.668,43.457,11.719,119.629
1532509871.249,53.223,38.574,43.945,10.254,36.621
1532509871.252,40.527,37.598,44.922,16.113,-145.508
1532509871.256,37.109,33.691,42.480,22.461,-3.906
1532509871.260,32.715,30.273,41.992,25.879,135.742
1532509871.264,32.715,30.273,44.434,23.438,175.293
1532509871.268,32.715,31.738,45.898,18.066,24.414
1532509871.272,31.738,31.738,44.922,19.043,-87.402
1532509871.276,33.203,29.297,43.945,15.137,52.734
1532509871.280,32.715,27.344,44.434,9.766,166.992
1532509871.284,28.809,25.879,43.945,6.836,123.535
1532509871.288,25.879,25.879,41.504,8.789,-51.270
1532509871.292,38.086,27.832,37.109,4.395,-30.273
1532509871.295,42.969,35.645,37.598,3.418,91.797
1532509871.299,26.855,37.109,39.551,4.395,38.086
1532509871.303,26.367,34.180,36.621,2.930,14.160
1532509871.307,22.949,34.668,37.109,3.418,5.371
1532509871.311,16.113,31.738,40.039,1.953,-43.945
1532509871.315,19.043,30.762,40.039,0.977,36.133
1532509871.319,20.020,30.273,39.062,0.000,52.246
1532509871.323,24.902,29.297,41.016,1.953,13.672
1532509871.327,26.855,30.273,40.527,-0.488,96.680
1532509871.331,24.414,28.320,39.551,-7.812,122.070
1532509871.335,22.461,26.367,39.551,-12.695,62.500
1532509871.338,23.438,27.344,41.992,-15.625,-28.809
1532509871.342,33.203,24.902,43.945,-10.254,-18.066
1532509871.346,42.969,20.996,39.551,-4.883,83.984
1532509871.350,42.480,24.902,38.086,-13.184,-72.754
1532509871.354,34.180,32.227,38.086,-9.277,-168.457
1532509871.358,37.109,28.809,39.551,3.418,14.648
1532509871.362,38.086,23.438,40.527,4.883,156.738
1532509871.366,21.484,23.438,40.527,4.395,150.879
1532509871.370,6.836,23.926,41.992,6.348,-14.160
1532509871.374,6.836,22.461,42.480,9.766,-16.602
1532509871.377,9.277,21.484,41.016,3.906,157.715
1532509871.381,14.648,23.926,38.574,5.859,162.109
1532509871.385,20.020,23.438,40.039,3.418,35.645
1532509871.389,22.949,24.414,41.016,0.488,-62.988
1532509871.393,25.879,28.809,37.598,-0.488,-26.855
1532509871.397,25.879,28.809,37.109,1.465,97.656
1532509871.401,27.344,25.879,41.504,5.371,58.594
1532509871.405,21.484,22.461,42.969,0.488,2.930
1532509871.409,14.160,26.367,42.480,-0.488,-36.621
1532509871.413,20.020,30.273,43.945,1.465,10.742
1532509871.417,21.973,31.250,44.922,-3.418,91.309
1532509871.420,13.672,31.250,43.457,-9.277,-0.488
1532509871.424,13.184,33.691,43.945,-3.906,28.320
1532509871.428,27.832,40.039,53.223,6.348,121.582
1532509871.432,31.250,41.016,55.176,4.883,46.387
1532509871.436,17.090,40.039,50.293,-5.371,-86.914
1532509871.440,17.090,44.434,52.246,-10.254,-81.055
1532509871.444,6.836,44.434,55.176,-22.461,84.473
1532509871.448,-3.418,47.852,54.688,-35.156,87.891
1532509871.452,-4.395,50.781,54.688,-43.457,-126.465
1532509871.456,-19.531,49.316,57.129,-54.199,-95.703
1532509871.460,-25.391,56.641,60.059,-51.758,91.309
1532509871.463,-22.949,62.012,67.383,-48.828,208.984
1532509871.467,-30.762,68.848,73.242,-60.547,83.496
1532509871.471,-52.246,73.730,75.684,-81.543,-76.172
1532509871.475,-68.848,69.336,76.172,-103.516,35.645
1532509871.479,-80.078,76.172,71.777,-111.328,141.113
1532509871.483,-82.031,84.473,71.777,-114.746,58.594
1532509871.487,-86.914,86.426,69.336,-126.465,-90.820
1532509871.491,-98.145,89.844,64.941,-126.953,-195.801
1532509871.495,-93.750,86.914,67.383,-123.047,-3.906
1532509871.499,-91.309,81.055,73.242,-117.676,135.742
1532509871.502,-86.914,80.566,71.777,-112.793,15.137
1532509871.506,-79.102,76.172,66.895,-107.910,-24.902
1532509871.510,-68.359,69.336,63.965,-89.355,53.223
1532509871.514,-58.594,64.941,56.152,-86.914,134.277
1532509871.518,-50.293,59.570,44.434,-92.773,39.062
1532509871.522,-37.109,52.246,44.922,-71.289,-25.391
1532509871.526,-29.297,49.805,48.340,-57.617,65.918
1532509871.530,-18.066,45.898,46.387,-50.293,102.051
1532509871.534,-1.465,37.598,42.480,-33.203,-22.949
1532509871.538,4.883,37.109,36.621,-27.832,-43.945
1532509871.542,16.113,33.691,33.203,-19.043,34.180
1532509871.545,37.109,26.855,34.180,2.441,143.555
1532509871.549,41.992,23.438,36.133,3.906,0.488
1532509871.553,38.574,20.508,35.645,3.418,-174.316
1532509871.557,39.062,16.602,33.691,8.789,0.000
1532509871.561,40.039,15.625,27.832,3.906,144.043
1532509871.565,50.293,13.672,25.879,9.766,123.535
1532509871.569,54.199,10.254,32.715,20.020,-15.625
1532509871.573,54.688,6.348,32.227,25.879,-47.363
1532509871.577,60.059,3.418,32.227,32.227,36.621
1532509871.581,63.477,1.953,37.109,37.598,42.969
1532509871.584,60.547,4.883,35.645,42.480,20.508
1532509871.588,60.059,9.277,32.715,37.109,-75.195
1532509871.592,66.406,8.789,31.738,30.273,-92.773
1532509871.596,69.824,8.789,29.297,35.156,115.234
1532509871.600,66.895,9.277,29.785,36.133,97.656
1532509871.604,71.777,9.766,32.227,39.551,-5.371
1532509871.608,65.430,10.742,35.156,40.039,8.789
1532509871.612,55.176,10.742,35.156,39.062,120.117
1532509871.616,53.711,9.277,33.203,36.621,110.840
1532509871.620,47.852,6.836,35.156,37.109,-52.734
1532509871.624,50.781,6.348,34.668,41.504,-69.336
1532509871.627,60.059,8.301,31.738,39.551,23.438
1532509871.631,64.941,7.812,36.621,36.621,-16.113
1532509871.635,61.523,8.789,40.039,37.598,-59.082
1532509871.639,56.152,12.207,37.598,25.391,-17.578
1532509871.643,62.012,11.719,34.668,20.020,71.289
1532509871.647,62.012,9.277,34.668,25.879,110.840
1532509871.651,50.293,13.184,36.133,24.414,23.438
1532509871.655,50.293,19.531,36.621,30.273,3.906
1532509871.659,57.129,20.996,37.598,35.156,81.055
1532509871.663,54.199,20.996,35.645,36.621,160.156
1532509871.667,56.641,22.949,35.645,41.016,109.863
1532509871.670,60.547,22.461,39.551,35.156,-56.152
1532509871.674,56.152,16.113,38.086,32.715,-43.945
1532509871.678,56.641,18.066,38.086,32.227,108.887
1532509871.682,60.059,23.926,37.109,22.949,104.492
1532509871.686,53.223,23.438,37.109,29.297,10.254
1532509871.690,47.363,20.020,35.156,24.414,-135.254
1532509871.694,45.410,16.113,29.785,17.090,-27.832
1532509871.698,48.828,17.090,31.250,26.367,121.094
1532509871.702,44.922,20.020,34.180,24.902,10.254
1532509871.706,41.504,21.484,36.133,22.949,-14.648
1532509871.709,48.340,21.484,37.598,25.391,55.664
1532509871.713,43.457,20.996,37.109,26.367,106.445
1532509871.717,37.109,21.973,36.621,18.555,-34.668
1532509871.721,40.527,23.438,32.715,13.672,-109.863
1532509871.725,45.898,22.949,31.250,8.301,59.082
1532509871.729,40.527,24.414,32.227,4.395,53.223
1532509871.733,34.668,22.949,31.250,5.371,-69.824
1532509871.737,35.645,23.438,31.250,8.301,-29.785
1532509871.741,40.527,27.832,33.203,11.230,24.414
1532509871.745,39.551,24.902,35.645,15.137,133.301
1532509871.749,36.621,25.391,37.109,16.113,87.402
1532509871.752,35.645,23.926,36.133,13.184,-53.223
1532509871.756,29.785,22.949,34.180,6.348,-25.391
1532509871.760,30.273,26.855,33.203,9.766,85.938
1532509871.764,34.668,28.809,31.250,11.230,110.840
1532509871.768,30.762,26.367,34.668,0.488,-79.102
1532509871.772,34.668,26.855,38.574,1.465,-206.543
1532509871.776,37.598,29.785,38.086,12.695,0.977
1532509871.780,35.156,27.344,38.574,13.184,146.973
1532509871.784,41.016,26.855,38.086,8.789,58.594
1532509871.788,41.016,27.344,38.086,6.348,-58.105
1532509871.792,32.715,26.855,37.598,4.883,-18.066
1532509871.795,29.785,28.809,37.109,13.672,140.137
1532509871.799,32.715,29.297,36.621,13.184,86.426
1532509871.803,27.344,24.902,36.621,8.301,-23.926
1532509871.807,26.367,20.508,34.668,5.859,-10.742
1532509871.811,32.715,21.484,32.227,4.395,45.410
1532509871.815,30.762,24.414,31.250,10.254,29.297
1532509871.819,33.691,26.855,31.250,10.742,-64.941
1532509871.823,33.691,29.785,32.715,16.602,-34.180
1532509871.827,26.367,31.250,33.203,17.578,79.590
1532509871.831,28.809,31.250,34.668,7.324,-3.418
1532509871.834,32.227,30.273,32.715,8.789,-99.121
1532509871.838,23.438,29.785,31.738,11.719,-27.344
1532509871.842,18.066,29.297,35.645,11.719,75.195
1532509871.846,21.973,30.762,34.180,13.672,160.156
1532509871.850,27.832,36.133,29.785,9.766,53.711
1532509871.854,35.645,41.504,24.414,5.859,-38.574
1532509871.858,54.199,40.527,18.555,18.066,-11.719
1532509871.862,52.734,32.227,31.738,26.367,60.547
1532509871.866,35.156,26.855,44.922,13.672,83.008
1532509871.870,19.531,27.832,44.922,-3.906,-118.164
1532509871.874,11.719,25.391,40.527,-8.301,-140.137
1532509871.877,20.508,18.066,39.551,5.859,110.840
1532509871.881,12.695,13.672,47.363,8.789,130.371
1532509871.885,11.230,15.625,47.852,10.742,38.574
1532509871.889,16.602,12.695,47.852,17.090,3.418
1532509871.893,16.602,6.836,52.246,18.066,92.285
1532509871.897,13.672,5.371,56.152,20.996,168.945
1532509871.901,5.859,6.348,57.617,18.066,50.781
1532509871.905,13.672,2.441,62.012,19.043,-68.359
1532509871.909,13.184,-1.953,67.871,19.531,-49.316
1532509871.913,14.648,-1.465,67.871,19.531,70.801
1532509871.917,26.855,-2.441,65.918,25.879,94.727
1532509871.920,25.879,-4.883,64.941,32.715,-7.324
1532509871.924,22.949,-9.277,67.383,38.574,68.848
1532509871.928,21.484,-9.277,69.824,36.621,77.637
1532509871.932,17.578,-8.789,68.848,37.109,-18.555
1532509871.936,17.090,-9.277,67.871,36.133,5.859
1532509871.940,35.156,-6.348,65.918,46.387,23.926
1532509871.944,40.527,-3.418,62.500,53.711,135.254
1532509871.948,30.762,-5.371,61.035,46.875,132.812
1532509871.952,31.738,-3.418,60.547,47.363,-48.828
1532509871.956,31.738,-0.977,56.641,41.504,-108.887
1532509871.959,26.367,0.000,56.152,34.180,45.898
1532509871.963,26.855,3.418,56.152,37.598,166.992
1532509871.967,30.762,7.812,55.664,39.062,23.438
1532509871.971,36.621,7.324,58.105,32.715,-169.922
1532509871.975,38.574,5.371,52.246,42.480,-29.785
1532509871.979,33.691,8.789,49.316,41.504,164.551
1532509871.983,29.785,11.230,53.223,26.855,94.238
1532509871.987,26.855,12.695,51.758,21.973,-35.156
1532509871.991,27.344,14.648,49.805,28.809,-11.230
1532509871.995,29.297,17.090,47.363,27.344,136.719
1532509871.999,28.320,21.973,44.434,22.949,86.914
1532509872.002,22.949,22.461,43.457,25.879,-46.875
1532509872.006,18.066,19.531,46.387,25.391,-10.742
1532509872.010,24.902,19.531,46.875,16.113,-24.902
1532509872.014,29.297,17.578,43.457,8.789,3.418
1532509872.018,31.250,20.996,43.945,12.207,28.320
1532509872.022,32.715,22.949,41.016,20.020,-17.578
1532509872.026,28.809,20.020,38.574,23.438,85.938
1532509872.030,28.320,23.926,38.086,19.043,116.211
1532509872.034,26.367,29.297,37.598,14.160,37.598
1532509872.038,28.809,27.832,37.109,17.578,-6.836
1532509872.041,26.855,25.391,33.203,18.555,41.992
1532509872.045,25.879,25.879,33.203,10.742,128.418
1532509872.049,30.273,25.879,36.621,8.301,-36.133
1532509872.053,31.250,26.367,36.133,11.230,-151.855
1532509872.057,38.086,28.809,36.621,16.113,11.719
1532509872.061,45.898,28.809,35.645,18.066,160.156
1532509872.065,40.527,26.367,34.668,5.371,126.953
1532509872.069,41.504,30.762,29.785,-2.441,-87.891
1532509872.073,46.875,32.715,25.391,0.488,-64.453
1532509872.077,51.270,28.809,30.273,4.883,124.512
1532509872.081,55.176,31.738,32.715,5.859,128.906
1532509872.084,50.781,32.715,33.203,5.371,40.527
1532509872.088,49.316,30.273,37.109,12.695,-31.250
1532509872.092,43.945,28.809,38.574,21.973,-29.297
1532509872.096,28.809,21.973,36.621,21.973,47.852
1532509872.100,13.184,20.020,38.086,14.648,36.621
1532509872.104,5.859,22.949,36.621,14.648,-9.277
1532509872.108,5.371,26.367,33.691,10.254,-35.156
1532509872.112,6.836,29.785,33.203,2.930,-19.043
1532509872.116,9.277,31.738,33.691,-0.977,56.152
1532509872.120,14.648,33.203,34.180,-0.488,-18.066
1532509872.124,18.555,33.203,35.156,7.812,-26.855
1532509872.127,18.555,32.227,32.227,8.301,106.934
1532509872.131,22.949,31.738,29.785,2.441,104.492
1532509872.135,24.902,29.785,32.227,3.906,19.043
1532509872.139,27.344,30.273,33.203,4.883,-70.801
1532509872.143,29.297,32.227,33.203,3.418,21.484
1532509872.147,22.949,32.227,34.180,5.859,127.441
1532509872.151,20.020,31.738,33.203,-8.301,-92.285
1532509872.155,18.555,31.250,31.738,-10.742,-110.840
1532509872.159,15.137,29.785,29.785,-3.906,91.309
1532509872.163,11.230,26.855,26.855,-2.441,192.383
1532509872.166,13.672,26.855,26.367,0.977,91.309
1532509872.170,18.066,30.273,23.438,-1.953,-69.824
1532509872.174,23.438,27.344,18.555,-3.418,18.555
1532509872.178,24.902,29.785,19.043,-0.977,158.691
1532509872.182,24.414,34.668,20.996,6.348,102.539
1532509872.186,21.484,31.738,20.020,15.137,-50.781
1532509872.190,22.949,27.344,17.578,5.859,-155.762
1532509872.194,32.715,29.785,12.695,-2.441,-38.086
1532509872.198,27.344,32.227,12.695,-1.465,133.301
1532509872.202,23.438,29.297,19.531,0.488,33.691
1532509872.206,30.273,33.203,20.020,5.859,12.207
1532509872.209,29.785,36.133,18.555,6.836,71.289
1532509872.213,26.367,34.668,20.020,-1.465,106.445
1532509872.217,24.414,34.180,17.090,-3.418,78.613
1532509872.221,22.461,30.762,16.113,1.953,8.301
1532509872.225,26.855,30.762,15.137,3.418,81.055
1532509872.229,25.391,34.180,15.137,4.395,158.203
1532509872.233,17.578,35.156,16.113,-0.488,37.598
1532509872.237,20.996,34.668,14.160,-6.836,-88.379
1532509872.241,22.949,37.109,12.207,-6.836,-24.414
1532509872.245,22.461,34.668,10.254,0.000,152.832
1532509872.249,26.855,32.227,15.137,0.000,46.387
1532509872.252,29.785,34.180,21.973,-3.418,-158.203
1532509872.256,30.273,31.738,22.949,4.883,-18.555
1532509872.260,42.480,31.738,18.066,4.395,151.855
1532509872.264,56.152,35.645,13.672,15.625,195.312
1532509872.268,52.734,33.691,21.484,23.926,11.230
1532509872.272,42.969,24.902,30.273,19.043,-63.965
1532509872.276,23.926,21.484,29.297,14.160,76.660
1532509872.280,16.113,24.414,23.438,7.324,110.352
1532509872.284,20.508,21.973,25.879,6.836,-2.441
1532509872.288,18.555,21.484,27.832,5.371,-104.492
1532509872.291,12.207,20.020,26.855,-4.883,-95.703
1532509872.295,10.742,13.184,36.621,-2.930,89.844
1532509872.299,10.742,11.230,40.039,2.441,141.602
1532509872.303,6.348,15.137,37.109,4.883,15.625
1532509872.307,11.230,19.531,35.156,12.207,-4.883
1532509872.311,23.926,21.973,32.227,12.207,88.379
1532509872.315,32.227,22.949,29.297,7.812,160.645
1532509872.319,29.297,21.973,26.855,9.766,60.547
1532509872.323,30.273,23.438,24.902,12.207,-5.371
1532509872.327,36.133,24.414,22.461,7.324,73.730
1532509872.331,35.645,24.902,23.438,3.418,16.602
1532509872.334,33.203,27.344,22.949,3.906,-57.129
1532509872.338,25.391,26.855,21.973,8.301,-0.488
1532509872.342,21.973,25.391,23.926,13.184,84.473
1532509872.346,22.949,24.902,25.391,7.324,159.668
1532509872.350,19.531,27.344,27.832,1.465,43.945
1532509872.354,20.996,28.320,25.879,7.324,-8.301
1532509872.358,25.391,30.273,19.043,8.301,64.941
1532509872.362,29.297,31.250,19.531,7.324,153.320
1532509872.366,31.250,29.785,25.879,12.695,130.859
1532509872.370,26.855,28.809,28.809,9.277,-35.156
1532509872.373,20.020,27.832,24.902,6.348,-83.496
1532509872.377,19.531,25.879,23.438,6.836,60.059
1532509872.381,23.438,28.320,25.391,4.883,113.281
1532509872.385,21.484,26.855,23.926,7.324,46.387
1532509872.389,22.461,28.320,24.414,3.418,-88.379
1532509872.393,24.902,32.715,26.855,0.488,-57.617
1532509872.397,28.320,28.809,28.320,9.766,172.852
1532509872.401,28.809,26.367,28.320,8.301,114.746
1532509872.405,27.344,26.855,26.367,9.277,-3.418
1532509872.409,31.250,28.320,24.414,9.277,31.738
1532509872.413,28.320,30.762,23.438,9.277,156.250
1532509872.416,24.414,29.297,23.926,9.277,126.953
1532509872.420,29.297,28.809,25.391,5.859,-82.520
1532509872.424,24.414,32.227,23.926,-0.488,-43.945
1532509872.428,14.160,30.762,22.461,-5.859,96.191
1532509872.432,17.578,30.273,22.949,-8.301,51.270
1532509872.436,20.508,24.414,24.414,-9.277,14.648
1532509872.440,16.113,10.254,34.668,8.301,12.207
1532509872.444,32.715,14.160,39.551,31.738,142.090
1532509872.448,43.457,33.691,28.809,19.531,126.465
1532509872.452,21.973,41.992,22.461,-13.184,-77.148
1532509872.456,11.230,47.852,22.461,-24.902,-35.156
1532509872.459,13.672,53.223,24.414,-19.043,87.891
1532509872.463,6.348,57.617,22.461,-23.926,185.547
1532509872.467,-6.348,61.035,20.996,-37.598,63.477
1532509872.471,-5.371,67.383,25.391,-50.293,-192.871
1532509872.475,-6.348,73.730,26.367,-53.223,-47.363
1532509872.479,-16.602,77.637,21.484,-59.082,196.289
1532509872.483,-32.227,82.520,21.973,-82.520,162.109
1532509872.487,-38.574,91.797,24.414,-92.773,-9.766
1532509872.491,-32.227,100.586,22.461,-84.961,-43.945
1532509872.495,-30.762,104.980,24.902,-85.938,128.418
1532509872.498,-38.574,109.863,20.020,-102.539,191.895
1532509872.502,-43.457,117.188,17.578,-104.492,52.734
1532509872.506,-44.434,118.652,17.090,-111.816,-11.230
1532509872.510,-62.988,119.141,11.230,-135.254,70.801
1532509872.514,-72.754,122.559,13.672,-129.883,86.426
1532509872.518,-73.242,124.023,17.578,-132.324,-10.742
1532509872.522,-87.402,123.047,15.137,-152.832,-18.555
1532509872.526,-83.496,122.070,16.602,-140.625,105.957
1532509872.530,-81.055,125.000,21.484,-144.043,76.660
1532509872.534,-86.914,125.000,21.484,-155.762,-61.035
1532509872.538,-72.754,122.559,14.160,-132.324,-41.992
1532509872.541,-62.012,121.094,10.254,-121.094,43.945
1532509872.545,-54.688,113.281,8.301,-106.934,161.133
1532509872.549,-42.969,100.586,5.371,-90.820,112.793
1532509872.553,-39.551,90.820,4.883,-90.332,-53.223
1532509872.557,-26.367,87.402,3.906,-78.613,-9.766
1532509872.561,-10.254,80.566,3.906,-62.988,123.535
1532509872.565,2.441,70.801,7.812,-41.504,129.395
1532509872.569,13.672,65.918,10.742,-32.227,-69.336
1532509872.573,10.742,60.547,9.277,-36.621,-203.613
1532509872.577,23.926,54.688,3.906,-14.160,43.945
1532509872.581,38.086,51.758,1.465,-5.371,186.035
1532509872.584,34.180,48.340,3.906,1.953,60.547
1532509872.588,40.039,42.480,5.859,19.531,-62.012
1532509872.592,51.758,39.551,3.906,29.297,13.672
1532509872.596,54.688,32.715,4.395,29.785,158.691
1532509872.600,55.176,28.320,10.254,29.297,108.398
1532509872.604,64.941,30.762,12.207,40.527,-11.719
1532509872.608,70.801,27.344,14.648,44.434,-50.781
1532509872.612,75.684,21.973,16.113,45.898,36.621
1532509872.616,79.102,17.578,14.648,45.898,92.773
1532509872.620,79.102,16.602,11.719,43.945,-7.812
1532509872.623,79.102,20.020,9.766,50.781,14.160
1532509872.627,78.125,19.043,11.230,45.410,81.543
1532509872.631,77.148,15.137,16.113,40.039,45.410
1532509872.635,74.707,10.254,16.113,50.293,-9.277
1532509872.639,71.289,7.324,14.160,52.734,-9.766
1532509872.643,71.777,5.859,13.184,47.363,108.398
1532509872.647,76.660,7.812,15.137,46.387,134.766
1532509872.651,76.172,10.742,13.672,42.480,9.766
1532509872.655,73.730,10.254,12.695,43.457,-71.777
1532509872.659,72.754,7.812,18.555,47.363,5.859
1532509872.663,69.336,9.766,17.090,50.781,168.945
1532509872.666,62.500,14.648,13.672,46.875,104.004
1532509872.670,59.570,12.207,16.602,36.621,-55.664
1532509872.674,61.035,11.719,19.043,42.480,11.230
1532509872.678,60.059,16.113,19.531,43.457,141.602
1532509872.682,57.617,13.184,20.020,37.598,113.281
1532509872.686,62.012,12.695,22.461,42.969,20.508
1532509872.690,63.477,16.113,21.484,37.598,-127.930
1532509872.694,59.082,16.602,19.043,38.574,-40.527
1532509872.698,59.082,12.695,22.949,48.340,104.980
1532509872.702,60.059,12.695,23.926,46.387,-51.758
1532509872.706,54.199,16.113,23.438,44.922,-122.559
1532509872.709,56.152,16.113,22.949,45.410,-7.812
1532509872.713,60.059,16.113,20.020,40.527,125.488
1532509872.717,55.664,18.555,21.973,37.109,61.523
1532509872.721,56.641,21.973,23.926,39.551,-19.531
1532509872.725,58.105,20.508,23.438,43.457,89.844
1532509872.729,54.688,16.602,21.484,39.062,81.543
1532509872.733,57.617,16.113,22.949,38.574,-66.406
1532509872.737,58.105,19.043,24.902,39.062,-52.734
1532509872.741,57.129,21.973,22.461,38.086,23.926
1532509872.745,58.105,23.438,19.043,40.039,150.879
1532509872.748,57.617,23.438,20.508,32.715,44.434
1532509872.752,60.547,24.902,20.508,33.691,-122.559
1532509872.756,60.059,28.320,20.996,38.574,-28.809
1532509872.760,57.617,27.344,23.438,41.504,116.211
1532509872.764,62.012,26.367,21.484,40.039,216.797
1532509872.768,62.988,30.273,20.996,33.203,29.297
1532509872.772,61.035,28.809,23.926,34.180,-98.633
1532509872.776,59.082,25.391,24.414,37.109,80.566
1532509872.780,58.594,25.879,20.996,38.574,188.965
1532509872.784,56.641,23.926,20.020,35.645,82.520
1532509872.788,53.711,23.438,23.926,23.926,-55.664
1532509872.791,52.246,25.879,24.902,28.809,-6.348
1532509872.795,52.734,25.391,23.926,25.391,91.309
1532509872.799,59.082,23.438,24.902,18.066,6.348
1532509872.803,60.059,25.879,23.926,17.090,-18.555
1532509872.807,60.059,29.297,23.438,10.742,35.645
1532509872.811,58.105,30.273,26.367,9.277,21.484
1532509872.815,46.875,24.414,29.785,15.137,46.875
1532509872.819,37.109,21.484,31.738,23.926,9.766
1532509872.823,29.297,24.902,27.344,26.855,0.977
1532509872.827,30.762,24.414,26.855,33.691,114.746
1532509872.830,40.039,27.344,28.809,41.016,126.465
1532509872.834,35.645,24.902,26.855,32.227,18.555
1532509872.838,32.227,22.949,28.809,27.832,2.930
1532509872.842,32.715,30.762,34.668,34.668,49.316
1532509872.846,31.250,30.762,31.250,31.250,132.324
1532509872.850,33.203,28.320,28.320,15.137,-37.109
1532509872.854,30.273,32.227,28.809,12.207,-161.133
1532509872.858,28.809,29.785,25.879,22.949,41.992
1532509872.862,28.809,26.855,25.879,23.926,160.645
1532509872.866,31.738,27.832,26.367,21.484,140.625
1532509872.870,33.691,27.344,24.902,20.508,-16.602
1532509872.873,36.133,28.320,25.391,20.996,-1.465
1532509872.877,40.039,29.785,25.879,27.344,157.227
1532509872.881,31.738,28.809,25.879,24.902,161.621
1532509872.885,30.762,26.855,29.785,23.926,35.156
1532509872.889,35.156,25.879,31.738,25.391,-61.523
1532509872.893,32.227,27.344,27.832,18.066,26.855
1532509872.897,34.668,30.762,26.855,17.090,133.301
1532509872.901,36.133,26.855,27.344,19.531,13.672
1532509872.905,36.133,29.297,27.832,20.996,-19.043
1532509872.909,43.457,34.180,27.344,14.648,-12.695
1532509872.913,42.969,34.668,24.414,15.137,15.137
1532509872.916,33.203,33.691,24.902,25.391,54.688
1532509872.920,30.273,34.180,25.391,19.531,-12.207
1532509872.924,30.273,34.668,20.020,15.625,64.941
1532509872.928,36.133,32.715,17.578,23.438,135.742
1532509872.932,36.621,27.832,24.414,30.762,86.914
1532509872.936,24.414,20.020,34.180,26.367,-52.734
1532509872.940,23.438,20.508,35.156,20.508,-62.988
1532509872.944,37.598,25.391,30.762,20.996,129.395
1532509872.948,39.062,22.949,28.320,14.648,102.051
1532509872.952,30.273,20.996,26.367,7.812,-136.719
1532509872.955,26.367,23.926,25.879,13.184,-86.914
1532509872.959,27.832,22.949,27.832,17.578,107.910
1532509872.963,34.668,26.855,27.344,21.484,188.477
1532509872.967,33.203,31.738,28.320,25.879,57.617
1532509872.971,25.879,26.367,28.320,18.555,-86.914
1532509872.975,25.879,21.484,27.344,15.137,49.316
1532509872.979,26.367,20.996,25.879,13.672,169.434
1532509872.983,26.855,22.949,26.855,8.789,16.113
1532509872.987,27.832,26.855,25.879,14.160,-116.699
1532509872.991,32.227,28.320,24.902,11.230,-145.996
1532509872.995,35.156,23.926,29.297,12.207,12.695
1532509872.998,31.250,22.461,28.320,20.508,107.422
1532509873.002,33.691,26.367,25.391,19.531,-22.949
1532509873.006,35.645,28.809,24.902,21.484,-24.902
1532509873.010,37.109,29.297,26.367,25.879,48.340
1532509873.014,38.574,28.809,26.855,22.461,121.094
1532509873.018,34.180,26.855,24.414,17.090,18.555
1532509873.022,34.180,25.879,22.949,18.555,-12.207
1532509873.026,35.645,27.832,25.391,27.344,119.629
1532509873.030,39.062,25.879,29.297,26.367,116.211
1532509873.034,37.598,28.320,30.273,22.461,-4.395
1532509873.038,35.156,32.227,29.297,24.414,-51.758
1532509873.041,37.598,26.855,26.855,21.484,36.133
1532509873.045,36.133,25.879,25.391,25.879,163.574
1532509873.049,33.691,28.809,25.879,20.996,1.953
1532509873.053,34.668,27.344,24.414,12.695,-171.875
1532509873.057,29.785,27.832,22.461,20.508,4.395
1532509873.061,29.785,28.320,25.879,20.020,156.250
1532509873.065,33.203,26.855,28.320,19.531,129.883
1532509873.069,29.785,24.902,27.832,15.137,-34.668
1532509873.073,28.809,26.855,26.367,11.719,-44.922
1532509873.077,32.227,30.273,27.344,20.020,83.984
1532509873.080,27.344,29.785,28.320,18.555,55.664
1532509873.084,23.926,28.320,24.414,11.719,36.621
1532509873.088,28.809,27.832,23.438,17.578,-25.879
1532509873.092,28.320,29.297,24.902,19.043,-61.523
1532509873.096,28.320,26.367,26.367,15.625,107.910
1532509873.100,29.785,24.414,32.227,20.020,65.918
1532509873.104,26.367,26.367,30.273,21.973,-22.461
1532509873.108,31.250,23.438,26.855,16.602,22.461
1532509873.112,30.273,23.438,27.832,15.137,143.066
1532509873.116,20.020,26.855,25.879,13.184,129.395
1532509873.120,20.508,27.832,26.855,10.742,-28.809
1532509873.123,20.020,28.320,30.762,16.602,-40.039
1532509873.127,21.484,29.785,30.273,17.578,26.367
1532509873.131,22.949,33.203,25.879,2.441,-36.133
1532509873.135,21.484,32.227,27.344,7.812,-76.660
1532509873.139,19.531,28.809,27.832,10.254,-31.250
1532509873.143,20.020,29.297,29.297,10.254,88.867
1532509873.147,23.438,24.414,31.738,16.113,139.648
1532509873.151,22.949,25.391,24.902,9.766,-11.230
1532509873.155,24.902,30.273,22.461,7.812,-48.828
1532509873.159,25.879,27.832,24.902,10.254,62.500
1532509873.162,26.367,24.414,25.391,8.301,164.062
1532509873.166,33.691,22.949,20.508,12.207,69.824
1532509873.170,31.738,24.414,19.531,10.254,-79.590
1532509873.174,16.602,27.344,22.949,10.254,-48.828
1532509873.178,22.461,29.297,23.438,19.043,76.660
1532509873.182,25.879,30.762,21.973,14.160,81.055
1532509873.186,23.926,32.227,22.949,9.766,-8.789
1532509873.190,30.273,30.273,23.438,6.836,-112.305
1532509873.194,26.855,29.785,20.508,2.930,-31.738
1532509873.198,33.203,31.738,20.508,6.836,103.516
1532509873.202,31.738,29.785,22.949,4.883,1.465
1532509873.205,20.020,24.414,24.902,11.719,-19.531
1532509873.209,23.438,25.391,24.902,18.555,75.195
1532509873.213,35.645,21.973,29.785,24.902,145.996
1532509873.217,41.504,22.949,30.762,26.855,36.133
1532509873.221,23.926,35.156,24.414,-3.906,-85.449
1532509873.225,20.020,33.691,22.949,-5.371,50.781
1532509873.229,25.879,29.785,23.926,3.418,75.684
1532509873.233,28.809,33.203,23.438,-4.883,-70.312
1532509873.237,25.391,35.156,24.902,4.395,-11.719
1532509873.241,14.648,34.668,30.273,5.371,61.523
1532509873.245,8.789,33.203,32.715,-8.789,134.277
1532509873.248,6.836,32.715,29.297,-12.207,108.398
1532509873.252,22.461,32.715,28.320,-4.883,2.441
1532509873.256,26.367,27.832,31.250,7.324,23.438
1532509873.260,14.160,28.320,28.809,12.695,143.066
1532509873.264,10.742,31.738,21.484,2.441,135.742
1532509873.268,14.160,29.297,25.391,0.488,-98.633
1532509873.272,14.648,26.855,33.203,3.418,-220.215
1532509873.276,21.484,27.344,31.738,1.465,5.371
1532509873.280,23.926,30.762,27.832,1.465,170.898
1532509873.284,11.230,26.855,29.297,5.371,83.496
1532509873.287,6.836,20.020,30.273,7.812,-23.438
1532509873.291,18.555,23.438,32.715,13.672,24.902
1532509873.295,20.996,23.926,32.715,11.719,164.062
1532509873.299,14.648,23.926,31.738,7.324,91.309
1532509873.303,14.160,25.879,31.250,7.812,-19.531
1532509873.307,13.672,22.461,29.297,9.277,12.695
1532509873.311,20.020,23.438,31.738,8.301,74.707
1532509873.315,20.020,25.391,29.785,9.277,56.641
1532509873.319,26.367,26.855,25.879,11.719,-36.133
1532509873.323,29.297,27.832,29.785,14.648,-13.184
1532509873.327,20.508,28.320,31.250,14.648,112.793
1532509873.330,20.020,28.809,29.297,12.207,26.367
1532509873.334,16.113,29.785,28.809,13.672,-69.824
1532509873.338,20.020,31.250,30.762,13.672,-21.484
1532509873.342,21.484,28.320,34.668,18.555,75.684
1532509873.346,17.578,26.367,36.133,19.531,179.688
1532509873.350,25.391,26.367,34.668,16.602,60.547
1532509873.354,29.297,29.297,31.250,22.461,-23.926
1532509873.358,22.461,30.273,32.227,21.484,12.207
1532509873.362,21.484,31.250,34.180,17.090,81.055
1532509873.366,26.855,37.109,31.738,16.602,111.816
1532509873.370,27.344,31.250,28.320,13.672,-103.027
1532509873.373,20.508,25.879,29.297,7.812,-148.438
1532509873.377,25.879,31.250,30.273,12.695,129.883
1532509873.381,37.109,28.320,31.250,11.230,145.508
1532509873.385,29.785,26.367,35.645,6.836,18.066
1532509873.389,21.973,30.273,37.109,11.719,-17.578
1532509873.393,22.461,33.203,30.273,16.113,82.031
1532509873.397,27.344,34.668,27.832,12.207,172.852
1532509873.401,30.273,32.715,29.297,18.555,53.223
1532509873.405,24.414,30.762,29.297,22.461,-62.500
1532509873.409,22.949,28.809,29.297,13.184,-42.969
1532509873.412,25.879,25.879,27.832,14.648,22.949
1532509873.416,27.344,29.297,29.297,22.461,29.785
1532509873.420,22.949,29.785,30.273,25.879,-26.367
1532509873.424,18.555,22.461,32.227,20.996,71.289
1532509873.428,17.578,22.949,31.250,16.602,111.328
1532509873.432,22.461,31.250,31.738,12.695,53.711
1532509873.436,30.762,34.668,29.297,10.254,35.156
1532509873.440,29.297,34.180,29.785,14.648,24.902
1532509873.444,24.414,33.203,36.133,20.020,145.508
1532509873.448,22.949,29.785,35.645,19.531,120.605
1532509873.452,17.090,25.879,35.156,15.625,-71.289
1532509873.455,18.066,24.414,38.574,13.184,-91.797
1532509873.459,19.531,20.020,38.086,15.625,54.199
1532509873.463,22.949,21.484,37.109,17.578,163.574
1532509873.467,20.508,26.367,36.133,17.578,34.668
1532509873.471,11.719,19.531,35.156,13.672,-102.051
1532509873.475,12.695,19.043,35.156,13.184,37.109
1532509873.479,16.602,22.461,32.227,13.672,145.996
1532509873.483,18.555,24.414,34.668,6.836,91.309
1532509873.487,20.020,28.809,38.086,4.883,-20.508
1532509873.491,17.090,26.855,34.668,0.488,-75.684
1532509873.495,20.508,23.926,34.668,7.324,73.730
1532509873.498,24.902,23.438,37.109,16.113,73.730
1532509873.502,17.090,22.461,33.203,10.254,-63.477
1532509873.506,14.648,21.973,33.203,17.090,21.484
1532509873.510,16.113,14.160,35.156,19.043,15.625
1532509873.514,23.926,15.137,33.203,14.648,19.043
1532509873.518,23.926,20.508,32.715,13.184,41.504
1532509873.522,19.531,24.414,37.109,11.230,-18.555
1532509873.526,29.297,24.414,36.133,12.695,52.734
1532509873.530,36.133,23.438,32.715,5.371,129.395
1532509873.534,42.480,27.832,33.691,4.395,92.773
1532509873.537,46.875,29.297,32.715,4.395,27.832
1532509873.541,46.387,27.344,31.738,-1.465,55.176
1532509873.545,43.457,26.367,29.785,-1.953,135.254
1532509873.549,33.691,24.902,31.250,-3.418,-37.598
1532509873.553,33.691,19.531,35.645,3.906,-190.430
1532509873.557,40.039,18.066,35.645,20.020,5.859
1532509873.561,36.133,20.996,36.133,30.762,169.922
1532509873.565,33.691,23.438,35.156,31.738,157.227
1532509873.569,28.320,25.879,34.180,31.250,9.277
1532509873.573,23.438,23.926,34.180,29.297,-18.066
1532509873.577,26.367,26.367,34.180,22.949,112.793
1532509873.580,25.391,26.855,35.156,25.391,177.734
1532509873.584,22.461,22.461,36.133,25.391,91.309
1532509873.588,21.484,21.484,38.574,14.648,-31.738
1532509873.592,27.344,16.602,35.156,15.625,-5.371
1532509873.596,48.828,17.578,31.250,26.855,75.195
1532509873.600,49.316,28.809,29.297,10.742,19.043
1532509873.604,33.203,32.227,30.273,-1.953,4.883
1532509873.608,23.926,29.297,33.691,12.207,3.418
1532509873.612,28.320,30.273,32.715,15.137,29.297
1532509873.616,40.039,27.832,34.668,6.836,84.473
1532509873.619,24.414,23.438,36.621,3.906,-27.344
1532509873.623,13.184,22.949,29.785,-4.395,-7.812
1532509873.627,20.020,24.902,29.297,-5.859,87.402
1532509873.631,29.785,26.855,32.715,-6.836,14.160
1532509873.635,28.809,31.738,28.320,-1.953,-24.414
1532509873.639,31.250,32.227,27.344,4.395,-77.148
1532509873.643,35.156,28.320,29.785,5.371,8.301
1532509873.647,36.133,25.391,28.320,7.812,125.977
1532509873.651,44.434,25.391,27.832,9.277,-102.051
1532509873.655,49.805,28.320,29.785,2.441,-111.328
1532509873.659,43.945,25.391,32.715,3.418,97.656
1532509873.662,36.133,28.320,33.203,6.836,168.945
1532509873.666,39.062,31.738,30.273,10.742,95.703
1532509873.670,43.457,26.855,30.762,17.090,-14.160
1532509873.674,43.457,26.367,32.715,20.020,61.035
1532509873.678,44.922,31.738,30.762,18.555,181.641
1532509873.682,45.898,34.180,31.250,14.160,144.043
1532509873.686,43.457,30.273,32.227,14.160,-5.859
1532509873.690,41.016,28.809,33.691,14.160,-121.582
1532509873.694,40.527,26.367,35.156,8.789,6.836
1532509873.698,46.387,23.926,37.598,5.371,167.969
1532509873.702,45.410,25.391,38.086,5.859,52.734
1532509873.705,51.270,25.391,34.668,14.648,12.695
1532509873.709,53.711,26.367,31.738,20.508,91.797
1532509873.713,42.969,26.855,24.414,13.672,149.902
1532509873.717,42.480,27.344,20.996,13.672,62.500
1532509873.721,43.457,26.855,20.020,16.602,-16.113
1532509873.725,41.504,25.879,12.695,16.113,83.496
1532509873.729,44.922,32.715,14.160,14.648,140.625
1532509873.733,47.852,34.180,19.043,15.137,13.672
1532509873.737,40.039,27.344,16.602,11.719,-98.633
1532509873.741,35.645,24.902,13.672,12.207,-31.250
1532509873.744,39.551,22.949,9.766,14.160,146.973
1532509873.748,38.574,23.926,8.301,9.277,53.711
1532509873.752,53.711,25.879,7.812,11.230,-148.926
1532509873.756,57.617,20.508,4.883,13.672,-51.758
1532509873.760,36.621,20.996,1.953,14.160,109.863
1532509873.764,41.504,27.344,-1.465,14.160,124.512
1532509873.768,49.316,30.273,-3.906,8.301,-27.344
1532509873.772,48.340,32.227,-5.859,6.836,-52.246
1532509873.776,47.852,28.320,-6.836,13.672,96.680
1532509873.780,43.457,25.391,-3.906,10.742,92.773
1532509873.784,37.109,25.879,0.000,2.441,7.324
1532509873.787,33.203,24.902,2.441,0.000,-28.320
1532509873.791,33.203,24.414,3.906,-1.465,-72.754
1532509873.795,34.668,27.832,1.953,0.977,84.961
1532509873.799,33.691,28.809,-0.488,0.977,115.234
1532509873.803,29.297,26.855,0.977,-0.488,-7.812
1532509873.807,29.297,25.879,2.930,0.488,15.625
1532509873.811,29.297,25.879,0.488,2.441,113.770
1532509873.815,13.672,28.320,-0.977,3.418,120.117
1532509873.819,10.742,28.809,-0.488,7.812,3.906
1532509873.823,14.648,23.926,-0.977,6.348,9.766
1532509873.827,13.672,23.926,4.883,5.859,90.332
1532509873.830,17.090,24.414,10.254,0.488,9.277
1532509873.834,19.043,26.855,6.836,-2.930,-76.660
1532509873.838,22.949,30.273,3.906,0.488,-10.254
1532509873.842,15.625,27.344,4.395,4.395,125.977
1532509873.846,9.766,28.320,4.395,8.301,171.387
1532509873.850,20.508,29.297,3.906,2.930,5.371
1532509873.854,20.508,30.273,0.977,-2.930,-59.082
1532509873.858,17.090,31.250,-2.930,-2.930,64.941
1532509873.862,24.414,28.809,1.953,1.953,164.062
1532509873.866,21.973,26.855,7.324,0.488,84.473
1532509873.869,17.090,28.320,3.906,2.930,-63.965
1532509873.873,29.297,37.598,12.207,23.438,-65.918
1532509873.877,34.180,41.016,24.414,30.762,61.035
1532509873.881,25.391,37.109,19.043,17.578,89.355
1532509873.885,15.137,35.645,11.230,-1.465,33.203
1532509873.889,3.906,40.039,9.766,-16.602,-90.820
1532509873.893,0.488,48.828,17.090,-19.043,-76.172
1532509873.897,-10.254,48.828,21.484,-22.949,113.281
1532509873.901,-22.461,45.898,22.461,-32.715,59.570
1532509873.905,-30.273,50.781,22.461,-38.574,-15.625
1532509873.909,-33.691,49.805,26.367,-44.922,28.809
1532509873.912,-40.527,50.293,34.668,-52.734,116.699
1532509873.916,-58.105,59.082,30.762,-70.801,86.914
1532509873.920,-65.918,72.266,32.227,-93.262,-83.496
1532509873.924,-78.125,77.637,33.691,-98.145,-38.574
1532509873.928,-96.680,76.172,38.086,-106.445,76.660
1532509873.932,-104.004,73.730,45.898,-119.141,42.969
1532509873.936,-104.980,72.754,47.852,-117.188,-10.254
1532509873.940,-99.121,78.125,43.457,-117.676,-26.367
1532509873.944,-91.797,84.473,36.621,-113.281,151.367
1532509873.948,-90.332,75.684,38.574,-100.586,140.137
1532509873.951,-81.543,64.453,36.621,-92.773,-101.562
1532509873.955,-69.824,56.641,27.832,-90.332,-58.594
1532509873.959,-55.664,50.293,24.902,-78.125,95.215
1532509873.963,-41.016,49.805,22.461,-61.035,98.145
1532509873.967,-34.668,43.457,20.508,-48.340,-46.875
1532509873.971,-31.738,38.086,22.461,-35.156,-204.590
1532509873.975,-24.414,34.180,20.508,-26.367,-51.758
1532509873.979,-8.301,32.227,16.602,-16.113,156.250
1532509873.983,7.324,32.227,12.207,-7.812,94.727
1532509873.987,20.996,31.250,9.277,3.418,-20.508
1532509873.991,32.715,29.297,7.812,17.090,14.648
1532509873.994,33.691,22.461,5.859,20.020,149.902
1532509873.998,35.645,21.484,5.371,17.090,128.418
1532509874.002,35.645,19.043,4.395,24.902,17.578
1532509874.006,41.504,16.113,5.371,35.156,-4.883
1532509874.010,47.852,17.090,4.883,35.645,44.922
1532509874.014,55.176,15.625,2.441,39.551,69.336
1532509874.018,59.570,16.602,-0.488,41.992,-8.301
1532509874.022,58.594,16.602,-5.859,50.293,-24.902
1532509874.026,69.824,19.043,-2.441,58.105,92.773
1532509874.030,67.871,20.020,5.371,44.922,29.297
1532509874.034,63.477,16.113,3.418,41.992,-103.027
1532509874.037,66.406,17.578,1.953,49.316,-27.344
1532509874.041,62.500,20.020,6.348,49.316,62.988
1532509874.045,62.500,21.973,8.301,44.922,150.391
1532509874.049,65.918,17.578,5.371,47.363,88.379
1532509874.053,67.871,17.090,5.859,49.805,-9.277
1532509874.057,69.824,23.438,6.348,46.387,20.020
1532509874.061,73.242,21.973,3.906,46.387,60.547
1532509874.065,78.613,19.531,8.301,44.434,80.566
1532509874.069,68.359,20.996,10.742,44.922,-92.285
1532509874.073,56.152,23.438,7.812,43.945,-190.430
1532509874.076,53.223,23.926,13.184,34.180,48.828
1532509874.080,55.664,21.973,16.113,31.738,143.066
1532509874.084,57.617,21.484,10.742,35.156,19.043
1532509874.088,52.734,20.508,7.812,31.250,-46.875
1532509874.092,58.594,19.531,8.789,37.598,21.484
1532509874.096,65.918,23.926,13.672,43.945,138.672
1532509874.100,66.406,24.414,11.719,41.016,75.684
1532509874.104,61.523,23.926,7.812,40.527,-28.809
1532509874.108,55.664,27.832,13.672,47.852,-46.387
1532509874.112,59.570,24.902,18.555,46.387,-47.363
1532509874.116,63.477,22.949,16.113,43.945,10.742
1532509874.119,59.082,22.461,14.648,42.969,-23.438
1532509874.123,52.246,18.555,14.648,33.691,21.484
1532509874.127,49.805,19.043,16.602,30.273,99.609
1532509874.131,52.734,21.484,14.648,28.320,83.008
1532509874.135,56.641,22.461,12.695,28.320,11.719
1532509874.139,51.758,24.902,14.160,32.227,-22.461
1532509874.143,42.969,24.902,12.695,23.926,123.047
1532509874.147,41.016,22.949,14.648,20.020,153.809
1532509874.151,44.922,25.391,18.066,23.438,9.277
1532509874.155,44.922,26.855,20.996,26.367,-59.570
1532509874.159,42.969,24.414,24.902,25.391,-33.203
1532509874.162,42.969,22.461,21.973,20.508,104.004
1532509874.166,41.992,21.973,20.996,30.273,105.957
1532509874.170,41.504,21.973,23.438,27.832,-154.785
1532509874.174,43.945,20.020,22.461,21.973,-144.531
1532509874.178,50.293,19.043,20.996,27.344,121.094
1532509874.182,41.504,19.043,19.043,22.461,124.023
1532509874.186,32.715,22.461,18.555,20.020,20.508
1532509874.190,33.691,23.438,17.578,21.484,-5.371
1532509874.194,35.156,22.949,16.602,21.484,94.238
1532509874.198,34.668,25.391,21.973,26.367,156.738
1532509874.201,32.715,24.902,26.367,26.855,-24.414
1532509874.205,34.668,21.484,23.926,28.320,-57.617
1532509874.209,40.527,19.043,21.484,21.973,-21.484
1532509874.213,46.875,24.902,22.949,14.648,-18.555
1532509874.217,51.270,27.832,21.973,22.949,30.762
1532509874.221,49.805,27.344,19.531,26.367,-11.230
1532509874.225,44.434,30.762,18.555,22.461,65.918
1532509874.229,52.246,34.180,14.160,20.508,129.883
1532509874.233,56.641,32.227,16.113,20.508,62.988
1532509874.237,48.340,32.227,19.531,12.207,6.836
1532509874.241,46.387,33.203,21.484,9.277,37.598
1532509874.244,48.340,30.273,19.531,11.230,133.789
1532509874.248,51.758,31.738,15.625,5.371,22.949
1532509874.252,49.805,32.227,15.625,4.883,-126.953
1532509874.256,41.504,28.320,20.508,18.066,-17.090
1532509874.260,39.062,26.367,22.461,25.879,104.980
1532509874.264,34.668,25.879,20.020,30.762,164.551
1532509874.268,27.832,26.367,20.996,36.133,-14.648
1532509874.272,26.367,23.438,22.949,28.320,-118.652
1532509874.276,25.879,25.879,21.973,21.973,63.965
1532509874.280,26.855,29.785,21.484,26.367,141.113
1532509874.283,23.438,28.809,23.438,24.414,41.016
1532509874.287,19.531,30.762,21.484,22.461,-89.844
1532509874.291,21.973,29.785,16.602,20.996,-23.438
1532509874.295,18.555,28.809,19.043,14.648,83.984
1532509874.299,22.949,31.250,23.926,13.184,0.000
1532509874.303,25.391,29.297,27.344,14.160,-45.898
1532509874.307,27.344,24.902,26.855,11.719,10.254
1532509874.311,28.809,25.391,23.926,7.324,-46.387
1532509874.315,26.367,28.320,22.949,6.348,-6.836
1532509874.319,21.973,30.762,24.414,8.789,41.016
1532509874.323,22.949,32.227,25.879,8.789,-3.906
1532509874.326,28.809,31.250,24.414,11.230,87.891
1532509874.330,37.598,32.227,26.855,15.137,119.141
1532509874.334,30.273,35.156,29.297,16.602,22.949
1532509874.338,34.668,36.133,29.297,21.484,-35.156
1532509874.342,31.738,33.203,25.391,12.695,-0.488
1532509874.346,13.184,27.344,21.973,0.000,93.750
1532509874.350,17.578,26.367,24.902,-1.465,-54.688
1532509874.354,17.578,27.344,24.414,-2.930,-165.527
1532509874.358,16.602,26.855,22.461,6.836,46.387
1532509874.362,21.973,26.855,23.926,2.441,173.828
1532509874.366,19.531,25.391,23.926,-1.953,139.648
1532509874.369,18.066,23.438,24.414,0.977,8.789
1532509874.373,23.926,23.438,20.508,3.906,32.227
1532509874.377,27.344,26.855,20.996,3.418,149.902
1532509874.381,34.668,28.320,25.879,-1.465,132.812
1532509874.385,32.227,30.762,27.832,5.859,-0.977
1532509874.389,24.414,31.738,28.809,5.859,-135.254
1532509874.393,19.043,27.344,25.391,0.488,-47.852
1532509874.397,22.461,26.855,24.902,5.371,116.699
1532509874.401,27.344,27.344,31.738,11.230,41.504
1532509874.405,25.391,27.344,33.691,14.648,-17.578
1532509874.408,24.902,27.344,27.344,11.719,17.090
1532509874.412,23.926,26.367,27.344,10.254,81.543
1532509874.416,20.508,25.879,30.762,7.812,89.844
1532509874.420,21.973,26.367,32.227,4.883,-9.277
1532509874.424,27.832,27.344,30.762,6.348,11.719
1532509874.428,23.438,26.855,28.320,0.977,102.539
1532509874.432,29.297,29.297,25.879,0.000,91.797
1532509874.436,33.203,26.367,25.391,-2.441,-25.879
1532509874.440,16.602,23.438,24.902,0.488,-98.145
1532509874.444,7.324,30.762,27.832,4.883,79.102
1532509874.448,5.859,30.273,30.273,-9.766,121.582
1532509874.451,5.371,25.879,27.344,-18.066,-130.859
1532509874.455,13.184,25.391,27.344,-8.301,-120.605
1532509874.459,21.484,27.344,26.367,2.930,71.777
1532509874.463,20.996,27.344,23.438,-4.883,154.297
1532509874.467,24.414,27.344,23.438,-9.277,23.438
1532509874.471,43.457,34.668,21.973,6.348,-118.164
1532509874.475,45.898,30.273,26.367,17.090,10.254
1532509874.479,20.508,21.484,33.691,6.348,156.250
1532509874.483,20.996,22.461,32.227,4.883,78.613
1532509874.487,35.156,26.855,28.320,8.789,-87.402
1532509874.491,31.738,29.297,32.715,3.418,-166.016
1532509874.494,24.414,25.391,39.062,7.812,8.301
1532509874.498,22.949,20.996,33.691,11.719,189.453
1532509874.502,12.207,22.461,28.320,-3.906,68.359
1532509874.506,7.324,23.926,28.320,-11.719,3.418
1532509874.510,16.602,21.973,27.344,-4.395,79.102
1532509874.514,17.578,21.484,28.809,1.953,140.137
1532509874.518,13.184,24.902,27.832,0.488,41.992
1532509874.522,16.113,25.879,26.855,5.859,-26.855
1532509874.526,17.090,23.438,32.715,15.625,72.754
1532509874.530,16.113,20.020,35.645,19.531,103.027
1532509874.533,20.508,18.066,33.691,18.555,-44.434
1532509874.537,24.902,22.949,31.250,7.812,-85.938
1532509874.541,20.996,22.949,28.809,7.812,35.156
1532509874.545,19.043,18.555,28.809,19.043,166.504
1532509874.549,15.137,17.090,24.414,7.324,-2.930
1532509874.553,10.742,19.043,22.461,-3.906,-206.055
1532509874.557,11.230,26.855,24.902,4.395,-45.898
1532509874.561,11.230,33.691,23.438,7.812,130.859
1532509874.565,13.184,28.320,26.367,9.766,156.738
1532509874.569,20.020,26.367,29.297,11.230,-2.930
1532509874.573,22.949,27.832,25.391,13.672,-41.016
1532509874.576,21.973,20.996,24.414,13.672,56.152
1532509874.580,24.902,17.090,29.297,12.207,100.586
1532509874.584,30.273,22.461,26.367,16.602,63.477
1532509874.588,29.785,25.879,26.855,15.625,-104.004
1532509874.592,18.066,18.066,28.320,11.719,-129.883
1532509874.596,11.230,19.043,26.855,15.625,65.430
1532509874.600,13.184,25.391,33.691,20.508,87.891
1532509874.604,19.531,24.902,36.133,21.973,41.992
1532509874.608,20.020,24.902,32.715,20.020,22.949
1532509874.612,20.020,22.949,32.715,18.555,98.145
1532509874.616,22.461,19.531,35.156,19.531,118.652
1532509874.619,21.973,20.020,34.668,17.090,-8.789
1532509874.623,24.902,23.926,32.715,19.043,-37.598
1532509874.627,20.996,22.949,26.855,15.137,22.949
1532509874.631,22.949,20.996,27.832,10.254,23.438
1532509874.635,22.461,25.879,28.809,9.766,-4.395
1532509874.639,16.113,28.320,25.879,8.789,-14.160
1532509874.643,20.020,25.391,30.762,14.648,61.523
1532509874.647,25.391,23.926,37.598,20.508,139.648
1532509874.651,24.414,23.926,39.062,24.902,1.465
1532509874.655,22.949,20.020,36.133,29.785,-52.246
1532509874.658,25.391,23.438,32.715,31.738,56.641
1532509874.662,28.320,29.785,30.273,34.668,138.672
1532509874.666,32.227,32.227,28.320,31.250,84.961
1532509874.670,36.621,31.738,23.438,23.926,-60.059
1532509874.674,36.133,28.320,21.484,25.879,-78.125
1532509874.678,39.551,26.367,23.926,25.391,52.246
1532509874.682,40.039,29.297,22.461,25.879,104.004
1532509874.686,27.832,33.691,20.508,22.949,18.066
1532509874.690,27.832,33.203,16.602,10.742,-130.859
1532509874.694,27.832,30.273,15.137,1.953,-66.406
1532509874.698,21.973,30.762,15.625,3.418,143.555
1532509874.701,23.926,32.227,15.625,9.277,83.984
1532509874.705,28.320,32.227,15.625,20.996,-11.230
1532509874.709,29.297,31.738,17.578,24.414,45.898
1532509874.713,36.133,36.133,18.066,23.438,157.715
1532509874.717,34.180,39.551,14.648,19.531,44.922
1532509874.721,28.320,36.621,12.695,18.555,-88.379
1532509874.725,24.902,32.227,13.184,23.926,38.086
1532509874.729,24.414,35.156,16.602,20.020,65.430
1532509874.733,23.926,33.203,18.555,9.766,-33.203
1532509874.737,17.090,26.367,21.973,10.742,-20.996
1532509874.740,16.602,24.414,22.949,16.602,30.762
1532509874.744,15.137,27.344,21.973,22.949,154.785
1532509874.748,23.438,29.297,24.414,25.879,151.367
1532509874.752,27.832,31.250,24.414,19.043,4.883
1532509874.756,15.137,36.621,22.949,4.395,-33.691
1532509874.760,17.090,38.574,22.461,8.301,84.473
1532509874.764,22.461,36.133,17.090,15.137,129.883
1532509874.768,18.555,35.645,16.602,11.719,-38.574
1532509874.772,12.695,34.668,19.043,10.742,-86.426
1532509874.776,12.207,31.250,19.531,13.672,77.637
1532509874.780,14.160,32.227,20.508,16.602,151.855
1532509874.783,16.602,34.180,22.949,14.160,56.152
1532509874.787,13.672,36.621,24.414,12.695,-62.988
1532509874.791,6.836,34.668,25.391,8.789,-103.516
1532509874.795,5.859,31.738,26.367,4.395,93.262
1532509874.799,7.812,31.738,25.391,1.953,127.930
1532509874.803,9.277,34.180,22.949,-1.953,-11.719
1532509874.807,7.324,35.645,20.508,4.395,-25.879
1532509874.811,10.742,32.227,24.414,12.695,24.414
1532509874.815,12.695,32.715,29.297,10.742,60.547
1532509874.819,7.324,34.180,27.344,8.301,-0.977
1532509874.823,-2.930,30.762,25.391,3.906,-10.742
1532509874.826,-1.953,29.785,24.902,6.348,95.703
1532509874.830,0.977,32.227,24.902,13.672,15.625
1532509874.834,-1.953,27.344,25.879,6.836,-80.078
1532509874.838,0.977,19.531,25.391,7.324,-24.414
1532509874.842,4.883,20.020,24.902,10.742,45.898
1532509874.846,3.418,26.855,28.809,9.766,138.184
1532509874.850,0.000,31.250,29.785,9.766,52.246
1532509874.854,0.000,32.227,27.344,6.836,-32.227
1532509874.858,-3.906,32.715,27.832,6.348,-16.602
1532509874.862,6.348,31.738,30.273,9.766,62.012
1532509874.865,4.883,27.344,31.738,7.324,133.301
1532509874.869,-11.719,24.902,34.180,-9.766,-105.469
1532509874.873,-10.742,25.879,31.738,-6.348,-186.035
1532509874.877,-7.324,24.902,28.809,3.418,86.426
1532509874.881,-3.906,23.926,32.227,-6.348,144.043
1532509874.885,-3.418,22.461,31.250,-5.371,32.715
1532509874.889,0.488,22.461,30.273,6.348,-50.293
1532509874.893,5.371,27.832,32.715,9.766,45.410
1532509874.897,0.488,32.227,29.297,4.883,162.598
1532509874.901,3.418,32.227,26.367,0.488,43.457
1532509874.905,7.324,32.715,31.250,8.301,-53.223
1532509874.908,3.418,35.156,30.273,14.160,-63.477
1532509874.912,6.348,34.180,31.250,6.836,-2.441
1532509874.916,10.254,30.273,35.156,7.812,87.402
1532509874.920,4.883,30.762,30.273,10.254,17.578
1532509874.924,5.371,32.227,29.785,11.719,18.555
1532509874.928,14.648,31.738,34.180,12.207,95.215
1532509874.932,11.719,30.762,32.227,8.789,120.605
1532509874.936,10.254,32.715,27.344,7.812,74.219
1532509874.940,19.043,34.668,25.879,15.625,10.254
1532509874.944,27.344,33.691,25.879,14.160,118.652
1532509874.948,33.691,38.086,25.391,3.418,138.672
1532509874.951,36.621,43.457,23.438,6.836,-54.688
1532509874.955,43.945,43.457,22.949,11.230,-103.516
1532509874.959,45.898,42.480,26.855,6.348,29.297
1532509874.963,35.645,42.480,29.785,11.719,161.133
1532509874.967,32.715,41.016,25.879,14.648,42.969
1532509874.971,21.973,37.598,28.320,19.043,-187.012
1532509874.975,14.160,32.715,34.668,22.461,-66.406
1532509874.979,14.648,30.762,27.832,32.715,139.648
1532509874.983,5.371,33.203,24.902,35.156,118.164
1532509874.987,4.883,33.203,29.785,24.902,-0.488
1532509874.990,4.883,36.621,30.273,28.320,-15.625
1532509874.994,-1.465,34.180,26.855,22.949,118.164
1532509874.998,-3.906,26.855,27.832,16.602,86.914
1532509875.002,-2.441,27.832,30.273,19.043,-60.059
1532509875.006,-0.488,29.297,31.250,12.695,-33.691
1532509875.010,1.953,33.691,26.855,4.395,-33.203
1532509875.014,11.230,41.016,20.508,6.836,24.414
1532509875.018,32.227,41.016,22.949,28.320,61.035
1532509875.022,22.949,30.273,33.203,38.574,-3.906
1532509875.026,-1.953,25.879,39.551,22.461,91.309
1532509875.030,0.488,26.367,37.109,14.648,118.652
1532509875.033,4.883,23.926,35.645,10.742,60.059
1532509875.037,-7.324,21.484,37.598,4.395,-0.488
1532509875.041,0.977,19.531,38.574,10.742,4.883
1532509875.045,6.836,13.672,40.527,14.648,97.656
1532509875.049,-3.418,15.137,44.434,3.418,-2.441
1532509875.053,-8.301,17.090,47.852,2.930,-141.602
1532509875.057,-14.160,13.672,47.363,11.719,-1.465
1532509875.061,-6.836,13.672,48.340,10.742,152.344
