timestamps,TP9,AF7,AF8,TP10,Right AUX
1532510582.406,25.879,43.457,19.531,32.227,114.258
1532510582.410,34.180,45.898,17.578,34.180,154.785
1532510582.414,33.203,41.504,18.555,33.691,27.344
1532510582.418,33.203,35.156,23.438,38.086,-36.621
1532510582.422,31.250,41.504,24.414,40.039,53.223
1532510582.426,30.273,41.016,23.926,39.551,103.027
1532510582.430,30.762,37.109,21.484,43.457,32.715
1532510582.433,35.156,42.480,20.020,38.574,-112.793
1532510582.437,34.180,44.922,22.949,38.574,-96.191
1532510582.441,35.156,36.621,32.227,54.199,133.301
1532510582.445,55.664,30.762,35.156,66.895,100.586
1532510582.449,48.828,42.480,24.902,47.852,-9.766
1532510582.453,36.621,46.875,21.973,25.879,-18.066
1532510582.457,37.598,47.852,20.020,28.320,93.262
1532510582.461,34.180,49.316,17.090,31.738,144.043
1532510582.465,34.668,38.574,20.508,39.062,-1.465
1532510582.469,31.250,31.738,21.484,30.762,-20.508
1532510582.472,34.668,41.504,24.414,24.414,55.664
1532510582.476,28.320,43.945,27.344,28.809,59.570
1532510582.480,25.879,35.156,24.902,33.691,3.418
1532510582.484,24.902,37.109,21.484,35.645,-36.621
1532510582.488,27.344,39.062,22.461,41.992,58.594
1532510582.492,33.203,39.551,26.367,37.109,70.801
1532510582.496,34.180,37.598,26.855,23.926,-59.570
1532510582.500,42.969,36.133,26.855,29.785,-42.480
1532510582.504,37.598,38.086,28.809,32.227,32.715
1532510582.508,31.250,41.992,26.367,34.668,140.137
1532510582.512,40.527,47.852,26.367,39.551,83.984
1532510582.515,41.016,43.945,29.785,34.668,-42.480
1532510582.519,48.828,33.203,31.738,37.109,-36.621
1532510582.523,45.410,35.156,27.832,39.062,41.992
1532510582.527,35.156,41.992,22.949,35.156,117.188
1532510582.531,30.273,41.504,23.926,29.297,-13.672
1532510582.535,26.367,44.434,25.879,20.508,-154.297
1532510582.539,26.367,36.621,20.996,24.414,19.043
1532510582.543,32.227,34.180,20.508,38.574,145.508
1532510582.547,38.086,36.133,24.902,39.062,63.965
1532510582.551,39.062,36.621,20.508,34.180,-20.020
1532510582.555,30.273,46.875,17.578,37.109,3.418
1532510582.558,42.969,46.387,23.438,35.645,135.742
1532510582.562,50.781,41.504,25.391,30.273,89.355
1532510582.566,30.273,41.016,22.949,25.391,-47.852
1532510582.570,22.461,35.156,22.461,26.367,-49.316
1532510582.574,38.574,28.809,21.973,26.855,-19.531
1532510582.578,37.109,37.598,16.602,22.461,38.574
1532510582.582,36.621,41.504,17.090,24.414,12.695
1532510582.586,40.527,39.551,20.996,24.902,-7.812
1532510582.590,36.133,38.086,25.879,27.832,107.422
1532510582.594,36.621,39.551,25.879,27.344,95.215
1532510582.597,43.457,45.898,25.391,29.297,11.230
1532510582.601,47.852,42.969,29.785,35.645,-12.207
1532510582.605,35.645,40.039,29.785,34.180,71.777
1532510582.609,42.969,44.434,28.809,38.574,151.367
1532510582.613,41.016,38.574,32.715,41.504,-6.348
1532510582.617,37.109,28.809,32.227,40.039,-118.164
1532510582.621,46.387,36.133,28.809,37.109,13.184
1532510582.625,41.992,42.969,29.297,36.133,131.348
1532510582.629,33.203,42.480,33.203,40.527,120.117
1532510582.633,42.480,41.992,36.133,41.504,-81.055
1532510582.637,45.410,41.992,33.691,38.086,-124.023
1532510582.640,44.434,41.504,31.738,36.133,95.215
1532510582.644,36.621,38.086,32.715,30.273,102.051
1532510582.648,30.273,40.039,34.668,32.227,-18.066
1532510582.652,38.574,38.574,35.156,33.203,-54.688
1532510582.656,38.574,28.809,35.156,31.738,38.086
1532510582.660,35.156,30.762,32.227,34.668,62.500
1532510582.664,42.969,34.180,30.762,32.227,-32.227
1532510582.668,43.457,29.785,30.762,38.574,-41.504
1532510582.672,34.180,34.180,30.273,36.133,-8.301
1532510582.676,31.250,36.621,32.227,26.367,-12.695
1532510582.680,36.133,33.203,31.738,33.203,-7.812
1532510582.683,34.180,30.762,30.762,34.180,-50.293
1532510582.687,34.668,25.879,28.809,34.180,24.902
1532510582.691,40.527,27.344,27.344,37.598,113.281
1532510582.695,33.691,30.273,33.691,32.715,39.551
1532510582.699,26.855,25.879,38.086,28.809,-25.391
1532510582.703,28.320,26.855,35.156,31.738,7.812
1532510582.707,26.367,37.109,31.738,33.203,101.562
1532510582.711,28.809,35.645,30.762,29.785,86.426
1532510582.715,41.504,32.227,31.738,28.320,-132.324
1532510582.719,49.805,36.133,34.180,40.039,-116.211
1532510582.722,42.480,35.156,36.621,48.340,112.305
1532510582.726,45.898,35.645,34.180,48.828,145.508
1532510582.730,46.387,33.691,31.738,43.457,28.809
1532510582.734,39.062,34.180,31.738,44.922,-52.246
1532510582.738,45.898,35.156,38.086,54.688,57.617
1532510582.742,41.016,26.855,36.621,47.363,163.574
1532510582.746,30.762,24.414,28.809,32.715,80.078
1532510582.750,38.086,25.879,28.320,41.504,-3.418
1532510582.754,41.016,26.855,27.344,52.246,-7.812
1532510582.758,42.480,28.809,29.785,43.945,38.574
1532510582.762,36.621,35.156,32.715,41.504,79.102
1532510582.765,30.273,40.039,31.738,43.945,6.348
1532510582.769,32.227,40.039,25.879,40.039,0.977
1532510582.773,42.480,36.621,25.391,33.203,-14.160
1532510582.777,51.270,35.156,27.832,33.691,-10.742
1532510582.781,51.758,34.180,28.809,30.762,57.617
1532510582.785,63.477,35.645,29.785,21.484,-0.488
1532510582.789,67.383,35.156,26.855,18.555,85.449
1532510582.793,58.594,35.156,26.367,18.555,151.367
1532510582.797,46.875,30.273,25.391,22.949,34.668
1532510582.801,43.945,18.066,29.785,37.109,-62.500
1532510582.804,45.898,24.414,36.621,48.340,-23.438
1532510582.808,45.410,35.645,36.621,51.270,119.141
1532510582.812,45.898,36.621,37.598,55.176,61.035
1532510582.816,43.945,35.156,38.574,53.223,-35.156
1532510582.820,35.156,34.668,35.645,51.758,44.922
1532510582.824,34.668,30.273,33.203,52.734,131.348
1532510582.828,32.227,27.832,37.109,55.176,137.207
1532510582.832,28.809,29.297,39.062,45.410,-24.902
1532510582.836,35.645,31.738,37.109,39.062,-119.629
1532510582.840,43.945,34.180,35.645,47.852,78.613
1532510582.844,45.898,30.273,33.203,53.223,155.762
1532510582.847,35.156,27.344,31.250,53.711,20.996
1532510582.851,33.691,30.762,30.762,47.363,-85.449
1532510582.855,42.480,29.297,33.203,44.434,-74.707
1532510582.859,45.410,31.738,34.668,44.434,57.617
1532510582.863,41.016,37.109,32.227,41.504,86.426
1532510582.867,40.039,40.039,35.645,37.109,7.324
1532510582.871,38.086,36.133,39.551,37.598,11.719
1532510582.875,31.250,32.715,36.621,41.992,100.098
1532510582.879,44.434,34.668,31.250,39.062,82.520
1532510582.883,47.852,39.551,35.156,39.551,-17.090
1532510582.887,38.086,38.086,36.621,45.410,13.672
1532510582.890,44.922,30.762,35.156,43.945,104.004
1532510582.894,44.922,34.668,36.133,45.410,43.457
1532510582.898,54.199,33.203,35.156,51.270,-69.336
1532510582.902,55.176,26.367,31.250,45.898,-34.180
1532510582.906,41.504,29.785,29.297,41.992,105.469
1532510582.910,42.969,26.855,29.785,45.898,174.316
1532510582.914,36.133,26.855,33.203,41.016,-73.242
1532510582.918,34.668,30.273,37.598,37.598,-160.645
1532510582.922,36.133,22.949,38.574,39.551,44.434
1532510582.926,25.879,17.090,41.016,41.992,136.719
1532510582.929,27.832,20.508,39.062,41.504,80.566
1532510582.933,35.645,18.066,37.109,37.109,-56.641
1532510582.937,47.852,15.137,35.645,37.109,9.766
1532510582.941,49.316,21.484,34.668,42.969,97.656
1532510582.945,39.062,25.391,33.691,38.086,48.340
1532510582.949,32.227,25.879,28.320,30.273,23.926
1532510582.953,33.203,24.414,25.879,25.879,-82.031
1532510582.957,41.504,21.484,29.785,28.320,-50.293
1532510582.961,37.598,20.020,32.715,37.109,125.488
1532510582.965,32.227,23.438,36.621,36.133,34.668
1532510582.969,36.621,18.066,41.992,38.086,-29.297
1532510582.972,39.551,15.137,40.527,42.480,60.547
1532510582.976,40.039,21.484,41.016,42.480,117.676
1532510582.980,44.434,22.461,42.480,42.480,54.199
1532510582.984,48.340,25.391,37.109,41.504,-8.789
1532510582.988,51.270,25.391,37.598,43.945,49.316
1532510582.992,54.688,27.832,41.992,40.039,67.383
1532510582.996,58.594,35.156,41.016,35.156,-54.688
1532510583.000,56.641,33.203,38.574,37.598,-71.289
1532510583.004,51.758,32.227,35.645,35.645,25.391
1532510583.008,52.246,35.645,37.598,36.621,136.719
1532510583.012,52.734,33.691,42.480,28.320,106.445
1532510583.015,47.852,30.762,45.410,24.414,-30.762
1532510583.019,51.758,28.809,50.293,39.551,-6.348
1532510583.023,52.246,23.926,48.828,49.316,113.281
1532510583.027,49.316,34.180,46.875,43.945,160.645
1532510583.031,47.852,43.945,54.688,39.551,40.527
1532510583.035,44.434,39.551,59.082,35.645,-74.707
1532510583.039,47.852,38.086,54.688,37.109,-2.441
1532510583.043,52.734,35.645,53.223,42.969,89.844
1532510583.047,47.363,34.668,58.105,47.363,54.688
1532510583.051,48.828,36.133,59.570,41.992,-7.812
1532510583.054,48.340,35.645,62.012,34.180,-66.895
1532510583.058,43.945,32.715,63.477,37.109,57.129
1532510583.062,49.805,23.438,62.500,35.156,121.582
1532510583.066,48.340,27.344,63.477,38.086,13.184
1532510583.070,38.574,36.133,62.988,42.480,32.227
1532510583.074,38.574,39.551,67.383,41.992,116.211
1532510583.078,44.434,41.504,64.941,49.805,114.746
1532510583.082,51.758,40.527,60.547,53.711,-41.992
1532510583.086,52.734,36.133,64.941,58.105,-80.566
1532510583.090,46.875,31.250,64.941,62.500,88.867
1532510583.094,43.457,35.645,63.477,51.270,33.691
1532510583.097,40.039,40.039,62.988,44.922,-90.820
1532510583.101,33.691,37.109,63.965,41.504,7.324
1532510583.105,30.273,32.715,66.895,32.715,113.281
1532510583.109,34.180,33.203,65.430,30.273,172.363
1532510583.113,40.527,31.738,63.965,31.250,55.664
1532510583.117,43.945,31.738,64.941,33.203,-10.254
1532510583.121,47.363,41.016,57.129,28.320,49.805
1532510583.125,59.570,44.434,47.363,30.762,131.836
1532510583.129,73.730,44.434,52.246,49.316,93.262
1532510583.133,67.383,42.480,62.500,44.434,-118.652
1532510583.136,41.992,33.691,65.430,30.273,-135.742
1532510583.140,22.461,29.297,63.477,35.645,105.957
1532510583.144,25.879,29.297,61.035,37.109,134.277
1532510583.148,29.297,27.832,60.059,37.598,20.020
1532510583.152,27.344,26.855,62.500,34.668,-1.465
1532510583.156,19.531,26.855,65.918,25.879,91.309
1532510583.160,22.461,26.855,69.336,24.414,162.109
1532510583.164,28.320,27.344,66.406,30.762,47.363
1532510583.168,29.297,29.297,62.500,30.273,-4.395
1532510583.172,38.574,32.227,62.500,24.414,45.410
1532510583.176,42.480,29.785,58.105,25.879,55.176
1532510583.179,46.387,22.949,59.082,30.762,-9.277
1532510583.183,43.457,26.855,60.059,29.297,-63.477
1532510583.187,28.809,30.762,54.199,32.227,40.039
1532510583.191,33.691,31.250,53.711,36.621,86.914
1532510583.195,45.898,35.645,53.711,30.273,-61.523
1532510583.199,42.969,35.645,50.781,28.320,-91.309
1532510583.203,31.738,29.785,50.781,34.668,-8.301
1532510583.207,29.297,31.738,54.199,40.527,83.984
1532510583.211,30.762,28.809,56.152,36.621,95.703
1532510583.215,36.621,26.855,54.688,32.227,-43.945
1532510583.219,40.039,29.785,54.199,39.551,-23.926
1532510583.222,41.016,29.297,57.617,42.969,66.406
1532510583.226,36.133,32.227,55.664,38.086,67.871
1532510583.230,25.879,36.621,52.734,34.180,4.395
1532510583.234,32.715,35.156,50.781,26.367,-131.348
1532510583.238,40.039,38.086,50.293,32.227,-48.828
1532510583.242,43.945,40.039,51.758,40.527,147.949
1532510583.246,43.945,29.297,51.758,36.133,93.750
1532510583.250,40.039,26.855,48.828,34.180,-3.906
1532510583.254,40.039,31.738,39.551,34.668,11.230
1532510583.258,44.922,28.809,41.992,37.109,132.812
1532510583.261,40.039,30.273,51.758,37.598,125.000
1532510583.265,37.598,32.715,54.688,40.039,-8.789
1532510583.269,39.062,28.809,54.199,46.387,-38.574
1532510583.273,50.781,23.438,52.734,41.992,-37.598
1532510583.277,51.270,28.320,51.270,40.527,-21.973
1532510583.281,41.016,41.016,51.758,45.898,4.395
1532510583.285,49.316,40.527,48.828,54.199,-0.488
1532510583.289,55.176,37.598,45.898,47.852,57.129
1532510583.293,48.828,40.039,48.340,39.062,89.844
1532510583.297,46.875,36.621,48.828,41.992,46.387
1532510583.301,46.387,33.691,43.457,39.551,-24.414
1532510583.304,45.410,32.715,42.969,42.969,39.062
1532510583.308,45.898,29.785,45.410,43.945,155.273
1532510583.312,48.828,28.809,48.340,38.086,86.426
1532510583.316,46.875,36.133,46.387,36.621,-68.359
1532510583.320,45.410,34.668,44.434,37.109,-66.895
1532510583.324,43.945,25.879,44.922,32.715,80.078
1532510583.328,36.133,25.391,43.457,31.250,127.930
1532510583.332,38.574,36.133,44.922,29.297,-62.988
1532510583.336,48.340,36.621,45.898,23.438,-158.691
1532510583.340,47.852,31.250,41.992,28.809,53.711
1532510583.344,31.250,35.645,36.621,33.691,164.551
1532510583.347,28.809,40.039,37.598,38.086,51.758
1532510583.351,35.645,40.039,40.039,38.086,-55.664
1532510583.355,38.086,38.574,43.945,32.715,14.648
1532510583.359,38.574,38.574,44.922,31.738,156.738
1532510583.363,33.203,37.598,41.992,28.809,53.711
1532510583.367,35.645,32.227,47.363,29.785,-75.195
1532510583.371,35.645,31.250,49.316,33.203,-30.273
1532510583.375,32.715,33.203,46.875,29.297,-8.301
1532510583.379,34.180,24.414,49.805,30.273,12.695
1532510583.383,36.133,28.320,51.758,38.574,9.277
1532510583.386,34.180,32.715,51.270,39.062,42.480
1532510583.390,32.227,30.762,48.828,40.039,121.094
1532510583.394,33.203,36.133,47.363,38.086,95.215
1532510583.398,32.715,35.645,46.387,30.762,11.719
1532510583.402,37.598,33.691,46.875,28.320,-21.973
1532510583.406,39.062,35.156,48.340,19.043,92.285
1532510583.410,40.527,38.574,44.922,18.066,143.066
1532510583.414,37.109,32.227,42.969,22.949,-100.098
1532510583.418,29.785,20.508,46.387,24.414,-170.898
1532510583.422,36.133,29.297,48.828,29.785,42.480
1532510583.426,36.133,38.574,48.340,30.762,129.395
1532510583.429,41.504,34.180,45.898,32.715,67.383
1532510583.433,52.246,31.250,47.852,44.922,-48.340
1532510583.437,51.758,30.273,50.293,49.316,-5.859
1532510583.441,52.734,32.227,52.734,42.480,125.488
1532510583.445,51.270,37.598,52.246,43.945,103.516
1532510583.449,49.805,33.691,50.781,47.852,-19.531
1532510583.453,42.969,28.320,52.246,39.062,-24.414
1532510583.457,41.504,30.273,53.711,31.250,59.570
1532510583.461,44.922,23.926,54.688,34.668,85.938
1532510583.465,37.109,18.066,52.734,32.227,17.090
1532510583.469,32.715,26.367,48.828,28.809,17.090
1532510583.472,36.133,34.180,46.387,30.273,42.969
1532510583.476,47.852,37.598,45.410,35.156,-4.395
1532510583.480,50.293,33.203,43.457,42.480,15.137
1532510583.484,41.504,30.762,44.434,45.898,0.000
1532510583.488,38.086,31.250,46.387,43.945,39.062
1532510583.492,40.527,28.809,44.922,41.016,95.703
1532510583.496,41.992,27.344,45.410,41.504,56.152
1532510583.500,48.828,27.344,44.922,42.480,-0.977
1532510583.504,47.363,26.367,44.434,43.457,-23.926
1532510583.508,37.109,22.461,45.898,47.852,78.125
1532510583.511,36.621,17.578,46.387,47.363,79.102
1532510583.515,26.855,18.555,45.898,40.039,-130.371
1532510583.519,24.414,20.996,45.410,36.621,-64.941
1532510583.523,32.227,21.484,44.434,39.551,126.953
1532510583.527,29.297,20.508,42.480,38.086,151.855
1532510583.531,27.344,21.484,41.992,32.715,20.996
1532510583.535,30.273,27.832,37.598,24.902,-78.125
1532510583.539,34.668,27.344,33.691,24.414,79.590
1532510583.543,34.668,21.973,39.551,25.879,184.082
1532510583.547,24.414,19.531,42.480,26.367,88.867
1532510583.551,31.738,21.973,38.086,25.879,-26.855
1532510583.554,34.180,20.020,39.551,19.531,-88.379
1532510583.558,35.156,17.090,44.434,38.086,55.176
1532510583.562,47.363,26.855,41.504,42.480,143.555
1532510583.566,41.504,31.738,34.180,26.367,53.223
1532510583.570,42.480,25.391,31.738,32.227,36.133
1532510583.574,41.016,23.438,37.109,37.109,83.984
1532510583.578,39.062,23.926,39.062,26.367,106.934
1532510583.582,43.457,17.090,32.715,24.414,18.066
1532510583.586,43.945,15.625,33.203,22.949,-1.953
1532510583.590,55.176,21.973,37.598,24.902,111.328
1532510583.593,59.570,24.902,33.691,20.508,117.676
1532510583.597,51.270,28.320,27.344,10.254,-37.109
1532510583.601,60.547,24.414,30.273,4.883,-72.754
1532510583.605,62.988,24.414,33.691,14.648,65.430
1532510583.609,52.246,30.273,32.715,28.809,165.039
1532510583.613,50.293,30.762,36.133,31.738,6.836
1532510583.617,48.828,36.133,37.598,43.457,-130.371
1532510583.621,47.363,38.086,34.180,49.316,38.574
1532510583.625,42.480,31.738,38.086,49.805,144.043
1532510583.629,35.645,29.297,39.551,55.176,93.262
1532510583.633,33.691,31.250,35.645,56.152,-21.484
1532510583.636,31.250,30.273,38.086,52.734,-6.348
1532510583.640,30.762,33.691,42.480,49.805,119.629
1532510583.644,33.691,33.203,42.480,43.457,88.379
1532510583.648,35.156,27.344,40.039,38.086,-37.598
1532510583.652,36.621,31.738,39.551,29.785,-106.445
1532510583.656,36.621,36.133,41.016,26.367,-58.105
1532510583.660,40.039,38.574,41.016,36.621,89.355
1532510583.664,40.527,37.598,39.551,40.527,61.523
1532510583.668,43.457,35.156,38.086,40.039,-8.301
1532510583.672,48.340,36.133,31.250,41.992,22.949
1532510583.676,44.434,35.645,23.438,42.969,111.816
1532510583.679,44.434,29.297,27.832,48.828,115.723
1532510583.683,46.387,24.414,36.621,43.457,-3.906
1532510583.687,37.109,36.133,37.598,37.109,26.367
1532510583.691,38.574,43.945,35.156,40.527,92.773
1532510583.695,46.875,38.574,32.715,34.180,-40.039
1532510583.699,42.480,37.598,33.691,34.668,-94.727
1532510583.703,34.180,37.598,38.574,35.645,26.367
1532510583.707,35.645,37.109,40.527,37.109,126.953
1532510583.711,41.016,38.574,39.551,40.039,83.008
1532510583.715,39.551,35.645,41.992,41.504,-20.996
1532510583.718,38.086,32.715,45.898,41.016,1.953
1532510583.722,30.762,36.621,39.062,29.297,93.262
1532510583.726,30.762,38.086,33.203,18.066,149.414
1532510583.730,34.180,36.621,29.785,19.043,41.992
1532510583.734,28.320,40.039,29.297,22.461,-55.176
1532510583.738,30.273,34.668,25.391,24.414,4.883
1532510583.742,28.320,34.180,26.367,21.484,65.918
1532510583.746,32.715,42.480,33.691,20.996,36.621
1532510583.750,42.969,41.016,30.762,20.020,-15.137
1532510583.754,30.762,37.598,26.367,19.531,-70.801
1532510583.758,24.902,38.086,30.273,23.926,37.109
1532510583.761,31.250,40.527,29.297,25.391,123.047
1532510583.765,39.551,41.992,28.320,27.832,18.555
1532510583.769,44.434,41.504,32.715,38.086,4.395
1532510583.773,41.992,42.480,29.785,39.551,50.293
1532510583.777,42.480,37.109,28.320,37.598,83.008
1532510583.781,41.016,37.109,35.156,41.016,36.621
1532510583.785,41.504,41.016,36.621,35.645,-63.477
1532510583.789,46.875,32.227,32.715,34.668,35.156
1532510583.793,37.109,31.738,35.645,23.438,50.293
1532510583.797,29.297,40.039,33.691,13.184,-107.910
1532510583.801,31.738,44.922,27.832,24.902,-51.270
1532510583.804,36.621,42.969,30.273,29.297,48.828
1532510583.808,33.691,37.598,35.156,20.020,144.531
1532510583.812,34.180,38.086,37.109,22.461,96.680
1532510583.816,43.945,37.598,34.180,32.227,-31.250
1532510583.820,47.852,38.086,31.738,34.180,10.742
1532510583.824,44.434,42.480,33.203,35.156,126.953
1532510583.828,45.898,37.598,32.227,38.086,153.809
1532510583.832,51.270,33.691,30.762,34.668,-39.062
1532510583.836,54.199,33.203,35.156,27.832,-144.043
1532510583.840,50.781,27.344,34.668,29.297,84.473
1532510583.843,48.340,35.156,34.180,36.621,174.805
1532510583.847,43.945,44.922,37.109,37.598,56.152
1532510583.851,44.922,43.457,38.574,36.621,-43.457
1532510583.855,48.828,41.504,40.039,35.645,19.531
1532510583.859,41.504,38.086,37.598,36.621,148.438
1532510583.863,36.621,35.156,31.738,35.156,90.332
1532510583.867,38.574,32.227,30.762,35.645,-0.977
1532510583.871,44.434,33.203,35.645,35.645,0.000
1532510583.875,45.410,30.273,38.574,35.645,81.055
1532510583.879,40.039,28.809,39.062,34.668,55.176
1532510583.883,45.410,27.832,39.551,34.180,-55.664
1532510583.886,40.527,24.902,38.086,35.156,43.945
1532510583.890,36.621,38.086,35.156,33.691,152.832
1532510583.894,31.250,45.898,30.273,22.949,3.418
1532510583.898,25.391,40.039,27.832,20.020,-80.078
1532510583.902,30.762,39.551,26.855,26.855,13.184
1532510583.906,41.992,37.109,25.391,31.738,108.887
1532510583.910,38.086,31.250,28.320,30.762,150.879
1532510583.914,28.320,33.203,31.250,31.250,5.371
1532510583.918,32.715,32.227,30.762,37.109,-51.758
1532510583.922,31.738,25.879,34.668,38.086,46.387
1532510583.926,37.598,23.438,36.133,40.039,87.891
1532510583.929,38.086,28.320,35.156,43.457,52.246
1532510583.933,34.668,26.855,32.715,36.621,-113.281
1532510583.937,35.645,31.250,28.320,31.250,-105.469
1532510583.941,31.250,43.945,26.367,30.273,128.418
1532510583.945,30.762,43.457,21.973,28.809,124.512
1532510583.949,30.273,35.645,21.973,28.320,-0.977
1532510583.953,24.414,34.180,23.438,25.879,-41.504
1532510583.957,29.297,33.691,24.414,32.715,81.543
1532510583.961,28.320,28.809,22.949,33.691,134.277
1532510583.965,24.902,34.668,21.973,30.273,29.785
1532510583.968,25.391,33.691,25.391,39.062,6.836
1532510583.972,29.785,23.438,27.344,34.668,79.102
1532510583.976,31.250,26.855,33.691,37.109,102.539
1532510583.980,30.762,37.598,35.156,40.527,62.012
1532510583.984,24.902,44.434,26.367,30.762,-20.508
1532510583.988,22.949,41.016,19.043,29.297,62.500
1532510583.992,29.785,35.156,22.949,23.926,84.961
1532510583.996,33.203,36.133,27.344,19.531,-36.621
1532510584.000,35.156,34.180,24.902,20.020,-34.180
1532510584.004,31.738,33.203,24.902,24.414,16.602
1532510584.008,34.668,38.086,25.879,33.691,137.695
1532510584.011,30.762,37.109,31.250,31.250,55.664
1532510584.015,28.320,35.645,38.574,27.832,-106.934
1532510584.019,29.785,29.297,29.785,33.203,-38.574
1532510584.023,27.344,19.531,25.879,36.133,41.992
1532510584.027,33.691,25.879,32.227,35.645,102.051
1532510584.031,35.645,34.668,32.227,32.227,38.086
1532510584.035,35.156,39.062,35.645,23.438,-139.648
1532510584.039,39.062,42.480,34.668,23.926,-1.953
1532510584.043,45.410,42.480,30.273,32.227,171.387
1532510584.047,50.293,42.480,31.738,35.645,82.031
1532510584.050,47.363,39.551,31.250,30.273,-28.809
1532510584.054,34.180,35.645,26.367,30.273,-0.977
1532510584.058,34.668,36.621,22.949,31.250,111.816
1532510584.062,41.504,35.156,24.414,25.391,78.125
1532510584.066,40.527,29.785,31.250,35.156,-50.781
1532510584.070,34.180,25.879,35.645,45.898,-72.266
1532510584.074,29.785,25.391,36.621,35.645,29.785
1532510584.078,44.434,35.645,31.250,30.273,86.426
1532510584.082,66.406,38.574,31.738,56.152,-25.391
1532510584.086,52.734,27.344,42.480,58.105,-27.832
1532510584.090,20.020,18.555,44.922,36.621,137.207
1532510584.093,20.020,21.973,41.504,27.832,51.270
1532510584.097,32.715,28.809,35.645,29.297,-80.078
1532510584.101,28.809,29.785,38.574,33.691,-40.527
1532510584.105,22.461,26.855,40.039,31.738,57.129
1532510584.109,22.949,22.461,36.621,36.621,176.270
1532510584.113,20.996,15.625,42.480,31.738,43.945
1532510584.117,30.273,12.207,43.945,27.832,-97.656
1532510584.121,31.738,12.207,43.457,36.621,30.273
1532510584.125,31.738,6.348,44.922,42.480,166.504
1532510584.129,36.133,7.324,42.969,39.551,126.465
1532510584.133,33.691,9.766,44.922,27.832,-83.496
1532510584.136,41.504,10.254,42.969,33.203,-141.602
1532510584.140,47.852,15.137,41.992,49.316,77.637
1532510584.144,38.086,14.648,41.992,40.527,149.414
1532510584.148,46.875,15.137,38.574,38.086,41.504
1532510584.152,50.781,19.043,36.621,40.039,-41.016
1532510584.156,39.551,16.602,40.039,40.527,76.660
1532510584.160,39.551,9.766,36.133,42.480,135.254
1532510584.164,38.574,14.160,34.668,46.387,1.953
1532510584.168,45.410,19.043,41.504,44.434,-9.277
1532510584.172,48.340,14.648,46.875,39.551,18.555
1532510584.175,46.387,19.043,47.852,42.480,28.809
1532510584.179,45.898,20.996,43.945,44.434,61.035
1532510584.183,55.664,14.160,41.992,43.945,-12.695
1532510584.187,56.152,18.066,37.598,47.852,35.156
1532510584.191,42.480,20.020,37.109,48.828,120.605
1532510584.195,46.387,18.555,39.062,44.922,72.754
1532510584.199,47.852,23.926,34.180,39.062,-1.953
1532510584.203,43.457,23.926,33.691,36.133,16.113
1532510584.207,45.898,23.438,38.086,34.180,89.355
1532510584.211,46.875,26.855,40.039,32.715,68.359
1532510584.215,47.363,26.367,41.504,27.832,-100.586
1532510584.218,52.734,17.090,38.086,31.738,-102.539
1532510584.222,47.852,18.555,35.645,39.551,99.121
1532510584.226,35.156,26.855,33.691,39.551,170.898
1532510584.230,41.504,24.414,31.738,42.969,70.312
1532510584.234,41.016,26.855,33.691,43.457,-47.852
1532510584.238,34.668,21.484,36.133,38.574,38.574
1532510584.242,30.762,17.090,36.133,36.621,143.066
1532510584.246,34.180,26.367,30.762,41.016,83.496
1532510584.250,41.016,21.484,28.320,39.062,-26.855
1532510584.254,33.691,22.949,32.227,28.320,-38.086
1532510584.258,26.855,32.715,33.691,26.855,53.223
1532510584.261,27.344,28.320,31.738,27.832,79.590
1532510584.265,32.227,24.902,29.297,28.809,0.000
1532510584.269,36.621,20.508,26.367,32.715,22.949
1532510584.273,39.062,17.578,31.738,25.879,9.277
1532510584.277,41.992,21.484,37.598,23.438,-18.066
1532510584.281,42.480,18.555,31.250,32.715,3.418
1532510584.285,38.574,18.066,25.879,27.344,-14.160
1532510584.289,38.574,23.438,28.320,28.809,83.496
1532510584.293,35.645,26.367,28.320,32.227,134.766
1532510584.297,45.898,27.832,30.762,24.414,53.711
1532510584.300,46.387,31.250,34.180,20.996,-43.457
1532510584.304,31.738,31.250,34.180,27.344,-25.391
1532510584.308,33.691,31.738,32.227,27.344,146.973
1532510584.312,31.250,33.691,27.344,15.625,47.363
1532510584.316,36.621,28.809,27.832,15.137,-152.832
1532510584.320,38.574,22.949,33.203,24.414,-10.254
1532510584.324,33.691,18.555,33.203,30.762,127.441
1532510584.328,38.086,20.996,26.855,37.109,120.117
1532510584.332,36.133,26.855,24.414,37.109,6.836
1532510584.336,39.062,29.785,28.809,32.227,-33.691
1532510584.340,43.457,25.391,27.344,32.715,105.469
1532510584.343,39.551,25.391,30.273,34.180,122.559
1532510584.347,40.039,31.250,36.133,32.227,-11.719
1532510584.351,41.504,27.344,33.691,29.297,-104.980
1532510584.355,44.922,23.926,30.762,28.320,-86.426
1532510584.359,48.340,28.320,32.227,30.273,95.215
1532510584.363,44.434,31.250,33.203,30.762,74.707
1532510584.367,43.457,29.297,33.691,29.297,-21.973
1532510584.371,44.434,30.273,31.250,24.902,17.090
1532510584.375,46.387,25.391,25.879,16.602,99.609
1532510584.379,46.875,26.367,20.508,13.672,98.145
1532510584.383,49.805,33.691,21.484,19.531,9.766
1532510584.386,48.828,36.133,29.785,24.414,33.203
1532510584.390,40.527,31.738,30.762,23.438,113.281
1532510584.394,39.551,23.926,29.297,31.250,73.242
1532510584.398,37.109,25.879,29.785,41.016,-35.645
1532510584.402,31.738,27.832,28.320,35.156,-26.855
1532510584.406,37.109,23.926,29.785,40.039,84.961
1532510584.410,43.945,25.391,31.250,52.246,147.461
1532510584.414,38.086,29.297,29.785,35.645,-49.805
1532510584.418,28.809,28.809,30.762,35.645,-144.043
1532510584.422,27.344,29.785,29.297,44.922,58.105
1532510584.425,32.715,29.785,23.438,36.133,150.879
1532510584.429,36.621,22.949,21.973,31.738,73.730
1532510584.433,31.250,22.461,24.902,30.762,-52.734
1532510584.437,35.156,31.738,27.344,34.180,8.301
1532510584.441,41.992,36.621,28.809,29.297,91.309
1532510584.445,41.992,36.133,25.879,24.902,45.410
1532510584.449,35.645,33.203,27.344,30.762,15.137
1532510584.453,35.156,28.809,29.297,29.297,-74.707
1532510584.457,36.621,28.320,28.320,24.902,-33.691
1532510584.461,32.227,30.273,24.902,30.762,105.469
1532510584.465,30.273,26.367,23.438,32.227,51.758
1532510584.468,28.809,24.414,28.809,37.109,21.484
1532510584.472,36.621,21.484,32.227,43.945,51.758
1532510584.476,29.297,21.484,34.668,43.457,108.398
1532510584.480,17.090,23.926,36.621,40.039,68.359
1532510584.484,23.438,21.973,35.156,39.062,-17.578
1532510584.488,29.297,23.926,27.832,41.992,7.324
1532510584.492,34.180,25.879,28.320,46.387,28.320
1532510584.496,34.668,29.785,31.738,41.992,0.000
1532510584.500,34.668,33.203,29.297,34.668,-28.809
1532510584.504,44.434,33.203,28.320,34.180,-1.465
1532510584.507,49.805,35.645,26.855,34.668,120.605
1532510584.511,42.480,36.621,29.297,35.156,90.820
1532510584.515,38.574,34.180,25.879,31.250,-81.543
1532510584.519,41.504,33.203,29.297,33.203,-54.199
1532510584.523,34.668,35.156,39.551,33.203,99.121
1532510584.527,36.133,31.738,41.016,32.227,153.809
1532510584.531,44.434,30.273,36.621,32.715,-7.812
1532510584.535,44.434,31.250,34.668,35.156,-112.305
1532510584.539,31.738,30.762,34.668,35.645,-16.602
1532510584.543,27.832,26.855,37.109,39.551,84.473
1532510584.547,33.691,22.461,40.527,45.898,54.199
1532510584.550,29.785,26.855,40.039,40.527,-29.785
1532510584.554,25.391,32.715,41.504,36.133,-22.461
1532510584.558,29.297,30.762,43.457,40.039,113.770
1532510584.562,29.785,28.320,39.551,40.527,107.422
1532510584.566,25.879,28.809,40.527,38.574,12.695
1532510584.570,20.996,28.809,41.504,37.109,20.020
1532510584.574,25.879,26.367,36.621,24.902,22.949
1532510584.578,33.691,25.391,37.598,24.902,67.871
1532510584.582,42.480,26.855,40.527,39.551,-9.277
1532510584.586,51.270,31.250,34.180,36.133,-90.820
1532510584.590,45.410,36.621,27.832,21.973,77.637
1532510584.593,51.758,39.062,28.809,9.277,57.617
1532510584.597,54.199,43.457,26.367,6.348,-77.637
1532510584.601,57.129,46.387,27.344,20.020,-26.855
1532510584.605,51.758,36.621,31.738,23.438,68.848
1532510584.609,38.574,27.832,29.785,23.926,147.949
1532510584.613,42.969,35.156,30.273,21.973,71.289
1532510584.617,37.109,42.969,26.855,17.578,-23.926
1532510584.621,41.016,41.504,20.508,20.996,15.625
1532510584.625,43.457,37.109,23.926,32.715,127.930
1532510584.629,32.715,28.320,32.715,35.156,62.500
1532510584.632,30.273,24.902,31.250,18.555,-166.504
1532510584.636,33.203,33.691,26.367,12.695,-186.523
1532510584.640,37.109,37.109,32.715,25.879,91.309
1532510584.644,34.180,31.738,33.203,32.715,160.156
1532510584.648,40.527,30.273,31.250,33.691,17.578
1532510584.652,48.828,32.715,35.156,37.598,-27.344
1532510584.656,35.156,30.762,34.180,38.086,71.777
1532510584.660,27.344,25.391,32.715,38.086,161.133
1532510584.664,33.203,30.273,32.227,45.410,61.035
1532510584.668,39.062,35.645,30.273,45.898,-6.836
1532510584.672,41.016,30.273,33.203,44.922,30.762
1532510584.675,43.945,27.344,36.133,52.734,69.824
1532510584.679,44.922,31.250,37.109,51.270,12.695
1532510584.683,38.574,27.344,36.621,50.293,-70.801
1532510584.687,44.922,27.832,32.227,56.641,32.227
1532510584.691,50.781,38.086,31.738,56.152,98.145
1532510584.695,50.293,37.109,36.133,50.293,-44.922
1532510584.699,51.758,35.156,38.574,54.688,-85.449
1532510584.703,48.828,37.109,37.109,51.270,7.812
1532510584.707,43.945,31.250,39.062,41.504,122.559
1532510584.711,39.551,22.949,41.992,44.434,128.906
1532510584.715,35.156,29.785,39.551,43.945,-18.066
1532510584.718,36.621,33.203,32.715,37.109,-14.160
1532510584.722,36.133,29.785,29.785,38.086,32.227
1532510584.726,36.621,33.203,31.738,42.969,97.168
1532510584.730,39.551,39.062,35.645,42.480,80.078
1532510584.734,40.527,36.621,37.109,30.273,-143.066
1532510584.738,39.551,26.367,42.969,29.297,-82.520
1532510584.742,38.086,23.926,44.922,39.062,155.762
1532510584.746,32.715,31.738,38.574,35.645,120.117
1532510584.750,34.180,38.574,39.551,30.273,-6.348
1532510584.754,39.062,36.133,39.062,29.785,-37.109
1532510584.757,38.086,28.809,37.109,32.715,86.914
1532510584.761,36.133,28.809,34.180,29.297,140.625
1532510584.765,37.109,36.621,34.668,34.180,-23.926
1532510584.769,40.527,35.645,37.109,35.645,-84.473
1532510584.773,41.992,32.227,37.109,26.855,-35.156
1532510584.777,37.598,32.227,37.109,28.320,3.906
1532510584.781,35.156,29.297,40.039,36.133,42.480
1532510584.785,33.691,29.785,43.457,36.133,17.090
1532510584.789,30.762,34.180,44.434,33.203,84.961
1532510584.793,38.086,31.250,42.969,36.621,120.605
1532510584.797,39.062,27.832,41.992,34.180,37.598
1532510584.800,35.645,32.227,38.086,33.203,-11.719
1532510584.804,34.668,31.738,34.180,39.551,45.898
1532510584.808,33.203,26.855,35.645,40.039,126.465
1532510584.812,36.133,29.785,36.133,41.992,66.895
1532510584.816,29.785,38.086,37.109,39.062,-87.402
1532510584.820,29.297,38.086,36.133,31.738,-74.707
1532510584.824,37.109,31.250,31.250,30.273,81.543
1532510584.828,37.109,26.367,32.715,34.180,142.090
1532510584.832,38.574,32.227,33.691,28.809,-12.695
1532510584.836,42.480,38.086,33.691,20.996,-130.371
1532510584.839,42.969,36.133,32.227,25.879,36.621
1532510584.843,45.898,36.133,34.180,31.738,161.133
1532510584.847,35.156,34.668,38.086,35.156,86.914
1532510584.851,28.320,29.297,37.598,33.203,-58.105
1532510584.855,42.480,33.203,35.645,34.180,1.953
1532510584.859,34.668,35.156,35.156,33.691,181.152
1532510584.863,20.996,32.715,36.133,31.738,35.645
1532510584.867,24.414,29.297,39.062,38.574,-102.539
1532510584.871,31.738,19.531,39.062,45.898,10.254
1532510584.875,35.156,22.949,35.645,26.367,14.160
1532510584.879,33.203,37.598,28.809,17.578,24.414
1532510584.882,38.086,35.645,27.344,30.762,24.414
1532510584.886,45.898,30.273,30.273,39.062,35.645
1532510584.890,40.527,33.203,30.273,36.621,121.094
1532510584.894,42.480,35.645,32.715,35.645,78.613
1532510584.898,46.875,36.133,29.785,37.598,19.531
1532510584.902,31.738,34.668,22.461,34.668,29.297
1532510584.906,28.320,33.203,27.344,35.156,125.488
1532510584.910,37.109,34.668,35.156,33.203,134.766
1532510584.914,31.738,29.785,39.062,30.762,-36.133
1532510584.918,28.809,28.809,39.062,30.273,-76.660
1532510584.922,31.738,32.715,37.109,28.809,46.387
1532510584.925,36.133,32.227,37.109,28.809,135.742
1532510584.929,33.203,31.738,35.645,31.738,102.539
1532510584.933,32.715,32.715,33.203,26.855,-70.801
1532510584.937,36.133,34.180,30.762,25.879,-58.594
1532510584.941,39.062,34.668,31.250,32.715,130.371
1532510584.945,45.410,32.715,28.320,30.273,120.605
1532510584.949,37.109,34.180,28.320,27.832,-7.324
1532510584.953,31.250,38.086,30.273,25.879,-31.738
1532510584.957,34.668,36.133,33.691,32.227,67.383
1532510584.961,41.016,29.297,37.109,38.086,81.055
1532510584.964,32.715,28.809,33.691,31.738,-18.066
1532510584.968,26.855,33.691,33.203,31.250,-11.719
1532510584.972,34.180,33.691,35.645,32.227,-3.418
1532510584.976,31.250,31.738,38.574,29.297,-5.371
1532510584.980,30.273,33.203,41.016,31.250,40.039
1532510584.984,27.344,33.691,37.598,27.832,19.531
1532510584.988,29.297,24.414,36.133,27.344,61.035
1532510584.992,31.250,17.578,34.668,31.738,109.863
1532510584.996,26.855,31.250,29.785,28.809,58.105
1532510585.000,37.109,43.457,31.250,28.320,18.555
1532510585.004,42.969,41.992,28.809,31.250,-8.301
1532510585.007,34.180,39.062,22.949,34.180,70.312
1532510585.011,36.133,37.598,28.320,31.250,97.168
1532510585.015,31.738,40.527,36.133,25.391,-98.633
1532510585.019,26.855,38.574,34.180,31.250,-86.426
1532510585.023,25.879,33.691,31.738,31.250,98.145
1532510585.027,23.438,32.715,27.832,25.879,179.688
1532510585.031,20.020,35.156,30.273,24.902,29.785
1532510585.035,20.996,32.715,34.180,26.367,-59.082
1532510585.039,28.809,21.484,32.715,31.738,86.426
1532510585.043,33.203,25.391,33.691,41.016,149.902
1532510585.047,31.250,30.762,34.180,41.016,70.801
1532510585.050,32.715,28.809,34.668,35.156,-47.363
1532510585.054,36.621,31.250,35.156,28.320,-136.719
1532510585.058,39.062,34.180,38.574,28.320,25.391
1532510585.062,39.062,33.691,36.621,31.250,117.676
1532510585.066,48.828,32.227,34.668,32.715,7.324
1532510585.070,49.316,32.227,40.039,31.250,-2.930
1532510585.074,34.180,30.762,40.527,24.902,45.898
1532510585.078,35.156,31.250,33.691,21.484,109.375
1532510585.082,35.645,33.203,28.809,20.508,47.363
1532510585.086,28.320,32.227,30.762,24.902,0.977
1532510585.089,30.273,27.344,26.367,29.785,99.121
1532510585.093,34.180,20.996,24.414,31.250,124.512
1532510585.097,26.367,25.391,23.926,29.297,-23.438
1532510585.101,22.949,34.668,19.531,29.785,-97.168
1532510585.105,30.762,34.180,23.438,33.691,27.344
1532510585.109,37.598,34.180,26.855,31.738,145.996
1532510585.113,38.574,38.086,22.949,23.926,-3.906
1532510585.117,37.109,36.133,22.461,23.438,-150.391
1532510585.121,38.574,32.227,23.438,31.738,23.926
1532510585.125,35.645,31.738,20.508,32.227,146.973
1532510585.129,38.086,34.668,23.438,27.832,106.445
1532510585.132,48.828,35.645,25.879,30.273,-14.648
1532510585.136,49.805,31.250,23.438,29.785,-11.719
1532510585.140,47.363,26.367,24.414,21.484,130.859
1532510585.144,45.898,27.344,25.391,18.555,98.145
1532510585.148,49.805,34.668,24.414,15.137,-21.973
1532510585.152,53.223,34.668,18.555,2.441,-71.289
1532510585.156,46.875,33.691,14.648,-9.766,-67.871
1532510585.160,57.129,38.574,13.672,6.348,96.191
1532510585.164,55.664,37.598,20.996,19.531,99.121
1532510585.168,30.762,28.809,33.203,16.602,17.578
1532510585.172,25.391,24.414,32.715,25.391,24.902
1532510585.175,23.926,21.973,31.738,38.086,83.008
1532510585.179,14.648,20.020,35.645,45.410,84.473
1532510585.183,16.113,19.043,33.203,46.387,4.395
1532510585.187,17.578,19.043,27.832,37.598,-12.695
1532510585.191,19.531,23.438,31.250,39.062,52.734
1532510585.195,16.602,21.484,39.062,40.039,-17.090
1532510585.199,21.484,14.160,41.992,44.922,-80.566
1532510585.203,31.738,14.648,38.574,56.152,6.836
1532510585.207,34.668,13.672,34.668,57.129,142.090
1532510585.211,37.109,13.672,35.645,53.223,145.508
1532510585.214,39.062,21.973,39.551,49.316,0.000
1532510585.218,32.715,31.250,37.598,48.828,-14.160
1532510585.222,25.879,30.273,34.668,48.340,65.918
1532510585.226,22.461,27.832,34.180,38.086,121.094
1532510585.230,24.902,30.762,32.715,32.715,64.941
1532510585.234,30.762,30.762,33.691,33.203,-35.645
1532510585.238,16.602,29.297,35.645,31.250,-15.137
1532510585.242,13.672,32.227,34.180,30.273,78.613
1532510585.246,20.020,33.691,30.273,23.438,101.562
1532510585.250,23.438,31.250,31.738,27.344,40.527
1532510585.254,27.344,33.203,33.203,30.273,-79.102
1532510585.257,30.273,30.762,31.250,27.832,-16.113
1532510585.261,33.691,29.785,28.320,30.273,119.141
1532510585.265,36.621,38.574,27.344,30.762,30.762
1532510585.269,42.969,43.945,30.762,34.668,-18.555
1532510585.273,40.039,41.992,31.738,33.203,49.316
1532510585.277,38.574,35.156,31.738,38.086,134.277
1532510585.281,33.691,36.133,32.227,44.434,36.133
1532510585.285,36.133,39.551,31.250,44.922,-80.078
1532510585.289,41.992,38.574,31.250,45.898,10.254
1532510585.293,37.109,38.574,31.738,41.992,94.727
1532510585.296,28.320,38.086,30.762,33.691,46.387
1532510585.300,30.273,38.574,31.250,33.203,-20.996
1532510585.304,33.691,37.109,30.762,39.551,14.160
1532510585.308,33.203,36.133,30.273,38.086,142.578
1532510585.312,35.156,32.715,26.367,30.273,62.988
1532510585.316,32.227,31.250,23.438,24.414,-141.602
1532510585.320,31.250,38.086,23.438,29.785,-60.059
1532510585.324,35.645,40.527,30.273,32.715,104.980
1532510585.328,42.480,38.086,35.645,35.645,136.719
1532510585.332,46.387,42.480,31.738,31.738,-23.926
1532510585.336,47.363,42.480,29.297,30.273,-140.625
1532510585.339,45.410,41.992,29.297,36.133,60.059
1532510585.343,42.969,40.039,27.344,33.691,160.645
1532510585.347,42.480,37.109,27.832,34.668,45.898
1532510585.351,45.410,33.691,27.832,33.691,-59.082
1532510585.355,47.852,30.762,27.832,32.715,-33.691
1532510585.359,45.410,37.109,28.320,33.203,113.770
1532510585.363,47.852,37.598,28.809,32.715,75.195
1532510585.367,46.387,21.973,31.738,36.133,-22.949
1532510585.371,38.086,22.949,33.691,36.133,-0.977
1532510585.375,40.039,39.551,30.762,34.180,103.027
1532510585.379,40.039,41.992,25.391,34.180,100.586
1532510585.382,40.039,37.109,22.949,37.598,-23.438
1532510585.386,39.551,35.156,24.414,35.156,12.695
1532510585.390,43.457,33.203,28.320,35.645,113.281
1532510585.394,46.387,34.668,31.738,30.273,13.672
1532510585.398,38.574,38.086,29.785,23.926,-91.797
1532510585.402,35.645,31.738,26.855,31.250,-22.461
1532510585.406,36.621,28.809,29.297,33.203,101.074
1532510585.410,41.016,31.738,29.297,34.668,175.293
1532510585.414,38.574,35.156,28.320,34.180,45.410
1532510585.418,35.156,32.715,25.879,32.715,-36.133
1532510585.421,27.832,19.043,25.391,28.809,49.316
1532510585.425,19.043,23.438,27.344,25.879,90.820
1532510585.429,29.785,36.621,27.344,29.785,40.039
1532510585.433,30.273,38.574,31.250,27.832,-60.547
1532510585.437,16.602,38.574,30.273,24.902,-27.832
1532510585.441,20.996,34.180,28.809,26.367,122.559
1532510585.445,20.996,33.691,31.250,19.531,119.141
1532510585.449,10.742,26.855,30.273,21.484,39.551
1532510585.453,23.438,22.949,33.691,30.762,-72.266
1532510585.457,36.621,29.785,27.832,33.691,-4.883
1532510585.461,30.273,37.598,22.461,25.391,151.855
1532510585.464,20.020,44.922,20.020,16.602,51.758
1532510585.468,30.273,40.039,21.973,24.902,-5.371
1532510585.472,42.480,25.879,28.809,28.809,11.230
1532510585.476,30.762,26.855,28.320,27.344,45.410
1532510585.480,30.273,39.551,26.367,29.785,40.039
1532510585.484,36.621,40.039,24.414,26.367,-37.109
1532510585.488,30.762,34.668,23.926,26.855,35.645
1532510585.492,34.180,32.227,22.461,27.832,106.934
1532510585.496,38.086,34.180,20.020,27.344,-14.160
1532510585.500,34.668,40.527,24.414,33.203,-34.180
1532510585.504,31.250,40.527,28.320,35.645,26.367
1532510585.507,32.227,34.668,26.855,39.062,131.836
1532510585.511,32.715,32.715,27.832,39.062,121.582
1532510585.515,33.691,33.203,29.297,41.016,-8.301
1532510585.519,40.527,28.809,31.738,47.363,-53.711
1532510585.523,41.992,23.926,32.715,46.875,6.836
1532510585.527,45.410,30.762,30.273,44.922,130.371
1532510585.531,42.480,35.645,25.391,35.645,22.949
1532510585.535,32.715,36.621,27.832,24.902,-172.363
1532510585.539,40.527,39.062,28.809,31.738,-29.785
1532510585.543,42.969,34.668,25.391,35.156,155.273
1532510585.546,40.527,30.273,28.809,40.039,93.750
1532510585.550,41.016,33.203,32.227,44.922,-25.879
1532510585.554,47.363,36.621,31.250,44.434,-24.414
1532510585.558,42.480,34.180,29.297,43.945,103.516
1532510585.562,33.203,29.297,32.227,39.551,104.980
1532510585.566,34.180,27.832,33.203,35.645,-46.875
1532510585.570,33.691,32.715,30.273,31.738,-66.406
1532510585.574,34.668,30.762,28.809,26.367,-34.668
1532510585.578,42.480,20.020,30.273,28.320,-1.953
1532510585.582,38.574,24.902,31.738,29.297,21.973
1532510585.586,23.926,35.156,31.250,25.879,-1.953
1532510585.589,27.832,36.133,30.273,31.738,91.309
1532510585.593,37.598,36.133,35.156,37.598,115.234
1532510585.597,37.598,33.203,35.645,38.574,44.434
1532510585.601,35.645,24.414,30.273,37.598,-19.531
1532510585.605,34.180,25.391,30.273,39.551,50.293
1532510585.609,33.691,30.273,31.738,38.086,120.117
1532510585.613,32.715,32.227,27.344,27.832,-27.832
1532510585.617,25.879,31.738,24.902,22.461,-92.773
1532510585.621,24.902,26.855,26.855,26.855,9.766
1532510585.625,31.738,22.461,23.438,32.715,126.953
1532510585.629,29.297,18.066,22.461,27.344,144.531
1532510585.632,18.555,25.879,23.438,20.020,-66.406
1532510585.636,23.438,29.785,20.996,21.973,-114.746
1532510585.640,37.598,29.785,26.367,32.715,99.609
1532510585.644,29.785,35.156,26.367,36.133,152.832
1532510585.648,29.785,31.250,24.414,29.785,39.062
1532510585.652,32.227,26.367,28.809,31.738,-39.551
1532510585.656,32.715,23.438,29.785,36.621,53.711
1532510585.660,38.574,27.832,27.344,30.762,107.910
1532510585.664,24.414,35.156,30.762,27.344,-19.531
1532510585.668,22.949,31.738,29.297,27.832,-67.383
1532510585.671,29.297,29.297,27.832,24.414,-25.391
1532510585.675,32.227,30.273,29.297,18.066,59.570
1532510585.679,31.250,24.414,27.832,22.461,83.008
1532510585.683,29.297,26.855,26.855,25.879,-18.555
1532510585.687,30.762,31.250,26.855,28.320,22.949
1532510585.691,32.227,25.879,27.344,32.227,97.656
1532510585.695,29.785,20.508,30.273,29.297,-10.254
1532510585.699,30.273,20.996,31.738,34.180,-62.500
1532510585.703,28.809,22.949,30.273,34.180,-9.766
1532510585.707,29.297,22.461,31.250,34.668,68.359
1532510585.711,29.785,16.113,33.203,38.574,62.988
1532510585.714,25.879,13.672,34.668,32.227,-145.996
1532510585.718,22.949,16.602,33.691,31.250,-141.602
1532510585.722,23.926,18.066,30.273,30.273,56.641
1532510585.726,30.762,23.438,22.949,27.832,130.859
1532510585.730,38.574,24.902,19.043,39.062,70.312
1532510585.734,33.691,20.508,24.414,38.574,-30.762
1532510585.738,17.090,16.602,29.785,31.250,48.340
1532510585.742,27.344,18.555,34.180,38.086,154.297
1532510585.746,43.945,26.367,32.715,46.875,102.539
1532510585.750,30.273,25.879,31.250,43.945,6.348
1532510585.753,25.391,20.020,33.691,39.062,-15.137
1532510585.757,29.785,19.043,26.855,36.133,56.641
1532510585.761,29.785,18.066,24.902,35.645,117.188
1532510585.765,28.809,18.066,29.297,27.832,33.691
1532510585.769,32.715,18.066,30.762,29.785,16.602
1532510585.773,41.016,13.672,30.762,32.227,10.254
1532510585.777,37.109,18.555,26.367,21.484,1.953
1532510585.781,26.855,22.461,23.438,20.996,21.484
1532510585.785,28.320,15.137,28.320,30.273,-35.156
1532510585.789,29.785,13.184,29.297,36.621,41.992
1532510585.793,26.367,20.020,26.367,33.691,114.746
1532510585.796,30.273,20.020,25.391,27.344,56.152
1532510585.800,33.203,19.043,24.902,23.926,-59.570
1532510585.804,30.273,19.531,27.344,26.367,-27.832
1532510585.808,30.762,16.113,30.273,28.320,178.223
1532510585.812,30.273,14.648,31.738,19.043,69.336
1532510585.816,24.414,20.020,27.832,13.672,-140.137
1532510585.820,29.785,19.531,23.438,25.879,-32.227
1532510585.824,36.621,12.695,26.367,26.367,106.934
1532510585.828,32.715,15.137,24.902,20.508,152.832
1532510585.832,33.203,14.160,21.973,28.809,12.695
1532510585.836,36.621,6.348,19.043,34.180,-55.664
1532510585.839,34.668,15.137,20.508,29.297,104.980
1532510585.843,27.832,19.531,27.344,21.973,181.152
1532510585.847,24.414,19.043,30.762,25.391,13.184
1532510585.851,24.902,17.090,30.762,30.762,-125.977
1532510585.855,24.902,12.207,32.227,27.344,-102.539
1532510585.859,20.508,14.160,30.762,25.879,54.199
1532510585.863,19.531,14.160,29.785,27.832,100.098
1532510585.867,24.414,14.648,33.203,28.809,22.949
1532510585.871,32.715,14.648,27.832,31.738,7.324
1532510585.875,38.574,10.254,21.484,30.762,93.750
1532510585.878,38.086,7.812,24.414,28.320,138.672
1532510585.882,38.574,6.348,31.738,28.809,24.902
1532510585.886,40.039,9.277,34.668,31.250,26.367
1532510585.890,35.156,6.348,31.250,36.621,96.680
1532510585.894,28.809,4.395,32.227,35.156,63.965
1532510585.898,27.832,10.254,31.738,35.156,-21.973
1532510585.902,28.809,7.812,25.879,36.621,-33.203
1532510585.906,26.855,6.836,22.949,28.809,122.559
1532510585.910,22.949,5.859,26.855,27.344,207.520
1532510585.914,19.531,3.418,36.133,24.902,-62.500
1532510585.918,18.555,5.371,37.109,24.902,-165.039
1532510585.921,14.160,5.371,30.273,35.156,53.711
1532510585.925,7.324,5.371,31.250,38.574,163.574
1532510585.929,0.000,2.441,34.668,51.270,106.934
1532510585.933,-0.977,1.465,32.715,47.852,-45.898
1532510585.937,5.371,7.812,31.250,34.668,-0.488
1532510585.941,17.090,6.348,28.809,41.992,89.844
1532510585.945,38.086,2.441,27.832,42.480,43.945
1532510585.949,46.875,4.395,29.785,39.551,20.996
1532510585.953,48.828,8.301,31.250,31.250,-54.688
1532510585.957,58.105,13.184,30.762,19.043,-35.645
1532510585.961,73.242,11.719,26.855,16.113,108.887
1532510585.964,77.637,12.207,24.414,11.719,64.453
1532510585.968,70.312,16.113,23.926,19.531,22.461
1532510585.972,64.941,16.113,24.414,21.973,66.895
1532510585.976,49.805,9.277,26.855,24.902,119.629
1532510585.980,47.363,4.395,31.738,47.363,76.660
1532510585.984,45.898,12.207,30.762,39.551,2.441
1532510585.988,36.621,13.672,26.367,25.391,30.273
1532510585.992,27.832,13.672,27.832,26.855,30.762
1532510585.996,17.090,14.648,31.250,18.555,-80.078
1532510586.000,21.484,10.742,26.855,33.691,-87.402
1532510586.003,20.020,8.301,20.020,38.086,-0.977
1532510586.007,7.812,10.254,20.508,29.785,139.160
1532510586.011,11.719,17.090,20.996,28.320,119.141
1532510586.015,16.113,19.531,24.414,36.133,-32.227
1532510586.019,11.230,15.137,25.391,38.086,5.371
1532510586.023,15.137,13.672,20.508,33.203,111.816
1532510586.027,22.949,15.625,22.949,31.738,156.738
1532510586.031,33.203,18.066,26.855,27.832,9.766
1532510586.035,36.133,20.508,24.414,27.832,-115.234
1532510586.039,40.039,20.996,26.855,34.668,11.230
1532510586.043,49.316,20.508,23.926,29.785,130.371
1532510586.046,47.852,19.531,22.949,21.484,87.402
1532510586.050,43.945,16.602,27.344,20.020,11.719
1532510586.054,45.410,12.207,25.391,18.555,-71.777
1532510586.058,39.062,15.137,25.879,21.973,34.180
1532510586.062,31.738,14.648,26.855,28.809,124.512
1532510586.066,27.344,8.789,24.902,34.180,31.250
1532510586.070,35.645,13.672,23.926,37.598,25.391
1532510586.074,36.621,19.043,23.926,42.480,84.473
1532510586.078,35.156,16.602,28.320,44.922,111.328
1532510586.082,36.621,19.531,32.227,41.016,-27.344
1532510586.085,35.645,19.043,29.785,31.738,-78.613
1532510586.089,42.480,13.184,26.367,32.227,89.355
1532510586.093,43.945,15.137,25.879,31.250,41.504
1532510586.097,39.551,20.508,25.391,27.832,-81.055
1532510586.101,29.297,18.555,21.973,33.691,-15.625
1532510586.105,31.738,9.766,20.020,26.855,59.570
1532510586.109,45.410,8.301,19.043,23.438,143.066
1532510586.113,41.016,8.789,22.949,34.668,75.195
1532510586.117,32.227,8.301,26.855,35.645,0.000
1532510586.121,39.062,10.742,25.879,29.297,49.805
1532510586.125,44.922,8.789,26.855,28.809,138.672
1532510586.128,46.875,7.812,23.926,30.762,116.699
1532510586.132,46.387,10.254,21.973,24.902,-93.750
1532510586.136,39.551,5.859,20.508,16.602,-149.414
1532510586.140,34.180,2.930,20.508,18.555,76.172
1532510586.144,35.156,7.812,22.461,22.949,159.668
1532510586.148,36.133,7.324,22.461,20.508,53.711
1532510586.152,41.992,3.418,25.879,27.344,-28.809
1532510586.156,42.480,1.953,25.391,36.621,55.664
1532510586.160,40.527,1.465,25.391,42.480,156.738
1532510586.164,41.992,4.883,29.297,38.086,57.617
1532510586.168,38.086,2.930,29.297,30.273,-7.812
1532510586.171,36.621,-0.488,27.344,27.344,39.551
1532510586.175,41.992,0.977,23.926,30.762,68.848
1532510586.179,42.969,-2.441,28.809,38.574,15.625
1532510586.183,51.270,-4.395,27.344,37.109,-47.852
1532510586.187,51.758,0.977,24.414,34.668,27.832
1532510586.191,43.945,6.348,27.832,27.344,107.422
1532510586.195,46.387,8.301,25.391,20.508,-11.719
1532510586.199,45.410,8.301,20.996,20.020,-98.145
1532510586.203,45.898,7.324,20.508,24.902,-12.695
1532510586.207,48.340,5.859,30.273,27.832,116.699
1532510586.210,47.363,13.184,32.227,27.832,104.492
1532510586.214,46.875,24.414,28.809,28.320,-23.926
1532510586.218,51.270,27.832,30.273,31.250,-28.320
1532510586.222,50.293,30.762,27.344,42.480,20.508
1532510586.226,43.457,32.715,25.879,41.016,64.941
1532510586.230,40.039,28.320,28.809,32.227,54.199
1532510586.234,39.062,28.320,26.855,28.320,-136.230
1532510586.238,50.781,31.250,22.461,36.621,-90.332
1532510586.242,59.570,35.645,28.320,46.387,104.980
1532510586.246,45.898,40.039,31.738,42.480,68.359
1532510586.250,35.156,42.969,29.785,33.691,-21.973
1532510586.253,44.434,38.574,28.320,30.762,-15.137
1532510586.257,46.875,31.250,24.902,34.668,101.074
1532510586.261,42.480,39.062,23.926,32.715,128.418
1532510586.265,41.016,46.875,23.438,28.320,49.316
1532510586.269,42.480,48.340,24.414,24.902,-31.250
1532510586.273,36.133,49.805,26.367,23.926,-2.930
1532510586.277,36.133,45.898,28.320,26.855,96.680
1532510586.281,44.434,39.551,28.320,32.715,35.156
1532510586.285,40.039,41.016,25.879,29.297,-24.902
1532510586.289,30.762,39.551,29.297,24.414,87.402
1532510586.293,27.832,42.480,27.832,23.926,65.430
1532510586.296,23.438,45.410,28.320,24.902,-76.660
1532510586.300,30.762,39.062,34.668,32.227,-41.504
1532510586.304,39.062,40.527,31.250,32.715,34.668
1532510586.308,35.645,40.039,31.250,30.273,106.934
1532510586.312,30.273,36.133,33.203,36.133,55.664
1532510586.316,25.391,43.945,29.297,34.668,-87.891
1532510586.320,25.879,49.805,27.344,32.715,-75.684
1532510586.324,33.691,47.363,32.715,38.574,40.527
1532510586.328,43.457,46.387,31.250,41.992,125.977
1532510586.332,40.527,48.340,27.832,37.109,16.602
1532510586.335,31.250,47.852,29.785,28.320,-148.926
1532510586.339,40.039,40.527,28.320,28.809,29.297
1532510586.343,41.504,38.574,29.785,29.297,164.551
1532510586.347,31.738,42.480,33.203,31.738,77.637
1532510586.351,40.527,42.480,36.133,24.414,-19.531
1532510586.355,37.109,42.969,32.715,18.555,-5.371
1532510586.359,26.367,40.527,27.344,33.203,119.141
1532510586.363,25.879,39.062,30.762,33.203,28.320
1532510586.367,24.902,46.875,30.762,30.273,-81.055
1532510586.371,26.855,50.781,31.250,33.203,-13.184
1532510586.375,32.715,48.828,31.250,31.250,-19.043
1532510586.378,28.320,46.387,27.832,29.297,-7.324
1532510586.382,32.227,42.969,33.691,30.273,1.953
1532510586.386,35.156,35.156,37.109,32.227,24.414
1532510586.390,25.391,36.621,35.645,38.086,120.117
1532510586.394,27.344,42.480,34.668,38.574,121.094
1532510586.398,26.855,41.016,28.320,30.762,25.391
1532510586.402,28.320,40.039,26.855,26.367,-30.273
1532510586.406,33.691,37.109,31.738,31.250,60.059
1532510586.410,31.738,36.133,30.762,30.762,121.094
1532510586.414,27.832,44.434,30.273,21.973,-54.199
1532510586.418,24.414,48.340,30.762,20.020,-152.344
1532510586.421,30.273,43.457,28.809,24.414,-1.465
1532510586.425,25.879,40.527,26.855,22.949,115.234
1532510586.429,20.020,38.086,28.809,20.996,85.449
1532510586.433,27.344,31.738,31.738,23.438,-60.059
1532510586.437,26.855,35.645,31.250,32.715,-28.320
1532510586.441,28.320,40.039,33.691,34.180,125.977
1532510586.445,26.367,31.738,32.227,25.879,115.234
1532510586.449,20.020,37.109,30.762,34.180,9.277
1532510586.453,27.832,41.992,31.738,40.039,-2.930
1532510586.457,38.086,33.203,34.180,37.598,50.293
1532510586.460,37.598,30.762,38.086,42.480,50.781
1532510586.464,33.691,41.016,39.551,34.180,-29.785
1532510586.468,26.855,48.340,34.180,19.043,3.906
1532510586.472,26.367,46.875,25.391,19.043,9.277
1532510586.476,29.785,44.922,26.855,22.949,-3.906
1532510586.480,24.414,44.922,31.738,26.367,60.547
1532510586.484,22.461,41.992,31.250,27.832,10.254
1532510586.488,26.367,38.086,29.785,25.879,46.875
1532510586.492,29.297,37.109,30.762,27.344,82.031
1532510586.496,33.691,43.945,32.227,30.273,19.043
1532510586.500,32.227,43.457,31.738,30.273,-13.672
1532510586.503,36.621,38.574,32.715,36.621,-36.133
1532510586.507,43.945,40.527,32.715,43.457,52.246
1532510586.511,43.457,43.945,33.203,40.039,72.754
1532510586.515,39.551,44.922,33.691,30.762,-106.934
1532510586.519,43.457,42.969,36.133,34.668,-80.566
1532510586.523,43.945,39.062,37.109,43.945,115.723
1532510586.527,43.945,41.504,34.668,42.480,172.363
1532510586.531,46.387,48.828,33.691,40.039,26.855
1532510586.535,44.922,45.898,33.691,42.969,-84.961
1532510586.539,47.363,39.062,29.785,43.945,45.410
1532510586.542,45.410,42.969,29.297,44.434,168.457
1532510586.546,37.598,46.387,27.832,36.621,88.379
1532510586.550,37.598,41.016,26.855,37.109,-53.223
1532510586.554,44.434,41.504,32.227,35.156,-107.910
1532510586.558,45.410,44.922,32.715,32.715,43.945
1532510586.562,37.598,44.922,28.809,37.109,131.836
1532510586.566,40.039,41.992,32.715,38.574,24.902
1532510586.570,42.480,36.133,37.598,38.086,29.785
1532510586.574,40.039,36.133,38.086,33.691,102.539
1532510586.578,37.109,34.180,34.668,34.668,115.234
1532510586.582,41.992,35.645,31.250,39.551,16.602
1532510586.585,42.969,38.086,30.762,41.992,-8.789
1532510586.589,34.180,35.156,31.250,42.969,94.238
1532510586.593,42.969,34.668,34.668,35.645,122.559
1532510586.597,41.992,42.480,37.109,36.133,0.977
1532510586.601,26.855,43.457,31.250,32.715,-83.984
1532510586.605,28.320,40.039,26.855,25.391,-20.996
1532510586.609,36.133,37.598,30.273,30.273,135.254
1532510586.613,35.645,38.574,33.203,28.320,45.410
1532510586.617,36.621,39.551,32.227,25.879,-134.277
1532510586.621,44.922,35.156,31.250,36.621,-7.324
1532510586.625,46.875,31.738,32.227,40.039,144.531
1532510586.628,42.480,36.133,32.227,35.156,105.469
1532510586.632,31.250,37.109,26.855,29.297,-51.758
1532510586.636,27.344,35.156,24.902,27.832,-27.832
1532510586.640,35.645,40.039,28.320,29.785,124.023
1532510586.644,41.992,33.691,29.785,34.180,89.844
1532510586.648,40.039,26.855,33.203,44.434,-20.508
1532510586.652,33.691,34.180,36.133,37.598,-57.617
1532510586.656,33.691,41.016,33.203,32.227,-37.109
1532510586.660,39.551,39.551,25.879,37.598,106.934
1532510586.664,39.551,39.551,27.832,38.574,55.664
1532510586.667,37.109,41.992,34.668,41.016,-9.277
1532510586.671,38.574,39.062,33.203,45.410,44.922
1532510586.675,41.992,29.785,28.320,41.504,105.957
1532510586.679,35.156,30.273,28.809,33.691,113.770
1532510586.683,34.668,31.738,27.344,41.504,4.883
1532510586.687,39.551,31.738,25.879,44.922,39.062
1532510586.691,43.457,38.086,30.273,37.109,115.723
1532510586.695,38.574,35.156,31.738,31.250,4.395
1532510586.699,38.086,28.809,29.785,35.156,-53.711
1532510586.703,46.387,30.273,31.738,50.293,-5.859
1532510586.707,40.527,28.320,32.715,44.434,106.934
1532510586.710,34.180,22.949,37.109,31.250,143.066
1532510586.714,32.715,24.414,39.551,36.621,-8.301
1532510586.718,42.969,29.785,34.180,34.668,-24.902
1532510586.722,39.062,31.738,31.250,34.668,91.309
1532510586.726,27.832,29.297,33.203,33.203,157.227
1532510586.730,31.250,25.879,32.227,30.762,62.988
1532510586.734,39.551,25.879,29.785,37.109,-35.156
1532510586.738,41.992,25.391,32.227,40.039,-9.277
1532510586.742,40.527,24.414,31.250,40.039,66.406
1532510586.746,43.457,23.926,32.715,37.109,89.355
1532510586.750,42.480,33.691,37.109,35.645,26.367
1532510586.753,38.086,33.691,33.691,25.879,-88.379
1532510586.757,38.086,25.391,28.809,22.949,-22.461
1532510586.761,45.898,29.297,28.809,29.785,135.742
1532510586.765,54.688,29.785,34.180,23.926,49.805
1532510586.769,63.965,27.344,35.156,20.996,6.836
1532510586.773,61.523,31.250,31.738,22.461,86.426
1532510586.777,51.270,22.949,32.227,26.855,142.090
1532510586.781,45.410,16.602,35.156,35.156,63.965
1532510586.785,37.109,22.461,37.598,41.016,-64.453
1532510586.789,27.832,26.367,35.156,47.363,17.578
1532510586.792,23.438,22.461,34.668,41.992,57.129
1532510586.796,23.926,16.113,36.133,28.320,-83.984
1532510586.800,14.160,23.926,30.762,23.438,-56.152
1532510586.804,16.602,32.227,31.738,32.227,60.547
1532510586.808,25.879,28.320,33.203,40.527,172.363
1532510586.812,33.203,27.832,33.203,40.527,102.051
1532510586.816,27.832,27.344,32.715,40.527,-22.461
1532510586.820,30.762,23.926,30.273,35.156,43.457
1532510586.824,40.527,25.391,27.344,33.203,121.582
1532510586.828,36.133,23.926,30.273,37.109,131.836
1532510586.832,45.898,20.508,33.691,41.992,-28.320
1532510586.835,51.270,26.367,34.180,41.992,-148.438
1532510586.839,37.598,26.367,32.227,44.434,61.035
1532510586.843,36.133,22.461,31.738,46.387,162.109
1532510586.847,46.875,21.484,34.668,46.387,72.266
1532510586.851,48.340,28.809,38.086,49.805,-57.129
1532510586.855,49.805,34.180,38.574,49.316,-49.316
1532510586.859,56.641,29.297,34.668,52.734,103.027
1532510586.863,62.500,33.691,31.250,52.734,79.102
1532510586.867,61.035,40.527,33.203,52.734,-26.367
1532510586.871,49.805,38.086,30.273,47.852,-15.625
1532510586.875,46.875,33.203,27.832,42.480,80.078
1532510586.878,51.270,29.785,29.297,42.969,40.039
1532510586.882,44.922,24.414,28.320,43.457,-92.285
1532510586.886,50.293,21.973,24.414,47.852,-27.832
1532510586.890,52.246,27.832,25.391,47.363,103.516
1532510586.894,41.992,28.809,26.367,34.180,-11.230
1532510586.898,39.551,21.973,19.043,36.621,-104.004
1532510586.902,42.480,23.438,18.555,41.504,10.742
1532510586.906,46.875,30.762,19.043,37.598,88.379
1532510586.910,49.316,29.297,16.113,41.992,152.832
1532510586.914,42.969,22.949,17.578,44.922,58.105
1532510586.917,49.316,27.832,19.531,43.457,-34.180
1532510586.921,53.223,32.715,16.602,39.551,75.684
1532510586.925,42.969,27.832,17.090,41.016,134.766
1532510586.929,28.320,23.438,20.508,40.527,59.082
1532510586.933,25.879,26.855,20.020,26.855,-115.234
1532510586.937,39.062,24.414,17.578,23.926,-138.672
1532510586.941,47.363,20.508,14.648,33.203,84.473
1532510586.945,41.504,25.879,14.648,36.133,117.676
1532510586.949,29.297,22.949,19.531,29.785,0.000
1532510586.953,30.762,23.438,23.926,27.344,-57.617
1532510586.957,37.109,30.273,21.484,30.762,52.734
1532510586.960,39.062,28.320,22.949,30.762,144.531
1532510586.964,36.133,18.555,26.855,38.086,62.500
1532510586.968,33.691,21.484,26.855,46.387,10.742
1532510586.972,40.527,29.297,25.391,34.668,14.160
1532510586.976,35.156,33.691,21.973,19.043,55.664
1532510586.980,29.785,35.645,15.625,20.020,36.133
1532510586.984,41.016,28.320,14.160,32.715,-42.969
1532510586.988,40.527,26.855,15.137,29.297,44.434
1532510586.992,32.227,34.668,16.113,21.484,92.773
1532510586.996,33.203,32.227,16.602,23.926,-16.602
1532510586.999,28.320,30.762,15.625,16.602,-26.367
1532510587.003,32.227,35.156,16.113,17.578,12.695
1532510587.007,34.180,29.297,19.043,24.902,111.328
1532510587.011,33.691,22.461,20.996,27.832,116.211
1532510587.015,37.598,23.926,23.438,25.391,-15.625
1532510587.019,37.598,25.879,27.344,26.855,-52.734
1532510587.023,41.016,25.879,28.320,34.668,10.254
1532510587.027,41.016,28.809,31.738,39.551,105.469
1532510587.031,38.574,31.250,33.203,37.598,56.641
1532510587.035,36.621,26.367,28.320,28.320,-128.906
1532510587.039,35.645,22.949,28.320,33.203,-28.320
1532510587.042,34.668,26.367,30.762,41.504,150.879
1532510587.046,40.527,32.715,32.227,39.062,63.477
1532510587.050,37.598,32.227,32.715,34.668,-26.855
1532510587.054,24.902,27.344,32.715,29.785,1.953
1532510587.058,33.691,23.926,29.785,37.598,127.441
1532510587.062,25.391,20.508,23.926,35.156,127.441
1532510587.066,21.973,19.043,25.391,27.832,-31.250
1532510587.070,36.621,20.508,27.832,38.086,-62.988
1532510587.074,34.668,25.391,32.715,39.062,-30.762
1532510587.078,29.297,29.785,32.715,33.203,2.930
1532510587.082,38.086,33.203,26.367,36.133,52.734
1532510587.085,34.668,29.297,26.855,36.621,-10.742
1532510587.089,24.414,25.391,28.320,27.832,69.824
1532510587.093,24.414,25.391,28.320,25.879,150.879
1532510587.097,34.668,26.855,29.297,28.809,35.645
1532510587.101,43.457,26.367,29.297,37.109,-34.668
1532510587.105,30.762,16.113,27.832,38.574,62.012
1532510587.109,29.785,20.508,26.855,28.320,165.039
1532510587.113,32.227,35.645,28.809,25.879,46.387
1532510587.117,32.715,33.203,26.367,26.367,-83.984
1532510587.121,37.598,22.949,24.902,28.320,-5.859
1532510587.124,39.062,24.902,29.297,31.738,111.328
1532510587.128,48.828,27.832,31.738,36.621,155.762
1532510587.132,45.898,29.297,29.785,33.691,-15.137
1532510587.136,38.574,29.297,28.320,30.762,-111.328
1532510587.140,37.598,25.879,29.297,36.133,87.402
1532510587.144,39.062,28.320,30.273,28.320,160.645
1532510587.148,41.504,22.461,33.203,25.391,57.129
1532510587.152,38.086,12.695,35.645,28.320,-48.340
1532510587.156,35.156,24.902,34.668,28.320,60.059
1532510587.160,39.062,37.598,35.156,36.133,127.441
1532510587.164,43.457,34.668,35.645,35.645,-8.301
1532510587.167,45.410,29.297,38.574,37.598,-25.391
1532510587.171,48.828,25.879,36.133,39.551,15.625
1532510587.175,32.715,29.297,30.273,31.250,-8.301
1532510587.179,27.832,32.715,28.809,28.809,39.551
1532510587.183,37.109,30.273,33.691,34.180,23.926
1532510587.187,36.133,29.785,35.645,39.062,43.457
1532510587.191,39.062,34.668,32.227,31.738,130.859
1532510587.195,38.574,33.203,33.203,32.715,71.289
1532510587.199,26.855,30.273,34.180,40.527,-6.836
1532510587.203,30.273,33.691,31.738,31.738,0.977
1532510587.207,31.250,29.785,32.227,29.785,53.223
1532510587.210,32.227,26.367,35.645,31.250,78.613
1532510587.214,31.250,32.715,30.762,29.785,-81.543
1532510587.218,20.996,34.668,27.344,30.762,-103.027
1532510587.222,25.391,26.855,30.273,29.297,79.590
1532510587.226,28.320,24.902,36.133,34.668,136.719
1532510587.230,26.367,27.832,32.715,37.598,75.195
1532510587.234,32.715,28.809,28.809,39.551,-39.062
1532510587.238,37.109,31.738,29.785,41.016,33.691
1532510587.242,39.062,37.109,33.691,41.016,181.641
1532510587.246,35.156,33.203,36.133,40.527,115.723
1532510587.249,31.738,24.414,33.203,30.273,4.395
1532510587.253,33.203,26.367,30.273,26.367,-45.410
1532510587.257,32.715,25.879,27.832,32.715,46.387
1532510587.261,35.156,22.461,25.879,34.668,129.395
1532510587.265,40.039,29.785,24.902,31.250,3.906
1532510587.269,39.062,36.621,24.902,29.297,-2.930
1532510587.273,35.156,34.668,22.949,23.438,-9.277
1532510587.277,33.691,30.273,22.949,16.602,-6.836
1532510587.281,32.227,33.203,20.020,21.973,37.598
1532510587.285,36.133,35.156,16.602,31.250,-29.785
1532510587.289,31.250,28.809,16.113,28.809,42.480
1532510587.292,27.832,26.367,20.020,26.855,118.164
1532510587.296,36.133,27.832,24.414,31.738,22.461
1532510587.300,37.109,31.250,22.461,27.832,-91.797
1532510587.304,30.273,34.668,22.461,30.273,-58.105
1532510587.308,33.691,35.156,22.949,29.785,118.652
1532510587.312,34.180,33.691,15.137,23.438,54.199
1532510587.316,34.668,30.273,12.207,31.250,-155.273
1532510587.320,46.387,29.785,21.484,39.551,-44.434
1532510587.324,44.434,31.250,23.438,43.457,114.258
1532510587.328,29.297,33.203,18.555,40.039,151.367
1532510587.331,29.297,35.645,15.137,30.762,10.254
1532510587.335,26.367,40.039,15.625,23.438,-79.102
1532510587.339,29.785,33.691,16.113,16.602,75.195
1532510587.343,36.133,25.391,10.742,20.508,163.086
1532510587.347,35.645,31.250,9.766,27.344,29.785
1532510587.351,37.109,37.598,11.230,24.902,-96.191
1532510587.355,41.504,36.621,12.695,22.949,-104.980
1532510587.359,41.504,39.062,15.625,25.391,52.734
1532510587.363,42.969,37.598,14.160,20.996,98.145
1532510587.367,42.969,32.715,14.648,23.926,-10.742
1532510587.371,41.016,32.227,13.184,31.738,17.090
1532510587.374,39.062,30.762,10.254,33.203,79.102
1532510587.378,45.410,35.156,14.160,36.621,78.125
1532510587.382,50.293,35.645,12.695,45.898,7.812
1532510587.386,39.062,33.203,10.254,52.734,-9.277
1532510587.390,36.621,34.668,13.672,41.016,91.309
1532510587.394,35.156,26.367,12.695,27.344,76.172
1532510587.398,30.273,28.809,13.184,28.809,-62.500
1532510587.402,30.273,37.598,15.625,30.273,-49.316
1532510587.406,34.180,32.715,14.648,31.250,81.543
1532510587.410,30.273,32.715,13.672,33.203,172.363
1532510587.414,28.320,36.621,11.230,25.879,-22.949
1532510587.417,29.785,34.668,9.277,23.438,-154.297
1532510587.421,24.902,28.809,10.254,32.715,42.480
1532510587.425,27.832,30.273,8.301,33.203,159.180
1532510587.429,31.250,35.645,9.766,34.668,102.051
1532510587.433,30.762,29.785,15.625,36.621,-61.523
1532510587.437,32.227,25.879,11.719,34.180,-22.461
1532510587.441,33.691,35.156,10.742,37.109,80.566
1532510587.445,28.320,32.227,11.719,36.133,62.500
1532510587.449,27.344,23.926,11.719,37.598,25.879
1532510587.453,36.621,28.320,13.672,36.133,-74.707
1532510587.456,46.387,32.715,9.766,28.320,-45.898
1532510587.460,30.273,32.227,10.742,30.762,115.723
1532510587.464,22.461,29.297,15.625,27.344,47.852
1532510587.468,31.250,26.855,13.672,23.438,-5.859
1532510587.472,26.367,28.320,10.742,24.414,63.965
1532510587.476,24.414,27.832,11.230,26.367,126.953
1532510587.480,30.273,20.020,14.648,29.297,94.238
1532510587.484,34.668,16.113,13.672,31.250,-11.719
1532510587.488,26.367,15.625,7.324,33.203,-2.930
1532510587.492,20.508,18.555,8.301,28.809,55.176
1532510587.496,21.484,23.438,6.348,12.207,-16.602
1532510587.499,25.391,25.391,-6.836,10.742,-55.176
1532510587.503,36.621,19.531,-8.301,28.320,17.578
1532510587.507,23.438,4.395,3.906,23.926,106.934
1532510587.511,9.766,5.371,3.906,11.230,67.383
1532510587.515,16.113,20.996,0.488,17.578,-51.270
1532510587.519,20.996,17.578,1.953,16.113,-9.766
1532510587.523,17.090,8.789,4.395,13.672,96.680
1532510587.527,7.812,11.230,7.324,17.090,148.926
1532510587.531,8.789,12.207,15.625,17.578,44.434
1532510587.535,15.625,12.695,13.184,12.695,-87.891
1532510587.539,30.762,17.578,2.930,2.930,-17.578
1532510587.542,36.621,16.602,3.418,2.441,110.840
1532510587.546,42.969,11.230,11.230,10.254,99.609
1532510587.550,48.340,14.160,15.625,12.207,-2.441
1532510587.554,38.086,17.090,15.625,5.859,-108.887
1532510587.558,34.180,16.113,12.695,7.812,4.395
1532510587.562,30.762,16.602,13.184,18.555,107.910
1532510587.566,24.414,10.742,15.137,30.273,23.438
1532510587.570,17.578,9.766,12.695,35.156,7.812
1532510587.574,23.926,21.484,15.137,37.598,63.965
1532510587.578,26.367,26.855,20.508,40.039,106.934
1532510587.581,14.648,27.832,19.043,35.645,-42.969
1532510587.585,14.160,25.391,20.020,37.109,-86.426
1532510587.589,29.297,24.414,27.344,38.574,103.027
1532510587.593,31.250,25.879,27.832,34.668,93.750
1532510587.597,27.832,25.391,24.414,31.250,-63.965
1532510587.601,36.133,25.391,24.902,33.203,-39.062
1532510587.605,37.109,26.367,22.949,38.086,80.078
1532510587.609,42.969,29.785,25.391,45.410,178.711
1532510587.613,49.805,30.273,27.344,39.062,43.945
1532510587.617,42.969,25.391,20.508,33.203,-96.680
1532510587.621,41.016,20.020,21.973,44.434,13.184
1532510587.624,40.527,28.809,25.391,45.410,130.371
1532510587.628,37.109,36.133,22.461,39.062,98.145
1532510587.632,37.109,34.668,21.484,32.715,-90.820
1532510587.636,31.738,34.180,20.020,27.832,-144.043
1532510587.640,36.621,34.668,16.602,32.715,67.383
1532510587.644,34.180,34.180,16.602,33.203,135.254
1532510587.648,36.133,30.273,18.066,34.180,44.434
1532510587.652,36.133,26.367,21.484,40.039,-35.645
1532510587.656,36.133,24.902,22.949,43.945,35.645
1532510587.660,41.504,29.785,25.879,37.109,158.691
1532510587.664,42.969,35.645,23.926,36.133,74.219
1532510587.667,42.480,34.180,16.602,43.945,-7.812
1532510587.671,33.203,24.902,17.578,37.109,8.789
1532510587.675,29.785,20.508,14.648,30.762,64.941
1532510587.679,41.992,30.762,16.602,35.645,34.180
1532510587.683,39.062,35.645,25.879,35.156,-75.195
1532510587.687,23.926,32.227,25.391,31.738,4.395
1532510587.691,30.273,28.320,21.484,33.203,121.094
1532510587.695,34.180,26.855,21.973,27.344,1.953
1532510587.699,34.180,25.391,22.949,30.762,-69.336
1532510587.703,34.668,22.949,18.555,34.180,-14.160
1532510587.706,33.203,22.461,16.602,28.809,94.238
1532510587.710,34.180,22.461,23.926,30.273,133.301
1532510587.714,29.297,28.320,28.809,29.297,-7.812
1532510587.718,24.414,33.203,24.414,30.273,-58.105
1532510587.722,30.273,31.738,21.973,31.250,-11.719
1532510587.726,29.785,29.297,26.855,33.203,69.824
1532510587.730,32.227,28.320,27.832,35.156,69.336
1532510587.734,33.203,25.879,25.879,31.250,-142.090
1532510587.738,29.297,23.926,24.902,30.762,-106.934
1532510587.742,30.762,21.973,25.879,28.809,125.977
1532510587.746,28.320,23.438,24.902,25.391,102.051
1532510587.749,27.832,19.531,23.926,30.273,15.625
1532510587.753,28.320,18.066,26.855,34.180,20.996
1532510587.757,22.949,25.391,27.832,24.414,134.277
1532510587.761,27.344,27.832,24.414,19.043,130.371
1532510587.765,32.227,25.879,22.461,27.344,25.391
1532510587.769,26.367,21.484,18.555,28.809,-22.949
1532510587.773,28.320,23.438,16.113,33.203,-22.461
1532510587.777,35.156,28.809,27.344,35.156,79.102
1532510587.781,32.715,28.809,31.738,28.809,67.871
1532510587.785,31.738,27.832,26.367,34.668,19.531
1532510587.788,36.133,25.879,25.879,36.133,103.027
1532510587.792,31.738,26.855,26.855,27.344,95.215
1532510587.796,20.508,24.902,26.367,27.344,5.371
1532510587.800,21.484,23.438,22.949,33.691,-14.160
1532510587.804,26.855,29.297,22.461,28.809,44.922
1532510587.808,31.250,35.645,24.902,22.949,162.109
1532510587.812,51.758,37.109,17.090,41.016,97.168
1532510587.816,59.082,30.273,19.531,56.152,-83.984
1532510587.820,20.020,25.879,32.227,30.762,-87.402
1532510587.824,-6.836,33.203,34.668,7.812,56.152
1532510587.828,7.812,30.273,31.250,14.160,120.117
1532510587.831,17.090,22.949,24.902,24.902,-28.809
1532510587.835,10.742,25.879,27.832,23.926,-85.449
1532510587.839,1.953,25.391,26.367,17.090,76.172
1532510587.843,-6.348,20.020,23.926,13.672,128.906
1532510587.847,-5.859,20.508,34.668,19.531,75.684
1532510587.851,0.488,19.531,39.062,20.996,-4.395
1532510587.855,-2.441,18.555,34.180,9.277,-37.109
1532510587.859,-5.859,19.043,31.250,10.254,110.352
1532510587.863,6.836,13.672,33.691,25.879,70.312
1532510587.867,14.160,12.695,35.645,31.250,-65.918
1532510587.871,23.926,18.066,33.203,31.738,19.043
1532510587.874,27.832,17.578,33.691,30.762,-3.906
1532510587.878,17.090,17.578,35.156,24.902,-60.059
1532510587.882,18.555,18.555,32.227,28.320,-4.883
1532510587.886,27.344,17.090,32.715,41.992,48.340
1532510587.890,27.832,20.996,29.785,42.480,104.980
1532510587.894,26.855,22.949,27.832,37.109,105.469
1532510587.898,28.809,21.484,30.762,34.180,44.434
1532510587.902,29.297,20.508,26.855,35.645,4.883
1532510587.906,29.785,20.508,25.879,40.039,89.844
1532510587.910,27.344,16.113,26.367,36.133,129.883
1532510587.913,33.691,15.137,27.344,33.203,-90.820
1532510587.917,35.156,18.555,31.738,36.621,-180.664
1532510587.921,28.320,21.973,28.809,36.621,36.133
1532510587.925,40.527,28.320,27.344,34.180,167.480
1532510587.929,41.992,26.855,31.738,32.227,83.496
1532510587.933,22.461,21.973,31.250,24.902,-68.359
1532510587.937,18.555,20.020,27.832,22.461,-0.977
1532510587.941,22.949,16.602,31.250,28.809,157.715
1532510587.945,25.391,15.137,32.227,34.180,144.531
1532510587.949,29.297,24.902,28.809,41.504,33.203
1532510587.953,32.715,28.320,31.738,44.434,-20.508
1532510587.956,39.551,24.902,34.180,46.387,22.461
1532510587.960,37.109,27.344,36.133,47.852,65.430
1532510587.964,32.227,27.832,32.227,38.086,27.344
1532510587.968,34.668,25.391,28.809,38.574,35.645
1532510587.972,35.645,29.297,29.785,36.133,14.648
1532510587.976,39.062,31.738,29.297,29.297,-7.324
1532510587.980,42.969,27.832,33.691,37.109,20.996
1532510587.984,35.645,30.273,36.621,42.969,-6.836
1532510587.988,36.621,34.180,34.180,41.016,63.477
1532510587.992,43.945,35.645,35.156,42.969,115.723
1532510587.996,41.016,35.156,36.621,42.480,79.102
1532510587.999,38.086,36.621,35.156,40.039,42.480
1532510588.003,36.621,32.715,30.273,39.551,-22.461
1532510588.007,36.133,24.902,28.320,36.621,60.547
1532510588.011,35.156,30.273,30.273,30.762,92.773
1532510588.015,33.691,36.133,27.832,24.414,-113.281
1532510588.019,31.250,30.273,25.879,26.855,-79.590
1532510588.023,31.250,28.320,28.809,29.785,99.121
1532510588.027,27.344,33.203,29.297,29.785,171.387
1532510588.031,31.250,38.574,22.949,30.762,51.270
1532510588.035,41.504,34.180,22.461,35.645,-52.734
1532510588.038,39.551,29.297,34.180,42.969,68.359
1532510588.042,26.367,34.668,39.551,34.668,139.160
1532510588.046,22.461,37.109,35.645,26.855,75.684
1532510588.050,26.367,33.691,39.062,31.250,-55.176
1532510588.054,18.066,32.715,41.992,20.996,-136.230
1532510588.058,13.672,26.367,44.922,24.902,11.719
1532510588.062,15.137,23.438,49.316,30.762,119.629
1532510588.066,10.742,28.809,47.852,20.508,38.574
1532510588.070,-2.441,29.297,48.340,20.996,25.391
1532510588.074,1.465,29.297,51.270,25.391,113.281
1532510588.078,-0.488,26.855,53.223,19.043,170.898
1532510588.081,-11.230,22.461,55.176,14.648,60.059
1532510588.085,-2.441,16.602,57.617,26.855,-7.812
1532510588.089,-8.301,12.695,59.082,20.020,88.867
1532510588.093,-9.277,16.113,57.129,22.949,135.254
1532510588.097,0.000,19.531,56.152,34.668,3.906
1532510588.101,2.930,20.508,57.129,29.297,-66.406
1532510588.105,9.766,20.508,54.199,34.668,41.504
1532510588.109,11.719,17.090,53.711,43.945,178.711
1532510588.113,15.625,11.719,53.223,35.645,42.480
1532510588.117,11.230,15.625,52.246,29.297,-146.973
1532510588.121,7.324,23.438,48.340,39.062,0.488
1532510588.124,20.020,24.902,49.316,46.387,153.809
1532510588.128,24.902,24.902,46.875,45.410,143.555
1532510588.132,30.762,25.391,49.316,54.199,0.488
1532510588.136,42.480,22.461,53.711,63.477,-23.926
1532510588.140,50.293,22.949,49.805,63.965,82.520
1532510588.144,50.781,29.297,42.969,57.617,60.547
1532510588.148,53.223,30.273,36.621,53.711,-30.762
1532510588.152,58.594,28.320,41.992,49.805,-78.613
1532510588.156,43.945,30.762,49.805,45.410,-64.453
1532510588.160,36.621,32.715,50.293,54.199,77.637
1532510588.163,48.340,32.227,44.434,60.059,61.523
1532510588.167,47.852,30.762,42.480,56.152,-30.273
1532510588.171,44.922,31.738,48.828,49.316,17.090
1532510588.175,51.758,35.645,47.363,51.758,115.234
1532510588.179,54.199,36.621,44.434,55.664,93.750
1532510588.183,52.734,34.668,44.434,54.199,-2.930
1532510588.187,47.852,34.668,41.504,48.828,29.297
1532510588.191,44.434,40.527,42.480,45.410,88.867
1532510588.195,44.434,41.504,40.527,48.828,-16.113
1532510588.199,37.598,36.133,39.551,49.316,-92.285
1532510588.203,39.062,31.250,39.551,49.805,-7.324
1532510588.206,43.945,33.203,40.039,51.758,114.746
1532510588.210,42.969,39.551,38.574,50.781,139.648
1532510588.214,41.504,41.016,37.109,45.410,35.645
1532510588.218,40.527,41.992,38.086,43.457,-14.648
1532510588.222,50.781,45.898,40.039,48.828,50.293
1532510588.226,58.105,45.898,39.062,54.199,155.762
1532510588.230,45.410,43.945,37.109,54.199,92.773
1532510588.234,47.363,43.945,42.480,49.316,-36.133
1532510588.238,48.340,42.480,41.992,53.711,-26.367
1532510588.242,47.852,42.969,36.621,62.012,42.969
1532510588.245,49.805,43.945,40.527,64.941,62.012
1532510588.249,46.387,40.527,45.410,59.082,17.578
1532510588.253,54.199,45.898,41.504,49.805,-82.520
1532510588.257,57.129,49.805,37.109,51.270,-1.953
1532510588.261,50.781,48.828,40.527,54.199,114.746
1532510588.265,51.758,49.316,42.480,48.828,9.277
1532510588.269,52.246,49.316,35.645,41.504,-23.438
1532510588.273,51.270,47.363,34.180,33.691,-33.691
1532510588.277,54.688,46.875,34.668,33.203,23.438
1532510588.281,51.758,50.781,30.762,37.598,75.684
1532510588.285,48.828,43.457,35.645,61.035,-61.035
1532510588.288,52.734,29.785,41.504,74.707,7.324
1532510588.292,43.457,39.551,40.039,42.969,68.848
1532510588.296,35.156,54.199,34.180,23.438,-65.430
1532510588.300,35.645,55.176,34.180,27.832,-64.941
1532510588.304,41.016,49.805,35.645,32.227,13.184
1532510588.308,49.316,49.316,30.762,30.273,153.809
1532510588.312,41.992,49.316,24.902,16.113,116.699
1532510588.316,41.016,53.223,24.902,0.488,-12.207
1532510588.320,45.410,62.988,28.809,-5.859,20.020
1532510588.324,36.621,61.035,29.785,-6.836,118.652
1532510588.328,37.598,57.129,30.273,-5.371,175.293
1532510588.331,41.016,55.176,29.785,3.418,-10.254
1532510588.335,36.133,54.199,29.785,11.719,-145.508
1532510588.339,30.762,53.711,29.297,26.367,44.434
1532510588.343,23.438,48.828,26.855,32.227,167.480
1532510588.347,23.438,45.898,30.273,36.621,98.633
1532510588.351,33.203,42.480,38.574,49.805,-44.434
1532510588.355,29.785,39.062,41.504,51.758,-37.598
1532510588.359,24.414,36.133,36.621,44.922,126.953
1532510588.363,27.832,37.109,34.180,46.387,81.543
1532510588.367,41.992,41.992,33.203,44.434,-10.254
1532510588.370,36.621,40.527,27.832,44.434,2.930
1532510588.374,29.785,38.086,27.344,49.316,81.055
1532510588.378,43.945,45.410,36.621,47.852,55.664
1532510588.382,47.363,49.316,40.039,44.434,-83.008
1532510588.386,40.527,44.434,32.227,40.039,-18.555
1532510588.390,37.109,43.457,32.227,36.621,143.066
1532510588.394,35.645,42.480,38.574,38.086,13.672
1532510588.398,38.086,42.480,37.598,42.480,-118.164
1532510588.402,40.527,43.457,38.574,39.551,-21.973
1532510588.406,33.203,40.527,37.109,42.480,94.727
1532510588.410,34.668,34.668,32.227,47.852,172.852
1532510588.413,41.504,32.227,30.762,47.363,53.711
1532510588.417,55.664,41.504,30.273,42.480,-34.180
1532510588.421,67.871,47.363,32.227,44.434,72.754
1532510588.425,59.570,44.922,44.434,49.805,133.789
1532510588.429,42.480,46.875,41.504,36.133,80.078
1532510588.433,37.598,51.270,25.391,17.090,-76.172
1532510588.437,37.109,48.828,29.785,11.719,-118.164
1532510588.441,35.156,44.922,36.133,23.438,113.281
1532510588.445,27.344,41.504,40.039,17.090,173.828
1532510588.449,12.207,41.016,43.457,3.418,26.855
1532510588.453,18.555,42.480,33.691,9.766,-34.668
1532510588.456,19.531,34.668,26.367,7.812,115.234
1532510588.460,7.812,37.109,31.738,4.883,187.500
1532510588.464,8.789,49.316,23.438,8.301,51.270
1532510588.468,10.254,40.527,21.484,6.348,15.625
1532510588.472,9.277,35.156,28.320,6.836,-1.465
1532510588.476,6.836,44.434,26.367,1.953,3.906
1532510588.480,20.996,44.922,37.598,8.301,62.500
1532510588.484,24.902,42.480,49.805,12.695,-4.395
1532510588.488,7.324,40.527,49.316,12.207,35.645
1532510588.492,11.719,36.133,41.504,10.742,84.961
1532510588.495,23.438,38.086,35.645,17.578,26.855
1532510588.499,27.344,45.410,31.250,29.785,-23.926
1532510588.503,28.320,48.340,32.715,30.273,3.906
1532510588.507,39.551,46.387,35.156,29.785,125.000
1532510588.511,42.480,40.527,35.156,34.180,113.281
1532510588.515,41.504,38.086,34.668,30.273,-33.203
1532510588.519,34.180,35.156,37.109,26.855,-78.125
1532510588.523,25.879,39.551,36.621,26.855,0.000
1532510588.527,37.598,44.922,26.367,29.297,137.695
1532510588.531,41.016,44.922,27.344,34.668,94.238
1532510588.535,39.062,41.992,35.156,37.598,-136.230
1532510588.538,37.109,44.434,34.668,37.598,-37.598
1532510588.542,51.270,47.852,36.133,39.062,164.062
1532510588.546,53.711,42.969,33.691,44.434,92.773
1532510588.550,45.410,45.898,26.855,42.480,-17.090
1532510588.554,49.805,50.293,33.691,39.551,0.977
1532510588.558,48.340,39.062,36.133,41.016,133.789
1532510588.562,47.363,34.668,34.180,41.016,105.469
1532510588.566,52.246,43.457,35.645,41.504,-76.172
1532510588.570,58.594,46.387,35.645,44.434,-78.613
1532510588.574,59.082,48.828,32.715,36.133,-38.574
1532510588.577,49.316,44.434,32.227,34.668,-7.324
1532510588.581,47.852,38.574,32.227,48.340,35.645
1532510588.585,45.898,41.992,27.832,42.480,13.672
1532510588.589,44.434,40.527,27.832,35.156,78.125
1532510588.593,34.180,40.527,31.250,35.156,130.371
1532510588.597,24.414,39.551,33.203,30.762,85.449
1532510588.601,34.668,38.574,32.227,33.203,-2.441
1532510588.605,39.062,36.133,27.344,40.527,30.762
1532510588.609,41.504,36.621,25.391,44.434,165.527
1532510588.613,37.598,36.133,27.832,39.551,68.848
1532510588.617,36.133,33.691,33.203,37.598,-92.285
1532510588.620,41.992,35.156,38.086,51.270,-39.062
1532510588.624,47.852,32.227,36.621,46.875,118.652
1532510588.628,45.410,27.832,37.598,42.969,140.137
1532510588.632,47.363,24.414,38.086,41.016,-53.711
1532510588.636,48.340,20.996,35.156,32.715,-131.836
1532510588.640,45.410,26.367,36.133,48.828,70.801
1532510588.644,44.922,32.227,38.574,54.199,152.344
1532510588.648,40.039,33.691,38.574,47.363,49.316
1532510588.652,41.504,36.133,30.273,48.828,-52.734
1532510588.656,48.828,34.668,28.809,44.922,31.738
1532510588.660,52.246,29.785,37.109,40.527,98.145
1532510588.663,48.828,30.273,38.086,43.945,-19.531
1532510588.667,39.551,36.133,33.691,42.480,-20.508
1532510588.671,46.875,33.203,35.156,37.109,11.719
1532510588.675,51.270,28.320,40.527,36.133,14.160
1532510588.679,47.363,32.227,34.668,46.387,59.082
1532510588.683,62.012,27.344,34.180,59.082,-3.418
1532510588.687,47.852,24.902,43.457,56.152,-2.441
1532510588.691,34.668,30.762,46.875,49.316,100.098
1532510588.695,43.945,19.531,43.945,43.945,106.934
1532510588.699,43.457,15.137,35.156,41.992,32.715
1532510588.702,37.109,28.809,31.738,45.410,-2.441
1532510588.706,31.250,27.344,41.016,42.480,48.828
1532510588.710,29.785,19.531,45.410,41.504,81.543
1532510588.714,23.926,20.996,48.340,38.574,-76.660
1532510588.718,20.020,20.996,53.223,45.410,-120.117
1532510588.722,21.973,18.066,52.246,45.898,66.895
1532510588.726,21.484,16.602,48.828,39.062,168.945
1532510588.730,20.020,16.113,43.945,34.668,103.516
1532510588.734,26.367,15.625,44.434,30.273,-98.633
1532510588.738,32.227,15.625,38.574,36.621,-46.387
1532510588.742,32.715,20.020,33.691,39.551,137.695
1532510588.745,34.180,24.414,47.363,41.992,104.492
1532510588.749,29.297,19.531,48.340,45.410,2.930
1532510588.753,33.691,14.160,44.922,42.969,-59.570
1532510588.757,38.574,23.438,43.457,44.434,33.203
1532510588.761,39.062,29.785,41.504,45.410,138.184
1532510588.765,33.203,27.344,43.457,47.852,33.691
1532510588.769,27.832,20.996,44.922,38.574,-8.301
1532510588.773,32.227,17.578,41.016,26.855,-28.320
1532510588.777,31.250,19.531,35.645,29.297,0.488
1532510588.781,30.273,21.484,31.738,33.691,47.363
1532510588.785,38.574,19.531,35.156,40.039,-20.996
1532510588.788,42.969,19.531,41.016,44.922,46.875
1532510588.792,37.598,27.344,41.016,42.969,125.000
1532510588.796,37.109,30.273,42.480,38.086,87.402
1532510588.800,41.992,27.344,45.410,44.434,-38.574
1532510588.804,45.410,21.973,44.434,47.363,-67.383
1532510588.808,50.293,23.438,39.062,42.969,119.141
1532510588.812,46.875,28.809,38.574,40.527,81.055
1532510588.816,35.156,28.809,41.016,41.504,-124.023
1532510588.820,39.062,26.367,41.992,50.293,-68.848
1532510588.824,45.410,29.785,40.039,52.734,93.750
1532510588.827,49.316,31.738,37.598,48.828,161.621
1532510588.831,50.293,25.879,36.133,47.363,34.668
1532510588.835,50.781,23.926,34.668,51.758,-47.363
1532510588.839,48.340,24.902,33.691,52.246,76.660
1532510588.843,47.852,22.461,34.668,53.223,177.734
1532510588.847,57.617,26.855,34.180,49.805,68.359
1532510588.851,52.246,27.344,32.227,46.875,-91.309
1532510588.855,37.109,20.508,33.691,40.039,-115.723
1532510588.859,32.715,19.043,35.156,34.180,56.152
1532510588.863,33.203,21.973,38.574,40.527,138.672
1532510588.867,34.668,25.391,34.668,33.691,46.875
1532510588.870,39.551,25.879,24.902,37.109,17.578
1532510588.874,41.016,17.578,25.391,44.922,62.012
1532510588.878,29.785,14.160,32.227,39.062,123.535
1532510588.882,28.320,17.578,40.527,40.039,34.668
1532510588.886,29.785,11.719,42.480,48.340,-2.441
1532510588.890,45.898,8.301,42.480,55.664,110.840
1532510588.894,51.758,14.160,45.410,59.570,93.750
1532510588.898,33.203,18.555,44.434,59.082,-29.785
1532510588.902,33.691,17.090,37.598,61.523,-37.598
1532510588.906,33.203,12.695,36.621,59.082,49.805
1532510588.910,33.691,11.719,36.133,55.664,156.250
1532510588.913,40.527,11.230,37.598,54.199,-0.488
1532510588.917,34.668,13.672,38.086,50.293,-141.113
1532510588.921,33.203,12.207,39.062,55.176,31.738
1532510588.925,41.992,6.836,43.945,62.988,169.434
1532510588.929,46.875,9.277,45.410,69.824,148.438
1532510588.933,41.016,7.812,45.410,69.824,-1.953
1532510588.937,33.691,5.859,46.875,67.871,-16.113
1532510588.941,43.945,8.789,47.852,65.918,71.289
1532510588.945,50.293,10.254,50.293,69.336,55.176
1532510588.949,39.062,15.137,46.875,68.848,20.508
1532510588.952,39.062,13.672,41.992,63.965,-81.055
1532510588.956,46.387,8.301,44.434,65.430,-53.223
1532510588.960,51.270,7.324,43.457,69.824,144.043
1532510588.964,53.711,13.672,41.992,68.359,85.449
1532510588.968,47.852,20.508,40.527,66.406,-24.902
1532510588.972,36.621,16.602,37.598,60.059,-0.977
1532510588.976,43.945,18.555,39.062,56.152,111.816
1532510588.980,48.340,19.531,38.574,54.688,100.586
1532510588.984,38.574,15.625,39.551,49.805,-42.969
1532510588.988,40.527,15.137,41.504,51.758,-44.922
1532510588.992,47.363,15.625,39.062,49.316,26.855
1532510588.995,44.922,20.996,41.016,55.664,18.066
1532510588.999,43.945,29.297,44.922,53.711,-20.508
1532510589.003,42.480,30.273,39.062,37.598,-27.344
1532510589.007,40.039,23.926,37.109,43.457,92.773
1532510589.011,37.598,25.879,41.504,51.758,116.699
1532510589.015,40.527,26.855,37.109,44.922,-81.543
1532510589.019,40.039,24.414,35.156,46.387,-87.402
1532510589.023,37.109,32.715,32.715,39.062,85.938
1532510589.027,39.062,36.133,34.180,33.691,172.852
1532510589.031,39.062,34.180,37.598,34.668,78.125
1532510589.034,44.434,34.668,40.527,42.480,-107.422
1532510589.038,50.293,35.645,32.715,44.434,-47.852
1532510589.042,48.828,34.180,29.785,33.203,123.047
1532510589.046,58.594,33.691,38.086,50.293,106.934
1532510589.050,65.918,34.180,34.668,60.059,-15.625
1532510589.054,46.875,32.227,32.715,41.504,-122.070
1532510589.058,40.039,34.668,35.645,40.527,-4.395
1532510589.062,38.086,35.645,35.156,40.527,133.301
1532510589.066,36.133,34.668,32.715,35.156,-3.418
1532510589.070,41.992,32.715,34.180,39.062,-31.250
1532510589.074,41.504,30.762,37.109,35.645,75.684
1532510589.077,44.922,35.645,36.621,44.434,148.926
1532510589.081,43.457,35.645,28.320,49.316,26.367
1532510589.085,40.039,32.227,28.809,35.645,-92.773
1532510589.089,45.410,29.297,36.621,36.621,66.895
1532510589.093,49.316,28.809,33.203,37.109,92.773
1532510589.097,43.945,36.621,23.438,39.062,-52.734
1532510589.101,39.062,37.598,23.926,38.574,-57.617
1532510589.105,41.992,36.621,30.762,36.133,17.090
1532510589.109,46.875,39.551,29.785,45.898,165.527
1532510589.113,48.828,41.016,25.879,46.387,124.023
1532510589.117,54.688,37.598,28.809,52.734,-21.484
1532510589.120,60.059,37.598,39.062,54.199,-0.488
1532510589.124,59.082,38.086,40.527,43.945,107.910
1532510589.128,55.664,34.180,36.621,38.086,103.516
1532510589.132,50.781,31.250,38.574,23.438,-96.191
1532510589.136,51.270,29.785,41.992,15.625,-169.922
1532510589.140,59.082,29.297,43.945,19.531,52.246
1532510589.144,64.453,26.367,43.457,36.133,168.945
1532510589.148,45.410,21.484,39.551,50.293,68.848
1532510589.152,34.668,18.066,39.551,49.316,-59.570
1532510589.156,40.039,16.602,41.992,53.711,-11.719
1532510589.159,29.785,15.625,44.434,50.781,156.250
1532510589.163,23.926,20.020,42.969,51.758,97.656
1532510589.167,20.996,20.508,42.969,59.570,1.953
1532510589.171,22.461,6.836,45.410,57.617,5.859
1532510589.175,24.414,5.859,44.922,58.594,70.312
1532510589.179,16.602,18.066,43.457,52.734,33.691
1532510589.183,14.648,22.949,38.574,43.457,-74.707
1532510589.187,22.949,20.508,43.945,47.852,4.395
1532510589.191,28.809,19.043,46.875,48.340,90.820
1532510589.195,29.785,18.066,40.039,51.270,38.086
1532510589.199,27.832,15.137,34.180,52.246,-30.762
1532510589.202,34.180,17.578,27.832,48.340,-7.812
1532510589.206,44.922,22.949,21.484,40.039,88.867
1532510589.210,46.387,20.508,23.438,39.062,145.996
1532510589.214,50.293,20.508,31.250,42.480,-54.199
1532510589.218,38.086,22.461,30.273,42.480,-128.906
1532510589.222,30.273,23.438,27.344,54.688,9.766
1532510589.226,41.016,23.438,28.320,54.688,84.473
1532510589.230,39.062,23.438,25.391,50.293,101.562
1532510589.234,37.109,25.391,24.902,47.852,-143.066
1532510589.238,46.387,26.367,26.367,52.246,-172.852
1532510589.242,37.109,29.297,26.855,52.734,96.680
1532510589.245,28.320,28.809,25.879,41.992,154.297
1532510589.249,32.715,21.484,21.484,41.992,44.434
1532510589.253,29.297,21.484,18.066,40.039,-31.738
1532510589.257,30.273,26.367,20.508,44.434,101.074
1532510589.261,37.109,27.832,24.414,44.434,164.062
1532510589.265,27.832,28.809,24.414,33.203,14.160
1532510589.269,25.391,34.180,20.508,29.785,-62.012
1532510589.273,36.621,35.156,19.531,32.715,-38.574
1532510589.277,41.992,30.762,20.508,41.016,27.832
1532510589.281,37.109,28.809,20.996,42.969,50.293
1532510589.284,41.992,32.715,25.391,40.039,1.465
1532510589.288,36.621,36.133,21.484,36.133,76.172
1532510589.292,36.133,37.109,15.625,32.715,148.438
1532510589.296,43.457,39.062,17.578,31.738,78.613
1532510589.300,43.945,36.621,23.926,34.180,-24.902
1532510589.304,37.598,34.180,26.367,37.598,22.461
1532510589.308,43.457,34.180,25.879,38.574,139.648
1532510589.312,49.805,35.645,28.320,46.875,100.098
1532510589.316,45.898,36.621,25.391,50.781,-67.383
1532510589.320,47.852,33.691,24.414,48.340,-87.402
1532510589.324,53.711,32.227,30.273,52.246,75.684
1532510589.327,55.664,41.016,31.250,56.641,186.523
1532510589.331,59.570,42.480,31.250,48.340,10.742
1532510589.335,49.805,35.156,35.645,27.344,-192.871
1532510589.339,44.922,37.109,33.203,23.926,-17.090
1532510589.343,49.805,41.992,24.902,41.016,178.223
1532510589.347,41.504,40.527,30.273,46.387,127.930
1532510589.351,34.668,33.691,41.504,38.086,-24.902
1532510589.355,37.109,32.227,41.992,29.785,-45.410
1532510589.359,50.781,34.668,37.598,40.527,142.578
1532510589.363,39.551,35.156,30.762,42.480,86.914
1532510589.367,28.320,31.738,28.809,36.133,-65.430
1532510589.370,34.668,28.320,39.062,41.016,-23.438
1532510589.374,29.297,35.645,41.504,30.762,-12.207
1532510589.378,34.180,42.480,33.691,37.598,19.531
1532510589.382,39.062,37.109,32.715,43.457,-6.836
1532510589.386,32.715,33.203,34.668,44.434,-21.484
1532510589.390,32.227,35.645,33.691,55.664,86.426
1532510589.394,39.551,37.109,33.203,51.758,136.230
1532510589.398,41.016,25.879,32.715,39.551,42.969
1532510589.402,34.668,22.949,32.227,43.457,-28.809
1532510589.406,38.086,40.039,32.715,58.594,41.016
1532510589.409,38.574,44.922,34.180,61.035,102.539
1532510589.413,42.969,37.598,34.668,49.805,-35.156
1532510589.417,36.621,38.574,27.344,26.367,-156.250
1532510589.421,27.832,42.480,26.855,16.602,-27.832
1532510589.425,36.133,39.062,32.227,27.344,144.043
1532510589.429,38.086,38.574,32.227,34.180,178.711
1532510589.433,34.180,41.016,30.762,35.645,0.488
1532510589.437,46.387,37.598,28.809,41.992,-53.711
1532510589.441,48.828,36.133,28.809,43.945,95.215
1532510589.445,33.691,38.086,29.785,43.945,167.969
1532510589.449,26.367,39.062,29.297,43.457,64.941
1532510589.452,22.949,41.016,29.297,37.109,-52.246
1532510589.456,33.691,42.480,28.809,35.645,5.859
1532510589.460,35.645,38.574,29.785,34.668,119.629
1532510589.464,34.668,38.086,25.391,35.156,24.902
1532510589.468,39.551,36.621,27.344,36.621,-36.621
1532510589.472,39.062,29.785,30.273,33.203,-1.953
1532510589.476,37.109,33.203,31.738,30.273,16.602
1532510589.480,38.574,42.480,32.715,33.691,53.223
1532510589.484,46.387,44.922,28.809,32.715,-1.465
1532510589.488,40.039,44.434,30.273,32.227,37.598
1532510589.491,36.133,43.457,28.320,36.621,120.117
1532510589.495,43.457,39.551,25.879,40.527,108.887
1532510589.499,47.363,37.598,30.273,39.551,28.320
1532510589.503,47.852,37.598,25.879,38.086,-51.270
1532510589.507,47.852,35.156,19.043,32.715,57.617
1532510589.511,39.551,34.180,25.391,22.461,134.766
1532510589.515,30.762,34.180,31.250,18.555,-30.762
1532510589.519,35.156,34.180,25.391,26.855,-41.992
1532510589.523,44.434,34.668,20.996,37.109,91.309
1532510589.527,48.340,34.180,26.367,38.086,191.895
1532510589.531,44.922,34.668,31.250,30.762,114.258
1532510589.534,39.551,35.156,33.203,27.832,-125.488
1532510589.538,37.598,33.691,35.156,32.715,-53.223
1532510589.542,41.504,30.762,35.156,29.297,168.457
1532510589.546,38.574,30.273,26.855,25.879,136.719
1532510589.550,36.133,35.156,22.949,34.180,-10.254
1532510589.554,37.109,40.039,24.414,32.227,-144.043
1532510589.558,41.992,42.969,22.949,27.344,0.000
1532510589.562,50.781,41.992,25.391,29.297,149.902
1532510589.566,45.410,39.551,32.227,34.180,19.531
1532510589.570,48.340,41.504,30.762,47.852,-22.949
1532510589.574,52.246,41.016,26.855,50.781,83.496
1532510589.577,36.621,34.668,34.180,30.762,172.852
1532510589.581,33.203,30.273,37.598,30.273,61.035
1532510589.585,52.246,31.250,33.691,44.434,-31.738
1532510589.589,60.547,35.645,30.273,44.922,70.312
1532510589.593,53.223,42.969,27.832,36.133,144.531
1532510589.597,51.758,41.992,27.344,35.156,16.602
1532510589.601,55.664,39.062,24.414,38.574,-108.887
1532510589.605,66.895,36.621,23.438,35.645,-33.691
1532510589.609,56.641,35.645,25.391,36.621,152.344
1532510589.613,36.621,33.203,31.738,39.062,48.340
1532510589.616,48.340,24.902,38.574,45.410,-186.523
1532510589.620,64.941,28.320,34.180,57.617,-77.637
1532510589.624,56.641,44.434,23.926,49.316,121.582
1532510589.628,35.156,47.363,22.461,28.809,165.527
1532510589.632,40.039,43.457,23.926,30.273,-11.230
1532510589.636,54.199,43.945,22.461,35.156,-72.754
1532510589.640,62.500,48.340,16.113,31.250,104.492
1532510589.644,57.129,46.387,14.160,24.902,130.371
1532510589.648,49.316,43.945,17.578,29.785,-19.043
1532510589.652,48.828,40.039,15.625,42.480,-112.305
1532510589.656,57.129,23.926,19.531,38.086,-116.699
1532510589.659,60.547,25.879,26.855,34.668,82.031
1532510589.663,62.012,41.992,27.344,37.109,85.938
1532510589.667,56.641,48.340,22.461,40.039,-24.902
1532510589.671,60.547,47.852,18.555,38.574,4.395
1532510589.675,58.105,43.457,18.555,47.852,102.539
1532510589.679,44.922,40.039,24.414,52.246,140.137
1532510589.683,51.270,34.180,28.320,38.086,-11.719
1532510589.687,54.688,31.738,27.344,33.203,-23.438
1532510589.691,59.570,32.227,26.367,31.250,82.520
1532510589.695,62.500,32.715,28.320,24.902,-11.230
1532510589.699,49.316,30.762,25.879,30.273,-68.848
1532510589.702,43.457,31.250,24.902,40.527,-20.996
1532510589.706,47.363,32.227,30.762,47.852,79.102
1532510589.710,52.734,31.250,26.855,43.457,161.621
1532510589.714,56.641,30.762,19.531,30.762,33.691
1532510589.718,52.246,23.926,19.531,35.645,-19.531
1532510589.722,48.828,12.695,21.973,40.527,50.781
1532510589.726,45.410,16.602,20.996,43.457,172.852
1532510589.730,43.457,29.297,20.020,42.969,96.191
1532510589.734,46.387,25.391,22.461,34.180,-94.727
1532510589.738,47.852,16.602,23.438,36.621,-84.473
1532510589.741,52.246,22.949,21.484,37.598,55.664
1532510589.745,54.199,25.879,21.973,40.527,103.516
1532510589.749,64.941,28.809,24.414,40.527,2.930
1532510589.753,62.012,31.738,26.855,43.945,-99.121
1532510589.757,48.828,30.762,20.996,41.016,-17.090
1532510589.761,54.199,31.738,19.043,30.273,133.301
1532510589.765,51.758,27.344,21.973,25.391,34.668
1532510589.769,53.223,26.855,26.855,27.832,-33.691
1532510589.773,54.688,28.320,27.344,30.762,62.500
1532510589.777,50.293,25.879,26.855,37.109,152.344
1532510589.781,63.477,19.531,26.367,44.922,78.125
1532510589.784,69.824,20.020,20.996,37.109,-81.543
1532510589.788,60.547,27.832,23.438,36.133,-17.578
1532510589.792,54.688,31.738,27.832,33.691,102.539
1532510589.796,44.922,30.273,25.879,29.297,-21.973
1532510589.800,50.293,29.785,26.367,39.551,-82.520
1532510589.804,62.012,29.785,26.855,41.504,6.348
1532510589.808,58.594,31.738,27.344,38.574,149.902
1532510589.812,59.570,28.809,25.879,41.016,137.207
1532510589.816,59.570,22.461,28.320,52.734,-26.367
1532510589.820,60.059,27.344,27.344,52.246,-30.273
1532510589.824,70.312,30.762,25.391,42.480,75.195
1532510589.827,69.336,30.273,28.320,44.434,129.883
1532510589.831,67.383,32.227,34.180,42.969,-48.340
1532510589.835,57.617,33.203,28.320,42.969,-170.410
1532510589.839,55.664,32.715,26.855,39.551,-12.207
1532510589.843,65.918,33.203,32.715,32.227,154.785
1532510589.847,63.477,33.203,23.926,39.062,112.793
1532510589.851,55.664,31.738,22.949,41.504,-69.824
1532510589.855,58.105,34.668,26.367,38.574,-81.543
1532510589.859,74.219,37.598,24.902,52.246,99.609
1532510589.863,64.453,34.668,30.762,48.828,101.562
1532510589.866,38.086,30.762,31.250,33.203,-6.348
1532510589.870,35.156,23.926,29.785,33.691,-17.090
1532510589.874,39.062,20.508,32.715,45.410,85.938
1532510589.878,35.156,22.461,27.344,48.340,95.703
1532510589.882,34.668,15.625,25.391,34.180,-66.895
1532510589.886,30.273,12.207,32.715,35.645,-85.449
1532510589.890,32.227,19.531,37.109,46.875,63.477
1532510589.894,33.691,20.508,41.504,23.438,35.645
1532510589.898,24.902,12.207,39.551,21.484,-98.145
1532510589.902,18.066,12.695,36.621,39.062,-68.848
1532510589.906,18.066,20.508,36.133,32.227,47.363
1532510589.909,32.715,20.508,37.598,41.992,178.711
1532510589.913,37.598,18.555,41.504,36.133,50.293
1532510589.917,45.898,20.508,36.133,37.109,-72.266
1532510589.921,52.246,22.461,25.391,47.363,-3.906
1532510589.925,50.293,18.555,26.367,45.898,80.078
1532510589.929,55.176,12.207,31.738,55.176,106.445
1532510589.933,51.758,16.602,31.250,52.734,-92.773
1532510589.937,45.410,24.902,29.785,38.574,-170.898
1532510589.941,45.898,30.762,32.227,33.691,75.195
1532510589.945,47.363,31.738,32.715,45.898,168.457
1532510589.948,58.594,30.273,35.645,58.594,40.527
1532510589.952,55.176,29.785,34.668,49.805,-55.176
1532510589.956,46.387,26.855,21.484,20.020,49.316
1532510589.960,51.270,24.414,17.578,17.578,171.387
1532510589.964,49.316,25.391,24.414,30.273,72.266
1532510589.968,46.387,26.367,26.367,24.902,-33.691
1532510589.972,50.781,32.227,25.879,25.879,-51.758
1532510589.976,56.152,35.156,24.902,32.227,25.879
1532510589.980,50.781,24.902,28.809,29.297,118.164
1532510589.984,49.805,24.902,29.785,21.973,12.207
1532510589.988,54.688,30.273,26.855,20.996,3.906
1532510589.991,55.664,31.738,20.508,20.020,92.773
1532510589.995,54.688,38.086,20.996,24.414,67.871
1532510589.999,48.828,39.062,28.809,33.691,1.465
1532510590.003,40.039,35.156,28.320,37.598,-37.598
1532510590.007,37.109,38.574,24.414,45.898,95.215
1532510590.011,40.527,39.551,20.996,50.781,153.809
1532510590.015,32.227,31.250,22.949,46.387,-10.742
1532510590.019,31.250,26.855,28.809,46.875,-109.375
1532510590.023,43.945,29.785,28.320,45.898,-15.137
1532510590.027,43.457,29.785,26.855,48.828,156.250
1532510590.031,47.363,30.273,23.926,49.805,84.473
1532510590.034,57.129,26.855,19.043,35.156,-143.555
1532510590.038,62.988,19.043,23.926,27.832,-102.051
1532510590.042,63.477,26.367,21.973,30.273,117.188
1532510590.046,62.500,35.156,25.391,50.781,104.980
1532510590.050,57.617,33.691,26.367,50.293,-31.738
1532510590.054,43.945,32.715,21.484,37.109,-43.945
1532510590.058,41.504,30.273,32.715,53.223,98.633
1532510590.062,44.434,24.414,39.551,52.734,146.484
1532510590.066,36.621,22.949,38.574,36.621,-25.879
1532510590.070,30.762,18.066,38.574,40.039,-75.195
1532510590.073,36.621,15.137,41.992,39.062,-42.480
1532510590.077,38.574,18.066,43.457,48.828,32.227
1532510590.081,28.320,16.602,38.574,53.711,58.594
1532510590.085,24.414,11.719,33.691,47.852,-58.105
1532510590.089,23.926,11.230,37.109,45.410,50.293
1532510590.093,31.738,17.090,41.016,34.180,156.738
1532510590.097,40.039,22.461,36.133,44.922,95.703
1532510590.101,35.156,20.996,29.297,59.570,11.719
1532510590.105,36.621,16.602,32.227,58.105,-6.836
1532510590.109,42.969,19.043,33.691,41.016,151.367
1532510590.113,45.410,21.484,31.738,24.902,120.605
1532510590.116,48.828,17.578,34.180,28.320,-99.121
1532510590.120,45.898,16.113,38.574,36.133,-43.945
1532510590.124,50.781,24.414,35.645,46.387,125.000
1532510590.128,59.082,31.738,29.297,48.340,176.758
1532510590.132,57.129,26.855,29.297,39.062,-23.926
1532510590.136,58.105,24.902,30.273,36.621,-158.203
1532510590.140,61.523,29.297,29.297,49.805,65.430
1532510590.144,63.965,29.297,32.227,54.688,188.477
1532510590.148,63.965,27.344,35.645,44.434,63.477
1532510590.152,59.082,31.738,32.715,49.316,-98.145
1532510590.156,61.035,31.738,35.645,56.641,-35.156
1532510590.159,70.312,26.855,32.227,59.082,105.469
1532510590.163,67.383,28.809,23.438,52.734,23.926
1532510590.167,64.941,31.250,26.367,40.527,-46.387
1532510590.171,59.570,28.320,28.320,35.156,-45.898
1532510590.175,55.664,27.344,27.832,37.598,-1.953
1532510590.179,62.988,30.273,28.320,46.387,98.633
1532510590.183,60.547,31.250,27.344,44.922,27.832
1532510590.187,61.035,24.902,24.414,36.133,-26.855
1532510590.191,60.547,22.461,24.414,39.551,85.938
1532510590.195,58.594,28.320,29.785,48.340,90.332
1532510590.198,65.430,37.598,32.715,53.711,6.836
1532510590.202,62.500,39.062,31.738,51.758,-27.832
1532510590.206,62.012,37.109,28.320,47.363,14.160
1532510590.210,66.406,38.574,22.949,46.387,129.395
1532510590.214,59.082,37.598,30.273,39.551,-55.176
1532510590.218,54.199,37.109,31.250,43.457,-185.547
1532510590.222,68.848,39.551,26.855,46.875,42.480
1532510590.226,73.730,39.062,26.855,48.828,175.293
1532510590.230,82.031,35.156,24.902,62.012,134.277
1532510590.234,76.172,34.180,28.809,54.688,-13.672
1532510590.238,65.430,39.551,24.414,43.457,-13.184
1532510590.241,74.707,41.504,22.949,50.293,127.930
1532510590.245,62.500,36.621,33.203,34.180,164.551
1532510590.249,45.898,32.227,31.738,18.066,15.137
1532510590.253,55.664,29.297,30.762,28.320,-92.285
1532510590.257,56.152,35.156,36.621,49.316,43.457
1532510590.261,49.805,37.109,32.715,42.480,160.156
1532510590.265,50.781,31.738,27.832,33.203,70.312
1532510590.269,44.434,28.809,30.762,39.551,3.906
1532510590.273,43.945,29.785,39.062,37.598,-12.207
1532510590.277,48.828,28.809,38.086,40.527,37.598
1532510590.280,41.016,29.785,34.180,38.574,75.684
1532510590.284,42.969,28.809,35.645,41.016,-25.879
1532510590.288,51.758,21.484,37.109,47.363,9.766
1532510590.292,53.223,21.484,34.668,48.340,141.602
1532510590.296,54.688,31.738,30.762,47.852,145.020
1532510590.300,61.035,36.621,30.273,33.691,-29.785
1532510590.304,60.547,37.598,32.227,37.109,-70.312
1532510590.308,52.734,31.738,36.621,43.945,139.160
1532510590.312,49.805,28.809,38.574,36.621,122.070
1532510590.316,49.316,34.180,38.086,32.715,-104.492
1532510590.320,53.223,35.156,32.715,36.621,-92.285
1532510590.323,59.570,36.133,33.203,41.016,78.613
1532510590.327,61.035,35.645,34.668,43.457,176.758
1532510590.331,64.941,28.809,34.668,46.875,27.832
1532510590.335,64.941,24.902,35.156,51.270,-77.148
1532510590.339,61.035,29.785,35.645,45.410,41.016
1532510590.343,59.570,34.180,30.762,45.410,171.387
1532510590.347,62.012,32.715,28.320,42.480,94.727
1532510590.351,57.617,35.645,35.645,41.016,-97.168
1532510590.355,55.176,35.645,33.203,41.016,-147.949
1532510590.359,54.199,33.691,27.344,42.969,43.457
1532510590.363,51.758,33.203,35.156,49.805,133.789
1532510590.366,53.223,30.762,42.969,52.734,0.977
1532510590.370,59.082,37.109,40.039,53.223,-22.461
1532510590.374,70.312,38.574,32.715,42.480,69.824
1532510590.378,60.059,33.203,33.203,39.062,131.836
1532510590.382,54.688,34.668,36.621,39.551,18.066
1532510590.386,55.664,35.156,32.227,40.527,-51.270
1532510590.390,59.082,36.133,32.715,38.574,55.664
1532510590.394,68.848,39.062,35.645,42.969,109.375
1532510590.398,71.777,39.062,31.738,46.387,-25.391
1532510590.402,71.289,36.621,32.227,51.758,-99.609
1532510590.405,72.266,33.203,36.621,61.523,0.977
1532510590.409,80.566,35.645,39.551,59.082,154.297
1532510590.413,75.684,40.039,36.621,55.176,9.766
1532510590.417,69.824,30.273,37.109,60.059,-178.223
1532510590.421,76.660,23.926,36.621,55.176,-23.926
1532510590.425,79.590,36.621,29.297,47.852,145.996
1532510590.429,83.496,42.480,29.297,50.293,145.508
1532510590.433,69.824,45.410,30.273,60.059,-32.227
1532510590.437,53.223,46.387,27.344,68.848,-62.988
1532510590.441,61.523,40.527,32.715,55.176,39.062
1532510590.445,70.801,37.109,31.738,41.992,61.523
1532510590.448,80.078,38.574,26.855,46.875,27.832
1532510590.452,87.402,36.133,35.645,47.852,-119.141
1532510590.456,82.520,36.133,38.086,46.875,-104.004
1532510590.460,75.195,40.039,35.156,56.152,108.887
1532510590.464,76.172,41.504,38.086,61.035,58.594
1532510590.468,79.102,42.480,33.691,52.734,-21.484
1532510590.472,89.355,45.898,24.902,42.480,-5.859
1532510590.476,92.285,42.969,23.438,53.223,93.262
1532510590.480,83.984,39.062,26.855,74.707,135.742
1532510590.484,85.449,41.016,30.762,78.125,30.273
1532510590.488,74.707,37.598,30.762,65.430,-34.180
1532510590.491,71.289,35.156,27.832,66.895,44.922
1532510590.495,73.242,36.621,29.785,69.824,0.488
1532510590.499,74.707,33.691,31.250,67.871,-50.781
1532510590.503,75.195,30.273,29.785,68.359,4.395
1532510590.507,85.449,33.203,30.273,77.637,123.535
1532510590.511,88.867,37.109,32.227,77.637,180.176
1532510590.515,62.988,38.574,28.320,61.035,3.418
1532510590.519,52.734,35.156,21.484,50.781,-78.125
1532510590.523,56.152,31.250,26.367,52.246,30.762
1532510590.527,61.035,32.715,30.273,49.805,163.574
1532510590.530,70.312,38.086,30.273,43.457,93.750
1532510590.534,78.613,41.016,30.762,50.781,-85.938
1532510590.538,89.355,42.969,26.367,63.965,-38.086
1532510590.542,87.891,37.598,29.785,65.430,130.859
1532510590.546,95.215,35.156,37.109,66.406,131.348
1532510590.550,96.680,38.574,37.109,74.707,20.996
1532510590.554,80.078,37.598,34.180,69.336,-127.930
1532510590.558,73.242,41.992,33.203,66.895,-14.648
1532510590.562,80.566,39.551,34.668,74.707,195.312
1532510590.566,84.473,33.203,32.715,82.520,63.965
1532510590.570,78.125,36.133,33.691,82.031,-31.738
1532510590.573,67.871,41.504,37.109,71.777,31.738
1532510590.577,63.965,43.457,35.645,62.988,124.023
1532510590.581,70.312,42.969,29.785,59.082,25.879
1532510590.585,76.172,41.992,31.738,58.105,-104.980
1532510590.589,79.590,45.410,29.785,57.129,50.781
1532510590.593,77.637,46.387,25.879,48.340,78.613
1532510590.597,80.078,40.527,24.902,45.898,-68.359
1532510590.601,82.520,37.109,23.926,56.152,-57.129
1532510590.605,84.473,42.969,33.691,69.336,3.906
1532510590.609,79.102,44.434,39.062,68.359,143.555
1532510590.613,76.660,40.527,33.691,56.152,99.609
1532510590.616,83.984,42.480,31.250,71.289,-46.875
1532510590.620,86.914,41.504,26.855,67.383,-28.809
1532510590.624,83.984,36.621,26.855,61.035,89.844
1532510590.628,91.309,31.738,30.273,70.312,136.719
1532510590.632,94.727,36.133,27.832,62.012,-90.820
1532510590.636,81.055,47.363,25.391,64.941,-228.027
1532510590.640,73.730,50.781,27.344,57.129,21.484
1532510590.644,78.125,50.781,26.855,50.781,194.824
1532510590.648,74.707,49.805,22.461,58.594,71.777
1532510590.652,62.500,43.945,29.785,52.246,-76.172
1532510590.655,60.547,42.969,38.086,46.387,-9.277
1532510590.659,66.406,45.898,35.156,46.875,155.762
1532510590.663,64.453,41.016,30.762,41.992,126.953
1532510590.667,62.012,34.180,33.203,38.574,12.207
1532510590.671,60.547,32.715,36.621,48.828,-27.832
1532510590.675,65.430,38.574,37.598,50.293,23.926
1532510590.679,61.035,39.551,30.762,43.945,57.129
1532510590.683,59.570,35.645,23.438,47.852,-26.855
1532510590.687,74.707,34.180,27.344,48.340,-35.645
1532510590.691,79.102,36.621,34.668,64.941,81.543
1532510590.695,76.172,42.969,39.062,72.266,45.410
1532510590.698,80.566,47.363,36.621,60.547,-75.195
1532510590.702,89.355,44.434,31.738,53.711,-74.219
1532510590.706,87.891,43.457,36.621,46.387,42.480
1532510590.710,87.402,51.270,34.668,58.594,155.273
1532510590.714,73.730,51.270,26.855,69.336,38.574
1532510590.718,54.688,42.480,33.203,70.312,-51.758
1532510590.722,61.035,39.062,37.109,66.895,-34.180
1532510590.726,58.105,40.527,34.180,60.547,73.730
1532510590.730,51.270,37.598,37.598,49.805,134.277
1532510590.734,59.082,34.668,43.457,39.551,-112.793
1532510590.737,56.641,33.691,39.062,33.203,-170.410
1532510590.741,54.199,32.715,30.762,41.504,99.609
1532510590.745,60.547,36.133,34.180,43.457,166.504
1532510590.749,58.594,35.645,42.480,52.246,13.184
1532510590.753,60.547,35.156,41.992,64.941,-66.406
1532510590.757,75.195,39.551,32.227,49.805,70.312
1532510590.761,88.867,35.645,31.250,35.156,169.434
1532510590.765,81.055,32.227,37.109,42.969,75.195
1532510590.769,74.219,36.621,32.227,58.105,-50.781
1532510590.773,88.867,41.992,34.180,65.430,-70.801
1532510590.777,96.680,40.039,40.039,74.707,36.621
1532510590.780,98.145,35.156,42.480,73.730,78.125
1532510590.784,91.797,37.109,42.480,62.500,-34.668
1532510590.788,89.355,32.227,36.621,60.059,-1.465
1532510590.792,94.238,35.645,32.715,65.430,94.238
1532510590.796,86.426,43.457,29.297,70.312,83.984
1532510590.800,88.867,36.621,31.250,54.688,5.859
1532510590.804,99.609,37.109,34.180,48.340,-31.250
1532510590.808,90.332,43.457,40.527,70.801,83.496
1532510590.812,74.707,43.457,45.410,79.102,139.648
1532510590.816,74.219,44.434,45.898,73.730,-48.340
1532510590.820,70.801,44.922,49.805,61.523,-133.301
1532510590.823,70.312,42.480,46.387,60.547,20.508
1532510590.827,70.801,41.016,41.992,73.242,161.621
1532510590.831,65.430,41.016,41.016,77.637,27.344
1532510590.835,76.660,39.062,36.621,61.035,-205.566
1532510590.839,95.703,36.621,35.156,48.828,-62.500
1532510590.843,88.379,42.480,40.039,49.316,179.199
1532510590.847,74.219,47.852,40.527,54.688,148.926
1532510590.851,78.613,47.363,39.551,59.082,-23.926
1532510590.855,96.680,47.852,37.598,70.801,-70.801
1532510590.859,110.840,46.875,36.133,81.543,127.441
1532510590.862,99.121,48.828,41.016,78.613,100.098
1532510590.866,94.727,44.434,37.598,70.312,-85.938
1532510590.870,98.145,40.039,37.109,61.035,-48.340
1532510590.874,91.309,43.457,38.574,54.199,-26.367
1532510590.878,81.055,42.969,42.480,62.988,33.691
1532510590.882,79.590,44.434,45.898,78.613,22.949
1532510590.886,88.867,42.969,40.527,65.918,-45.898
1532510590.890,94.238,45.410,37.598,56.641,81.543
1532510590.894,88.379,48.340,37.598,66.895,162.109
1532510590.898,85.449,44.922,38.086,59.570,65.430
1532510590.902,82.031,49.805,35.645,46.387,-40.039
1532510590.905,87.402,53.223,31.250,52.246,15.137
1532510590.909,99.121,49.805,31.738,61.035,148.438
1532510590.913,93.750,46.387,31.738,66.406,6.348
1532510590.917,81.055,44.434,31.738,72.266,-165.527
1532510590.921,85.449,45.898,36.133,70.801,-9.766
1532510590.925,90.820,41.504,36.133,61.035,152.344
1532510590.929,93.262,35.645,37.109,70.312,170.410
1532510590.933,100.098,38.574,38.574,69.824,2.441
1532510590.937,92.285,42.969,37.598,63.965,-48.340
1532510590.941,87.402,44.922,38.574,61.523,109.375
1532510590.945,90.820,44.922,35.156,58.594,183.105
1532510590.948,89.355,47.852,27.344,67.383,84.961
1532510590.952,87.891,47.852,24.414,72.754,-45.898
1532510590.956,98.145,49.805,21.973,68.848,-39.551
1532510590.960,102.539,51.270,24.902,67.871,84.961
1532510590.964,105.469,51.758,35.645,70.312,58.105
1532510590.968,115.723,52.734,36.621,73.730,0.977
1532510590.972,105.469,48.340,35.645,65.430,-37.598
1532510590.976,92.285,45.898,35.645,51.270,-12.207
1532510590.980,95.215,46.875,34.668,66.895,71.777
1532510590.984,100.098,48.340,38.574,76.172,-9.277
1532510590.987,92.285,40.039,36.133,60.059,-18.555
1532510590.991,85.938,36.133,24.902,57.129,86.426
1532510590.995,89.355,47.363,26.367,55.176,144.531
1532510590.999,90.820,50.781,37.598,51.758,46.875
1532510591.003,95.703,46.875,42.480,60.547,-57.129
1532510591.007,102.539,46.387,41.992,68.359,37.109
1532510591.011,99.121,46.387,43.945,71.289,145.020
1532510591.015,99.121,42.969,43.457,67.383,-71.289
1532510591.019,99.609,39.062,40.527,57.617,-134.766
1532510591.023,90.820,37.598,38.574,62.012,37.598
1532510591.027,98.145,42.969,31.738,68.848,158.691
1532510591.030,108.887,47.363,32.227,64.941,80.566
1532510591.034,102.051,45.898,33.691,60.059,-87.402
1532510591.038,94.727,37.598,33.203,63.477,-9.766
1532510591.042,92.285,32.715,32.227,52.734,159.180
1532510591.046,77.637,40.039,32.715,40.527,150.879
1532510591.050,78.613,47.852,34.180,41.016,-39.551
1532510591.054,87.891,47.363,28.320,44.434,-171.875
1532510591.058,83.496,44.922,26.367,43.457,-4.883
1532510591.062,87.402,48.828,32.227,47.363,197.266
1532510591.066,94.238,44.922,32.227,59.570,81.055
1532510591.070,94.727,37.598,29.785,66.406,4.883
1532510591.073,98.145,44.434,33.691,69.824,59.570
1532510591.077,110.352,49.805,30.762,71.289,152.832
1532510591.081,111.816,41.992,30.273,68.359,99.121
1532510591.085,85.938,39.062,32.715,65.430,-20.508
1532510591.089,80.566,43.945,32.227,63.965,41.504
1532510591.093,83.496,46.387,28.809,57.617,149.414
1532510591.097,75.195,40.039,28.809,52.246,58.105
1532510591.101,76.172,34.180,25.879,40.039,-72.266
1532510591.105,73.242,40.039,11.230,30.762,-54.688
1532510591.109,72.266,44.434,16.113,46.875,143.555
1532510591.112,79.102,49.316,24.902,49.316,75.684
1532510591.116,72.266,53.711,26.855,30.762,-184.570
1532510591.120,67.871,51.758,30.762,35.156,-63.965
1532510591.124,75.195,49.316,27.344,43.945,127.441
1532510591.128,93.750,45.410,28.809,44.922,169.434
1532510591.132,103.027,41.992,38.574,49.316,-11.230
1532510591.136,90.332,38.574,38.086,50.293,-92.773
1532510591.140,80.078,39.551,25.879,48.828,64.941
1532510591.144,82.031,39.551,20.020,49.316,128.906
1532510591.148,82.031,36.621,30.762,57.617,13.672
1532510591.152,90.820,29.785,41.016,59.082,-111.816
1532510591.155,101.074,32.227,37.598,48.828,-120.605
1532510591.159,88.867,44.922,35.645,56.641,93.262
1532510591.163,82.520,47.852,33.691,57.617,149.414
1532510591.167,77.148,43.457,29.785,55.664,19.531
1532510591.171,85.938,42.480,34.668,61.523,-23.438
1532510591.175,92.285,41.504,37.109,60.059,68.848
1532510591.179,82.520,41.504,29.297,56.152,166.992
1532510591.183,81.055,40.527,25.879,45.898,40.039
1532510591.187,83.496,37.598,30.273,40.527,-11.230
1532510591.191,88.379,38.574,38.574,53.223,101.074
1532510591.194,88.867,39.062,42.969,51.270,26.367
1532510591.198,87.891,37.109,36.133,43.457,-89.355
1532510591.202,97.656,31.738,27.832,53.711,-54.199
1532510591.206,108.887,31.250,29.785,60.059,75.195
1532510591.210,102.051,45.410,33.691,54.199,184.082
1532510591.214,96.680,49.805,34.180,49.805,42.480
1532510591.218,106.445,47.852,32.227,52.246,-40.039
1532510591.222,98.145,46.875,34.668,63.477,45.898
1532510591.226,85.449,41.504,40.039,66.406,171.387
1532510591.230,92.285,38.574,37.109,62.500,191.406
1532510591.234,97.168,38.086,29.297,59.570,3.906
1532510591.237,94.727,36.621,32.715,58.105,-69.336
1532510591.241,98.145,40.039,32.227,68.359,39.062
1532510591.245,84.473,41.992,32.227,63.965,104.492
1532510591.249,73.730,38.574,33.203,56.641,62.988
1532510591.253,82.520,38.574,30.273,46.387,-119.629
1532510591.257,84.961,31.738,29.297,41.504,-92.285
1532510591.261,81.543,34.180,32.715,57.129,147.461
1532510591.265,91.309,47.363,37.109,55.664,74.707
1532510591.269,99.609,46.387,37.598,57.617,-19.531
1532510591.273,92.773,48.340,38.086,62.012,29.297
1532510591.277,96.680,48.340,34.668,51.270,163.086
1532510591.280,97.168,43.945,29.297,47.852,135.742
1532510591.284,97.656,43.457,26.855,54.688,-80.566
1532510591.288,100.586,41.992,25.391,64.453,-58.594
1532510591.292,108.398,43.945,24.902,62.012,44.434
1532510591.296,104.492,41.992,35.156,44.434,-14.160
1532510591.300,91.797,39.062,42.480,53.223,-40.039
1532510591.304,92.773,40.527,38.574,52.734,-59.082
1532510591.308,91.309,33.203,39.062,58.105,60.547
1532510591.312,82.520,26.367,41.016,70.801,130.859
1532510591.316,92.773,36.133,41.992,66.895,11.719
1532510591.319,94.727,49.805,37.109,58.594,-14.160
1532510591.323,88.867,52.246,28.809,48.340,93.262
1532510591.327,87.891,41.992,33.691,54.199,215.332
1532510591.331,90.332,38.574,40.039,45.410,37.598
1532510591.335,96.680,40.039,39.551,39.551,-190.918
1532510591.339,94.727,39.551,35.645,43.945,-28.320
1532510591.343,86.914,41.504,35.156,41.992,154.297
1532510591.347,88.379,42.969,33.203,42.480,109.375
1532510591.351,93.750,37.598,27.344,50.293,-22.461
1532510591.355,98.145,36.133,31.250,57.129,-41.016
1532510591.359,101.562,37.109,41.992,51.270,139.648
1532510591.362,95.215,39.062,41.016,51.270,175.781
1532510591.366,88.867,45.898,35.645,55.664,-1.953
1532510591.370,86.426,46.875,37.109,48.828,-100.586
1532510591.374,85.938,44.434,38.086,45.898,24.414
1532510591.378,79.590,41.504,34.180,50.781,81.543
1532510591.382,78.613,43.457,27.832,55.664,-37.598
1532510591.386,91.797,44.922,32.715,55.176,-50.293
1532510591.390,96.191,38.574,39.551,52.246,86.914
1532510591.394,90.332,36.133,37.109,45.898,49.316
1532510591.398,84.473,38.574,31.250,44.434,-88.867
1532510591.402,85.938,40.039,32.227,52.246,-47.852
1532510591.405,92.285,42.480,38.086,57.129,25.879
1532510591.409,92.773,43.457,38.574,54.199,163.574
1532510591.413,98.633,41.504,37.598,53.711,140.625
1532510591.417,94.727,36.621,31.250,50.781,-33.691
1532510591.421,91.797,40.039,25.391,41.504,-30.762
1532510591.425,98.145,46.875,31.738,46.875,67.383
1532510591.429,91.797,44.434,34.180,46.387,77.148
1532510591.433,89.355,46.387,34.180,39.551,-86.426
1532510591.437,88.379,45.410,32.227,47.852,-138.184
1532510591.441,93.262,40.039,29.785,40.527,76.172
1532510591.444,83.008,38.086,35.156,41.016,162.109
1532510591.448,87.402,29.297,46.387,70.312,77.148
1532510591.452,105.469,34.668,41.992,68.848,-97.168
1532510591.456,82.520,44.922,25.391,54.688,-37.109
1532510591.460,73.242,42.480,32.715,44.922,178.711
1532510591.464,78.613,44.922,40.527,33.691,69.336
1532510591.468,56.641,38.086,37.598,31.738,-46.387
1532510591.472,60.547,41.016,28.320,30.273,-74.707
1532510591.476,67.871,54.688,20.020,30.273,25.879
1532510591.480,60.059,55.664,23.438,15.137,119.629
1532510591.484,69.336,53.223,27.832,12.695,-21.973
1532510591.487,80.566,52.734,30.762,27.832,-4.395
1532510591.491,77.637,51.758,28.320,34.668,90.332
1532510591.495,73.242,51.270,24.414,33.203,69.824
1532510591.499,82.520,51.270,26.367,42.480,2.930
