timestamps,TP9,AF7,AF8,TP10,Right AUX
1532402009.744,-21.484,30.762,34.668,37.109,45.898
1532402009.748,-21.484,25.879,34.180,40.527,36.621
1532402009.751,-18.555,24.902,35.645,41.016,14.648
1532402009.755,-18.555,35.156,33.203,41.504,13.672
1532402009.759,-22.461,36.621,26.855,36.133,28.320
1532402009.763,-24.414,29.297,26.855,31.738,-4.395
1532402009.767,-24.414,21.973,33.203,32.227,-9.277
1532402009.771,-22.461,29.785,38.086,28.809,-10.742
1532402009.775,-25.391,38.574,34.668,21.484,-5.371
1532402009.779,-25.879,26.855,28.809,25.391,8.301
1532402009.783,-22.949,25.879,30.273,28.809,6.836
1532402009.787,-23.438,35.156,29.297,31.250,38.574
1532402009.791,-27.832,30.762,27.832,31.250,30.762
1532402009.795,-33.691,22.949,29.297,25.391,13.672
1532402009.798,-29.297,24.414,31.738,29.297,24.902
1532402009.802,-20.996,37.109,39.062,37.598,22.461
1532402009.806,-15.625,48.828,42.969,40.527,35.156
1532402009.810,-15.625,40.039,35.156,36.133,5.859
1532402009.814,-19.531,25.391,27.832,25.391,-48.828
1532402009.818,-16.113,33.691,41.016,35.156,-31.738
1532402009.822,-13.672,35.156,38.086,40.527,2.441
1532402009.826,-18.555,19.043,23.926,30.273,30.762
1532402009.830,-11.230,25.879,33.203,37.598,19.043
1532402009.834,-8.301,37.109,36.621,33.691,26.367
1532402009.838,-7.812,41.504,34.668,32.227,38.574
1532402009.841,-2.930,37.598,34.180,36.133,34.180
1532402009.845,1.465,41.504,31.738,31.250,25.879
1532402009.849,1.953,46.387,26.367,27.344,-4.395
1532402009.853,-1.953,38.086,25.391,23.926,-32.227
1532402009.857,-7.324,33.691,32.715,33.691,5.371
1532402009.861,-18.066,24.414,33.203,34.180,21.973
1532402009.865,-21.484,26.855,34.180,35.156,-0.977
1532402009.869,-23.926,24.414,37.109,44.434,-0.977
1532402009.873,-28.320,24.414,39.551,44.434,-0.488
1532402009.877,-27.832,38.574,44.434,46.875,39.062
1532402009.881,-34.180,26.855,39.551,48.340,28.809
1532402009.884,-35.645,20.020,38.574,48.340,39.062
1532402009.888,-31.738,25.879,39.062,51.270,58.105
1532402009.892,-28.809,19.531,31.738,45.898,22.949
1532402009.896,-34.180,13.672,25.879,36.133,13.672
1532402009.900,-41.504,20.020,28.809,31.250,25.879
1532402009.904,-39.551,29.785,34.668,31.738,37.109
1532402009.908,-39.062,34.180,35.156,36.621,41.992
1532402009.912,-35.156,39.551,36.621,29.297,9.277
1532402009.916,-37.109,30.762,32.715,20.020,-31.250
1532402009.920,-46.387,19.531,28.320,25.391,-18.555
1532402009.924,-41.992,20.996,34.180,26.367,-7.812
1532402009.927,-37.109,28.809,36.621,26.367,33.691
1532402009.931,-32.227,28.809,30.762,27.832,26.367
1532402009.935,-29.785,30.273,31.250,31.250,-24.414
1532402009.939,-29.297,43.945,39.551,41.016,9.277
1532402009.943,-29.785,41.992,37.598,41.504,48.828
1532402009.947,-34.668,16.602,31.250,33.203,46.387
1532402009.951,-33.203,12.207,32.227,34.180,22.461
1532402009.955,-32.715,21.973,32.227,36.133,28.320
1532402009.959,-34.180,22.949,33.691,34.668,58.594
1532402009.963,-35.645,23.926,34.668,35.645,54.199
1532402009.967,-38.086,28.809,35.645,41.504,31.250
1532402009.971,-39.062,33.691,36.133,39.062,6.348
1532402009.974,-40.527,32.227,31.738,32.227,-11.719
1532402009.978,-48.828,18.555,24.414,27.832,-15.625
1532402009.982,-43.945,26.367,28.320,34.668,4.395
1532402009.986,-31.738,38.574,32.227,35.645,17.578
1532402009.990,-39.062,20.508,22.949,25.391,11.719
1532402009.994,-41.016,22.949,21.484,27.344,-1.465
1532402009.998,-33.691,34.180,26.367,30.273,-10.742
1532402010.002,-34.668,27.832,25.391,24.414,19.043
1532402010.006,-38.086,23.926,25.391,25.879,24.902
1532402010.010,-36.621,23.438,26.855,29.785,28.320
1532402010.014,-38.086,30.273,25.879,19.531,-5.859
1532402010.017,-34.668,31.250,29.297,24.414,-20.996
1532402010.021,-30.762,35.156,31.250,36.133,27.832
1532402010.025,-37.598,39.551,23.438,25.879,55.176
1532402010.029,-45.898,17.578,17.578,19.531,46.875
1532402010.033,-45.410,17.090,29.297,26.855,-0.977
1532402010.037,-40.039,29.785,36.133,31.250,-2.441
1532402010.041,-40.039,28.320,31.738,28.320,33.203
1532402010.045,-43.457,23.438,29.297,31.738,19.531
1532402010.049,-38.086,28.809,33.203,41.992,2.441
1532402010.053,-34.668,38.574,32.715,39.062,11.230
1532402010.057,-32.227,40.039,28.809,41.504,9.277
1532402010.060,-41.016,21.973,27.344,34.668,21.484
1532402010.064,-48.340,22.949,25.879,26.367,31.738
1532402010.068,-41.016,28.809,25.391,29.297,1.953
1532402010.072,-43.945,25.391,25.391,21.973,-29.297
1532402010.076,-52.734,30.273,24.902,22.461,-10.254
1532402010.080,-54.688,28.809,22.949,23.926,12.695
1532402010.084,-52.246,27.344,27.344,25.391,-3.418
1532402010.088,-47.852,28.320,31.250,30.762,9.766
1532402010.092,-51.270,31.250,29.297,29.785,45.898
1532402010.096,-54.199,23.438,32.227,27.344,45.898
1532402010.100,-47.363,18.555,28.320,28.320,33.691
1532402010.104,-50.781,25.879,22.949,29.297,16.602
1532402010.107,-55.176,28.809,22.461,31.250,24.414
1532402010.111,-48.340,33.691,30.762,34.668,22.949
1532402010.115,-53.223,42.480,37.109,32.227,-2.441
1532402010.119,-56.641,36.621,31.738,30.273,13.184
1532402010.123,-50.293,29.785,30.273,29.785,45.410
1532402010.127,-50.293,24.414,29.785,29.785,51.758
1532402010.131,-45.410,20.996,31.738,29.785,12.207
1532402010.135,-43.945,26.855,31.738,30.273,-4.883
1532402010.139,-48.828,22.949,28.809,36.133,7.812
1532402010.143,-44.434,25.391,30.762,36.133,14.160
1532402010.147,-38.086,31.250,33.691,39.551,29.785
1532402010.150,-43.457,23.438,26.367,29.297,8.789
1532402010.154,-49.805,11.719,22.461,19.043,-5.859
1532402010.158,-57.129,3.418,20.996,18.066,11.719
1532402010.162,-57.617,9.277,18.066,19.531,20.020
1532402010.166,-50.293,20.508,22.461,30.762,7.324
1532402010.170,-51.270,22.461,24.902,31.738,-16.602
1532402010.174,-44.922,23.438,23.926,27.832,2.930
1532402010.178,-39.062,28.809,29.785,34.668,53.711
1532402010.182,-47.363,18.066,29.297,30.273,41.504
1532402010.186,-54.688,-0.488,28.809,21.973,7.812
1532402010.190,-54.688,3.418,35.645,34.668,16.602
1532402010.193,-49.316,17.090,38.574,30.273,11.719
1532402010.197,-45.898,21.973,37.598,23.438,2.441
1532402010.201,-48.340,19.531,34.180,34.180,34.180
1532402010.205,-50.781,22.949,35.645,40.527,41.992
1532402010.209,-48.340,19.531,34.180,42.480,-9.766
1532402010.213,-44.922,17.090,33.691,39.062,-8.789
1532402010.217,-38.086,19.531,38.574,39.062,7.812
1532402010.221,-40.039,15.137,33.203,39.062,6.348
1532402010.225,-46.387,11.230,27.344,35.156,32.227
1532402010.229,-43.945,13.184,29.297,36.133,41.504
1532402010.233,-39.551,21.484,27.832,39.062,20.996
1532402010.237,-40.527,24.414,32.715,45.410,0.000
1532402010.240,-38.086,20.996,36.621,51.758,18.555
1532402010.244,-38.574,14.648,33.691,44.922,33.691
1532402010.248,-42.969,20.508,32.227,32.227,-7.812
1532402010.252,-38.086,30.273,30.273,28.809,-27.344
1532402010.256,-30.762,22.461,20.996,27.344,-16.602
1532402010.260,-27.832,20.996,17.090,35.156,7.324
1532402010.264,-23.438,34.180,25.391,46.387,28.809
1532402010.268,-20.020,31.250,22.461,42.969,5.371
1532402010.272,-22.461,29.297,15.137,40.039,-12.695
1532402010.276,-15.137,36.133,20.020,49.316,37.598
1532402010.280,-13.184,28.809,20.996,47.852,43.945
1532402010.283,-10.254,25.879,20.996,44.434,23.926
1532402010.287,-15.625,20.020,18.066,34.668,37.598
1532402010.291,-22.461,23.926,15.625,24.902,20.996
1532402010.295,-20.508,28.320,17.090,24.414,-1.465
1532402010.299,-18.555,32.227,15.625,29.297,0.000
1532402010.303,-21.484,30.762,15.625,26.855,13.184
1532402010.307,-17.090,27.344,21.484,36.621,21.973
1532402010.311,-10.254,32.715,20.996,38.574,9.766
1532402010.315,-10.254,32.715,21.973,34.180,-7.812
1532402010.319,-6.836,34.180,23.926,45.898,-3.418
1532402010.323,-13.672,33.203,23.438,44.922,19.531
1532402010.326,-17.578,19.531,20.020,38.574,36.133
1532402010.330,-7.324,21.484,24.902,42.480,13.672
1532402010.334,-14.648,30.762,27.344,38.086,-7.812
1532402010.338,-21.484,25.391,23.926,36.133,9.766
1532402010.342,-15.137,23.926,28.320,41.992,35.156
1532402010.346,-15.625,28.809,25.879,41.992,49.805
1532402010.350,-20.508,28.320,25.391,40.039,0.977
1532402010.354,-21.973,23.438,26.367,37.598,-16.113
1532402010.358,-24.414,22.461,22.949,32.227,32.227
1532402010.362,-25.879,27.344,23.926,30.273,20.508
1532402010.366,-31.738,25.879,27.344,29.785,20.508
1532402010.369,-29.297,27.832,28.320,31.738,27.344
1532402010.373,-27.832,33.691,22.949,26.367,20.020
1532402010.377,-30.273,35.156,21.484,30.273,17.090
1532402010.381,-21.484,25.391,21.484,39.551,45.410
1532402010.385,-14.648,26.367,24.414,35.645,41.992
1532402010.389,-7.812,37.109,28.809,42.969,17.090
1532402010.393,-2.441,42.969,28.320,42.480,34.668
1532402010.397,-10.254,30.762,25.879,37.109,47.363
1532402010.401,-7.324,23.438,31.250,43.945,27.832
1532402010.405,-8.301,27.832,32.715,37.109,21.973
1532402010.409,-9.277,24.902,28.809,33.691,27.832
1532402010.413,-5.859,27.344,30.762,37.598,10.254
1532402010.416,-12.207,21.973,28.320,27.344,6.348
1532402010.420,-6.348,20.996,24.414,25.879,23.926
1532402010.424,5.371,39.062,28.320,31.738,41.992
1532402010.428,0.488,37.109,28.320,29.785,13.672
1532402010.432,-4.883,20.508,24.414,18.066,-18.066
1532402010.436,-5.371,25.879,29.785,12.695,-12.207
1532402010.440,-16.113,31.250,23.926,21.484,16.113
1532402010.444,-23.926,25.879,24.414,31.250,23.926
1532402010.448,-27.344,24.902,30.273,37.109,6.348
1532402010.452,-28.320,33.203,27.832,37.109,7.324
1532402010.456,-36.133,27.832,26.855,33.691,20.996
1532402010.459,-37.109,23.438,29.785,40.039,32.227
1532402010.463,-34.668,26.855,25.879,43.457,31.738
1532402010.467,-35.156,17.578,20.996,44.434,-5.859
1532402010.471,-29.297,26.367,25.391,41.992,-25.879
1532402010.475,-30.762,32.227,29.297,32.227,31.250
1532402010.479,-29.785,25.879,33.691,38.574,46.875
1532402010.483,-29.297,26.855,28.809,38.086,-2.930
1532402010.487,-27.832,26.367,26.367,34.180,5.371
1532402010.491,-25.391,26.855,27.832,34.668,-5.371
1532402010.495,-23.926,35.645,31.250,33.691,-15.137
1532402010.499,-24.414,35.156,31.250,31.738,14.648
1532402010.502,-26.855,23.438,23.438,22.949,6.348
1532402010.506,-24.414,27.344,28.320,21.484,14.648
1532402010.510,-16.602,47.363,28.809,24.902,32.715
1532402010.514,-17.090,38.086,18.555,24.902,4.883
1532402010.518,-16.113,19.531,20.020,23.926,17.578
1532402010.522,-20.996,26.855,20.996,26.367,57.617
1532402010.526,-20.996,25.391,25.879,32.227,47.363
1532402010.530,-20.508,20.996,29.297,33.691,35.645
1532402010.534,-21.973,26.367,32.715,24.902,-7.812
1532402010.538,-16.113,36.133,40.039,29.785,-1.953
1532402010.542,-17.090,38.086,36.133,37.109,24.902
1532402010.546,-22.949,25.391,28.809,30.762,13.672
1532402010.549,-20.508,21.484,30.273,32.715,1.953
1532402010.553,-22.461,23.438,28.809,28.809,-25.879
1532402010.557,-24.414,28.320,26.367,28.809,43.945
1532402010.561,-19.531,32.227,31.738,36.621,77.637
1532402010.565,-24.414,22.461,28.809,29.785,26.367
1532402010.569,-17.090,24.414,25.391,27.832,17.090
1532402010.573,4.883,28.320,26.367,39.551,-13.672
1532402010.577,-5.371,24.902,31.738,28.320,5.371
1532402010.581,-30.762,26.367,38.574,12.695,44.922
1532402010.585,-34.180,25.879,36.621,15.625,17.090
1532402010.589,-37.598,21.484,36.133,12.207,11.719
1532402010.592,-41.016,18.555,39.551,4.395,7.812
1532402010.596,-40.527,30.273,43.945,8.301,19.043
1532402010.600,-43.945,35.156,44.434,7.812,32.227
1532402010.604,-46.875,20.996,42.480,0.488,30.762
1532402010.608,-41.504,17.090,39.062,5.371,19.531
1532402010.612,-28.320,26.367,43.457,14.648,7.812
1532402010.616,-25.391,30.762,43.457,12.695,-7.324
1532402010.620,-20.996,24.902,39.062,15.625,14.648
1532402010.624,-26.367,20.996,37.109,19.531,39.551
1532402010.628,-28.320,38.086,38.574,25.879,45.898
1532402010.632,-32.227,31.250,35.645,24.414,28.809
1532402010.635,-41.992,8.789,32.715,19.531,9.766
1532402010.639,-37.109,20.508,36.621,26.367,36.133
1532402010.643,-40.039,25.391,30.762,24.414,34.180
1532402010.647,-40.039,23.438,33.691,18.555,10.742
1532402010.651,-34.668,26.367,36.133,21.973,15.625
1532402010.655,-33.203,25.879,34.180,22.461,10.254
1532402010.659,-31.250,30.273,43.945,26.367,10.254
1532402010.663,-30.273,36.133,45.898,24.414,19.531
1532402010.667,-33.203,23.438,33.203,21.484,20.996
1532402010.671,-36.133,15.625,30.273,22.949,-0.977
1532402010.675,-36.133,29.297,39.551,20.508,-2.441
1532402010.679,-29.785,33.203,42.480,24.414,10.254
1532402010.682,-27.344,21.484,35.645,27.832,2.930
1532402010.686,-28.320,24.902,35.156,33.691,-3.418
1532402010.690,-28.320,26.855,34.668,33.691,-0.488
1532402010.694,-28.320,18.066,34.180,36.621,31.738
1532402010.698,-26.367,20.508,35.645,38.574,38.574
1532402010.702,-24.414,28.320,31.250,37.109,44.434
1532402010.706,-27.832,37.109,33.691,38.086,40.039
1532402010.710,-36.133,35.156,33.691,28.809,34.180
1532402010.714,-38.086,24.902,34.180,20.996,9.766
1532402010.718,-36.133,22.461,37.598,23.438,-7.812
1532402010.722,-32.715,29.297,40.039,30.762,6.836
1532402010.725,-42.969,30.762,38.574,25.391,20.020
1532402010.729,-56.641,24.414,34.180,17.578,37.598
1532402010.733,-48.340,32.715,36.621,20.020,10.742
1532402010.737,-48.340,36.133,36.133,20.996,-8.789
1532402010.741,-54.688,21.484,30.762,12.695,7.324
1532402010.745,-53.711,22.461,33.203,9.277,8.789
1532402010.749,-54.199,26.855,34.668,20.020,8.789
1532402010.753,-48.828,24.414,30.273,21.484,-16.602
1532402010.757,-42.480,22.461,37.109,21.973,-7.324
1532402010.761,-41.504,21.973,37.598,35.645,40.527
1532402010.765,-39.551,24.902,30.762,34.668,22.949
1532402010.768,-30.273,41.016,39.551,41.504,21.484
1532402010.772,-33.691,49.316,38.574,39.062,33.691
1532402010.776,-42.969,28.320,31.250,22.949,38.086
1532402010.780,-41.016,22.949,30.762,28.320,38.574
1532402010.784,-39.062,28.320,26.855,32.227,13.184
1532402010.788,-39.062,32.227,30.273,32.227,8.789
1532402010.792,-38.574,29.297,29.297,29.297,-7.324
1532402010.796,-40.527,28.320,29.297,26.855,5.371
1532402010.800,-43.457,37.598,32.715,28.320,13.184
1532402010.804,-44.922,31.250,25.879,23.926,6.836
1532402010.808,-39.062,33.203,27.344,29.785,38.086
1532402010.812,-35.156,48.340,35.156,29.297,48.340
1532402010.815,-41.992,30.273,26.367,14.648,36.621
1532402010.819,-41.016,19.531,27.344,18.555,20.508
1532402010.823,-35.645,30.273,30.762,23.438,20.996
1532402010.827,-29.785,31.250,32.715,32.227,68.848
1532402010.831,-25.391,34.180,31.738,37.598,55.176
1532402010.835,-26.855,30.273,26.367,29.297,9.766
1532402010.839,-21.973,44.434,34.180,36.133,30.762
1532402010.843,-25.391,44.434,30.273,33.691,36.621
1532402010.847,-30.273,20.996,20.996,26.855,40.527
1532402010.851,-34.668,18.066,24.902,27.832,19.043
1532402010.855,-36.133,22.461,28.320,16.602,-26.367
1532402010.858,-32.715,29.785,32.227,17.578,-20.508
1532402010.862,-35.645,28.809,28.809,23.438,19.043
1532402010.866,-22.949,30.273,25.391,24.414,30.762
1532402010.870,-20.020,33.691,26.367,24.902,27.832
1532402010.874,-37.109,33.203,29.297,22.461,39.551
1532402010.878,-36.621,39.062,35.156,22.461,52.734
1532402010.882,-35.156,37.598,31.250,20.996,23.438
1532402010.886,-41.016,20.996,23.438,14.160,-5.859
1532402010.890,-35.645,26.367,27.832,16.113,13.184
1532402010.894,-36.133,27.344,29.297,11.230,28.320
1532402010.898,-37.598,26.367,27.832,12.695,11.719
1532402010.901,-33.203,28.809,24.902,20.508,14.160
1532402010.905,-33.203,30.762,25.879,26.855,16.113
1532402010.909,-34.180,33.203,31.250,33.691,29.297
1532402010.913,-35.645,26.855,35.645,29.297,41.504
1532402010.917,-31.250,34.180,39.062,38.574,17.090
1532402010.921,-32.715,38.574,37.598,41.992,9.277
1532402010.925,-41.992,23.926,33.691,38.086,32.715
1532402010.929,-35.645,11.230,39.062,52.734,42.969
1532402010.933,-43.457,11.719,33.203,36.133,25.391
1532402010.937,-50.293,27.344,18.555,9.277,-6.836
1532402010.941,-36.621,37.109,20.996,21.484,-0.977
1532402010.944,-39.062,31.250,19.043,35.156,24.902
1532402010.948,-38.574,23.926,15.137,30.762,21.484
1532402010.952,-32.715,35.645,21.484,26.855,-18.555
1532402010.956,-36.621,39.551,21.484,27.344,-42.480
1532402010.960,-46.387,25.391,20.508,27.344,43.945
1532402010.964,-42.969,21.973,19.531,29.785,59.082
1532402010.968,-41.016,27.344,18.555,30.273,8.301
1532402010.972,-40.527,27.832,21.484,27.832,15.625
1532402010.976,-32.227,31.250,26.855,32.227,12.207
1532402010.980,-31.250,32.715,27.832,39.062,25.391
1532402010.984,-32.715,22.461,21.973,35.645,6.836
1532402010.988,-26.367,19.043,19.043,34.180,-7.812
1532402010.991,-24.414,22.949,22.949,34.668,0.000
1532402010.995,-23.926,33.203,28.809,34.668,12.207
1532402010.999,-20.996,33.691,21.973,34.180,0.000
1532402011.003,-18.555,24.414,16.602,29.297,-15.625
1532402011.007,-16.113,28.809,19.531,26.367,16.113
1532402011.011,-12.695,30.273,19.531,17.578,38.086
1532402011.015,-1.953,31.250,19.043,18.555,14.648
1532402011.019,1.953,30.762,22.461,23.438,-8.301
1532402011.023,-5.371,24.414,22.949,26.367,4.883
1532402011.027,-17.578,31.738,26.367,36.133,26.855
1532402011.031,-27.344,28.809,22.949,38.086,45.898
1532402011.034,-33.203,26.855,21.484,24.902,33.691
1532402011.038,-33.691,27.832,24.902,24.902,-2.930
1532402011.042,-25.879,31.250,27.344,41.016,-3.418
1532402011.046,-26.855,30.762,26.367,41.016,32.715
1532402011.050,-25.879,29.785,26.367,41.504,58.594
1532402011.054,-24.902,33.203,27.344,42.480,27.344
1532402011.058,-26.367,21.973,28.809,42.969,-9.277
1532402011.062,-23.438,21.484,31.738,42.480,19.531
1532402011.066,-19.531,31.738,29.785,40.527,39.551
1532402011.070,-20.020,24.414,26.855,40.039,12.207
1532402011.074,-19.531,29.785,33.691,45.410,-1.953
1532402011.077,-25.391,32.227,33.691,45.410,28.809
1532402011.081,-26.855,22.461,35.156,39.551,66.406
1532402011.085,-29.785,22.461,37.109,36.621,53.223
1532402011.089,-41.016,15.137,31.738,36.621,16.113
1532402011.093,-36.621,18.555,32.227,36.133,11.230
1532402011.097,-33.203,25.879,32.715,33.691,31.250
1532402011.101,-34.180,24.902,34.180,33.203,28.320
1532402011.105,-28.809,33.203,38.574,38.086,16.113
1532402011.109,-31.738,39.062,28.809,30.762,14.648
1532402011.113,-45.898,11.719,20.508,19.043,16.602
1532402011.117,-50.293,3.418,24.414,19.531,11.230
1532402011.121,-44.922,20.508,26.367,23.438,-17.090
1532402011.124,-41.504,24.414,26.855,23.926,-17.578
1532402011.128,-41.992,21.973,26.855,23.926,25.391
1532402011.132,-33.203,28.809,30.762,29.297,8.301
1532402011.136,-29.297,31.738,30.273,23.438,-25.391
1532402011.140,-32.227,29.785,25.879,15.137,-23.438
1532402011.144,-27.832,28.320,28.320,28.320,30.762
1532402011.148,-31.250,17.090,25.879,35.645,48.340
1532402011.152,-27.832,21.484,25.391,33.203,-11.230
1532402011.156,-0.488,39.062,26.367,49.805,3.418
1532402011.160,-3.418,30.762,29.297,53.711,29.297
1532402011.164,-33.691,27.832,39.551,26.855,41.016
1532402011.167,-42.969,36.621,36.621,16.602,59.082
1532402011.171,-63.477,26.855,33.203,4.395,29.785
1532402011.175,-77.637,18.066,38.086,-11.230,21.973
1532402011.179,-74.219,25.879,41.016,-1.465,46.387
1532402011.183,-81.543,27.832,38.086,-8.789,35.645
1532402011.187,-83.008,20.020,36.133,-12.695,18.555
1532402011.191,-73.242,23.926,35.156,-9.766,36.621
1532402011.195,-65.918,29.785,35.156,-14.160,31.738
1532402011.199,-67.871,24.414,34.180,-8.789,13.672
1532402011.203,-70.801,21.484,29.785,-5.859,21.484
1532402011.207,-72.266,21.973,29.785,-3.418,29.785
1532402011.210,-68.848,17.578,34.668,2.930,42.969
1532402011.214,-55.176,20.020,34.668,8.789,35.156
1532402011.218,-45.898,27.344,29.785,15.137,15.137
1532402011.222,-38.086,30.273,32.715,22.461,20.508
1532402011.226,-37.598,27.344,36.133,25.879,22.949
1532402011.230,-35.156,22.461,37.598,28.320,57.129
1532402011.234,-29.785,27.344,39.062,27.344,19.043
1532402011.238,-29.785,28.320,35.156,24.902,-20.020
1532402011.242,-29.297,26.367,35.156,26.367,13.672
1532402011.246,-31.250,29.785,37.109,26.367,32.227
1532402011.250,-37.598,21.973,30.762,18.555,19.043
1532402011.254,-36.133,24.414,27.344,11.230,-41.504
1532402011.257,-30.762,35.645,30.273,15.625,-30.762
1532402011.261,-31.250,28.320,28.809,20.996,27.832
1532402011.265,-31.250,29.785,28.320,19.531,35.156
1532402011.269,-32.715,20.996,27.832,19.531,14.648
1532402011.273,-32.227,16.113,30.762,23.438,-10.742
1532402011.277,-30.762,24.902,29.785,22.461,0.488
1532402011.281,-32.715,36.621,29.297,24.902,35.645
1532402011.285,-38.574,31.250,24.902,25.879,10.254
1532402011.289,-38.086,23.926,29.785,30.762,-20.996
1532402011.293,-41.016,29.297,35.645,33.691,-0.488
1532402011.297,-35.156,26.855,27.832,31.250,20.508
1532402011.300,-31.250,21.484,25.879,30.762,-4.883
1532402011.304,-33.203,22.949,31.250,38.086,-13.184
1532402011.308,-28.320,29.297,28.320,41.016,15.625
1532402011.312,-27.344,29.297,28.809,37.598,22.949
1532402011.316,-23.926,37.598,33.203,38.086,-13.184
1532402011.320,-24.414,36.621,28.320,33.691,-43.945
1532402011.324,-30.273,25.391,24.902,25.391,-7.324
1532402011.328,-32.715,13.184,23.438,27.344,51.758
1532402011.332,-27.344,15.625,24.414,26.367,32.227
1532402011.336,-26.855,29.785,25.879,16.602,-38.574
1532402011.340,-30.273,34.668,30.273,23.438,5.371
1532402011.343,-31.250,33.203,26.855,31.250,26.855
1532402011.347,-35.156,30.762,23.926,29.785,29.785
1532402011.351,-27.832,32.715,26.367,30.273,8.789
1532402011.355,-23.926,31.250,28.809,35.645,-21.484
1532402011.359,-31.250,34.180,34.180,43.945,-3.418
1532402011.363,-31.250,41.504,36.133,43.457,24.902
1532402011.367,-37.598,27.832,28.320,33.203,11.719
1532402011.371,-41.504,13.672,20.020,29.785,-21.484
1532402011.375,-40.527,19.531,27.344,27.344,-28.320
1532402011.379,-41.016,21.973,33.203,21.484,-27.344
1532402011.383,-33.691,28.809,30.762,31.250,6.836
1532402011.387,-31.738,32.715,31.250,32.227,10.254
1532402011.390,-32.227,28.320,36.621,30.762,8.789
1532402011.394,-34.668,25.879,34.180,33.691,36.621
1532402011.398,-39.062,29.297,31.250,31.250,12.695
1532402011.402,-28.809,41.016,32.227,32.715,-8.789
1532402011.406,-29.785,29.297,27.832,30.762,24.414
1532402011.410,-45.410,15.137,24.414,24.414,36.621
1532402011.414,-40.039,19.531,27.344,22.461,-11.719
1532402011.418,-34.180,24.902,30.273,23.926,-21.973
1532402011.422,-36.133,34.668,27.832,23.438,12.207
1532402011.426,-39.551,29.297,22.949,20.996,18.066
1532402011.430,-40.039,24.902,28.320,22.949,28.320
1532402011.433,-39.062,32.227,27.832,15.625,14.160
1532402011.437,-36.133,29.785,20.996,11.719,-1.953
1532402011.441,-34.668,31.250,21.973,8.789,-4.395
1532402011.445,-36.621,30.762,28.809,4.395,13.672
1532402011.449,-35.645,24.902,31.738,-0.488,14.160
1532402011.453,-34.668,28.809,30.762,-9.766,-9.766
1532402011.457,-30.762,39.551,32.715,-9.766,-10.742
1532402011.461,-36.133,25.879,27.344,-18.555,26.367
1532402011.465,-39.551,20.508,25.391,-38.086,23.438
1532402011.469,-32.227,34.180,27.832,-62.988,14.648
1532402011.473,-39.062,28.320,25.391,-116.699,-0.977
1532402011.476,-41.016,17.090,20.996,-183.594,-29.297
1532402011.480,-38.574,22.949,24.902,-239.258,19.043
1532402011.484,-40.039,33.203,31.738,-282.227,22.949
1532402011.488,-32.227,27.344,27.832,-309.082,-18.066
1532402011.492,-31.738,27.832,26.367,-332.520,5.859
1532402011.496,-34.668,35.156,27.832,-352.539,43.457
1532402011.500,-35.156,28.809,25.879,-361.816,17.090
1532402011.504,-35.156,29.785,24.902,-374.512,12.695
1532402011.508,-37.598,31.738,23.438,-383.789,9.766
1532402011.512,-43.457,27.344,22.461,-398.926,8.301
1532402011.516,-42.480,25.879,22.461,-412.109,15.625
1532402011.519,-36.133,30.273,20.996,-398.926,7.812
1532402011.523,-40.527,25.391,24.902,-394.043,0.488
1532402011.527,-43.945,19.043,29.297,-404.785,9.277
1532402011.531,-45.898,25.391,23.926,-419.922,6.836
1532402011.535,-41.016,33.203,29.785,-434.082,-0.977
1532402011.539,-36.621,28.320,32.227,-446.289,20.996
1532402011.543,-40.527,17.090,26.367,-458.008,32.715
1532402011.547,-39.062,24.902,29.297,-461.426,20.508
1532402011.551,-41.504,38.574,25.391,-458.984,-20.508
1532402011.555,-46.875,20.508,23.438,-441.895,-8.301
1532402011.559,-46.387,16.602,23.926,-393.555,4.883
1532402011.563,-47.852,29.297,21.484,-337.402,10.742
1532402011.566,-49.805,29.297,27.344,-295.410,20.508
1532402011.570,-46.875,33.203,32.227,-253.418,10.254
1532402011.574,-44.434,31.738,32.227,-213.379,20.020
1532402011.578,-45.410,25.879,28.809,-180.664,59.082
1532402011.582,-39.062,36.133,35.156,-147.949,52.246
1532402011.586,-33.203,38.086,30.762,-130.371,37.109
1532402011.590,-37.109,20.996,27.344,-122.070,22.949
1532402011.594,-41.992,25.391,33.691,-111.328,13.672
1532402011.598,-49.316,28.809,28.809,-123.535,41.504
1532402011.602,-47.363,32.715,24.902,-130.859,19.531
1532402011.606,-36.133,42.480,30.762,-120.605,-5.371
1532402011.609,-42.969,43.457,37.109,-107.910,26.367
1532402011.613,-59.570,41.504,40.039,-106.934,22.949
1532402011.617,-69.336,43.457,36.133,-109.863,-22.949
1532402011.621,-82.520,43.457,34.668,-93.750,2.441
1532402011.625,-107.422,39.551,43.945,-88.379,50.781
1532402011.629,-120.117,43.945,50.293,-88.867,67.383
1532402011.633,-120.605,50.781,52.734,-83.496,23.926
1532402011.637,-125.977,53.223,55.664,-83.984,-14.160
1532402011.641,-130.859,57.129,57.129,-82.520,21.973
1532402011.645,-133.789,61.035,54.688,-92.285,50.293
1532402011.649,-134.766,58.594,48.828,-102.051,35.156
1532402011.652,-137.695,54.199,46.387,-100.586,-2.441
1532402011.656,-138.672,54.688,46.387,-99.609,-35.156
1532402011.660,-133.789,60.059,48.828,-82.031,-2.441
1532402011.664,-135.254,56.641,50.781,-66.406,47.363
1532402011.668,-130.371,56.152,54.199,-52.246,39.551
1532402011.672,-116.211,78.613,62.012,-36.621,-0.488
1532402011.676,-119.141,59.082,55.176,-34.180,16.602
1532402011.680,-119.141,33.691,47.852,-30.762,36.621
1532402011.684,-109.863,45.898,45.898,-33.203,20.508
1532402011.688,-104.492,43.457,41.992,-46.387,6.836
1532402011.692,-91.309,41.016,41.992,-59.082,10.254
1532402011.696,-78.613,49.316,43.945,-50.781,-0.488
1532402011.699,-72.266,49.316,43.457,-25.391,21.484
1532402011.703,-60.059,42.969,37.598,4.395,25.391
1532402011.707,-52.246,36.621,32.715,27.344,15.625
1532402011.711,-43.945,31.250,34.180,47.852,12.695
1532402011.715,-41.504,31.250,35.645,70.312,14.648
1532402011.719,-41.992,21.484,31.250,79.590,43.945
1532402011.723,-33.203,15.625,30.273,88.379,17.090
1532402011.727,-25.879,21.484,31.738,105.469,-7.324
1532402011.731,-19.043,31.250,35.156,122.559,16.602
1532402011.735,-20.996,10.742,26.367,118.164,-19.043
1532402011.739,-15.625,0.488,24.414,124.512,-52.246
1532402011.742,-9.277,11.719,26.367,135.742,3.906
1532402011.746,-12.695,8.301,20.996,136.719,47.852
1532402011.750,-2.930,13.672,26.367,142.090,18.555
1532402011.754,1.465,12.695,25.879,145.508,-7.324
1532402011.758,0.488,19.043,21.973,146.973,3.418
1532402011.762,1.953,19.531,21.973,150.879,43.457
1532402011.766,0.488,3.906,21.484,151.855,62.012
1532402011.770,4.395,14.160,29.785,156.250,53.223
1532402011.774,7.812,18.555,30.273,155.762,44.922
1532402011.778,9.766,12.695,24.414,152.832,45.898
1532402011.782,15.625,14.648,23.926,151.367,44.434
1532402011.785,16.113,20.020,23.926,145.020,5.371
1532402011.789,14.160,27.832,22.949,147.461,21.484
1532402011.793,12.207,29.785,23.926,143.555,51.758
1532402011.797,7.324,24.902,25.879,132.812,40.039
1532402011.801,8.301,15.625,25.879,140.137,10.254
1532402011.805,19.043,19.531,31.250,151.855,-8.301
1532402011.809,24.414,32.227,37.109,157.227,4.883
1532402011.813,12.695,35.645,44.922,147.461,18.066
1532402011.817,3.906,30.762,41.016,130.859,27.832
1532402011.821,-3.906,28.809,31.250,115.723,12.695
1532402011.825,-21.973,27.344,35.156,104.004,3.906
1532402011.829,-27.344,33.691,41.016,100.586,8.301
1532402011.832,-36.621,41.992,41.992,87.891,-0.977
1532402011.836,-53.223,41.992,44.434,62.988,-37.109
1532402011.840,-65.430,42.480,42.969,45.898,-9.277
1532402011.844,-71.777,46.875,52.246,44.922,36.133
1532402011.848,-83.496,52.734,68.848,36.133,31.250
1532402011.852,-99.121,63.965,75.195,15.625,20.996
1532402011.856,-113.770,66.895,78.613,-9.277,19.531
1532402011.860,-130.371,66.895,79.102,-18.066,39.551
1532402011.864,-139.160,72.754,77.148,-18.555,34.180
1532402011.868,-136.719,77.148,74.707,-22.461,23.926
1532402011.872,-132.812,75.684,73.242,-21.973,8.789
1532402011.875,-122.559,72.266,73.242,-14.648,28.320
1532402011.879,-116.699,68.359,65.430,-7.324,54.199
1532402011.883,-111.328,69.336,62.012,0.000,22.461
1532402011.887,-101.074,67.871,62.012,10.254,-11.230
1532402011.891,-89.844,58.105,52.734,26.367,7.812
1532402011.895,-79.590,50.781,44.922,30.273,33.203
1532402011.899,-74.219,47.852,43.945,30.762,16.602
1532402011.903,-67.383,44.922,45.898,42.480,-12.207
1532402011.907,-55.176,41.504,43.457,53.711,-11.230
1532402011.911,-48.340,41.504,40.039,62.500,23.438
1532402011.915,-44.922,38.086,33.691,60.059,30.762
1532402011.918,-34.180,30.273,29.297,65.918,33.203
1532402011.922,-28.320,29.785,29.785,75.195,32.715
1532402011.926,-21.484,34.668,25.879,83.496,41.992
1532402011.930,-16.113,25.391,17.578,91.309,50.293
1532402011.934,-15.625,19.531,17.090,86.914,7.812
1532402011.938,-11.719,20.508,20.996,87.402,-16.113
1532402011.942,-3.906,20.996,16.113,100.098,-15.625
1532402011.946,0.000,17.090,8.789,100.098,3.418
1532402011.950,14.648,13.184,12.695,104.004,56.152
1532402011.954,16.602,7.812,11.230,103.516,29.297
1532402011.958,7.812,3.418,7.324,99.609,16.113
1532402011.962,20.996,8.789,13.184,115.723,50.293
1532402011.965,28.320,10.742,13.184,125.488,38.086
1532402011.969,26.367,10.742,6.836,127.930,10.742
1532402011.973,25.879,12.207,7.324,128.418,4.883
1532402011.977,27.344,9.277,7.812,118.652,9.766
1532402011.981,26.855,10.254,6.836,119.141,29.297
1532402011.985,22.461,8.789,7.812,122.559,22.461
1532402011.989,22.461,8.789,8.301,122.070,18.555
1532402011.993,22.949,11.719,7.812,119.629,45.898
1532402011.997,21.484,5.859,5.859,120.605,45.898
1532402012.001,20.508,2.441,4.395,120.117,41.016
1532402012.005,22.949,8.301,6.836,115.723,14.160
1532402012.008,24.902,13.184,12.695,117.188,34.180
1532402012.012,20.508,13.672,10.742,117.676,64.453
1532402012.016,15.137,6.836,8.301,108.398,46.875
1532402012.020,12.207,8.789,9.277,100.098,25.391
1532402012.024,6.348,7.324,6.836,94.727,10.254
1532402012.028,6.348,2.441,7.812,96.680,17.578
1532402012.032,15.137,20.508,10.742,105.957,21.484
1532402012.036,15.137,26.367,9.277,96.680,-20.996
1532402012.040,10.254,5.371,7.812,92.773,-43.945
1532402012.044,10.254,7.324,6.836,102.051,18.555
1532402012.048,13.672,18.555,8.301,106.934,47.363
1532402012.051,14.648,14.648,9.766,105.469,19.043
1532402012.055,9.277,12.207,10.742,100.098,7.812
1532402012.059,16.602,14.648,16.113,105.469,27.344
1532402012.063,19.043,25.879,23.438,106.445,41.992
1532402012.067,4.395,21.973,16.113,94.727,41.016
1532402012.071,-1.465,9.766,11.230,90.332,20.020
1532402012.075,-1.465,13.672,13.184,90.332,5.371
1532402012.079,-0.977,14.648,13.184,88.867,30.273
1532402012.083,-5.371,13.672,16.602,85.449,51.758
1532402012.087,-0.977,14.160,20.508,85.938,26.367
1532402012.091,5.371,16.602,25.391,91.309,23.926
1532402012.094,0.977,20.996,26.855,81.543,7.324
1532402012.098,-2.930,22.949,28.320,74.219,1.953
1532402012.102,-3.906,16.602,23.926,81.543,25.391
1532402012.106,-2.930,18.066,16.602,83.496,18.555
1532402012.110,1.953,23.926,18.066,84.473,1.465
1532402012.114,1.953,27.344,17.090,79.590,3.906
1532402012.118,-2.441,20.020,11.719,70.801,4.395
1532402012.122,-1.465,15.625,18.555,77.637,18.066
1532402012.126,1.465,19.531,26.367,83.008,40.039
1532402012.130,3.418,24.414,21.484,87.402,49.316
1532402012.134,8.301,33.691,24.902,87.891,22.461
1532402012.138,1.465,30.273,20.996,78.613,-5.371
1532402012.141,-7.812,14.160,17.090,74.219,-11.230
1532402012.145,-4.395,15.625,21.973,75.684,19.043
1532402012.149,-5.859,15.625,22.461,75.195,53.711
1532402012.153,-4.395,21.484,26.367,72.754,8.301
1532402012.157,-1.465,29.785,24.414,69.336,-1.953
1532402012.161,-2.441,18.555,15.625,73.242,23.438
1532402012.165,-4.395,20.996,20.996,71.289,9.277
1532402012.169,-7.812,25.391,26.855,64.941,18.066
1532402012.173,-12.695,21.973,19.043,57.617,17.090
1532402012.177,-15.625,26.855,19.043,48.340,-11.230
1532402012.181,-6.836,25.391,19.531,48.340,21.484
1532402012.184,-4.883,24.414,20.508,52.246,24.414
1532402012.188,-1.465,26.367,21.973,49.805,-4.395
1532402012.192,8.789,21.484,20.996,50.293,34.180
1532402012.196,14.648,25.391,23.926,47.363,74.219
1532402012.200,13.184,32.227,21.973,47.852,76.660
1532402012.204,0.000,28.320,18.555,54.199,20.996
1532402012.208,-7.324,28.320,25.391,61.035,-6.348
1532402012.212,-10.254,36.621,23.926,68.359,47.363
1532402012.216,-19.043,35.156,17.578,61.523,19.531
1532402012.220,-21.484,32.227,20.020,52.734,-21.484
1532402012.224,-26.367,30.762,20.020,56.152,14.160
1532402012.227,-32.227,27.344,20.508,62.012,28.809
1532402012.231,-29.297,31.250,22.461,62.012,25.391
1532402012.235,-27.832,32.227,20.508,52.246,15.625
1532402012.239,-28.809,31.738,21.973,50.781,20.020
1532402012.243,-28.809,40.527,22.949,53.223,34.180
1532402012.247,-32.227,31.738,18.555,44.922,42.480
1532402012.251,-36.621,18.066,23.926,43.945,38.574
1532402012.255,-34.180,19.043,21.484,42.480,24.414
1532402012.259,-26.367,24.902,17.090,47.852,6.836
1532402012.263,-27.832,24.902,20.508,55.664,24.902
1532402012.267,-15.137,31.738,24.902,61.523,34.668
1532402012.271,1.465,43.945,29.785,72.266,26.367
1532402012.274,-17.578,35.156,28.809,60.547,7.812
1532402012.278,-24.414,14.160,26.855,52.734,22.461
1532402012.282,-16.113,13.672,29.785,56.641,49.805
1532402012.286,-19.531,20.508,28.320,53.223,13.672
1532402012.290,-18.555,29.297,27.832,54.199,28.809
1532402012.294,-18.066,27.344,27.344,54.199,32.227
1532402012.298,-15.625,34.668,26.367,54.688,19.531
1532402012.302,-19.043,35.645,22.949,49.805,-1.953
1532402012.306,-25.879,20.020,24.414,45.898,0.000
1532402012.310,-21.484,28.320,33.691,50.293,34.180
1532402012.314,-19.531,31.250,35.645,48.340,41.016
1532402012.317,-27.832,27.344,32.715,38.086,2.441
1532402012.321,-29.785,28.320,28.809,37.109,-13.184
1532402012.325,-29.297,21.484,22.949,38.574,0.000
1532402012.329,-28.320,14.160,24.902,37.598,17.090
1532402012.333,-23.926,21.484,29.297,38.574,28.809
1532402012.337,-23.438,29.785,23.926,38.086,-28.809
1532402012.341,-15.137,27.832,20.508,39.062,-15.625
1532402012.345,-16.602,27.832,24.414,46.387,37.109
1532402012.349,-21.484,27.832,28.320,47.363,53.223
1532402012.353,-20.020,30.762,26.855,42.969,26.367
1532402012.357,-24.902,24.902,21.484,29.785,-9.766
1532402012.360,-21.484,14.160,21.484,29.297,5.371
1532402012.364,-18.066,13.184,25.391,40.527,41.504
1532402012.368,-15.625,22.949,28.320,44.434,30.762
1532402012.372,-14.160,38.574,27.344,43.457,1.465
1532402012.376,-15.137,25.391,31.738,40.527,25.879
1532402012.380,-17.578,18.066,32.227,39.551,44.922
1532402012.384,-24.414,19.531,22.461,31.250,42.480
1532402012.388,-19.531,24.902,25.391,33.691,35.156
1532402012.392,-12.207,42.969,30.273,43.457,20.508
1532402012.396,-16.113,33.691,24.902,30.762,24.902
1532402012.400,-24.414,21.973,23.438,21.484,17.090
1532402012.404,-23.438,20.020,22.949,30.273,3.906
1532402012.407,-14.160,19.043,22.949,37.598,10.742
1532402012.411,-14.160,24.414,20.508,38.086,20.996
1532402012.415,-6.836,31.738,25.391,43.457,12.695
1532402012.419,-2.441,39.062,25.879,52.246,-2.930
1532402012.423,-3.418,38.574,20.996,51.270,-9.277
1532402012.427,-5.371,21.973,21.973,44.434,12.695
1532402012.431,-6.348,20.020,24.414,41.504,19.043
1532402012.435,-2.441,31.250,31.738,47.852,4.883
1532402012.439,-6.836,22.949,33.691,44.922,-4.395
1532402012.443,-10.254,21.973,35.156,39.551,9.277
1532402012.447,-13.184,24.414,32.715,41.504,26.367
1532402012.450,-18.555,18.066,23.926,37.598,28.809
1532402012.454,-15.625,19.531,28.809,33.691,9.277
1532402012.458,-11.719,27.832,31.738,29.297,-35.156
1532402012.462,-9.766,30.762,27.832,32.227,-4.883
1532402012.466,-6.348,27.344,31.250,32.227,43.945
1532402012.470,-6.836,34.180,34.668,27.344,10.742
1532402012.474,1.953,26.367,35.645,34.668,-12.207
1532402012.478,0.977,4.883,32.227,26.855,22.949
1532402012.482,-11.719,11.230,20.996,9.766,27.832
1532402012.486,-6.348,26.367,14.648,10.742,9.766
1532402012.490,-2.930,29.297,20.996,21.484,29.297
1532402012.493,-6.836,30.273,27.344,26.367,23.926
1532402012.497,-7.324,33.203,28.320,20.996,-1.953
1532402012.501,-3.418,37.598,36.133,27.344,14.648
1532402012.505,-4.395,42.969,36.621,34.668,28.320
1532402012.509,-5.371,29.785,23.926,31.250,28.809
1532402012.513,-4.883,20.996,27.832,31.250,37.109
1532402012.517,-10.742,29.297,29.297,31.738,30.762
1532402012.521,-13.184,16.113,21.484,30.762,18.555
1532402012.525,-11.230,15.137,24.414,29.297,24.902
1532402012.529,-6.348,31.250,27.832,38.574,33.203
1532402012.533,-5.859,29.297,25.391,37.598,31.738
1532402012.537,-8.301,26.367,27.344,28.320,15.625
1532402012.540,-11.719,28.809,25.879,29.785,-0.977
1532402012.544,-11.719,22.949,20.508,31.738,39.062
1532402012.548,-14.648,13.184,14.160,34.180,57.617
1532402012.552,-12.695,13.672,15.625,34.668,27.344
1532402012.556,-9.766,24.414,23.926,35.645,-3.418
1532402012.560,-15.137,31.738,25.391,33.691,15.625
1532402012.564,-17.578,22.461,22.949,31.250,63.965
1532402012.568,-11.230,17.578,22.461,34.668,31.250
1532402012.572,-3.418,21.973,22.461,36.621,5.371
1532402012.576,5.371,34.668,30.273,44.434,21.973
1532402012.580,2.441,34.180,30.762,42.969,19.043
1532402012.583,-5.859,15.137,20.020,39.062,23.926
1532402012.587,0.000,20.020,23.438,46.875,19.043
1532402012.591,6.836,29.785,29.785,55.664,22.461
1532402012.595,1.953,25.391,20.996,45.410,-3.906
1532402012.599,0.977,28.809,26.367,39.062,-21.484
1532402012.603,3.906,30.273,31.738,46.875,2.930
1532402012.607,3.418,39.062,28.809,47.852,5.371
1532402012.611,-4.883,38.574,26.855,41.992,52.734
1532402012.615,-10.254,13.672,20.508,37.598,51.758
1532402012.619,-9.766,10.742,27.344,36.621,-1.465
1532402012.623,-6.836,19.531,33.203,38.086,4.883
1532402012.626,-5.859,22.461,32.715,40.039,13.672
1532402012.630,-11.230,34.180,36.133,41.992,35.156
1532402012.634,-9.766,37.109,30.762,41.016,35.156
1532402012.638,-14.648,20.020,28.809,35.645,-2.441
1532402012.642,-16.113,22.461,33.203,40.527,7.812
1532402012.646,-13.184,24.902,25.391,43.457,46.875
1532402012.650,-4.883,27.344,31.738,48.340,62.500
1532402012.654,-2.441,43.457,39.551,49.805,21.484
1532402012.658,-11.719,17.090,24.902,40.039,21.973
1532402012.662,-12.207,5.371,21.484,43.945,65.430
1532402012.666,-13.184,18.555,24.414,47.363,59.570
1532402012.669,-11.230,29.785,27.344,48.828,29.785
1532402012.673,-15.625,35.645,28.809,50.781,28.809
1532402012.677,-23.926,24.414,31.738,33.691,4.883
1532402012.681,-26.367,24.414,28.809,26.367,2.930
1532402012.685,-29.297,23.926,23.926,40.039,35.156
1532402012.689,-23.926,19.531,28.809,40.527,18.555
1532402012.693,-22.461,25.391,30.762,37.109,7.812
1532402012.697,-31.250,29.297,31.738,42.969,22.949
1532402012.701,-32.715,28.320,25.879,42.480,48.828
1532402012.705,-29.297,25.879,29.785,43.457,56.152
1532402012.709,-27.832,26.367,31.250,42.480,47.852
1532402012.713,-38.574,25.391,25.391,35.645,28.320
1532402012.716,-39.551,14.648,25.391,35.645,8.789
1532402012.720,-27.344,21.973,27.344,43.457,-17.090
1532402012.724,-25.391,28.809,29.297,43.945,-28.320
1532402012.728,-27.344,18.555,27.832,39.551,15.625
1532402012.732,-18.066,31.738,27.832,44.434,36.621
1532402012.736,-21.484,34.180,25.391,35.645,8.789
1532402012.740,-23.926,30.762,30.762,32.715,-30.273
1532402012.744,-20.020,41.016,37.109,41.016,2.441
1532402012.748,-22.949,31.738,31.250,36.621,52.734
1532402012.752,-20.996,23.438,20.020,37.109,22.949
1532402012.756,-27.832,27.832,15.137,38.574,2.930
1532402012.759,-33.691,25.879,16.602,32.715,30.762
1532402012.763,-27.344,19.043,22.461,33.203,38.086
1532402012.767,-18.555,41.016,33.691,43.945,23.438
1532402012.771,-23.926,48.340,29.297,33.203,9.766
1532402012.775,-29.297,11.719,21.484,16.602,0.000
1532402012.779,-21.973,-0.488,23.438,24.414,-7.812
1532402012.783,-19.043,17.578,23.438,31.738,20.996
1532402012.787,-17.578,24.414,14.648,34.180,15.625
1532402012.791,-8.789,24.902,14.160,37.109,19.043
1532402012.795,-2.930,31.250,25.391,33.691,18.555
1532402012.799,-0.488,31.250,23.926,32.227,29.785
1532402012.802,-1.465,28.809,20.996,42.480,38.086
1532402012.806,-5.859,35.645,30.273,52.734,-0.977
1532402012.810,-16.113,32.715,32.227,53.711,-7.324
1532402012.814,-27.344,9.766,25.879,46.387,31.738
1532402012.818,-27.344,12.695,23.926,45.410,33.691
1532402012.822,-33.203,20.996,24.414,50.781,8.301
1532402012.826,-31.250,24.902,28.809,53.223,24.902
1532402012.830,-29.785,28.320,27.832,52.246,40.039
1532402012.834,-33.203,29.785,30.762,45.410,-5.859
1532402012.838,-31.738,30.273,31.250,36.621,-30.273
1532402012.842,-36.621,11.719,26.367,33.203,6.836
1532402012.846,-40.527,3.906,20.996,31.738,22.461
1532402012.849,-31.738,20.996,28.809,39.551,46.875
1532402012.853,-33.203,24.414,32.715,39.062,32.715
1532402012.857,-34.180,20.996,24.414,35.645,-0.488
1532402012.861,-29.785,34.180,27.344,44.922,13.184
1532402012.865,-36.133,35.156,25.879,40.527,46.875
1532402012.869,-31.250,21.484,28.320,37.109,24.414
1532402012.873,-26.367,19.043,31.250,39.551,-13.184
1532402012.877,-30.273,13.184,27.344,31.738,-37.598
1532402012.881,-30.273,15.625,27.832,37.109,-30.762
1532402012.885,-27.344,29.785,27.832,41.016,13.672
1532402012.889,-29.785,29.297,24.414,36.621,3.906
1532402012.892,-28.320,28.809,23.926,38.574,4.395
1532402012.896,-30.273,37.109,24.414,39.551,22.949
1532402012.900,-30.762,38.574,30.762,42.480,38.086
1532402012.904,-30.762,30.762,30.273,39.551,34.668
1532402012.908,-39.062,20.508,22.461,28.320,13.672
1532402012.912,-38.086,21.484,23.438,29.297,29.297
1532402012.916,-37.598,12.207,22.461,25.879,34.180
1532402012.920,-33.691,18.066,28.320,21.973,0.488
1532402012.924,-33.203,23.438,32.227,24.902,6.836
1532402012.928,-33.203,22.461,32.227,32.227,28.320
1532402012.932,-31.738,22.461,29.785,35.156,31.738
1532402012.935,-35.156,9.766,23.926,30.273,3.906
1532402012.939,-37.109,0.000,20.508,22.949,1.953
1532402012.943,-29.785,7.324,22.461,32.715,22.949
1532402012.947,-23.926,17.090,27.344,38.086,25.391
1532402012.951,-24.414,13.184,33.691,32.715,26.367
1532402012.955,-23.926,9.277,32.715,29.785,7.812
1532402012.959,-20.508,9.766,31.250,28.809,-18.066
1532402012.963,-21.484,10.254,33.691,36.133,13.184
1532402012.967,-28.320,6.348,27.832,30.762,34.180
1532402012.971,-24.414,7.324,22.461,31.738,13.672
1532402012.975,-25.879,1.953,20.020,28.320,-5.859
1532402012.979,-22.949,12.695,28.320,21.484,-3.906
1532402012.982,-14.160,18.555,33.203,29.297,39.062
1532402012.986,-23.438,6.348,25.879,28.809,36.133
1532402012.990,-28.809,5.371,23.438,27.832,4.883
1532402012.994,-18.066,25.391,28.320,36.621,9.277
1532402012.998,-20.508,20.508,26.367,31.250,16.602
1532402013.002,-24.902,5.371,24.902,25.879,6.836
1532402013.006,-23.926,11.719,23.926,25.879,6.348
1532402013.010,-25.391,5.371,20.020,25.391,37.598
1532402013.014,-15.625,20.020,34.180,39.062,31.738
1532402013.018,-15.625,33.691,39.062,33.691,0.488
1532402013.022,-30.273,7.812,17.090,25.879,-20.996
1532402013.025,-25.391,2.441,18.066,38.086,-7.812
1532402013.029,-14.648,20.020,25.879,38.574,15.625
1532402013.033,-18.555,17.090,23.926,39.062,11.719
1532402013.037,-10.254,21.973,35.156,38.574,-20.996
1532402013.041,-8.789,25.391,30.762,32.227,-49.316
1532402013.045,-25.391,11.230,15.625,29.297,0.000
1532402013.049,-19.531,15.625,24.414,36.133,34.180
1532402013.053,-18.555,27.344,33.203,39.062,5.371
1532402013.057,-24.902,29.297,30.273,27.344,-28.809
1532402013.061,-20.020,31.250,28.809,28.320,-8.301
1532402013.065,-20.508,26.855,30.273,33.203,37.109
1532402013.068,-31.738,13.184,21.484,20.996,22.949
1532402013.072,-32.227,8.301,22.949,20.508,-6.348
1532402013.076,-27.832,21.973,31.250,28.320,-9.766
1532402013.080,-26.855,31.250,30.273,28.809,-5.371
1532402013.084,-28.809,22.461,22.949,30.273,34.668
1532402013.088,-31.738,18.555,13.672,32.227,23.926
1532402013.092,-28.809,22.461,21.973,37.598,5.371
1532402013.096,-30.273,14.160,28.809,35.156,17.578
1532402013.100,-27.832,9.277,28.320,21.484,11.719
1532402013.104,-22.949,14.160,37.109,32.715,34.180
1532402013.108,-19.531,20.020,26.367,43.457,44.922
1532402013.112,-18.555,27.344,21.484,37.109,40.527
1532402013.115,-28.320,23.926,31.738,29.297,52.734
1532402013.119,-28.320,29.297,31.738,30.273,64.453
1532402013.123,-25.391,30.273,33.691,31.738,43.457
1532402013.127,-28.320,19.531,37.598,26.855,20.996
1532402013.131,-34.180,9.766,30.762,21.484,43.457
1532402013.135,-26.367,17.090,29.785,24.902,46.387
1532402013.139,-21.484,32.227,32.715,29.297,41.504
1532402013.143,-25.879,22.949,21.484,27.344,13.672
1532402013.147,-22.461,19.531,19.043,29.297,24.414
1532402013.151,-20.996,24.414,22.461,29.297,28.809
1532402013.155,-18.555,30.762,29.785,32.715,14.648
1532402013.158,-19.043,33.691,26.855,20.508,27.344
1532402013.162,-27.832,20.508,18.555,9.766,54.688
1532402013.166,-25.879,16.602,20.508,20.508,50.293
1532402013.170,-20.020,20.996,22.461,30.762,32.715
1532402013.174,-21.484,22.461,20.996,33.203,25.391
1532402013.178,-21.973,19.043,24.414,33.203,10.742
1532402013.182,-20.508,16.113,33.691,35.645,9.766
1532402013.186,-16.113,26.367,30.762,41.504,31.738
1532402013.190,-12.207,38.086,26.367,45.410,31.250
1532402013.194,-15.137,19.043,23.926,45.410,19.531
1532402013.198,-18.555,9.277,16.602,37.598,15.137
1532402013.201,-19.043,21.973,20.996,37.109,23.438
1532402013.205,-21.973,26.367,25.391,34.180,21.973
1532402013.209,-25.391,38.574,29.785,29.785,-9.277
1532402013.213,-25.879,41.992,29.297,32.227,-7.324
1532402013.217,-23.926,16.602,19.043,25.391,9.766
1532402013.221,-14.648,20.996,29.297,37.598,2.930
1532402013.225,-15.137,35.645,41.504,49.805,1.953
1532402013.229,-20.508,23.926,24.414,42.480,35.156
1532402013.233,-21.973,17.090,15.137,38.086,46.387
1532402013.237,-15.137,27.832,27.344,43.945,14.160
1532402013.241,-10.742,31.738,31.738,46.875,-20.508
1532402013.244,-21.484,13.672,24.902,41.504,8.789
1532402013.248,-19.531,19.043,35.645,43.457,46.875
1532402013.252,-11.719,32.227,42.969,52.246,44.434
1532402013.256,-15.625,27.344,32.715,41.504,7.324
1532402013.260,-19.531,18.066,28.809,28.320,-14.160
1532402013.264,-16.113,17.090,28.809,41.992,53.711
1532402013.268,-10.254,31.250,35.645,46.875,50.293
1532402013.272,-14.160,40.039,39.551,42.969,15.625
1532402013.276,-17.090,23.926,36.133,43.457,-0.977
1532402013.280,-17.090,14.160,34.668,39.551,3.418
1532402013.284,-17.578,22.949,29.785,39.551,38.086
1532402013.288,-22.461,22.949,25.879,40.527,23.438
1532402013.291,-24.414,22.461,23.926,41.504,12.207
1532402013.295,-17.578,30.762,30.273,42.969,15.137
1532402013.299,-12.207,31.250,29.297,37.598,0.000
1532402013.303,-20.020,26.367,25.879,32.227,4.883
1532402013.307,-19.531,33.203,36.621,37.598,17.578
1532402013.311,-14.160,44.922,40.039,42.480,19.531
1532402013.315,-27.832,27.832,32.227,37.598,11.719
1532402013.319,-31.250,3.418,24.414,30.273,30.273
1532402013.323,-21.484,15.625,23.926,33.691,36.621
1532402013.327,-21.484,28.320,24.902,34.180,28.809
1532402013.331,-20.508,29.785,27.832,37.109,29.297
1532402013.334,-17.578,31.250,28.320,41.016,35.645
1532402013.338,-25.391,23.438,28.320,31.738,-0.977
1532402013.342,-25.391,22.949,28.809,31.250,-15.137
1532402013.346,-20.996,24.902,28.320,42.969,28.320
1532402013.350,-22.949,23.926,25.391,39.062,37.598
1532402013.354,-24.902,19.531,20.996,30.762,-14.160
1532402013.358,-21.973,15.137,24.902,36.133,-29.297
1532402013.362,-20.020,22.461,28.809,42.969,1.953
1532402013.366,-22.949,25.391,27.832,39.551,31.738
1532402013.370,-21.973,27.832,23.438,35.645,32.715
1532402013.374,-18.555,29.297,22.461,35.156,2.930
1532402013.377,-24.902,18.066,22.949,25.879,4.395
1532402013.381,-15.137,18.066,24.902,24.902,40.527
1532402013.385,-11.230,34.180,24.414,21.484,45.410
1532402013.389,-22.461,30.762,22.949,11.230,21.973
1532402013.393,-14.160,28.809,28.320,13.184,31.738
1532402013.397,-11.719,32.715,22.949,1.953,13.184
1532402013.401,-10.742,19.531,18.555,-2.930,-11.719
1532402013.405,-8.789,18.555,25.879,17.578,27.344
1532402013.409,-16.113,30.273,25.879,18.555,31.738
1532402013.413,-24.414,23.438,25.879,10.254,9.766
1532402013.417,-22.949,20.508,31.738,7.324,39.062
1532402013.421,-23.438,29.785,32.715,6.836,39.551
1532402013.424,-29.297,17.578,24.414,9.766,1.465
1532402013.428,-34.180,11.230,19.043,15.137,1.953
1532402013.432,-34.668,16.602,19.043,20.020,50.781
1532402013.436,-28.320,24.902,24.414,15.137,33.691
1532402013.440,-30.273,30.273,28.809,7.812,8.301
1532402013.444,-32.227,30.273,28.320,19.043,16.113
1532402013.448,-13.184,45.410,34.668,33.691,40.527
1532402013.452,-19.531,41.016,34.668,29.297,62.988
1532402013.456,-37.598,11.719,23.926,16.602,18.555
1532402013.460,-26.855,8.301,27.832,21.484,11.719
1532402013.464,-20.020,26.367,35.156,33.203,39.062
1532402013.467,-20.996,31.738,31.738,30.762,28.320
1532402013.471,-22.949,29.297,25.879,27.344,9.766
1532402013.475,-25.879,32.227,27.344,28.320,9.766
1532402013.479,-26.367,34.668,32.227,29.297,22.949
1532402013.483,-23.438,38.086,31.738,37.598,16.113
1532402013.487,-26.367,30.273,28.320,33.203,-2.930
1532402013.491,-29.297,19.043,25.879,30.273,33.691
1532402013.495,-23.926,22.949,31.250,40.039,25.391
1532402013.499,-28.809,23.438,31.738,42.480,9.277
1532402013.503,-33.203,20.020,29.297,44.434,22.949
1532402013.507,-34.668,21.973,31.250,43.945,11.230
1532402013.510,-31.738,30.273,28.320,40.039,31.738
1532402013.514,-21.973,38.086,32.715,45.410,45.410
1532402013.518,-26.855,33.691,34.180,39.062,14.160
1532402013.522,-34.668,26.367,26.367,30.762,-9.766
1532402013.526,-35.645,25.391,26.367,35.645,-0.488
1532402013.530,-32.227,23.438,27.832,24.414,22.949
1532402013.534,-24.902,26.855,27.344,15.137,41.016
1532402013.538,-25.879,27.832,28.320,37.109,10.742
1532402013.542,-24.902,26.367,29.785,51.270,-5.859
1532402013.546,-21.973,21.973,28.320,48.340,28.809
1532402013.550,-20.996,18.555,27.832,44.922,46.875
1532402013.554,-19.043,28.320,27.344,41.992,37.109
1532402013.557,-16.113,36.621,24.902,42.480,27.832
1532402013.561,-21.484,27.832,23.438,41.016,37.598
1532402013.565,-23.438,17.578,25.391,38.574,43.945
1532402013.569,-22.949,18.555,26.855,38.086,15.625
1532402013.573,-19.531,28.320,25.879,48.340,-4.883
1532402013.577,-17.578,36.133,30.762,45.410,-24.414
1532402013.581,-21.973,31.250,30.273,32.227,20.508
1532402013.585,-19.043,25.391,25.879,36.621,39.551
1532402013.589,-19.043,27.344,28.320,40.039,-16.602
1532402013.593,-18.555,33.691,23.438,38.086,-18.555
1532402013.597,-21.484,32.715,20.020,37.109,7.324
1532402013.600,-22.461,28.320,29.297,41.992,15.625
1532402013.604,-19.043,24.902,30.762,41.992,0.488
1532402013.608,-16.602,28.809,26.855,44.434,-15.625
1532402013.612,-20.508,23.438,23.438,44.922,-20.508
1532402013.616,-22.461,22.949,18.555,31.250,7.324
1532402013.620,-20.020,34.180,20.996,25.879,-2.441
1532402013.624,-14.648,45.898,29.297,37.109,-21.973
1532402013.628,-19.043,38.574,22.949,35.645,-18.555
1532402013.632,-23.926,15.625,18.555,39.062,7.812
1532402013.636,-13.184,14.160,21.484,48.340,-16.602
1532402013.640,-3.418,21.973,21.973,39.062,-32.715
1532402013.643,-6.836,31.738,16.113,29.297,-3.418
1532402013.647,-6.348,37.598,14.648,33.203,8.301
1532402013.651,-2.441,38.574,21.973,40.527,5.371
1532402013.655,-2.441,43.945,24.902,44.434,-20.996
1532402013.659,-1.953,43.457,25.879,45.410,11.719
1532402013.663,-10.742,33.691,20.508,39.551,34.180
1532402013.667,-7.324,32.715,20.020,46.387,23.438
1532402013.671,-1.953,31.250,24.414,50.781,25.391
1532402013.675,-7.324,26.855,25.391,50.293,-0.488
1532402013.679,-10.254,30.273,22.461,44.434,-0.977
1532402013.683,-11.230,30.273,24.414,37.109,22.949
1532402013.687,-8.789,36.621,28.809,42.969,20.508
1532402013.690,-8.789,42.480,19.043,48.828,9.766
1532402013.694,-16.602,23.438,14.160,36.621,0.488
1532402013.698,-5.371,26.855,24.902,37.598,-12.695
1532402013.702,-3.906,36.133,26.855,45.410,0.000
1532402013.706,-13.672,27.832,22.461,43.457,-1.953
1532402013.710,-10.254,27.832,22.461,46.387,0.488
1532402013.714,-8.789,32.715,31.738,48.340,25.879
1532402013.718,-13.184,35.645,35.156,47.363,-5.859
1532402013.722,-20.020,32.715,29.297,44.434,-32.715
1532402013.726,-23.438,25.391,27.832,47.363,3.418
1532402013.730,-19.531,34.180,28.320,51.758,14.648
1532402013.733,-23.926,41.992,28.809,49.316,16.113
1532402013.737,-25.391,27.344,22.949,41.992,16.602
1532402013.741,-17.090,27.832,22.949,44.922,9.766
1532402013.745,-11.230,40.039,28.809,48.340,0.977
1532402013.749,-8.301,34.180,25.391,43.945,23.438
1532402013.753,-1.953,35.645,24.414,44.434,43.945
1532402013.757,-7.812,33.203,24.902,34.668,5.371
1532402013.761,-14.648,34.668,28.809,28.320,-1.465
1532402013.765,-17.090,36.621,26.367,34.668,39.062
1532402013.769,-18.066,24.902,26.367,29.785,46.875
1532402013.773,-17.090,32.227,26.855,30.273,34.180
1532402013.776,-21.973,32.715,22.949,35.645,13.184
1532402013.780,-24.902,27.832,22.461,30.273,21.973
1532402013.784,-22.461,37.598,25.391,34.668,55.176
1532402013.788,-23.438,34.180,25.879,36.133,36.133
1532402013.792,-24.414,23.438,24.414,33.691,8.789
1532402013.796,-21.484,30.762,26.855,41.504,1.953
1532402013.800,-19.531,34.668,21.973,39.551,13.672
1532402013.804,-18.066,33.203,20.996,40.039,19.043
1532402013.808,-8.301,35.156,28.809,49.805,13.184
1532402013.812,-10.254,31.738,21.484,41.016,23.438
1532402013.816,-14.648,29.785,16.113,35.645,31.738
1532402013.819,-8.789,27.344,20.020,33.203,12.207
1532402013.823,-5.371,31.250,23.438,43.457,3.418
1532402013.827,2.441,40.039,17.578,55.176,7.812
1532402013.831,-0.488,39.062,12.207,49.316,38.574
1532402013.835,6.348,39.551,11.719,55.176,28.809
1532402013.839,10.254,32.227,10.742,58.594,-7.812
1532402013.843,6.348,30.762,16.602,54.199,10.742
1532402013.847,11.230,40.527,17.090,58.105,0.977
1532402013.851,10.742,35.645,19.531,64.941,11.719
1532402013.855,7.812,32.227,18.555,63.965,27.344
1532402013.859,8.789,38.086,15.137,51.758,-23.438
1532402013.863,4.883,34.668,20.508,42.969,-41.504
1532402013.866,1.953,34.180,22.949,58.105,21.484
1532402013.870,3.418,43.945,23.926,71.289,46.387
1532402013.874,3.906,41.016,28.320,68.848,-8.789
1532402013.878,3.418,33.691,29.297,61.523,-12.695
1532402013.882,-2.441,32.715,20.508,56.641,20.508
1532402013.886,-8.301,39.062,20.996,58.594,6.348
1532402013.890,-0.977,45.410,25.391,56.641,-0.977
1532402013.894,-4.395,37.109,28.320,52.246,5.371
1532402013.898,-11.230,31.250,35.156,45.898,-12.695
1532402013.902,-6.348,34.668,36.133,42.969,0.488
1532402013.906,-3.906,34.180,31.738,49.316,14.160
1532402013.909,-6.348,29.297,26.855,44.922,-13.672
1532402013.913,-11.230,30.273,27.344,47.852,-7.812
1532402013.917,-11.719,37.598,32.715,47.363,9.766
1532402013.921,-13.184,30.762,27.832,39.551,-1.953
1532402013.925,-10.254,25.879,28.809,41.504,0.977
1532402013.929,0.000,37.109,38.086,45.898,28.320
1532402013.933,2.441,41.504,31.738,46.387,37.598
1532402013.937,-1.953,33.203,26.855,40.039,18.066
1532402013.941,-4.883,26.367,28.809,38.574,-1.465
1532402013.945,-4.395,27.832,31.738,41.992,1.465
1532402013.949,-0.977,40.039,35.156,41.992,36.621
1532402013.952,-0.977,38.574,34.668,37.598,70.312
1532402013.956,-5.859,27.344,33.691,32.715,20.996
1532402013.960,-3.418,35.645,31.738,36.621,-12.207
1532402013.964,-6.348,43.945,35.156,44.434,31.738
1532402013.968,-8.789,35.645,38.086,42.969,39.551
1532402013.972,-6.836,25.879,31.738,36.133,6.348
1532402013.976,-4.883,29.297,27.344,29.785,3.418
1532402013.980,-0.488,31.738,31.250,25.879,11.719
1532402013.984,0.977,41.504,29.297,24.414,33.691
1532402013.988,4.395,43.945,27.344,21.973,22.461
1532402013.992,9.766,34.668,29.785,21.973,-0.488
1532402013.996,5.859,32.715,31.250,13.184,8.789
1532402013.999,4.883,37.109,31.250,12.207,10.742
1532402014.003,0.488,35.645,28.809,26.855,34.668
1532402014.007,-8.789,35.156,33.691,28.320,32.227
1532402014.011,-14.160,38.574,31.738,32.715,21.484
1532402014.015,-27.344,24.902,26.367,37.598,43.945
1532402014.019,-33.203,35.645,33.691,38.086,10.742
1532402014.023,-34.180,45.410,33.691,35.156,-6.348
1532402014.027,-41.992,21.484,31.738,30.762,6.836
1532402014.031,-34.180,22.461,33.203,32.227,32.715
1532402014.035,-29.785,30.273,31.250,33.203,36.621
1532402014.039,-31.738,32.227,33.691,30.273,-9.766
1532402014.042,-24.902,35.156,33.203,26.367,-23.926
1532402014.046,-23.438,41.504,29.297,38.086,11.719
1532402014.050,-24.414,54.199,34.668,41.504,43.945
1532402014.054,-27.344,43.457,39.551,28.320,41.504
1532402014.058,-30.273,21.484,31.738,21.484,23.438
1532402014.062,-28.320,27.344,33.691,24.902,5.371
1532402014.066,-27.344,33.691,33.691,24.414,-2.930
1532402014.070,-27.344,31.250,30.273,26.855,4.395
1532402014.074,-21.484,38.574,35.645,29.785,13.672
1532402014.078,-22.461,37.109,37.109,24.414,-0.488
1532402014.082,-21.484,32.715,34.180,22.461,7.324
1532402014.085,-12.695,40.527,34.180,27.832,12.207
1532402014.089,-13.672,43.457,34.180,24.902,7.324
1532402014.093,-15.625,31.250,36.621,29.785,29.297
1532402014.097,-11.230,35.156,38.086,34.668,23.438
1532402014.101,-12.207,42.480,31.250,28.320,16.602
1532402014.105,-14.648,26.855,25.879,30.273,9.766
1532402014.109,-16.602,20.020,32.715,35.156,-10.742
1532402014.113,-14.648,34.180,36.133,36.133,24.902
1532402014.117,-8.301,40.527,30.762,34.668,48.828
1532402014.121,-8.301,28.809,31.250,29.297,21.973
1532402014.125,-11.719,27.832,35.645,31.738,-9.766
1532402014.129,-6.348,33.691,28.809,35.156,-4.883
1532402014.132,-4.395,45.410,32.227,40.527,37.598
1532402014.136,-17.578,43.457,32.227,32.715,66.895
1532402014.140,-17.578,30.762,25.391,19.043,29.785
1532402014.144,-11.719,35.156,30.273,33.203,18.066
1532402014.148,-7.324,39.551,34.180,47.852,40.527
1532402014.152,-11.230,21.484,33.691,38.086,67.383
1532402014.156,-12.695,24.414,33.691,20.508,65.430
1532402014.160,-4.883,38.086,27.832,22.461,12.207
1532402014.164,0.000,44.922,22.949,34.668,34.668
1532402014.168,3.418,43.457,23.926,39.551,47.363
1532402014.172,8.789,33.203,26.367,45.898,43.457
1532402014.175,7.324,41.504,28.320,47.363,39.062
1532402014.179,2.441,47.363,25.879,38.574,11.230
1532402014.183,-3.906,22.949,21.973,32.715,48.828
1532402014.187,1.953,28.809,27.344,40.527,47.363
1532402014.191,7.812,46.875,33.203,44.434,20.020
1532402014.195,-3.418,27.832,24.902,29.785,21.484
1532402014.199,-9.277,24.902,22.949,21.973,26.367
1532402014.203,-4.395,39.062,28.320,30.273,26.855
1532402014.207,-5.859,38.086,27.344,33.691,3.906
1532402014.211,-11.719,23.926,25.879,33.203,18.066
1532402014.215,-9.766,26.855,23.438,30.762,37.598
1532402014.218,-5.371,32.715,23.926,30.273,9.766
1532402014.222,-2.441,32.227,32.715,36.621,-15.137
1532402014.226,-4.395,41.016,34.180,38.086,-3.906
1532402014.230,-10.742,40.527,32.227,32.715,19.043
1532402014.234,-14.160,29.785,33.691,31.250,29.785
1532402014.238,-3.906,37.598,30.273,34.180,7.324
1532402014.242,-1.465,35.645,26.367,35.156,-8.789
1532402014.246,-16.602,28.320,29.785,37.598,31.250
1532402014.250,-12.695,36.621,35.645,47.363,39.062
1532402014.254,-8.789,37.109,36.133,47.852,33.203
1532402014.258,-13.672,31.250,35.156,43.945,40.527
1532402014.261,-15.625,30.762,31.738,44.922,37.109
1532402014.265,-17.578,32.227,32.715,40.039,51.270
1532402014.269,-24.414,26.855,31.738,35.645,52.734
1532402014.273,-22.461,33.203,32.715,45.410,32.227
1532402014.277,-17.578,36.621,34.180,43.945,14.648
1532402014.281,-20.508,25.391,30.273,34.180,12.695
1532402014.285,-14.648,28.809,31.738,43.945,34.180
1532402014.289,-8.301,36.621,32.715,45.898,12.207
1532402014.293,-9.766,35.645,33.203,38.574,6.836
1532402014.297,-10.742,31.250,32.715,40.039,37.598
1532402014.301,-11.719,30.273,29.785,34.668,46.387
1532402014.305,-13.672,30.273,40.039,32.227,24.902
1532402014.308,-9.766,39.062,43.457,35.645,-1.953
1532402014.312,-10.254,32.715,36.133,36.621,8.301
1532402014.316,-12.207,34.180,36.621,35.645,4.395
1532402014.320,-13.184,41.992,36.133,29.297,3.418
1532402014.324,-16.113,28.320,33.691,31.738,5.371
1532402014.328,-18.066,23.926,31.738,38.086,-23.926
1532402014.332,-12.695,26.367,28.320,40.527,2.441
1532402014.336,-2.441,33.203,30.273,46.875,27.832
1532402014.340,-9.277,33.203,37.598,43.945,-8.301
1532402014.344,-14.648,20.020,36.133,36.133,-23.438
1532402014.348,-11.230,28.809,33.203,33.203,20.508
1532402014.351,-13.672,37.109,36.133,30.762,29.785
1532402014.355,-13.672,30.273,33.203,26.367,-7.324
1532402014.359,-12.207,24.902,29.785,19.043,-21.973
1532402014.363,-9.277,34.668,37.598,23.926,4.883
1532402014.367,-11.230,44.922,37.598,27.832,21.484
1532402014.371,-12.695,28.320,33.203,18.066,35.156
1532402014.375,-20.020,20.508,38.574,15.625,7.812
1532402014.379,-20.996,33.203,38.574,14.160,-31.738
1532402014.383,-15.137,37.109,32.715,13.672,10.742
1532402014.387,-21.973,30.762,31.738,7.324,23.926
1532402014.391,-21.973,38.574,35.156,-4.395,15.625
1532402014.394,-15.625,42.480,35.645,-77.148,18.066
1532402014.398,-20.020,30.273,35.156,-317.871,4.395
1532402014.402,-23.926,22.949,31.738,-594.727,10.742
1532402014.406,-18.555,27.344,28.320,-807.617,20.996
1532402014.410,-7.324,40.527,32.227,-943.848,-16.602
1532402014.414,-6.348,38.574,26.367,-966.797,-25.391
1532402014.418,-5.859,35.156,26.367,-963.867,-20.996
1532402014.422,-1.465,40.527,28.809,-967.285,-23.438
1532402014.426,-7.324,36.133,24.414,-966.797,-4.883
1532402014.430,-9.277,29.297,20.996,-966.797,5.859
1532402014.434,-7.812,31.250,18.066,-966.797,31.250
1532402014.438,-4.883,33.691,23.926,-966.797,12.207
1532402014.441,-1.953,33.203,27.832,-966.797,-23.926
1532402014.445,-4.395,37.598,25.879,-966.797,-3.418
1532402014.449,-2.930,42.480,23.926,-966.797,34.668
1532402014.453,-3.418,33.203,27.832,-966.797,53.223
1532402014.457,-6.836,30.273,24.414,-966.797,12.207
1532402014.461,-4.395,37.109,22.461,-967.285,-36.133
1532402014.465,-11.719,34.668,21.484,-960.938,-27.832
1532402014.469,-16.113,29.785,23.438,-974.121,35.645
1532402014.473,-9.766,34.668,30.762,-913.574,32.227
1532402014.477,-11.719,36.621,30.273,-735.352,1.465
1532402014.481,-20.020,26.367,27.344,-586.426,12.207
1532402014.484,-15.137,29.785,29.297,-466.309,44.434
1532402014.488,-14.160,27.344,28.320,-358.887,50.293
1532402014.492,-20.020,20.996,28.320,-257.324,12.207
1532402014.496,-12.207,33.203,30.762,-172.363,1.465
1532402014.500,-11.230,35.645,31.738,-100.586,15.137
1532402014.504,-13.184,29.785,31.738,-35.645,5.371
1532402014.508,-7.324,38.574,33.203,20.020,-14.648
1532402014.512,-7.324,42.969,33.203,67.383,9.766
1532402014.516,-16.113,29.297,32.715,104.492,53.711
1532402014.520,-18.555,24.902,28.809,129.883,45.410
1532402014.524,-14.648,34.180,31.738,159.668,29.785
1532402014.527,-21.484,32.715,33.203,187.988,41.016
1532402014.531,-24.902,31.738,32.715,209.961,44.434
1532402014.535,-22.461,31.250,29.785,236.816,27.832
1532402014.539,-20.508,37.109,31.250,255.859,17.578
1532402014.543,-22.461,41.016,34.180,268.066,27.344
1532402014.547,-26.855,28.809,28.320,278.809,40.527
1532402014.551,-23.926,26.367,33.691,290.039,59.082
1532402014.555,-23.438,36.133,31.738,300.293,48.340
1532402014.559,-14.160,39.551,31.738,305.176,6.348
1532402014.563,-8.301,35.156,32.715,310.547,6.348
1532402014.567,-9.766,22.949,26.367,316.406,37.109
1532402014.571,-0.977,36.621,33.691,327.637,44.434
1532402014.574,-2.930,31.738,31.250,330.078,28.320
1532402014.578,-5.371,9.277,26.367,326.172,22.461
1532402014.582,-5.371,24.902,29.785,318.359,26.855
1532402014.586,-7.812,37.598,29.297,316.895,34.668
1532402014.590,5.371,36.133,27.832,327.148,41.504
1532402014.594,19.043,32.227,20.996,325.684,16.602
1532402014.598,24.414,44.922,22.461,321.289,3.418
1532402014.602,25.391,55.176,24.414,316.895,20.996
1532402014.606,21.484,41.992,23.926,311.523,9.277
1532402014.610,17.090,32.715,21.484,317.383,-9.277
1532402014.614,-1.953,31.738,12.207,322.266,26.367
1532402014.617,-15.137,33.203,18.555,321.777,42.969
1532402014.621,-11.230,37.598,24.902,321.289,12.695
1532402014.625,-7.812,36.133,25.391,322.754,24.414
1532402014.629,-9.277,31.738,28.320,322.266,16.602
1532402014.633,-7.812,34.180,28.320,320.312,41.016
1532402014.637,-3.906,48.340,28.320,310.547,43.945
1532402014.641,-9.277,41.992,22.949,302.246,-12.207
1532402014.645,-10.254,30.762,22.949,306.152,-14.648
1532402014.649,-4.883,36.621,29.785,293.945,26.367
1532402014.653,-7.812,32.227,27.832,284.668,30.762
1532402014.657,-8.301,39.551,28.809,282.227,-4.395
1532402014.660,-5.859,46.875,35.156,270.020,-19.043
1532402014.664,-12.695,34.668,32.227,263.184,-8.789
1532402014.668,-16.113,23.926,28.320,260.254,-4.395
1532402014.672,-14.160,29.297,28.809,257.324,-4.883
1532402014.676,-11.230,34.180,36.621,258.789,18.555
1532402014.680,-7.812,28.320,37.598,253.418,15.625
1532402014.684,-9.766,29.297,29.785,249.023,28.809
1532402014.688,-3.418,38.574,32.227,249.512,43.945
1532402014.692,0.977,41.992,38.574,249.512,22.461
1532402014.696,-6.836,35.156,33.691,244.629,23.926
1532402014.700,-15.625,20.020,30.273,232.422,7.812
1532402014.704,-17.578,19.043,31.738,226.562,-5.859
1532402014.707,-15.625,25.879,33.203,225.098,-0.488
1532402014.711,-9.766,41.016,33.691,225.586,17.578
1532402014.715,-8.789,43.945,28.320,219.238,34.668
1532402014.719,-7.324,25.391,27.832,210.938,10.742
1532402014.723,-8.301,19.043,36.621,210.449,10.254
1532402014.727,-8.789,22.461,41.504,208.008,31.738
1532402014.731,-7.812,25.879,39.551,202.148,28.320
1532402014.735,-8.789,32.227,35.645,196.289,12.695
1532402014.739,-5.371,35.156,35.156,197.754,4.883
1532402014.743,-2.441,30.762,37.109,195.801,12.695
1532402014.747,-1.953,32.715,38.086,191.406,25.391
1532402014.750,-2.441,34.180,37.109,185.547,37.109
1532402014.754,-3.418,23.438,37.109,184.082,17.578
1532402014.758,-0.977,21.484,39.062,181.641,-21.484
1532402014.762,-8.301,29.785,30.762,161.133,-22.461
1532402014.766,-16.113,39.062,25.391,157.715,34.180
1532402014.770,-5.371,42.480,26.855,171.387,47.852
1532402014.774,0.977,38.574,31.738,178.223,4.395
1532402014.778,-2.441,22.461,34.180,171.387,-8.301
1532402014.782,-5.859,18.066,32.227,168.457,32.715
1532402014.786,-12.207,28.809,31.738,160.156,34.668
1532402014.790,-12.695,32.715,30.762,153.809,-9.766
1532402014.793,-3.418,48.828,37.598,164.551,3.906
1532402014.797,-6.348,44.434,37.109,155.762,4.395
1532402014.801,-8.789,28.809,33.691,144.531,-0.488
1532402014.805,0.488,31.738,31.250,145.996,8.789
1532402014.809,-10.254,29.297,22.949,146.484,-2.930
1532402014.813,-13.672,29.297,26.855,150.391,2.441
1532402014.817,0.977,43.945,40.039,155.273,9.277
1532402014.821,-2.930,41.016,33.203,147.461,8.301
1532402014.825,-2.441,25.879,28.809,145.020,16.113
1532402014.829,5.859,32.227,36.621,149.414,38.086
1532402014.833,1.465,32.715,25.879,145.996,47.363
1532402014.836,-3.418,26.855,20.508,139.648,18.555
1532402014.840,-3.906,26.855,28.320,132.812,-8.301
1532402014.844,-1.953,40.039,36.621,136.230,-4.883
1532402014.848,-8.301,41.504,35.645,135.742,-1.465
1532402014.852,-14.648,29.785,30.762,128.906,7.324
1532402014.856,-8.789,30.762,31.738,130.371,12.207
1532402014.860,-10.742,35.156,35.645,125.488,-22.461
1532402014.864,-9.766,36.133,35.156,124.512,5.859
1532402014.868,-4.883,36.621,33.691,129.395,44.922
1532402014.872,-9.766,34.668,33.691,122.559,44.922
1532402014.876,-6.348,28.320,29.785,114.746,22.461
1532402014.880,-9.277,21.484,27.832,110.840,3.418
1532402014.883,-22.461,20.508,25.879,110.840,29.297
1532402014.887,-21.973,25.879,22.461,111.816,11.719
1532402014.891,-21.973,35.156,29.785,105.957,9.766
1532402014.895,-18.555,39.551,36.133,112.305,29.297
1532402014.899,-14.648,33.691,34.180,109.863,11.230
1532402014.903,-20.508,24.414,26.367,96.680,27.344
1532402014.907,-19.531,17.578,23.926,102.051,35.645
1532402014.911,-16.113,23.926,29.297,107.910,32.715
1532402014.915,-20.508,29.785,31.250,107.910,49.316
1532402014.919,-18.066,39.062,35.156,119.141,33.203
1532402014.923,-15.137,39.062,35.645,122.559,20.508
1532402014.926,-16.602,29.297,32.715,115.234,12.207
1532402014.930,-18.066,29.785,35.645,114.258,4.883
1532402014.934,-21.484,24.414,33.691,110.840,24.902
1532402014.938,-19.043,29.785,33.691,101.562,0.000
1532402014.942,-20.020,33.203,33.691,93.750,-21.973
1532402014.946,-20.508,34.180,33.691,101.074,19.531
1532402014.950,-18.066,45.410,37.109,104.980,56.152
1532402014.954,-22.949,38.086,35.156,93.750,53.223
1532402014.958,-25.879,23.926,36.133,89.355,18.066
1532402014.962,-23.438,26.855,34.180,95.215,28.320
1532402014.966,-23.438,31.738,34.668,97.168,46.387
1532402014.969,-23.438,31.738,36.621,98.145,25.879
1532402014.973,-25.391,31.250,31.738,94.238,25.391
1532402014.977,-20.020,31.738,30.762,94.238,3.906
1532402014.981,-20.020,36.621,28.809,90.820,-15.625
1532402014.985,-29.297,30.762,28.809,89.355,38.574
1532402014.989,-26.855,21.484,37.598,93.262,20.508
1532402014.993,-21.973,33.203,35.645,90.820,-12.207
1532402014.997,-22.461,35.645,31.250,91.797,-12.207
1532402015.001,-19.531,34.180,33.203,96.680,27.832
1532402015.005,-22.461,38.574,33.691,91.309,48.340
1532402015.009,-28.809,23.926,27.344,84.961,28.809
1532402015.013,-22.949,19.531,25.391,83.496,20.996
1532402015.016,-16.113,27.344,29.297,84.961,30.273
1532402015.020,-13.672,32.715,32.227,90.332,18.066
1532402015.024,-11.719,32.715,32.227,85.449,-10.742
1532402015.028,-12.207,35.645,30.762,81.055,14.648
1532402015.032,-10.742,39.551,32.227,84.961,28.809
1532402015.036,-11.230,38.086,30.762,83.984,24.414
1532402015.040,-13.672,35.645,31.738,77.148,-1.953
1532402015.044,-14.160,23.926,30.273,73.730,-14.160
1532402015.048,-17.578,17.090,26.367,77.148,4.883
1532402015.052,-19.531,23.926,26.855,77.148,15.625
1532402015.056,-16.602,34.668,28.320,81.055,23.926
1532402015.059,-12.695,47.363,33.203,82.031,-3.906
1532402015.063,-18.555,45.898,31.738,79.590,0.000
1532402015.067,-28.320,32.715,26.367,76.660,23.926
1532402015.071,-23.438,21.973,30.273,77.148,5.859
1532402015.075,-12.695,12.695,31.738,85.938,18.555
1532402015.079,-23.926,13.184,28.320,66.895,20.508
1532402015.083,-26.855,33.691,34.180,57.129,4.395
1532402015.087,-15.137,58.594,37.598,71.289,31.738
1532402015.091,-18.555,39.062,29.297,65.430,9.277
1532402015.095,-21.484,18.066,23.926,69.336,-6.348
1532402015.099,-18.066,36.133,29.785,76.172,17.090
1532402015.102,-21.484,36.133,33.691,73.242,9.766
1532402015.106,-22.461,28.320,33.691,68.848,9.277
1532402015.110,-20.020,38.574,35.156,68.359,15.137
1532402015.114,-17.578,41.016,34.668,75.684,23.438
1532402015.118,-20.508,33.691,31.250,71.289,16.113
1532402015.122,-23.926,25.391,31.250,62.012,-13.672
1532402015.126,-20.508,25.879,33.203,65.430,-15.137
1532402015.130,-17.090,34.668,30.273,71.289,14.648
1532402015.134,-19.531,41.016,33.691,71.777,52.246
1532402015.138,-23.438,33.203,34.180,69.336,44.434
1532402015.142,-20.020,25.391,28.809,70.801,10.742
1532402015.146,-18.066,31.250,31.250,68.848,-5.859
1532402015.149,-23.926,32.227,31.250,64.941,22.949
1532402015.153,-26.367,35.156,30.273,67.871,41.016
1532402015.157,-26.855,38.086,29.297,65.430,10.254
1532402015.161,-27.344,24.902,30.762,63.965,-22.461
1532402015.165,-23.926,24.902,37.109,69.336,11.719
1532402015.169,-24.902,30.273,30.762,70.801,46.387
1532402015.173,-23.926,25.391,26.367,70.312,23.438
1532402015.177,-15.625,31.738,33.203,71.289,0.977
1532402015.181,-9.766,36.133,33.203,60.059,-12.695
1532402015.185,-17.090,31.738,34.180,56.152,41.504
1532402015.189,-21.484,31.250,32.227,63.477,40.039
1532402015.192,-14.160,35.156,24.902,64.453,-2.441
1532402015.196,-8.789,35.645,23.438,58.594,5.371
1532402015.200,-6.836,30.762,27.344,52.734,32.227
1532402015.204,-0.977,34.180,29.785,55.176,48.340
1532402015.208,4.395,35.156,20.996,52.734,31.250
1532402015.212,11.719,36.621,25.879,59.082,11.719
1532402015.216,8.301,36.621,31.250,66.895,34.668
1532402015.220,-0.488,25.879,23.438,58.105,36.621
1532402015.224,-2.930,26.855,25.391,58.105,1.465
1532402015.228,-14.160,28.320,26.855,74.707,23.926
1532402015.232,-22.949,31.738,30.273,82.031,41.992
1532402015.235,-26.855,37.109,36.621,79.590,34.180
1532402015.239,-31.250,39.062,40.039,81.055,43.945
1532402015.243,-33.691,26.367,38.086,75.195,33.691
1532402015.247,-38.574,19.043,26.855,65.430,26.367
1532402015.251,-27.344,27.344,26.855,70.312,55.176
1532402015.255,-14.160,39.551,35.645,69.824,41.504
1532402015.259,-20.508,41.504,35.156,63.477,22.949
1532402015.263,-20.020,36.133,35.645,67.871,4.883
1532402015.267,-21.973,37.109,34.180,67.871,46.387
1532402015.271,-27.344,33.203,27.344,62.012,63.965
1532402015.275,-28.320,29.297,22.461,58.105,33.203
1532402015.279,-28.320,26.367,21.973,53.711,12.207
1532402015.282,-28.809,28.320,27.344,56.641,0.488
1532402015.286,-23.926,39.551,31.250,61.523,50.781
1532402015.290,-20.996,36.621,30.273,64.453,39.551
1532402015.294,-22.949,33.203,33.203,71.777,12.695
1532402015.298,-24.902,32.227,29.297,64.453,25.879
1532402015.302,-24.902,20.020,26.367,60.547,23.926
1532402015.306,-22.461,25.879,28.320,64.453,3.906
1532402015.310,-20.996,29.785,27.344,62.500,30.762
1532402015.314,-18.555,25.879,27.344,63.477,49.805
1532402015.318,-15.625,27.344,28.320,63.965,36.621
1532402015.322,-13.672,35.645,31.250,56.641,32.227
1532402015.325,-11.230,44.922,32.715,56.641,9.277
1532402015.329,-16.113,31.738,24.414,52.734,9.766
1532402015.333,-14.648,19.043,21.484,52.246,60.547
1532402015.337,-4.395,31.250,29.785,62.500,49.316
1532402015.341,-3.906,38.574,30.273,64.941,7.812
1532402015.345,-5.371,35.645,30.762,67.383,12.695
1532402015.349,-7.324,35.156,29.785,63.477,14.160
1532402015.353,-3.418,37.109,31.250,62.500,34.668
1532402015.357,-1.953,41.016,35.156,67.383,40.527
1532402015.361,-5.371,29.297,34.180,54.199,-3.906
1532402015.365,-8.301,22.949,31.250,50.781,-2.930
1532402015.368,-10.742,35.645,30.273,65.430,28.809
1532402015.372,-11.719,39.551,32.227,65.918,7.324
1532402015.376,-17.578,32.227,32.227,58.594,7.812
1532402015.380,-21.484,26.855,29.297,56.641,13.184
1532402015.384,-20.508,26.855,28.809,61.035,14.648
1532402015.388,-22.461,41.504,29.297,59.082,39.551
1532402015.392,-28.320,34.180,27.344,48.828,42.480
1532402015.396,-25.391,15.625,30.273,49.805,25.879
1532402015.400,-25.879,22.949,30.273,50.293,2.930
1532402015.404,-28.809,22.949,32.715,41.992,20.996
1532402015.408,-22.949,25.391,30.273,41.992,21.973
1532402015.411,-18.555,36.133,32.227,47.852,-15.137
1532402015.415,-19.043,33.691,32.227,53.223,10.742
1532402015.419,-16.602,39.551,28.809,55.176,38.086
1532402015.423,-20.996,40.039,30.762,52.246,1.953
1532402015.427,-26.367,25.879,28.809,47.852,15.625
1532402015.431,-24.902,23.926,33.691,49.805,31.250
1532402015.435,-26.367,25.391,31.250,48.828,18.555
1532402015.439,-24.414,29.297,30.273,48.340,22.949
1532402015.443,-20.508,31.738,33.691,47.852,19.043
1532402015.447,-21.973,29.785,31.250,50.781,13.184
1532402015.451,-18.555,38.086,33.691,57.129,9.277
1532402015.455,-19.043,42.969,36.133,54.688,16.602
1532402015.458,-22.461,31.738,36.133,48.828,-3.906
1532402015.462,-26.855,23.926,32.227,42.480,-28.320
1532402015.466,-23.438,31.738,33.203,53.223,10.742
1532402015.470,-15.625,42.480,35.645,60.059,54.199
1532402015.474,-22.461,29.785,28.320,46.387,36.133
1532402015.478,-21.484,23.438,25.391,44.434,7.324
1532402015.482,-15.137,27.344,23.926,52.734,4.395
1532402015.486,-18.066,26.855,35.156,54.688,21.484
1532402015.490,-23.926,32.227,45.410,49.316,11.719
1532402015.494,-23.438,43.457,42.969,45.410,-3.906
1532402015.498,-25.879,38.574,34.180,36.133,-8.301
1532402015.501,-28.809,25.391,30.762,28.320,16.602
1532402015.505,-22.461,28.320,32.715,37.109,28.809
1532402015.509,-17.578,23.438,31.738,42.969,18.555
1532402015.513,-13.672,27.832,34.668,43.945,22.949
1532402015.517,-17.578,30.762,35.156,46.387,27.832
1532402015.521,-20.508,21.484,31.250,51.758,19.531
1532402015.525,-17.090,26.855,33.691,43.945,22.949
1532402015.529,-14.160,35.156,38.086,43.945,38.574
1532402015.533,-16.113,34.668,35.156,49.316,46.875
1532402015.537,-16.602,39.062,35.156,52.246,48.340
1532402015.541,-20.996,32.715,35.156,45.898,4.395
1532402015.544,-21.484,27.344,37.109,44.434,-11.230
1532402015.548,-22.949,30.762,37.109,51.270,17.578
1532402015.552,-20.508,26.855,39.062,55.664,8.301
1532402015.556,-11.230,27.832,43.457,55.176,22.461
1532402015.560,-16.602,24.414,36.133,48.340,12.695
1532402015.564,-19.043,26.367,34.668,45.410,7.812
1532402015.568,-15.137,32.715,35.645,47.363,50.781
1532402015.572,-10.254,44.922,36.621,50.293,59.082
1532402015.576,-13.184,34.180,38.086,42.969,16.602
1532402015.580,-17.578,15.137,37.109,41.504,-4.395
1532402015.584,-12.695,20.996,39.551,46.387,7.324
1532402015.588,-8.789,33.691,42.480,50.293,15.625
1532402015.591,-11.230,37.598,36.133,48.828,5.859
1532402015.595,-8.301,30.762,34.668,50.293,12.695
1532402015.599,-6.348,36.621,39.551,53.711,16.113
1532402015.603,-12.695,40.527,33.691,44.434,13.184
1532402015.607,-11.719,32.227,35.645,43.945,46.875
1532402015.611,-11.230,24.414,34.668,49.805,30.273
1532402015.615,-12.695,29.297,27.344,46.387,50.781
1532402015.619,-7.324,41.016,36.621,48.340,57.129
1532402015.623,0.977,45.410,37.109,52.734,25.391
1532402015.627,-7.324,42.480,26.367,41.504,15.625
1532402015.631,-17.578,23.438,25.391,33.203,15.625
1532402015.634,-10.742,16.602,25.391,37.109,21.973
1532402015.638,-5.859,31.738,31.738,34.668,-3.418
1532402015.642,-7.812,28.320,38.086,20.020,-37.598
1532402015.646,-6.348,25.879,36.133,25.391,-13.184
1532402015.650,-6.348,29.785,31.250,35.156,35.645
1532402015.654,-1.465,42.480,33.691,43.457,54.199
1532402015.658,-1.953,38.574,33.691,44.922,10.742
1532402015.662,-9.277,19.043,33.203,40.527,2.930
1532402015.666,-3.418,29.785,36.621,45.410,36.621
1532402015.670,-2.930,30.762,37.109,46.387,47.363
1532402015.674,-7.324,25.879,35.156,47.363,28.320
1532402015.677,-7.324,41.504,28.809,47.363,13.672
1532402015.681,-9.766,37.109,28.320,40.527,14.160
1532402015.685,-12.695,21.484,31.250,34.668,11.230
1532402015.689,-7.812,21.484,33.691,40.527,-13.184
1532402015.693,-9.277,26.367,36.133,49.805,2.441
1532402015.697,-13.672,34.180,34.668,52.246,21.973
1532402015.701,-14.648,35.645,33.691,53.711,19.531
1532402015.705,-17.090,41.504,32.715,52.246,22.949
1532402015.709,-20.996,36.621,30.762,47.363,6.836
1532402015.713,-27.344,25.879,31.250,36.621,13.672
1532402015.717,-32.227,24.414,34.180,35.645,10.254
1532402015.721,-31.250,22.461,34.180,38.574,10.742
1532402015.724,-26.855,24.414,36.133,32.715,12.207
1532402015.728,-18.066,31.738,33.691,33.691,-17.578
1532402015.732,-15.625,40.039,30.273,35.645,29.785
1532402015.736,-22.949,21.973,30.273,34.668,48.828
1532402015.740,-20.508,21.484,34.668,39.551,7.324
1532402015.744,-8.789,41.992,43.457,50.293,1.465
1532402015.748,-18.066,34.180,39.551,48.340,21.973
1532402015.752,-26.367,27.344,33.203,41.016,49.805
1532402015.756,-20.020,26.855,33.691,47.363,35.156
1532402015.760,-19.043,20.508,29.785,49.316,-12.695
1532402015.764,-14.648,20.996,25.391,50.781,13.184
1532402015.767,-16.602,35.645,26.367,52.246,53.223
1532402015.771,-13.184,47.852,31.738,53.711,29.297
1532402015.775,-11.719,39.062,35.645,55.176,-1.465
1532402015.779,-18.066,21.484,39.551,42.480,-17.090
1532402015.783,-17.578,17.090,34.668,34.668,-11.230
1532402015.787,-14.648,20.996,25.879,42.480,28.809
1532402015.791,-13.672,17.578,23.438,42.480,30.762
1532402015.795,-8.789,31.250,26.855,41.504,14.160
1532402015.799,-10.742,39.062,27.344,48.340,5.371
1532402015.803,-1.953,27.832,29.785,45.898,14.648
1532402015.807,8.301,37.109,35.156,45.410,49.316
1532402015.810,-1.953,40.527,28.809,40.527,47.852
1532402015.814,-2.441,22.949,24.902,32.715,25.391
1532402015.818,1.465,21.484,29.785,38.086,41.992
1532402015.822,-3.418,31.738,32.715,38.574,24.902
1532402015.826,-6.836,42.969,31.738,48.340,8.789
1532402015.830,-14.160,34.668,32.227,61.035,6.348
1532402015.834,-17.090,26.855,36.133,66.895,2.441
1532402015.838,-11.230,40.527,41.504,73.242,24.414
1532402015.842,-13.184,33.691,40.039,71.777,9.277
1532402015.846,-17.578,20.020,33.203,67.383,13.672
1532402015.850,-14.160,26.367,32.227,63.965,32.227
1532402015.854,-19.043,21.973,27.344,57.129,38.574
1532402015.857,-20.020,13.184,29.785,54.688,14.648
1532402015.861,-12.207,20.508,37.598,58.594,-1.465
1532402015.865,-15.625,23.438,33.691,58.594,10.742
1532402015.869,-21.973,22.461,30.762,52.246,20.996
1532402015.873,-23.926,20.508,34.668,55.176,18.066
1532402015.877,-27.832,19.531,33.203,60.059,-4.395
1532402015.881,-25.879,25.879,38.574,60.547,-31.250
1532402015.885,-21.484,38.086,37.598,57.617,4.883
1532402015.889,-27.832,24.902,30.273,54.199,30.762
1532402015.893,-29.785,10.742,30.273,55.176,14.648
1532402015.897,-30.762,12.695,22.949,50.781,36.621
1532402015.900,-21.973,12.695,24.414,46.387,52.734
1532402015.904,-20.020,18.066,31.738,49.316,39.551
1532402015.908,-31.738,19.531,31.250,51.270,27.344
1532402015.912,-26.855,27.832,31.250,51.270,20.508
1532402015.916,-15.137,35.156,33.691,52.246,27.832
1532402015.920,-11.719,20.508,35.156,45.410,3.906
1532402015.924,-18.555,15.137,33.203,43.945,-15.625
1532402015.928,-19.531,20.508,33.203,51.270,28.320
1532402015.932,-18.066,19.531,33.691,55.176,47.363
1532402015.936,-20.508,19.531,29.785,58.594,47.852
1532402015.940,-17.578,29.297,29.297,54.199,20.508
1532402015.943,-12.695,37.598,33.203,56.152,16.602
1532402015.947,-18.066,24.902,33.203,59.082,28.809
1532402015.951,-18.555,14.648,30.762,50.781,25.879
1532402015.955,-23.926,12.695,31.738,55.664,42.480
1532402015.959,-22.461,17.578,40.527,65.430,12.695
1532402015.963,-15.625,32.227,42.480,53.711,-5.859
1532402015.967,-20.508,49.805,36.133,49.316,41.016
1532402015.971,-20.020,47.363,30.273,53.711,50.781
1532402015.975,-20.020,20.996,22.949,47.363,35.156
1532402015.979,-17.578,21.484,28.320,45.898,14.648
1532402015.983,-13.184,41.504,31.250,46.387,17.090
1532402015.986,-16.602,42.480,33.203,45.898,39.062
1532402015.990,-17.578,40.039,34.180,47.363,14.648
1532402015.994,-17.090,45.898,31.250,43.945,-4.395
1532402015.998,-20.996,34.180,29.785,37.598,11.230
1532402016.002,-22.949,19.531,23.926,33.691,17.578
1532402016.006,-20.996,28.320,20.996,37.598,20.508
1532402016.010,-18.066,37.109,20.996,39.062,21.973
1532402016.014,-15.625,39.551,21.484,42.969,19.531
1532402016.018,-7.324,42.969,25.879,49.316,8.301
1532402016.022,-3.906,48.828,31.250,44.434,29.785
1532402016.026,-10.254,58.105,32.227,44.434,41.016
1532402016.030,-17.578,44.922,31.738,45.410,27.344
1532402016.033,-26.367,31.250,28.809,43.945,60.547
1532402016.037,-31.250,28.809,25.391,41.016,80.566
1532402016.041,-28.320,26.855,25.879,36.621,45.898
1532402016.045,-25.391,28.320,28.320,37.598,44.434
1532402016.049,-20.508,32.715,32.715,43.457,64.941
1532402016.053,-19.531,45.898,34.668,48.828,56.152
1532402016.057,-24.414,39.062,29.297,47.363,46.875
1532402016.061,-16.602,29.785,30.762,40.039,6.836
1532402016.065,-18.066,30.762,36.133,37.598,-21.484
1532402016.069,-24.902,28.809,32.715,46.875,18.555
1532402016.073,-16.602,33.203,31.738,51.270,18.066
1532402016.076,-10.742,43.457,37.598,52.734,25.391
1532402016.080,-12.695,45.410,30.762,43.945,18.555
1532402016.084,-24.414,21.973,19.531,30.273,18.066
1532402016.088,-15.137,19.043,21.973,37.598,37.109
1532402016.092,-6.348,30.762,27.832,42.969,28.320
1532402016.096,-10.254,31.250,33.203,38.574,21.484
1532402016.100,-9.766,33.203,32.715,33.203,9.766
1532402016.104,-3.418,40.527,36.133,37.109,12.207
1532402016.108,-1.465,40.039,33.203,42.969,54.688
1532402016.112,-10.254,32.715,20.020,36.621,45.410
1532402016.116,-8.301,27.832,23.438,42.480,44.922
1532402016.119,-3.418,22.461,27.344,40.039,39.062
1532402016.123,-8.789,20.996,25.879,27.832,-7.324
1532402016.127,-6.348,29.785,29.785,36.133,13.184
1532402016.131,-1.953,35.645,36.621,39.551,15.137
1532402016.135,4.883,40.527,32.227,43.457,27.832
1532402016.139,8.301,49.805,30.273,45.410,31.250
1532402016.143,2.441,39.551,25.391,37.598,1.465
1532402016.147,0.488,15.137,20.020,34.180,7.812
1532402016.151,0.000,12.207,29.297,36.621,28.809
1532402016.155,3.418,20.508,37.109,39.062,24.902
1532402016.159,10.742,38.086,33.691,43.457,0.000
1532402016.163,8.789,47.363,28.320,40.039,-21.484
1532402016.166,0.977,23.926,29.297,37.109,12.207
1532402016.170,3.906,30.273,39.551,42.969,40.039
1532402016.174,6.836,41.504,46.875,48.340,23.926
1532402016.178,7.324,31.738,41.016,45.410,11.719
1532402016.182,13.184,41.016,45.410,45.898,-5.859
1532402016.186,19.043,45.410,45.410,46.875,26.855
1532402016.190,17.090,41.504,35.645,43.945,60.059
1532402016.194,20.996,51.758,41.504,53.711,18.555
1532402016.198,19.043,59.082,43.945,55.176,-19.043
1532402016.202,11.719,41.992,40.039,48.340,-19.531
1532402016.206,11.719,25.879,42.480,48.340,33.203
1532402016.209,12.695,31.738,47.363,54.688,30.762
1532402016.213,15.137,40.039,48.828,58.594,20.996
1532402016.217,17.090,39.551,46.387,61.523,44.434
1532402016.221,13.672,44.434,47.363,57.617,19.531
1532402016.225,10.254,40.527,44.434,51.270,-3.906
1532402016.229,6.836,34.668,34.668,51.270,-6.836
1532402016.233,4.883,34.180,34.180,47.852,20.508
1532402016.237,8.789,29.297,38.086,48.340,46.387
1532402016.241,11.719,35.156,40.039,47.363,18.066
1532402016.245,20.020,48.828,41.016,48.340,-5.371
1532402016.249,17.578,58.105,48.340,58.105,4.883
1532402016.252,2.441,37.109,44.922,50.293,27.832
1532402016.256,0.977,19.531,41.992,45.898,32.715
1532402016.260,5.371,28.809,41.992,44.434,-19.531
1532402016.264,6.348,32.227,40.039,45.898,-21.484
1532402016.268,2.930,30.273,37.109,51.758,21.973
1532402016.272,3.418,37.109,35.645,51.758,43.945
1532402016.276,5.371,41.504,41.016,50.293,27.832
1532402016.280,3.906,42.480,43.945,50.293,19.531
1532402016.284,4.883,38.086,40.527,52.734,35.645
1532402016.288,-0.977,31.250,39.062,45.410,41.016
1532402016.292,-7.324,32.227,36.133,42.480,-3.906
1532402016.296,-6.348,34.180,34.668,46.875,-7.812
1532402016.299,-1.953,44.922,43.457,47.852,25.879
1532402016.303,-11.719,42.480,43.945,41.992,3.418
1532402016.307,-20.508,34.180,33.691,37.598,13.672
1532402016.311,-14.648,36.621,28.809,35.645,51.758
1532402016.315,-6.836,31.738,24.414,38.086,72.266
1532402016.319,-6.348,25.879,30.273,55.664,50.293
1532402016.323,-21.973,22.949,48.340,54.199,44.922
1532402016.327,-31.738,21.973,49.805,40.527,44.922
1532402016.331,-32.715,28.320,45.898,34.668,8.301
1532402016.335,-25.879,46.387,50.781,41.016,13.672
1532402016.339,-23.926,40.039,45.410,45.898,22.461
1532402016.342,-28.809,23.438,40.527,37.598,-25.391
1532402016.346,-27.832,22.461,39.551,36.621,-38.086
1532402016.350,-28.809,18.555,33.203,39.062,9.277
1532402016.354,-21.973,28.809,37.109,45.410,61.035
1532402016.358,-19.531,33.691,38.086,44.922,58.594
1532402016.362,-18.555,27.344,39.062,41.016,27.344
1532402016.366,-13.672,29.297,40.527,43.457,27.344
1532402016.370,-14.160,34.180,38.086,51.270,23.438
1532402016.374,-13.672,32.227,39.062,47.363,20.508
1532402016.378,-13.672,20.020,34.180,42.969,-7.324
1532402016.382,-12.695,19.043,35.156,47.852,-2.441
1532402016.385,-11.230,35.645,42.969,45.898,18.066
1532402016.389,-12.207,40.527,43.945,46.875,20.020
1532402016.393,-13.672,25.391,39.062,43.457,7.324
1532402016.397,-15.625,23.926,36.133,38.086,10.742
1532402016.401,-19.043,21.973,34.180,28.809,24.902
1532402016.405,-21.973,28.809,32.715,21.973,0.488
1532402016.409,-23.438,41.016,36.133,28.809,5.371
1532402016.413,-24.414,37.109,34.668,30.273,10.254
1532402016.417,-26.855,24.902,30.762,25.879,20.020
1532402016.421,-23.926,21.973,32.715,23.438,27.344
1532402016.425,-13.184,22.949,32.227,23.926,29.297
1532402016.429,-2.441,29.297,32.227,28.320,12.695
1532402016.432,5.859,36.621,34.668,29.297,2.441
1532402016.436,0.488,41.016,36.133,30.273,45.410
1532402016.440,-10.254,33.691,36.133,35.156,53.711
1532402016.444,-17.578,22.949,32.227,41.504,16.602
1532402016.448,-19.531,32.715,31.738,46.387,15.137
1532402016.452,-26.367,39.062,32.715,46.875,41.992
1532402016.456,-32.715,29.297,31.738,47.852,45.410
1532402016.460,-32.227,28.320,33.203,41.504,16.113
1532402016.464,-32.227,32.227,29.785,32.715,8.301
1532402016.468,-29.297,38.086,33.691,38.086,32.227
1532402016.472,-30.762,37.109,35.645,37.109,29.785
1532402016.475,-31.250,35.156,32.715,26.367,-3.906
1532402016.479,-18.555,42.480,29.785,32.715,-11.230
1532402016.483,-36.133,26.367,35.645,17.090,-10.254
1532402016.487,-72.754,22.461,51.270,-12.695,-19.531
1532402016.491,-72.754,38.574,50.293,-16.602,11.230
1532402016.495,-71.289,40.039,56.152,-14.160,8.301
1532402016.499,-83.496,39.551,59.570,-25.391,-13.672
1532402016.503,-99.609,31.250,54.688,-39.062,13.672
1532402016.507,-111.328,21.484,61.035,-34.668,38.086
1532402016.511,-104.004,23.926,68.359,-26.855,4.883
1532402016.515,-107.422,24.902,66.406,-31.738,-1.465
1532402016.518,-107.422,26.367,68.848,-30.762,23.926
1532402016.522,-104.492,18.555,66.895,-27.832,33.203
1532402016.526,-106.445,7.324,62.012,-31.738,14.160
1532402016.530,-99.609,12.695,62.988,-20.996,-10.254
1532402016.534,-89.844,19.043,61.523,-9.277,17.578
1532402016.538,-85.449,18.555,60.547,-6.348,40.039
1532402016.542,-78.613,14.160,56.152,-7.324,18.066
1532402016.546,-69.336,17.578,53.223,-0.488,-4.395
1532402016.550,-61.523,22.949,55.176,12.695,32.715
1532402016.554,-53.711,20.020,55.176,20.996,59.082
1532402016.558,-46.875,22.461,55.176,25.391,63.477
1532402016.561,-39.062,16.113,47.852,21.973,35.156
1532402016.565,-41.016,8.301,44.922,18.066,19.043
1532402016.569,-47.852,14.160,48.828,19.531,43.457
1532402016.573,-42.969,15.137,43.457,21.973,68.359
1532402016.577,-39.062,20.508,43.457,25.391,38.086
1532402016.581,-35.156,19.043,43.945,27.832,-11.719
1532402016.585,-32.227,16.602,42.969,28.809,-13.184
1532402016.589,-27.832,18.555,46.875,36.133,36.133
1532402016.593,-26.367,20.508,49.805,40.039,20.508
1532402016.597,-23.438,34.180,56.152,45.410,-7.324
1532402016.601,-21.973,35.645,57.129,41.992,0.488
1532402016.605,-30.762,15.137,43.457,28.809,5.371
1532402016.608,-29.785,12.695,35.645,30.273,-0.977
1532402016.612,-23.926,25.879,38.086,34.180,-27.832
1532402016.616,-20.020,29.785,41.992,37.598,-21.973
1532402016.620,-20.508,29.297,43.945,35.645,8.301
1532402016.624,-23.438,24.902,39.551,28.809,20.996
1532402016.628,-20.996,23.926,41.016,33.691,27.344
1532402016.632,-17.090,28.809,39.062,34.668,-2.441
1532402016.636,-20.508,24.902,31.738,31.738,0.488
1532402016.640,-25.391,24.414,38.574,36.133,23.438
1532402016.644,-15.625,36.133,46.387,40.039,23.438
1532402016.648,-16.113,38.086,41.504,35.156,27.832
1532402016.651,-21.973,26.367,33.203,27.344,31.250
1532402016.655,-17.578,19.531,33.203,29.297,45.410
1532402016.659,-14.160,25.879,34.668,30.273,28.809
1532402016.663,-14.160,32.227,33.691,33.203,-1.465
1532402016.667,-9.766,25.879,35.645,39.062,6.836
1532402016.671,-5.859,29.785,41.504,41.016,24.902
1532402016.675,-6.348,36.133,42.969,38.574,23.926
1532402016.679,-4.883,36.133,46.875,42.480,15.137
1532402016.683,-12.207,33.203,47.363,34.668,-1.465
1532402016.687,-25.879,27.344,42.969,24.902,15.137
1532402016.691,-19.531,44.922,48.828,34.668,34.180
1532402016.694,-19.531,48.340,49.316,36.133,-4.395
1532402016.698,-27.344,29.297,39.551,32.227,-4.395
1532402016.702,-27.344,37.598,40.039,29.297,27.832
1532402016.706,-27.344,35.645,41.504,24.414,22.949
1532402016.710,-30.762,25.391,40.039,29.297,14.160
1532402016.714,-32.227,28.809,39.551,29.297,0.000
1532402016.718,-26.367,32.227,40.039,34.668,13.184
1532402016.722,-24.414,36.621,46.387,34.668,2.930
1532402016.726,-18.555,32.715,41.016,23.926,-9.277
1532402016.730,1.465,34.668,24.902,42.969,17.578
1532402016.734,-8.789,26.855,33.203,45.410,7.812
1532402016.738,-39.551,20.020,49.316,22.949,25.879
1532402016.741,-34.180,24.902,49.316,27.344,41.016
1532402016.745,-27.344,26.855,49.805,34.180,0.977
1532402016.749,-24.414,25.879,52.246,34.668,-6.348
1532402016.753,-27.832,27.344,51.270,33.203,24.414
1532402016.757,-31.250,18.555,47.363,26.367,55.176
1532402016.761,-20.996,15.625,48.340,29.297,43.457
1532402016.765,-19.531,21.973,45.898,31.738,-16.602
1532402016.769,-19.531,17.090,40.039,36.621,-13.672
1532402016.773,-12.695,22.461,40.527,44.434,39.062
1532402016.777,-10.254,28.320,43.457,44.922,44.922
1532402016.781,-21.484,31.738,40.039,37.598,15.625
1532402016.784,-14.160,38.086,44.922,40.527,6.348
1532402016.788,-13.672,27.832,42.480,36.133,24.902
1532402016.792,-22.949,15.137,33.691,33.691,12.207
1532402016.796,-20.020,22.949,32.227,40.527,16.113
1532402016.800,-16.602,31.738,32.715,41.016,27.344
1532402016.804,-17.090,31.250,36.621,43.945,24.902
1532402016.808,-19.531,25.391,36.621,42.969,13.672
1532402016.812,-16.602,33.203,44.434,45.410,-0.488
1532402016.816,-19.531,35.156,43.457,46.387,-5.371
1532402016.820,-20.020,22.949,32.227,39.551,7.812
1532402016.824,-12.207,27.344,35.156,33.691,-22.949
1532402016.827,-15.625,29.297,31.738,34.180,-17.578
1532402016.831,-20.020,18.066,24.902,36.621,12.207
1532402016.835,-12.207,26.367,35.645,43.457,9.277
1532402016.839,-6.836,42.969,45.898,47.363,19.043
1532402016.843,-14.648,34.668,40.039,43.457,25.879
1532402016.847,-14.160,22.461,38.574,47.363,18.555
1532402016.851,-7.324,30.762,43.945,52.734,13.184
1532402016.855,-3.906,48.828,46.875,55.664,39.062
1532402016.859,-15.625,50.293,45.898,44.434,37.598
1532402016.863,-17.090,41.992,48.828,35.645,-10.742
1532402016.867,-22.461,41.016,52.246,28.320,10.742
1532402016.871,-49.316,38.574,41.992,3.418,49.805
1532402016.874,-55.664,43.945,37.598,-4.395,36.133
1532402016.878,-62.012,49.316,52.734,-12.207,24.902
1532402016.882,-65.430,61.523,60.059,-20.020,-8.789
1532402016.886,-56.152,59.082,52.734,-12.207,5.859
1532402016.890,-68.359,53.223,54.688,-18.066,61.523
1532402016.894,-75.684,71.289,64.453,-28.809,28.320
1532402016.898,-92.773,65.430,58.105,-41.992,-0.977
1532402016.902,-113.770,53.223,53.711,-62.012,-14.160
1532402016.906,-113.770,65.918,62.012,-68.359,-24.902
1532402016.910,-113.770,76.660,67.383,-61.523,26.855
1532402016.914,-118.652,74.707,67.871,-68.359,20.020
1532402016.917,-133.301,66.895,61.523,-79.590,2.441
1532402016.921,-125.977,77.637,63.477,-72.266,34.668
1532402016.925,-113.281,88.867,69.824,-64.453,41.504
1532402016.929,-117.188,81.055,59.570,-68.848,6.348
1532402016.933,-108.887,75.195,53.711,-60.059,24.902
1532402016.937,-104.492,73.730,55.664,-50.293,43.457
1532402016.941,-104.980,68.848,60.059,-52.734,28.809
1532402016.945,-93.750,68.359,58.594,-45.898,13.672
1532402016.949,-91.309,78.613,57.129,-35.156,17.578
1532402016.953,-83.984,81.543,63.965,-33.203,34.180
1532402016.957,-80.078,65.430,60.059,-29.297,64.453
1532402016.960,-85.938,53.223,47.852,-35.156,39.551
1532402016.964,-74.707,49.316,37.598,-36.621,-9.766
1532402016.968,-63.477,52.246,33.203,-14.648,7.324
1532402016.972,-56.152,48.828,35.156,0.977,16.113
1532402016.976,-40.039,60.059,40.527,12.207,36.621
1532402016.980,-33.203,60.547,37.109,17.090,32.227
1532402016.984,-27.832,53.711,36.133,30.273,-8.789
1532402016.988,-22.461,63.477,35.645,44.434,-7.324
1532402016.992,-34.180,34.668,22.461,32.715,18.066
1532402016.996,-28.809,4.883,13.184,31.738,22.949
1532402017.000,-14.160,19.043,15.137,42.969,27.344
1532402017.004,-3.906,37.109,18.555,43.457,9.766
1532402017.007,-5.371,28.809,20.020,49.805,21.973
1532402017.011,8.789,30.273,24.902,65.430,32.715
1532402017.015,17.578,45.898,31.250,74.219,3.906
1532402017.019,8.789,35.645,29.785,74.219,3.906
1532402017.023,11.230,18.066,20.996,72.266,28.320
1532402017.027,11.719,15.137,14.648,69.336,47.852
1532402017.031,20.996,11.719,19.043,72.754,44.434
1532402017.035,32.715,20.996,23.926,81.543,42.969
1532402017.039,42.480,29.785,23.926,86.914,42.480
1532402017.043,50.293,28.809,31.250,81.543,16.113
1532402017.047,47.852,20.020,26.855,74.707,-13.184
1532402017.050,51.758,13.184,17.578,80.078,10.254
1532402017.054,56.641,20.508,15.625,86.914,34.180
1532402017.058,52.246,16.113,13.672,95.703,27.832
1532402017.062,48.828,18.555,20.020,101.074,1.953
1532402017.066,40.527,25.391,24.414,102.051,-14.648
1532402017.070,29.297,11.719,23.438,102.539,-4.883
1532402017.074,31.738,11.230,26.367,104.492,38.086
1532402017.078,31.738,19.531,23.926,100.098,44.922
1532402017.082,24.902,16.113,22.461,93.750,1.465
1532402017.086,24.902,15.625,20.996,92.773,-0.488
1532402017.090,23.926,18.066,13.184,87.402,21.484
1532402017.093,19.043,13.672,14.648,82.031,33.691
1532402017.097,23.926,13.672,20.508,81.543,16.602
1532402017.101,30.762,27.344,24.902,77.148,-15.137
1532402017.105,31.250,32.227,26.855,70.801,5.859
1532402017.109,26.367,30.273,21.973,74.219,40.527
1532402017.113,24.902,22.461,21.484,77.637,26.367
1532402017.117,27.832,22.461,26.367,86.914,14.648
1532402017.121,29.785,30.762,24.902,86.914,21.484
1532402017.125,26.367,21.484,18.066,81.055,40.527
1532402017.129,26.855,11.719,20.996,83.496,20.020
1532402017.133,24.414,8.301,24.902,82.031,19.531
1532402017.136,22.949,15.137,29.785,82.031,41.992
1532402017.140,25.391,23.926,34.180,79.102,33.203
1532402017.144,20.020,15.625,26.367,67.383,0.977
1532402017.148,17.090,11.719,20.996,72.266,3.906
1532402017.152,15.625,15.625,16.113,79.590,18.066
1532402017.156,11.719,10.742,19.043,75.684,38.086
1532402017.160,20.508,18.555,32.715,79.102,43.945
1532402017.164,22.461,25.391,33.203,76.660,-7.324
1532402017.168,20.508,13.672,28.320,71.777,3.418
1532402017.172,13.672,14.648,28.809,68.848,22.461
1532402017.176,9.766,22.461,33.691,73.242,-12.695
1532402017.180,15.137,29.297,33.203,79.102,-20.020
1532402017.183,4.883,22.949,30.273,60.547,-14.160
1532402017.187,2.930,18.066,34.180,57.129,0.488
1532402017.191,7.812,25.391,33.203,66.406,39.062
1532402017.195,10.254,30.762,35.645,59.570,37.109
1532402017.199,11.719,31.250,38.086,60.059,3.906
1532402017.203,6.836,21.484,33.691,61.035,9.277
1532402017.207,5.859,26.367,31.250,61.035,39.551
1532402017.211,6.348,37.109,30.273,61.523,58.105
1532402017.215,8.301,35.645,34.668,57.129,16.113
1532402017.219,5.859,26.367,35.645,52.246,-1.953
1532402017.223,4.883,27.344,34.668,55.176,33.203
1532402017.226,8.301,41.016,37.109,57.617,40.039
1532402017.230,2.441,29.297,34.668,46.875,28.809
1532402017.234,2.441,22.461,32.715,47.363,3.906
1532402017.238,5.371,41.016,35.645,45.898,19.043
1532402017.242,2.930,48.340,40.527,40.527,11.230
1532402017.246,-6.836,30.273,34.180,41.016,-22.461
1532402017.250,-14.160,17.578,30.762,37.109,7.324
1532402017.254,-9.766,24.902,33.691,41.504,35.156
1532402017.258,-6.348,28.320,27.832,47.363,49.805
1532402017.262,-9.277,28.320,28.809,38.574,43.945
1532402017.266,-4.395,26.855,34.180,40.527,42.480
1532402017.269,3.418,29.785,27.344,49.316,23.438
1532402017.273,4.883,41.504,27.344,48.828,39.551
1532402017.277,7.812,45.410,39.062,48.828,43.457
1532402017.281,1.953,27.832,36.621,41.504,-29.785
1532402017.285,0.488,25.879,29.297,37.109,-4.883
1532402017.289,6.348,35.156,28.809,44.922,60.059
1532402017.293,11.719,31.250,29.297,53.711,39.551
1532402017.297,14.160,31.250,30.762,57.617,11.230
1532402017.301,13.184,36.133,30.273,55.176,0.977
1532402017.305,13.672,41.992,30.273,52.246,2.441
1532402017.309,4.883,41.992,34.180,48.340,53.223
1532402017.313,-2.441,33.691,35.156,39.551,48.340
1532402017.316,1.465,25.879,30.273,41.504,27.344
1532402017.320,-5.859,24.414,25.879,36.133,32.227
1532402017.324,-6.836,28.320,34.180,33.203,18.555
1532402017.328,-9.277,31.738,33.203,39.062,34.668
1532402017.332,-11.719,28.320,27.832,43.945,34.668
1532402017.336,-0.977,28.320,35.645,53.223,49.805
1532402017.340,4.395,41.992,37.598,60.547,63.477
1532402017.344,7.812,43.945,35.645,61.035,52.246
1532402017.348,5.859,33.203,35.156,60.059,48.828
1532402017.352,-1.953,22.949,34.180,56.152,47.363
1532402017.356,1.953,23.926,35.645,58.594,35.156
1532402017.359,7.812,37.598,40.039,60.059,17.578
1532402017.363,-1.953,29.785,38.086,53.711,3.418
1532402017.367,-0.977,26.367,40.039,55.664,1.953
1532402017.371,0.488,34.668,45.898,60.547,-0.977
1532402017.375,-3.906,36.133,44.434,61.523,33.203
1532402017.379,-2.930,30.273,42.480,58.594,39.551
1532402017.383,5.371,36.133,44.434,60.059,-7.812
1532402017.387,14.160,49.316,43.457,65.918,-0.488
1532402017.391,11.719,43.945,39.062,62.012,19.531
1532402017.395,1.953,23.438,36.621,51.270,25.879
1532402017.399,4.883,18.555,36.621,51.758,15.625
1532402017.402,10.254,26.367,41.504,52.734,10.742
1532402017.406,8.789,30.273,40.527,45.898,41.992
1532402017.410,9.766,33.691,34.668,42.969,40.527
1532402017.414,11.719,37.598,33.691,48.340,-1.953
1532402017.418,10.742,33.691,37.109,51.270,-7.812
1532402017.422,8.301,33.691,41.504,42.969,1.465
1532402017.426,12.695,41.992,38.574,33.203,-7.324
1532402017.430,6.348,31.738,38.086,40.039,7.812
1532402017.434,5.371,38.086,42.969,55.176,-22.949
1532402017.438,-0.488,42.969,26.855,51.758,1.953
1532402017.442,-10.254,15.137,22.461,42.480,4.883
1532402017.446,-5.859,20.996,40.527,49.316,-10.254
1532402017.449,-6.836,28.320,46.875,53.223,21.973
1532402017.453,-4.883,25.879,46.387,53.223,16.602
1532402017.457,-7.812,31.738,42.969,50.781,40.527
1532402017.461,-11.230,26.367,43.457,43.457,26.855
1532402017.465,-5.371,29.297,41.016,40.527,-2.930
1532402017.469,-7.812,31.738,33.691,41.504,13.184
1532402017.473,-12.207,28.809,37.598,40.527,14.160
1532402017.477,-3.906,35.156,43.457,45.410,39.062
1532402017.481,3.906,38.086,41.504,44.434,14.648
1532402017.485,0.000,32.227,36.133,37.598,-13.184
1532402017.489,-5.371,27.344,37.109,36.133,34.668
1532402017.492,-4.395,39.551,46.875,39.551,65.430
1532402017.496,-3.418,53.711,48.340,41.504,42.969
1532402017.500,-8.301,35.645,45.410,32.227,-17.090
1532402017.504,-14.160,26.367,47.363,26.367,-14.648
1532402017.508,-13.672,44.434,53.223,31.738,18.555
1532402017.512,-21.973,36.621,56.152,23.438,27.832
1532402017.516,-34.180,28.320,53.223,10.254,31.738
1532402017.520,-43.457,30.762,54.688,-0.488,7.812
1532402017.524,-53.711,34.668,58.105,-12.695,-7.324
1532402017.528,-63.965,44.922,52.246,-21.484,11.230
1532402017.532,-64.941,46.875,46.387,-24.414,12.207
1532402017.535,-62.500,44.434,54.688,-19.043,27.832
1532402017.539,-79.102,52.734,67.383,-31.738,39.551
1532402017.543,-89.844,64.453,65.430,-51.270,53.223
1532402017.547,-98.145,55.664,62.500,-54.199,63.965
1532402017.551,-104.492,52.734,68.359,-57.617,42.480
1532402017.555,-99.121,56.641,64.453,-60.059,19.043
1532402017.559,-96.680,62.988,67.383,-52.734,37.109
1532402017.563,-106.445,67.871,70.801,-67.383,2.441
1532402017.567,-104.004,65.918,68.848,-79.102,11.230
1532402017.571,-105.469,63.965,67.383,-65.918,48.340
1532402017.575,-118.652,58.594,69.336,-68.359,19.043
1532402017.578,-114.258,67.383,76.660,-70.801,18.066
1532402017.582,-114.258,70.312,73.730,-73.242,8.789
1532402017.586,-130.371,56.641,68.848,-85.449,1.953
1532402017.590,-134.277,61.035,66.895,-86.426,16.113
1532402017.594,-125.977,68.848,58.594,-79.102,5.371
1532402017.598,-130.371,62.988,61.523,-81.055,9.277
1532402017.602,-134.277,67.383,65.918,-88.867,-16.113
1532402017.606,-133.301,67.383,66.406,-96.191,-13.672
1532402017.610,-130.371,64.941,67.871,-83.984,43.945
1532402017.614,-122.070,66.406,62.012,-70.312,28.809
1532402017.618,-109.863,64.453,54.688,-64.453,14.648
1532402017.622,-101.074,63.477,51.270,-54.199,19.043
1532402017.625,-93.750,54.199,51.270,-42.969,26.367
1532402017.629,-83.984,47.363,55.664,-29.297,44.922
1532402017.633,-81.055,45.898,50.781,-25.879,36.621
1532402017.637,-72.754,45.410,44.922,-20.020,17.090
1532402017.641,-59.570,42.969,41.016,-5.371,10.742
1532402017.645,-49.316,37.598,35.645,-2.441,18.066
1532402017.649,-35.645,38.086,33.203,4.883,11.230
1532402017.653,-24.414,33.203,31.250,18.066,-0.977
1532402017.657,-15.625,26.855,33.203,20.508,16.113
1532402017.661,-5.859,27.344,31.738,13.672,30.762
1532402017.665,9.766,31.738,29.785,18.555,-0.488
1532402017.668,17.578,30.273,26.855,30.762,0.000
1532402017.672,12.207,21.484,29.297,35.156,42.969
1532402017.676,7.324,16.602,25.879,44.922,72.754
1532402017.680,10.742,13.672,19.531,62.988,30.762
1532402017.684,16.602,19.531,21.484,73.242,-5.371
1532402017.688,12.207,19.043,20.020,79.102,38.574
1532402017.692,17.090,13.672,20.508,87.891,52.734
1532402017.696,20.020,12.695,24.414,87.402,33.203
1532402017.700,23.438,15.137,25.879,87.891,9.766
1532402017.704,21.973,15.137,24.414,84.961,-8.789
1532402017.708,19.043,17.090,23.926,83.008,37.598
1532402017.711,24.902,12.695,23.926,85.938,52.734
1532402017.715,25.391,7.812,24.902,89.355,34.180
1532402017.719,22.461,9.277,26.855,93.750,8.301
1532402017.723,24.902,12.695,24.902,85.938,11.719
1532402017.727,24.902,11.230,18.555,79.590,42.969
1532402017.731,29.785,13.672,25.879,86.914,4.883
1532402017.735,32.227,17.090,27.832,85.938,-0.488
1532402017.739,30.762,12.695,18.066,81.055,24.414
1532402017.743,36.621,16.602,22.461,90.332,34.668
1532402017.747,40.527,23.438,30.273,94.238,15.137
1532402017.751,34.180,13.672,20.020,80.566,3.418
1532402017.755,33.691,12.695,16.113,83.008,25.879
1532402017.758,35.645,18.555,14.648,86.914,57.129
1532402017.762,32.227,14.648,12.695,79.102,34.668
1532402017.766,31.738,18.555,21.973,77.148,5.859
1532402017.770,34.668,23.926,24.902,85.449,37.598
1532402017.774,31.738,15.625,17.578,83.984,66.406
1532402017.778,25.391,5.859,14.160,80.566,56.152
1532402017.782,27.832,17.090,22.461,83.984,17.578
1532402017.786,25.879,26.855,22.949,77.148,18.066
1532402017.790,19.043,16.113,18.066,73.242,32.715
1532402017.794,17.578,14.648,19.531,75.684,30.762
1532402017.798,25.391,16.602,17.578,75.195,39.551
1532402017.801,29.297,15.137,18.066,74.707,-5.859
1532402017.805,19.531,16.602,20.020,73.730,-13.184
1532402017.809,22.949,28.320,20.020,74.707,34.668
1532402017.813,21.973,31.250,15.137,73.730,31.250
1532402017.817,17.090,25.879,17.090,69.336,14.648
1532402017.821,14.648,13.184,18.555,66.895,-0.488
1532402017.825,18.555,15.137,21.973,72.754,4.883
1532402017.829,22.949,27.344,24.414,71.777,11.230
1532402017.833,20.020,18.555,22.949,66.895,12.207
1532402017.837,22.949,16.113,27.344,66.895,12.207
1532402017.841,31.250,22.461,27.832,68.848,37.109
1532402017.844,34.668,40.039,30.762,62.012,37.598
1532402017.848,31.250,37.109,30.762,56.641,-16.602
1532402017.852,30.762,23.438,25.879,58.594,0.977
1532402017.856,22.461,21.973,22.461,46.387,37.598
1532402017.860,20.020,18.066,23.926,47.852,19.531
1532402017.864,20.020,23.438,21.484,54.199,24.414
1532402017.868,11.230,23.926,18.066,54.688,46.875
1532402017.872,12.207,31.250,28.320,57.617,38.574
1532402017.876,16.602,42.969,33.203,59.082,42.969
1532402017.880,8.789,29.297,25.879,51.270,39.062
1532402017.884,3.418,12.207,30.762,48.828,5.859
1532402017.888,7.812,17.578,31.738,53.711,10.254
1532402017.891,7.812,21.973,20.996,49.316,58.105
1532402017.895,7.812,22.949,19.043,47.852,48.340
1532402017.899,13.672,38.086,26.367,55.664,8.301
1532402017.903,15.137,53.711,33.691,49.316,-2.441
1532402017.907,0.000,35.156,32.715,35.156,-0.977
1532402017.911,-6.836,15.137,34.180,38.574,5.371
1532402017.915,-0.977,24.902,29.297,37.598,-25.391
1532402017.919,2.441,32.227,28.809,33.203,-17.578
1532402017.923,-5.859,25.879,29.297,34.668,60.059
1532402017.927,-5.859,27.832,29.785,37.598,67.383
1532402017.931,0.488,42.969,32.227,38.574,27.832
1532402017.934,-2.441,46.387,30.762,38.574,25.391
1532402017.938,-6.348,27.344,28.809,35.156,48.340
1532402017.942,-10.254,12.695,33.691,29.785,43.945
1532402017.946,-8.789,20.996,38.086,33.691,3.418
1532402017.950,-7.324,35.156,30.762,38.574,3.418
1532402017.954,-13.184,34.180,31.250,35.156,12.207
1532402017.958,-18.555,29.297,34.668,36.621,14.160
1532402017.962,-16.602,30.273,34.180,35.156,23.926
1532402017.966,-14.160,29.297,33.203,33.691,12.695
1532402017.970,-7.812,44.434,36.621,44.922,20.508
1532402017.974,-11.230,39.551,34.180,44.434,37.109
1532402017.977,-20.020,11.719,33.203,40.039,60.059
1532402017.981,-16.602,16.113,36.133,39.062,58.594
1532402017.985,-16.113,27.832,31.250,31.250,8.789
1532402017.989,-16.602,28.320,25.391,31.250,39.551
1532402017.993,-9.277,44.922,27.832,41.992,59.570
1532402017.997,-24.414,39.551,28.320,34.668,50.781
1532402018.001,-39.062,12.207,32.715,25.391,55.664
1532402018.005,-30.273,10.254,34.668,30.762,27.832
1532402018.009,-31.250,14.160,28.809,34.668,41.504
1532402018.013,-28.320,21.973,32.715,40.039,26.367
1532402018.017,-23.438,24.902,37.598,35.156,-12.207
1532402018.021,-20.996,21.973,30.762,36.621,7.812
1532402018.024,-19.043,24.414,28.809,35.156,11.719
1532402018.028,-2.441,45.410,44.434,46.875,17.578
1532402018.032,1.953,47.852,47.852,50.293,4.883
1532402018.036,-10.254,12.695,26.855,37.598,-5.371
1532402018.040,-9.277,14.160,25.879,48.828,33.203
1532402018.044,-16.113,23.438,33.203,49.316,43.945
1532402018.048,-14.648,29.297,38.086,48.340,28.809
1532402018.052,-2.930,34.180,42.480,53.711,18.555
1532402018.056,-5.859,25.879,39.551,48.340,23.438
1532402018.060,-7.812,22.461,35.645,46.387,48.340
1532402018.064,-1.465,36.621,39.551,47.363,45.898
1532402018.067,-7.324,33.203,32.715,35.645,10.742
1532402018.071,-11.719,18.066,33.203,32.227,12.695
1532402018.075,-9.766,24.414,37.598,33.203,46.875
1532402018.079,-15.137,25.391,27.832,32.715,42.969
1532402018.083,-15.625,30.762,29.297,29.297,-13.672
1532402018.087,-12.695,31.738,35.156,23.926,-40.039
1532402018.091,-8.301,25.391,33.691,32.715,27.832
1532402018.095,3.906,33.203,30.762,37.598,54.199
1532402018.099,5.371,31.250,29.785,38.574,9.277
1532402018.103,-2.441,33.691,31.738,41.992,10.742
1532402018.107,-7.812,30.273,28.809,33.691,45.410
1532402018.110,-6.348,26.855,30.762,35.645,37.598
1532402018.114,-3.418,32.227,31.250,34.180,27.832
1532402018.118,-1.465,28.809,27.344,26.367,21.484
1532402018.122,6.348,40.527,29.297,32.227,11.719
1532402018.126,2.441,41.992,27.832,28.809,-3.418
1532402018.130,0.000,31.738,28.809,31.738,-4.395
1532402018.134,1.465,34.180,30.762,40.039,5.859
1532402018.138,-8.789,23.926,29.785,28.809,28.809
1532402018.142,-8.301,25.391,38.086,25.391,60.059
1532402018.146,-4.883,36.133,35.645,37.598,36.621
1532402018.150,-8.301,38.574,28.809,40.039,23.926
1532402018.153,-10.742,29.785,31.250,34.180,38.086
1532402018.157,-14.160,22.461,31.738,31.250,43.457
1532402018.161,-14.648,28.320,35.156,31.738,32.715
1532402018.165,-17.090,24.902,35.645,29.297,-16.602
1532402018.169,-14.160,28.809,34.668,37.109,-14.648
1532402018.173,-14.648,33.203,30.762,39.062,23.438
1532402018.177,-15.625,28.320,37.598,35.156,39.551
1532402018.181,-6.836,30.762,40.527,40.039,37.109
1532402018.185,-9.766,29.785,31.738,33.691,-0.977
1532402018.189,-12.207,25.391,33.691,30.273,0.000
1532402018.193,0.977,33.203,34.668,37.109,47.852
1532402018.197,-0.977,32.715,33.203,35.645,41.504
1532402018.200,-9.277,28.320,36.621,38.574,12.207
1532402018.204,-13.672,13.672,31.738,34.668,12.695
1532402018.208,-16.113,1.953,30.762,31.738,29.297
1532402018.212,-12.207,9.277,27.344,31.250,11.719
1532402018.216,-10.742,21.484,22.461,31.250,7.324
1532402018.220,-11.719,16.602,30.273,35.645,50.293
1532402018.224,-10.254,18.066,38.086,29.297,26.855
1532402018.228,-11.230,29.297,35.156,25.391,-21.973
1532402018.232,-12.207,22.461,34.180,28.809,-13.672
1532402018.236,-11.230,15.625,34.180,24.414,12.207
1532402018.240,-13.184,11.230,32.715,25.879,43.945
1532402018.243,-13.672,15.625,35.645,24.414,43.457
1532402018.247,-11.230,22.949,39.551,24.902,12.207
1532402018.251,-16.113,23.438,35.156,28.809,16.113
1532402018.255,-15.137,30.762,35.156,26.367,33.691
1532402018.259,-12.695,33.691,40.039,24.902,33.691
1532402018.263,-17.090,16.113,38.086,16.602,17.578
1532402018.267,-2.930,12.695,37.598,19.043,-4.395
1532402018.271,4.395,24.414,30.762,19.531,-0.488
1532402018.275,0.977,35.156,23.926,11.719,13.672
1532402018.279,6.348,38.574,22.949,14.160,24.902
1532402018.283,2.441,39.062,30.762,16.113,2.930
1532402018.286,-13.184,32.227,29.297,16.602,11.230
1532402018.290,-18.555,29.297,26.367,26.855,24.414
1532402018.294,-17.578,40.527,36.621,36.133,24.414
1532402018.298,-30.273,17.090,33.203,30.762,26.855
1532402018.302,-34.180,4.883,24.414,32.227,1.465
1532402018.306,-28.320,20.508,27.344,36.621,5.859
1532402018.310,-23.926,24.414,32.715,37.109,22.461
1532402018.314,-19.531,27.344,35.645,41.992,20.020
1532402018.318,-10.742,37.109,38.574,46.875,15.137
1532402018.322,-9.766,37.598,40.039,41.992,9.277
1532402018.326,-3.906,49.316,43.457,34.180,7.324
1532402018.330,-4.883,47.363,40.039,29.785,9.277
1532402018.333,-23.926,7.812,33.691,25.391,6.836
1532402018.337,-22.461,-4.395,33.203,26.855,21.973
1532402018.341,-12.695,12.695,34.180,30.762,40.039
1532402018.345,-6.348,14.648,32.227,30.762,26.855
1532402018.349,-11.719,0.977,28.320,26.367,7.324
1532402018.353,-14.160,4.883,27.832,25.391,13.672
1532402018.357,-10.254,15.137,31.250,36.621,54.199
1532402018.361,-11.230,22.461,41.016,43.457,68.848
1532402018.365,-11.230,22.949,41.016,29.785,18.066
1532402018.369,-8.301,11.719,36.133,27.344,-4.395
1532402018.373,-7.324,4.883,36.133,36.621,41.016
1532402018.376,-6.836,5.859,30.762,35.156,63.477
1532402018.380,2.930,10.254,36.133,38.574,17.578
1532402018.384,8.301,22.949,36.133,40.527,-42.480
1532402018.388,3.906,14.160,25.391,32.227,-31.250
1532402018.392,8.301,13.184,31.250,33.691,30.762
1532402018.396,8.789,24.902,34.180,31.738,45.898
1532402018.400,4.395,19.043,24.902,28.809,-13.672
1532402018.404,6.836,19.531,28.320,27.344,-21.973
1532402018.408,7.324,27.344,39.551,32.715,41.504
1532402018.412,6.348,27.832,44.922,40.039,61.035
1532402018.416,15.625,20.020,37.598,44.922,52.734
1532402018.419,21.484,19.531,32.715,47.852,15.137
1532402018.423,9.766,11.719,37.109,43.945,6.836
1532402018.427,11.230,14.648,39.551,48.340,36.133
1532402018.431,11.230,21.973,32.227,45.898,11.230
1532402018.435,8.789,16.113,27.344,36.133,7.812
1532402018.439,11.230,20.996,32.227,35.156,40.039
1532402018.443,9.766,26.855,39.062,34.668,21.973
1532402018.447,6.348,20.508,39.551,34.668,8.789
1532402018.451,6.836,24.902,38.086,36.621,13.672
1532402018.455,5.371,24.902,37.109,33.203,1.953
1532402018.459,0.488,7.324,35.156,30.273,32.715
1532402018.463,0.977,8.301,34.180,24.414,18.555
1532402018.466,2.441,23.926,31.738,17.578,-39.062
1532402018.470,3.906,30.273,35.645,25.391,-35.645
1532402018.474,0.977,26.367,40.039,29.297,17.578
1532402018.478,-4.395,21.973,29.297,26.855,34.668
1532402018.482,-1.953,26.367,22.949,21.973,4.883
1532402018.486,-2.441,35.645,34.180,22.461,-5.371
1532402018.490,-6.348,40.527,44.434,29.785,26.855
1532402018.494,-4.395,32.227,39.062,27.344,41.504
1532402018.498,-8.789,13.184,32.715,25.879,35.645
1532402018.502,-7.812,14.648,35.156,30.762,8.789
1532402018.506,0.488,29.297,36.133,28.809,-13.672
1532402018.509,-1.953,29.785,39.551,25.391,11.719
1532402018.513,-5.371,29.785,35.645,24.414,22.461
1532402018.517,4.395,34.180,29.785,23.438,-12.207
1532402018.521,-3.906,27.832,32.227,24.902,1.465
1532402018.525,-20.020,27.344,35.156,21.484,49.805
1532402018.529,-10.742,34.180,34.180,18.555,45.410
1532402018.533,-4.883,34.180,31.250,22.949,33.691
1532402018.537,-9.766,22.949,24.902,18.555,50.781
1532402018.541,-7.324,26.855,32.227,21.973,52.246
1532402018.545,-3.418,47.363,36.133,20.020,20.508
1532402018.549,-7.812,36.621,26.367,12.207,20.996
1532402018.552,-2.930,30.762,31.250,25.879,44.922
1532402018.556,-0.977,43.945,33.203,34.668,41.992
1532402018.560,-10.254,24.902,20.508,27.344,47.852
1532402018.564,-13.184,12.695,24.414,22.949,43.945
1532402018.568,-5.859,29.297,32.715,27.344,25.391
1532402018.572,-2.930,49.316,32.715,33.203,19.043
1532402018.576,-14.648,35.645,31.250,22.461,46.875
1532402018.580,-12.207,22.949,33.691,22.461,49.316
1532402018.584,-13.672,26.367,29.297,24.414,9.277
1532402018.588,-19.043,22.949,28.320,17.578,-12.695
1532402018.592,-6.836,32.227,34.180,28.320,19.531
1532402018.596,-12.207,28.809,31.738,23.926,35.645
1532402018.599,-16.113,34.180,32.227,19.531,20.020
1532402018.603,-17.578,47.852,32.715,18.555,2.441
1532402018.607,-26.855,32.715,29.297,9.277,-5.371
1532402018.611,-26.855,20.020,29.297,15.625,29.785
1532402018.615,-22.949,21.973,31.738,24.902,50.293
1532402018.619,-20.996,21.973,31.738,23.438,16.113
1532402018.623,-20.996,21.484,34.180,23.438,4.395
1532402018.627,-18.066,26.367,41.016,30.273,34.180
1532402018.631,-13.672,36.621,37.598,34.180,23.926
1532402018.635,-12.695,31.738,27.344,28.809,-10.742
1532402018.639,-12.207,19.043,28.320,29.297,11.230
1532402018.642,-11.719,22.461,29.297,31.250,50.293
1532402018.646,-9.766,24.902,32.715,28.320,31.738
1532402018.650,-5.371,29.785,32.715,32.715,0.488
1532402018.654,-5.859,32.715,28.809,34.180,-8.301
1532402018.658,-5.371,30.762,31.738,34.668,14.160
1532402018.662,-3.418,25.391,31.250,31.250,30.762
1532402018.666,-4.395,22.949,29.297,28.320,9.766
1532402018.670,-7.812,24.902,27.832,30.762,12.207
1532402018.674,-8.789,22.461,29.785,25.879,27.344
1532402018.678,-4.883,22.949,35.156,23.926,44.434
1532402018.682,5.371,29.785,35.156,29.785,19.043
1532402018.685,8.789,44.922,35.156,31.250,-15.137
1532402018.689,-3.418,45.898,37.109,28.809,21.484
1532402018.693,-12.207,23.926,34.180,24.902,61.035
1532402018.697,-8.789,21.484,26.855,26.367,44.434
1532402018.701,-1.953,33.691,26.367,30.273,-0.488
1532402018.705,-0.488,37.109,28.320,29.785,5.371
1532402018.709,4.395,35.156,29.785,35.645,48.340
1532402018.713,5.371,38.086,33.203,35.156,49.316
1532402018.717,0.488,28.320,31.250,28.320,31.250
1532402018.721,0.977,22.949,32.227,30.273,12.207
1532402018.725,0.488,28.320,33.203,28.809,42.969
1532402018.728,-6.348,27.344,30.273,29.297,54.199
1532402018.732,-10.742,27.832,27.832,30.762,20.020
1532402018.736,-10.742,31.250,31.250,28.320,19.043
1532402018.740,-11.230,45.410,39.062,34.180,33.691
1532402018.744,-18.555,33.691,31.250,22.949,24.902
1532402018.748,-21.484,17.090,24.902,15.625,-27.832
1532402018.752,-16.602,20.020,31.250,30.273,-23.438
1532402018.756,-11.230,31.250,34.668,36.621,13.672
1532402018.760,-4.883,38.574,27.832,36.133,45.410
1532402018.764,-7.324,31.738,26.367,32.715,31.250
1532402018.768,-19.043,24.902,29.785,36.621,1.953
1532402018.772,-21.973,24.414,34.180,34.668,23.926
1532402018.775,-12.207,48.828,40.527,40.039,18.555
1532402018.779,-15.137,44.922,36.133,35.645,12.207
1532402018.783,-21.973,11.230,28.809,24.902,-16.602
1532402018.787,-16.113,20.020,30.762,20.508,-37.598
1532402018.791,-18.066,32.715,30.273,24.414,16.113
1532402018.795,-20.508,31.250,27.832,37.598,73.730
1532402018.799,-20.508,23.438,24.902,34.668,32.715
1532402018.803,-18.555,26.855,37.109,37.598,-8.301
1532402018.807,-18.066,38.086,41.992,45.898,11.719
1532402018.811,-21.973,29.297,37.109,41.992,36.133
1532402018.815,-22.461,26.367,36.621,41.992,33.691
1532402018.818,-22.949,24.414,29.785,41.992,13.184
