timestamps,TP9,AF7,AF8,TP10,Right AUX
1532510320.396,26.855,32.227,28.320,20.996,-4.883
1532510320.400,35.156,35.156,32.715,36.133,111.816
1532510320.404,17.578,24.414,20.996,23.438,118.164
1532510320.408,13.184,24.902,18.555,14.648,16.113
1532510320.412,18.066,24.902,19.531,26.855,-38.574
1532510320.416,30.762,24.902,24.414,27.344,22.949
1532510320.420,28.809,22.949,27.344,17.090,63.477
1532510320.424,8.301,25.391,24.902,16.113,5.859
1532510320.427,7.324,28.320,25.879,16.602,-2.441
1532510320.431,6.348,28.809,22.461,3.418,-34.668
1532510320.435,12.207,35.645,22.461,1.953,-35.645
1532510320.439,13.184,31.738,25.879,14.160,43.457
1532510320.443,9.277,26.855,26.367,14.648,11.719
1532510320.447,15.625,30.273,25.391,9.277,33.203
1532510320.451,14.160,26.367,20.996,11.719,107.422
1532510320.455,18.555,25.879,20.996,13.184,103.516
1532510320.459,19.531,26.855,24.414,9.277,9.766
1532510320.463,10.254,23.926,23.438,8.301,-74.219
1532510320.466,20.020,36.133,30.762,19.531,60.547
1532510320.470,28.320,52.246,46.387,32.715,92.285
1532510320.474,37.109,48.828,45.410,17.578,-124.023
1532510320.478,32.715,37.598,43.457,23.438,-90.820
1532510320.482,24.414,41.016,48.828,42.480,62.988
1532510320.486,35.156,50.781,50.781,39.062,156.738
1532510320.490,35.645,51.758,49.316,33.203,73.730
1532510320.494,39.551,57.129,49.805,27.832,-12.695
1532510320.498,55.176,65.430,51.270,34.180,76.172
1532510320.502,51.758,58.105,51.758,36.133,137.695
1532510320.506,46.387,55.176,59.570,30.273,90.332
1532510320.509,56.641,55.664,61.035,24.414,-47.852
1532510320.513,70.312,53.223,59.082,24.414,-148.438
1532510320.517,78.613,62.988,60.547,30.273,11.719
1532510320.521,80.566,70.312,57.617,30.762,124.023
1532510320.525,72.754,68.359,59.082,32.715,8.301
1532510320.529,59.082,61.035,62.012,37.598,5.859
1532510320.533,53.711,61.035,64.941,41.992,84.961
1532510320.537,50.781,61.523,62.012,51.758,109.863
1532510320.541,57.617,68.848,67.383,60.059,23.438
1532510320.545,58.105,70.801,74.707,54.688,-19.043
1532510320.548,46.875,58.105,65.430,48.828,64.941
1532510320.552,36.621,53.711,58.105,44.434,113.770
1532510320.556,36.133,55.176,54.688,39.062,0.000
1532510320.560,39.551,60.547,57.617,41.992,-100.098
1532510320.564,40.527,62.988,59.570,39.551,13.672
1532510320.568,42.969,58.594,60.547,43.945,153.809
1532510320.572,51.270,55.176,62.012,45.410,-21.973
1532510320.576,52.734,64.941,63.965,41.016,-145.508
1532510320.580,45.898,66.406,62.012,45.410,12.695
1532510320.584,46.387,58.105,60.059,52.734,115.723
1532510320.588,53.711,62.500,55.664,47.852,124.512
1532510320.591,52.246,64.453,51.758,32.715,-22.461
1532510320.595,46.387,55.664,55.176,29.785,-44.922
1532510320.599,46.387,48.828,59.570,30.762,138.672
1532510320.603,52.246,54.688,56.152,31.250,114.258
1532510320.607,43.457,62.500,50.293,32.227,-18.066
1532510320.611,40.039,62.500,52.734,36.621,-69.336
1532510320.615,52.734,62.500,56.641,41.016,12.695
1532510320.619,52.246,65.430,57.129,48.340,136.719
1532510320.623,39.062,62.500,47.363,42.480,48.828
1532510320.627,34.180,59.082,40.527,38.086,-13.672
1532510320.631,37.598,54.199,42.480,25.879,-28.320
1532510320.634,40.527,48.340,42.480,11.719,-23.438
1532510320.638,37.598,49.805,43.457,12.695,57.617
1532510320.642,32.227,56.152,42.480,15.137,-5.859
1532510320.646,40.527,59.570,44.434,23.926,25.879
1532510320.650,41.992,57.129,46.875,34.668,94.727
1532510320.654,39.551,51.758,45.410,33.691,-21.973
1532510320.658,39.551,48.340,43.945,31.250,-68.848
1532510320.662,35.156,42.969,44.922,30.273,-15.137
1532510320.666,40.039,51.758,49.805,34.180,85.938
1532510320.670,37.109,63.965,51.758,34.180,114.258
1532510320.673,33.203,61.523,51.758,29.297,7.812
1532510320.677,35.156,59.082,50.781,35.156,-27.344
1532510320.681,34.668,58.594,45.898,38.574,61.035
1532510320.685,36.621,58.594,46.875,37.109,129.883
1532510320.689,39.062,55.664,47.363,34.180,50.293
1532510320.693,42.969,54.688,46.387,38.086,-71.289
1532510320.697,61.035,63.965,54.199,53.223,-36.621
1532510320.701,55.664,54.688,51.270,46.387,87.891
1532510320.705,38.086,43.945,38.086,26.367,83.496
1532510320.709,39.062,55.176,37.598,19.531,-3.418
1532510320.713,40.039,55.176,39.551,19.043,-16.602
1532510320.716,45.898,44.434,36.133,16.602,83.496
1532510320.720,53.711,45.898,37.109,17.578,146.484
1532510320.724,54.199,52.734,42.969,35.156,53.711
1532510320.728,41.016,51.270,47.852,47.363,19.043
1532510320.732,27.344,51.758,46.875,31.250,-5.859
1532510320.736,40.039,51.758,47.852,18.555,-9.766
1532510320.740,45.410,47.363,50.781,32.227,39.062
1532510320.744,39.551,43.945,49.316,40.527,-56.641
1532510320.748,47.363,46.875,49.316,39.551,14.648
1532510320.752,42.480,45.410,47.363,27.832,53.711
1532510320.756,31.250,43.457,49.805,26.855,-40.527
1532510320.759,41.992,52.734,55.664,36.133,-3.906
1532510320.763,40.039,49.805,48.340,25.391,87.891
1532510320.767,34.668,43.945,42.969,24.414,156.250
1532510320.771,41.504,42.969,43.945,34.180,69.824
1532510320.775,44.434,41.016,44.434,33.691,-20.508
1532510320.779,38.086,43.945,43.457,32.227,27.344
1532510320.783,38.574,48.828,44.922,39.062,111.328
1532510320.787,47.363,42.969,45.898,45.898,140.137
1532510320.791,49.316,37.109,46.875,31.250,-54.199
1532510320.795,48.340,42.480,47.363,26.367,-150.391
1532510320.798,50.781,47.852,42.969,33.203,62.012
1532510320.802,54.199,51.270,42.969,34.668,166.016
1532510320.806,45.410,50.293,44.434,34.668,97.656
1532510320.810,32.227,45.898,41.992,31.738,-41.992
1532510320.814,29.785,42.969,41.016,22.461,-6.836
1532510320.818,33.203,41.016,38.574,18.066,168.457
1532510320.822,38.574,49.805,46.875,49.805,110.352
1532510320.826,41.504,50.293,52.734,59.082,10.254
1532510320.830,39.551,37.109,45.898,40.527,-0.977
1532510320.834,35.645,32.227,44.434,33.203,78.613
1532510320.838,36.133,36.621,42.969,32.227,65.430
1532510320.841,43.457,42.480,48.828,43.457,-80.566
1532510320.845,43.457,39.062,50.293,34.668,-22.461
1532510320.849,34.180,40.527,44.922,24.902,95.215
1532510320.853,39.551,44.434,47.363,28.320,-15.137
1532510320.857,35.156,41.504,44.434,29.297,-97.656
1532510320.861,25.391,36.621,41.504,26.367,-16.113
1532510320.865,33.691,38.086,43.945,26.367,99.609
1532510320.869,35.645,40.039,41.504,24.902,170.898
1532510320.873,32.227,37.598,40.039,26.855,38.574
1532510320.877,24.414,39.062,38.574,28.320,-23.438
1532510320.880,23.926,37.109,37.109,26.367,57.617
1532510320.884,35.645,43.457,47.852,29.785,64.941
1532510320.888,26.367,38.086,47.852,23.926,29.297
1532510320.892,5.859,24.414,35.645,7.812,-147.461
1532510320.896,11.719,31.250,30.273,6.836,-148.926
1532510320.900,21.484,26.367,30.762,21.973,125.488
1532510320.904,25.391,20.996,30.273,23.438,143.066
1532510320.908,27.832,28.320,30.762,16.113,20.508
1532510320.912,21.973,30.273,34.180,20.996,-16.113
1532510320.916,19.531,27.344,33.691,18.066,87.891
1532510320.920,22.461,29.297,30.273,12.695,168.457
1532510320.923,21.973,33.203,31.738,10.254,76.660
1532510320.927,17.090,29.785,33.203,1.465,6.836
1532510320.931,13.672,28.320,30.762,2.441,21.484
1532510320.935,12.695,27.344,29.785,14.160,62.012
1532510320.939,16.113,26.855,23.926,21.973,67.871
1532510320.943,17.578,26.367,19.043,10.742,0.000
1532510320.947,22.461,30.273,30.762,9.766,44.434
1532510320.951,31.250,34.668,34.668,9.766,79.590
1532510320.955,20.020,27.832,23.926,-0.977,-18.555
1532510320.959,9.766,18.555,23.438,3.906,-10.254
1532510320.963,6.836,4.883,23.926,9.277,54.199
1532510320.966,8.301,11.719,23.438,6.348,157.227
1532510320.970,7.812,24.414,23.926,7.324,125.488
1532510320.974,12.695,29.297,25.391,10.742,-7.812
1532510320.978,20.996,30.273,24.414,14.160,-57.129
1532510320.982,19.043,20.996,23.926,15.625,-2.441
1532510320.986,13.184,18.555,20.508,9.277,113.770
1532510320.990,14.648,24.414,20.996,10.742,29.297
1532510320.994,14.648,22.949,25.879,8.789,-180.176
1532510320.998,13.672,20.996,25.391,12.695,-66.895
1532510321.002,19.043,31.250,25.391,18.066,106.445
1532510321.005,18.066,36.133,23.438,13.672,77.148
1532510321.009,13.184,32.715,28.320,14.648,-28.809
1532510321.013,17.578,38.086,35.645,20.508,-37.109
1532510321.017,19.531,30.273,30.273,19.043,104.980
1532510321.021,19.043,19.531,24.414,13.672,129.883
1532510321.025,10.742,24.414,20.996,14.160,-19.531
1532510321.029,10.254,28.809,20.508,15.625,-102.051
1532510321.033,14.648,25.391,19.531,8.301,-70.801
1532510321.037,6.836,23.926,16.113,1.953,4.883
1532510321.041,10.254,28.320,16.113,4.883,9.277
1532510321.045,13.184,28.320,18.555,-1.465,-7.324
1532510321.048,10.254,25.879,19.043,10.254,83.008
1532510321.052,15.625,22.461,20.020,21.484,107.910
1532510321.056,19.531,25.879,19.043,16.602,36.621
1532510321.060,16.602,30.762,20.508,16.113,-23.926
1532510321.064,16.113,28.809,19.043,16.113,42.969
1532510321.068,28.320,29.785,14.648,19.043,141.602
1532510321.072,25.879,28.809,17.090,20.508,30.762
1532510321.076,22.949,28.320,28.320,26.855,-102.051
1532510321.080,30.762,24.902,28.320,31.738,-19.043
1532510321.084,18.066,18.066,14.160,21.973,126.953
1532510321.088,20.020,22.461,9.766,17.578,139.648
1532510321.091,18.555,25.391,10.254,3.906,-79.590
1532510321.095,11.719,24.414,14.160,2.441,-167.969
1532510321.099,20.020,24.902,12.695,20.996,37.598
1532510321.103,19.531,27.344,10.742,13.672,145.996
1532510321.107,9.277,31.250,12.695,0.977,73.730
1532510321.111,11.230,27.832,14.648,4.395,-22.461
1532510321.115,19.043,24.902,17.090,8.301,40.039
1532510321.119,27.344,27.344,19.531,16.113,114.258
1532510321.123,22.949,27.832,23.438,25.879,21.484
1532510321.127,23.926,24.414,24.902,24.902,-26.367
1532510321.130,28.809,23.926,22.461,20.508,16.602
1532510321.134,17.578,19.043,18.555,17.090,87.402
1532510321.138,17.090,17.578,18.555,20.020,100.098
1532510321.142,18.555,29.297,24.902,16.602,-3.906
1532510321.146,13.672,28.809,21.484,6.348,9.766
1532510321.150,15.137,23.926,14.648,13.672,85.449
1532510321.154,15.137,25.879,12.207,2.930,-3.418
1532510321.158,6.836,28.320,12.695,-12.695,-57.617
1532510321.162,7.812,30.273,16.602,-7.812,-9.766
1532510321.166,17.578,29.297,19.531,4.395,72.754
1532510321.170,15.137,27.344,20.508,7.324,101.074
1532510321.173,14.160,26.367,16.602,-1.953,-90.820
1532510321.177,23.438,27.344,15.137,2.930,-117.188
1532510321.181,22.461,27.344,18.066,6.836,68.848
1532510321.185,19.531,24.902,19.531,8.301,159.668
1532510321.189,22.949,21.484,17.578,4.395,83.496
1532510321.193,20.996,20.508,11.719,6.836,-28.320
1532510321.197,23.926,26.367,3.906,12.695,43.945
1532510321.201,27.344,38.086,15.137,9.277,138.672
1532510321.205,13.672,35.645,21.973,7.324,114.746
1532510321.209,4.395,20.020,11.719,-7.324,18.555
1532510321.213,19.043,19.043,13.184,14.648,-29.297
1532510321.216,17.090,23.926,16.113,24.414,52.246
1532510321.220,10.742,23.438,21.484,12.207,90.332
1532510321.224,17.090,20.996,16.113,20.020,-4.395
1532510321.228,16.113,19.531,7.812,19.531,11.719
1532510321.232,15.137,21.973,13.184,16.113,-10.742
1532510321.236,11.230,20.508,20.020,6.348,-13.672
1532510321.240,10.254,20.996,19.531,7.812,62.988
1532510321.244,13.184,17.578,16.602,11.719,5.859
1532510321.248,15.625,19.531,17.090,12.695,68.359
1532510321.252,23.926,31.738,17.090,23.438,148.926
1532510321.255,34.668,37.109,25.879,34.180,88.867
1532510321.259,27.832,31.250,23.438,31.250,-42.480
1532510321.263,17.578,20.508,9.766,24.414,-35.645
1532510321.267,24.414,14.160,12.695,22.461,126.465
1532510321.271,32.227,23.926,12.695,16.113,49.316
1532510321.275,31.738,32.227,8.301,18.555,-136.719
1532510321.279,25.879,25.879,5.859,28.809,-30.762
1532510321.283,27.832,19.531,2.441,36.133,114.746
1532510321.287,27.832,22.461,3.418,24.902,163.086
1532510321.291,25.391,28.320,4.883,18.066,25.391
1532510321.295,24.902,19.043,-3.418,21.484,-57.129
1532510321.298,20.996,23.926,-8.301,20.996,73.242
1532510321.302,14.648,35.156,-5.859,17.578,154.297
1532510321.306,16.602,29.785,-6.348,16.602,49.805
1532510321.310,23.438,18.555,-9.766,22.949,-97.656
1532510321.314,30.762,22.949,-10.742,21.973,-98.633
1532510321.318,40.527,32.227,-6.836,31.738,93.262
1532510321.322,32.227,19.531,-13.184,36.621,119.629
1532510321.326,27.344,18.555,-20.508,31.738,3.418
1532510321.330,27.832,28.809,-20.508,24.414,6.348
1532510321.334,28.320,26.367,-19.531,24.902,131.348
1532510321.337,29.297,28.809,-14.160,22.461,166.992
1532510321.341,30.762,31.738,-15.137,18.066,62.012
1532510321.345,29.297,29.297,-20.996,23.438,59.082
1532510321.349,30.762,27.344,-13.672,29.785,104.492
1532510321.353,30.762,30.273,-3.418,28.320,69.824
1532510321.357,21.484,27.832,-5.859,26.367,-23.438
1532510321.361,16.602,28.320,-7.812,18.066,-30.762
1532510321.365,25.879,29.297,-3.906,23.926,75.684
1532510321.369,24.414,21.973,-0.977,23.438,172.852
1532510321.373,26.367,15.625,6.348,12.695,-19.043
1532510321.377,39.551,10.742,11.230,41.504,-131.348
1532510321.380,38.574,16.602,1.953,49.805,44.434
1532510321.384,31.250,33.691,3.906,27.344,125.000
1532510321.388,29.785,32.227,1.953,13.184,97.168
1532510321.392,26.855,26.367,-0.488,14.648,-42.969
1532510321.396,20.996,36.621,4.395,11.719,-20.020
1532510321.400,18.066,36.133,5.859,9.277,83.008
1532510321.404,13.672,26.855,9.277,9.766,59.570
1532510321.408,10.742,25.879,10.254,9.766,40.527
1532510321.412,13.672,26.855,9.766,13.184,-79.590
1532510321.416,17.578,29.297,11.230,17.090,-80.566
1532510321.420,19.043,33.203,17.578,17.578,117.188
1532510321.423,12.695,32.715,15.137,5.371,78.125
1532510321.427,22.949,27.832,11.230,8.301,8.301
1532510321.431,21.484,27.832,9.277,17.578,53.223
1532510321.435,12.695,34.668,7.812,8.789,124.023
1532510321.439,19.043,45.410,13.672,4.395,88.867
1532510321.443,15.625,42.480,7.812,11.719,-6.836
1532510321.447,21.973,26.367,5.859,21.484,24.902
1532510321.451,10.742,22.949,16.602,10.742,39.062
1532510321.455,-16.113,27.344,20.508,-14.160,-30.273
1532510321.459,-10.742,32.715,23.926,-0.977,-14.160
1532510321.462,-6.348,32.715,32.227,1.953,31.738
1532510321.466,-15.137,20.508,40.039,-15.625,130.859
1532510321.470,-21.484,20.508,46.387,-16.113,129.395
1532510321.474,-34.668,22.949,48.828,-18.555,-18.555
1532510321.478,-30.762,21.484,48.828,-15.137,-10.254
1532510321.482,-20.508,27.832,49.805,-15.625,92.773
1532510321.486,-34.668,37.598,59.082,-11.230,138.184
1532510321.490,-64.941,31.738,61.523,-10.742,46.387
1532510321.494,-62.500,21.973,58.594,-18.555,-83.008
1532510321.498,-50.781,24.414,69.824,-18.555,-25.391
1532510321.502,-65.430,13.184,77.148,-27.832,89.355
1532510321.505,-77.637,2.930,67.871,-41.992,94.727
1532510321.509,-81.055,20.020,63.965,-51.270,8.789
1532510321.513,-86.426,31.738,66.895,-65.430,-114.746
1532510321.517,-83.008,26.367,72.754,-77.148,-6.836
1532510321.521,-71.777,20.508,76.660,-69.336,127.930
1532510321.525,-73.730,17.090,78.125,-59.570,30.273
1532510321.529,-66.895,12.207,83.496,-70.312,-30.273
1532510321.533,-56.152,11.719,74.219,-73.242,41.504
1532510321.537,-42.480,15.137,68.359,-55.176,126.953
1532510321.541,-41.992,16.113,79.590,-51.758,3.906
1532510321.545,-53.223,13.184,84.961,-52.246,-80.566
1532510321.548,-52.734,-0.488,69.336,-36.621,66.406
1532510321.552,-46.387,-9.766,49.805,-26.367,80.566
1532510321.556,-42.480,-16.113,49.805,-12.695,-12.207
1532510321.560,-42.480,-20.996,56.152,9.277,-6.348
1532510321.564,-35.156,-0.488,44.434,14.648,61.035
1532510321.568,-22.949,3.906,37.598,23.438,158.203
1532510321.572,-13.672,4.883,56.152,29.297,50.781
1532510321.576,-7.812,9.277,60.547,26.855,-65.430
1532510321.580,5.371,1.953,36.621,40.527,28.320
1532510321.584,30.762,9.277,34.668,58.105,129.395
1532510321.587,36.621,17.090,51.758,53.711,108.887
1532510321.591,12.207,-3.906,41.504,33.203,-97.168
1532510321.595,17.578,-13.672,23.926,37.109,-148.438
1532510321.599,35.645,0.977,15.137,48.340,53.711
1532510321.603,33.691,17.090,26.855,49.805,155.273
1532510321.607,39.551,22.949,19.043,76.660,90.332
1532510321.611,39.551,16.602,8.789,85.938,-23.926
1532510321.615,46.875,7.324,16.113,68.359,32.715
1532510321.619,50.293,9.766,13.184,56.641,144.531
1532510321.623,35.645,16.113,10.254,53.711,81.055
1532510321.627,38.086,13.672,17.578,67.871,2.441
1532510321.630,38.574,3.418,25.391,72.266,10.742
1532510321.634,56.641,2.441,28.809,83.984,44.434
1532510321.638,73.730,17.578,34.668,82.031,33.691
1532510321.642,56.641,16.602,24.414,48.828,-43.457
1532510321.646,51.758,16.602,14.160,54.199,34.180
1532510321.650,51.270,29.297,13.672,71.289,97.656
1532510321.654,49.316,31.250,19.043,56.641,-25.879
1532510321.658,50.293,33.691,26.855,62.012,-46.875
1532510321.662,64.941,26.367,20.020,74.219,-3.418
1532510321.666,67.871,9.277,20.020,63.477,86.914
1532510321.669,52.246,23.438,28.809,66.406,121.582
1532510321.673,53.223,21.973,17.090,67.383,15.137
1532510321.677,57.617,10.742,20.020,76.172,-18.066
1532510321.681,56.152,29.785,26.855,79.102,3.418
1532510321.685,48.828,39.551,18.066,65.430,96.191
1532510321.689,55.664,36.621,10.742,61.035,105.957
1532510321.693,59.570,27.344,11.719,64.941,-127.930
1532510321.697,51.758,28.320,27.832,68.848,-107.910
1532510321.701,51.270,32.227,38.574,72.266,126.953
1532510321.705,47.363,27.832,34.668,80.566,146.484
1532510321.709,49.805,31.738,31.250,82.520,15.137
1532510321.712,54.199,30.762,23.438,78.613,-49.805
1532510321.716,56.641,21.973,15.625,58.594,78.613
1532510321.720,62.500,21.484,18.555,51.270,164.551
1532510321.724,61.035,33.691,12.207,53.711,72.266
1532510321.728,49.805,41.992,9.766,51.758,-24.902
1532510321.732,50.781,41.992,27.344,47.363,-54.199
1532510321.736,61.035,38.574,32.715,50.781,25.391
1532510321.740,54.199,27.344,19.531,52.246,77.148
1532510321.744,47.363,37.109,18.555,33.203,-8.301
1532510321.748,46.387,50.293,15.625,26.855,0.488
1532510321.752,46.387,43.457,9.277,40.527,54.199
1532510321.755,45.410,38.086,10.742,46.387,83.008
1532510321.759,47.363,45.410,15.625,43.945,9.766
1532510321.763,49.316,41.016,18.555,50.781,-1.465
1532510321.767,49.316,27.344,29.785,62.988,127.930
1532510321.771,51.758,32.227,30.273,60.059,108.398
1532510321.775,49.316,36.133,22.461,56.152,-74.219
1532510321.779,63.965,43.945,24.902,59.082,-97.168
1532510321.783,60.547,45.898,17.578,45.410,42.480
1532510321.787,39.062,28.320,4.883,46.875,177.734
1532510321.791,44.434,32.715,6.348,45.898,31.738
1532510321.794,50.293,42.480,20.020,31.738,-180.176
1532510321.798,53.711,43.457,31.738,37.598,-16.113
1532510321.802,53.223,36.133,27.344,46.875,170.410
1532510321.806,48.340,28.320,15.137,38.086,118.652
1532510321.810,56.641,39.551,16.113,45.898,-22.949
1532510321.814,62.500,45.410,24.414,57.129,15.137
1532510321.818,50.293,39.062,33.203,46.387,163.086
1532510321.822,42.480,32.227,36.133,66.895,87.891
1532510321.826,39.062,37.598,38.574,58.594,-47.363
1532510321.830,55.176,50.293,43.945,46.387,-26.367
1532510321.834,69.824,49.805,39.062,57.617,-11.719
1532510321.837,45.898,39.062,41.504,49.316,66.406
1532510321.841,37.598,33.203,51.270,52.246,51.758
1532510321.845,42.480,43.945,55.176,63.477,14.160
1532510321.849,40.527,59.570,56.152,58.105,93.262
1532510321.853,50.781,63.965,59.082,76.172,129.883
1532510321.857,73.730,55.664,58.105,92.285,79.102
1532510321.861,66.406,38.574,47.852,83.496,-4.883
1532510321.865,60.059,32.715,42.480,91.309,55.176
1532510321.869,71.777,48.340,46.875,104.980,116.211
1532510321.873,69.824,67.383,51.270,93.262,-16.113
1532510321.877,74.219,64.453,55.664,67.871,-78.125
1532510321.880,70.312,58.594,56.152,51.270,30.762
1532510321.884,60.547,61.035,50.781,35.645,143.555
1532510321.888,62.988,66.895,48.828,52.246,149.414
1532510321.892,69.824,58.594,53.223,64.453,-19.043
1532510321.896,70.801,50.781,50.293,74.707,-47.852
1532510321.900,62.988,50.781,45.410,97.168,78.125
1532510321.904,71.289,47.852,35.156,94.727,129.883
1532510321.908,73.730,46.875,37.598,78.125,53.711
1532510321.912,62.012,49.805,54.199,65.430,-54.199
1532510321.916,60.547,63.477,61.035,70.801,-22.461
1532510321.919,70.312,67.383,58.594,76.172,66.895
1532510321.923,60.547,40.527,49.316,64.453,8.789
1532510321.927,59.082,37.109,42.969,67.383,-16.113
1532510321.931,53.223,51.270,36.133,50.293,-52.246
1532510321.935,43.457,50.293,31.738,48.828,-48.340
1532510321.939,44.922,46.875,36.133,58.105,79.102
1532510321.943,36.133,42.969,38.574,42.480,49.805
1532510321.947,43.945,35.156,39.551,48.340,26.367
1532510321.951,60.547,24.414,36.621,58.594,82.520
1532510321.955,47.852,28.320,28.320,60.059,107.910
1532510321.959,36.133,29.785,25.391,72.754,10.254
1532510321.962,46.875,43.457,28.320,74.219,-65.918
1532510321.966,47.852,51.758,36.621,52.734,66.895
1532510321.970,49.316,38.086,34.180,41.016,123.047
1532510321.974,61.035,39.551,36.621,47.363,-64.941
1532510321.978,58.594,42.480,39.062,62.988,-64.453
1532510321.982,44.434,39.551,25.391,56.152,73.242
1532510321.986,44.922,41.992,23.926,39.062,183.594
1532510321.990,41.016,39.551,25.879,33.691,75.195
1532510321.994,43.457,33.691,27.832,42.480,-79.102
1532510321.998,44.434,20.508,29.785,45.410,13.184
1532510322.001,44.434,21.973,17.578,35.645,137.207
1532510322.005,62.012,33.691,11.230,37.109,138.184
1532510322.009,71.289,40.527,15.137,37.109,-20.020
1532510322.013,81.055,42.480,25.879,27.344,-171.875
1532510322.017,99.121,40.527,33.203,46.387,-15.137
1532510322.021,102.539,38.574,18.066,59.082,167.969
1532510322.025,93.750,29.297,23.438,47.852,79.102
1532510322.029,100.586,25.879,45.410,53.223,-5.859
1532510322.033,116.211,28.320,42.969,81.055,54.688
1532510322.037,107.910,41.992,29.785,74.219,158.691
1532510322.041,95.215,34.668,22.949,41.016,93.750
1532510322.044,87.891,34.180,15.625,23.926,-15.137
1532510322.048,86.426,42.969,14.648,16.602,37.598
1532510322.052,83.984,44.922,18.066,26.367,108.398
1532510322.056,66.406,54.199,11.719,27.832,34.180
1532510322.060,72.266,49.316,4.395,17.090,-83.496
1532510322.064,74.707,51.270,3.418,20.020,-35.156
1532510322.068,63.965,63.965,6.836,23.926,127.441
1532510322.072,77.637,58.105,11.230,21.973,33.203
1532510322.076,84.473,41.504,13.672,23.438,-122.559
1532510322.080,67.383,39.062,9.766,20.508,-20.508
1532510322.084,63.477,40.527,4.395,30.273,114.746
1532510322.087,79.590,43.945,-3.906,35.645,187.988
1532510322.091,85.449,53.223,2.441,28.809,23.438
1532510322.095,68.848,62.500,13.672,34.180,-56.152
1532510322.099,70.312,62.500,14.648,39.551,72.754
1532510322.103,77.148,61.523,21.973,36.133,117.188
1532510322.107,79.590,51.758,26.855,33.691,22.949
1532510322.111,74.707,33.691,30.273,38.574,-120.605
1532510322.115,77.148,46.875,27.832,37.109,-136.719
1532510322.119,67.871,49.805,9.277,26.855,79.102
1532510322.123,53.223,37.109,10.742,27.832,99.609
1532510322.126,53.711,36.133,21.484,32.227,-9.277
1532510322.130,59.570,41.504,23.926,38.574,-42.969
1532510322.134,58.105,23.926,22.949,49.316,53.711
1532510322.138,57.617,19.043,17.090,45.410,129.883
1532510322.142,62.988,46.387,16.113,48.828,11.230
1532510322.146,61.523,54.199,20.996,44.434,5.859
1532510322.150,63.477,46.387,18.555,39.551,51.758
1532510322.154,65.430,41.504,17.090,54.199,-12.207
1532510322.158,51.758,38.086,25.879,50.781,-2.441
1532510322.162,53.223,35.645,37.109,51.758,-10.742
1532510322.166,65.430,38.086,41.504,52.734,47.852
1532510322.169,58.105,41.504,28.809,50.781,118.164
1532510322.173,49.316,26.855,20.996,45.898,33.691
1532510322.177,60.547,12.695,28.809,39.551,-1.465
1532510322.181,65.430,18.555,24.902,42.969,39.062
1532510322.185,66.895,30.273,16.113,41.992,131.348
1532510322.189,72.266,39.551,18.555,42.480,110.840
1532510322.193,70.801,34.668,21.973,52.246,-34.668
1532510322.197,79.102,31.738,20.996,65.430,-42.480
1532510322.201,68.848,42.480,16.602,57.129,49.805
1532510322.205,50.781,44.922,21.484,47.852,105.469
1532510322.209,51.758,40.039,27.832,45.410,51.758
1532510322.212,56.641,38.574,29.297,40.527,-130.371
1532510322.216,51.270,36.621,20.996,49.805,-63.477
1532510322.220,55.664,36.621,8.789,55.664,144.531
1532510322.224,61.523,31.738,18.066,42.480,51.270
1532510322.228,55.176,26.367,27.832,47.363,-33.203
1532510322.232,54.199,36.621,32.227,49.805,12.207
1532510322.236,49.316,38.086,33.203,51.758,108.398
1532510322.240,50.293,42.480,34.668,48.340,119.141
1532510322.244,50.293,43.945,38.574,46.387,-43.945
1532510322.248,55.176,33.203,32.715,58.105,-32.715
1532510322.251,62.012,26.855,27.832,53.711,24.902
1532510322.255,58.105,26.367,31.738,52.246,-67.383
1532510322.259,48.340,35.156,30.762,49.805,-39.062
1532510322.263,56.641,32.715,23.438,45.898,-11.230
1532510322.267,57.617,15.137,30.273,47.852,116.211
1532510322.271,46.875,25.391,27.832,42.969,120.605
1532510322.275,48.340,37.109,18.555,48.340,-12.207
1532510322.279,50.781,35.645,29.785,38.574,-0.488
1532510322.283,45.898,31.738,34.180,36.133,59.570
1532510322.287,50.293,31.738,29.785,55.176,124.023
1532510322.291,56.152,34.180,27.344,51.270,-20.020
1532510322.294,40.039,29.785,24.414,21.973,-166.992
1532510322.298,41.992,41.016,28.809,21.484,-19.043
1532510322.302,51.758,34.668,31.250,42.969,121.094
1532510322.306,53.711,33.691,23.926,44.922,112.793
1532510322.310,50.293,40.527,30.273,36.133,-29.785
1532510322.314,48.828,38.574,36.133,37.598,-76.660
1532510322.318,55.664,36.621,29.785,48.340,93.262
1532510322.322,52.246,27.832,26.367,56.152,114.746
1532510322.326,43.945,23.926,31.738,44.434,-19.043
1532510322.330,46.875,19.531,26.855,37.598,-53.223
1532510322.334,54.199,20.996,21.973,41.504,52.734
1532510322.337,47.852,36.133,28.320,44.922,90.332
1532510322.341,51.270,46.387,36.133,59.082,-43.945
1532510322.345,55.664,29.785,35.645,55.664,-64.453
1532510322.349,42.480,17.090,17.578,33.691,46.387
1532510322.353,41.992,23.438,18.066,27.832,5.371
1532510322.357,43.457,23.438,31.250,36.133,-43.457
1532510322.361,44.922,36.621,34.668,53.711,-18.555
1532510322.365,47.852,30.762,29.785,52.246,20.020
1532510322.369,32.227,18.555,23.438,33.203,133.789
1532510322.373,36.621,32.227,22.949,31.250,82.031
1532510322.376,38.574,34.180,19.043,41.016,-24.414
1532510322.380,36.621,26.367,20.996,42.969,-25.879
1532510322.384,44.434,27.344,18.066,47.852,39.062
1532510322.388,35.156,30.273,18.066,36.621,101.074
1532510322.392,47.852,31.738,31.250,34.180,-106.934
1532510322.396,55.176,27.832,27.832,41.992,-196.289
1532510322.400,46.387,20.996,23.926,34.180,53.223
1532510322.404,47.363,21.484,34.668,39.062,136.230
1532510322.408,36.133,17.090,33.203,31.738,65.918
1532510322.412,31.250,17.578,25.391,23.438,-25.879
1532510322.416,30.762,29.785,16.602,34.180,20.508
1532510322.419,33.691,30.762,15.625,31.738,143.066
1532510322.423,38.086,16.113,7.812,29.785,81.055
1532510322.427,54.199,26.367,11.230,47.852,-33.691
1532510322.431,59.082,45.410,33.691,46.875,-35.645
1532510322.435,20.996,35.156,35.156,17.578,33.203
1532510322.439,13.672,28.320,33.203,25.391,81.543
1532510322.443,32.715,28.809,35.645,46.387,3.906
1532510322.447,36.133,17.578,29.785,44.922,18.066
1532510322.451,32.715,5.371,27.832,41.016,45.898
1532510322.455,24.902,6.836,35.645,27.832,7.324
1532510322.458,20.996,20.020,41.504,36.621,-0.488
1532510322.462,21.484,22.461,41.504,53.223,-15.137
1532510322.466,31.738,11.230,35.645,44.434,82.520
1532510322.470,44.434,23.926,36.133,40.039,114.746
1532510322.474,23.438,26.367,36.621,47.363,3.906
1532510322.478,5.371,9.277,32.227,33.691,-41.504
1532510322.482,6.348,11.719,43.457,31.738,-4.395
1532510322.486,12.695,15.625,42.480,29.785,124.023
1532510322.490,27.832,16.113,37.109,24.902,115.723
1532510322.494,23.926,14.160,36.621,29.297,-120.605
1532510322.498,24.414,-3.418,28.320,32.715,-68.848
1532510322.501,41.504,-3.418,34.668,42.969,134.277
1532510322.505,43.945,12.207,42.480,52.246,142.578
1532510322.509,48.340,9.766,30.273,63.965,14.648
1532510322.513,47.852,9.766,23.438,52.246,-35.645
1532510322.517,27.344,20.020,27.344,26.367,103.027
1532510322.521,23.438,30.762,25.879,26.367,152.344
1532510322.525,36.621,35.156,24.414,37.598,-9.766
1532510322.529,38.086,37.598,36.133,35.645,-72.266
1532510322.533,30.273,37.109,46.875,29.785,-68.848
1532510322.537,37.598,33.203,45.898,40.039,11.719
1532510322.541,41.992,26.367,44.922,42.480,70.312
1532510322.544,46.875,20.508,44.434,33.691,-12.207
1532510322.548,57.129,7.324,31.250,32.227,39.551
1532510322.552,62.012,20.996,34.668,44.434,103.027
1532510322.556,59.570,35.156,41.016,59.082,93.750
1532510322.560,49.805,14.160,24.902,52.734,26.855
1532510322.564,40.527,17.578,35.645,47.852,8.301
1532510322.568,41.504,32.227,41.504,56.641,113.281
1532510322.572,51.270,35.156,30.762,62.500,83.984
1532510322.576,54.688,30.762,34.668,48.828,-56.152
1532510322.580,41.016,37.109,35.645,35.156,-48.828
1532510322.583,37.109,44.922,44.434,46.387,83.008
1532510322.587,41.016,42.480,50.781,57.129,193.848
1532510322.591,33.691,31.738,36.621,41.504,-32.227
1532510322.595,39.062,19.531,32.715,29.297,-180.176
1532510322.599,41.016,16.113,35.156,32.227,58.594
1532510322.603,33.203,27.344,36.621,39.551,157.715
1532510322.607,30.762,31.738,34.180,42.480,72.266
1532510322.611,35.645,28.320,33.691,37.109,-39.551
1532510322.615,45.898,29.297,41.504,36.133,-6.836
1532510322.619,48.828,33.203,40.527,41.992,107.422
1532510322.623,52.734,20.020,39.062,51.270,49.316
1532510322.626,60.547,18.066,45.898,52.246,-4.883
1532510322.630,61.035,35.645,49.805,46.875,-45.898
1532510322.634,39.551,26.855,42.480,35.645,-30.273
1532510322.638,28.320,14.160,40.039,41.992,99.609
1532510322.642,56.641,5.371,50.293,70.801,19.531
1532510322.646,70.801,17.578,43.457,61.035,-14.648
1532510322.650,43.945,45.410,27.832,12.207,39.062
1532510322.654,39.062,55.176,30.762,12.207,45.410
1532510322.658,37.598,40.039,31.250,32.715,52.246
1532510322.662,18.066,29.297,32.227,18.066,4.883
1532510322.666,19.043,41.016,31.738,3.418,14.160
1532510322.669,17.578,44.922,24.902,-2.441,72.266
1532510322.673,20.996,48.828,30.273,2.930,-69.824
1532510322.677,28.320,59.082,28.320,11.719,-105.469
1532510322.681,25.391,54.199,9.766,-4.395,22.461
1532510322.685,18.555,42.969,3.906,-20.996,114.746
1532510322.689,24.902,54.688,5.371,-16.113,95.703
1532510322.693,35.156,66.406,4.395,-14.160,-55.176
1532510322.697,40.527,64.453,19.043,-4.883,4.395
1532510322.701,46.387,61.035,22.949,1.465,122.070
1532510322.705,28.809,53.711,13.184,0.977,135.254
1532510322.708,42.480,53.711,15.137,17.578,34.180
1532510322.712,63.477,60.547,26.367,31.738,-68.359
1532510322.716,45.410,58.594,11.230,13.184,-22.949
1532510322.720,39.062,52.734,13.672,-0.488,73.730
1532510322.724,48.828,52.246,34.668,3.418,36.621
1532510322.728,53.223,51.758,35.156,8.789,11.719
1532510322.732,47.852,49.805,35.156,8.789,-38.574
1532510322.736,38.574,50.293,29.297,10.254,-26.855
1532510322.740,36.621,56.152,25.879,17.090,74.707
1532510322.744,43.457,59.082,35.645,23.438,-16.602
1532510322.748,48.340,47.363,35.156,27.832,-21.484
1532510322.751,50.293,43.457,24.414,27.344,83.008
1532510322.755,45.898,42.969,34.180,28.809,122.559
1532510322.759,53.223,52.734,56.641,41.016,-21.484
1532510322.763,62.500,63.477,59.570,41.992,-87.402
1532510322.767,53.223,51.758,47.363,37.109,98.145
1532510322.771,51.758,33.203,39.062,35.645,92.285
1532510322.775,59.570,28.320,26.855,25.879,-113.281
1532510322.779,60.547,45.898,32.227,31.250,-68.848
1532510322.783,58.594,46.875,42.969,31.250,99.609
1532510322.787,56.152,33.203,43.457,26.855,181.152
1532510322.790,52.734,41.016,37.598,26.855,54.688
1532510322.794,51.758,50.781,30.762,27.344,-62.012
1532510322.798,54.199,62.012,45.898,34.668,64.453
1532510322.802,68.359,67.383,62.500,53.711,153.809
1532510322.806,54.199,51.758,47.363,41.504,66.406
1532510322.810,42.480,41.992,38.086,20.508,-68.359
1532510322.814,50.781,33.203,47.363,22.461,-117.188
1532510322.818,51.758,21.973,44.434,23.926,68.848
1532510322.822,48.340,36.133,37.598,26.367,163.086
1532510322.826,40.527,53.223,39.062,31.738,41.016
1532510322.830,32.227,52.734,39.062,28.809,-27.832
1532510322.833,33.203,48.340,37.598,24.902,43.457
1532510322.837,34.180,38.574,36.621,23.926,154.785
1532510322.841,34.180,39.551,43.945,27.832,39.062
1532510322.845,42.480,49.316,44.434,38.086,-47.363
1532510322.849,46.387,38.574,51.270,43.945,58.105
1532510322.853,30.762,17.090,51.758,27.832,74.219
1532510322.857,27.832,25.879,41.016,19.043,-23.926
1532510322.861,37.109,28.320,38.574,32.227,-69.336
1532510322.865,41.992,21.973,37.598,37.598,8.301
1532510322.869,43.457,42.480,34.668,41.992,151.367
1532510322.873,22.461,49.805,41.504,45.898,-16.113
1532510322.876,26.855,53.711,54.688,50.293,-159.668
1532510322.880,51.270,57.617,52.734,49.316,12.207
1532510322.884,43.457,43.457,42.480,44.434,145.996
1532510322.888,34.180,41.016,42.969,43.945,162.598
1532510322.892,47.363,39.062,50.293,36.133,6.836
1532510322.896,42.969,34.180,49.805,32.227,-35.645
1532510322.900,40.039,27.832,45.410,35.645,31.250
1532510322.904,49.316,17.090,41.016,32.715,81.055
1532510322.908,53.711,29.297,46.387,37.109,77.637
1532510322.912,60.547,46.387,51.758,40.527,-106.445
1532510322.915,45.410,46.875,41.992,36.133,-122.070
1532510322.919,36.133,49.316,33.691,40.039,126.465
1532510322.923,38.086,47.852,27.832,36.133,102.539
1532510322.927,36.133,46.387,30.762,39.062,-12.695
1532510322.931,41.992,38.086,48.340,41.992,-25.879
1532510322.935,46.875,39.551,62.988,40.527,80.566
1532510322.939,38.086,37.109,55.176,39.551,127.441
1532510322.943,39.062,30.762,41.016,39.062,27.832
1532510322.947,41.504,31.250,43.457,41.992,-11.719
1532510322.951,45.898,15.625,44.922,47.363,11.719
1532510322.955,62.012,19.043,39.062,70.312,62.012
1532510322.958,54.199,34.180,38.574,58.105,33.691
1532510322.962,33.691,44.922,39.551,16.113,-24.414
1532510322.966,26.855,48.340,42.480,15.137,97.168
1532510322.970,29.297,49.805,36.621,15.137,122.070
1532510322.974,25.879,53.223,24.902,15.137,-80.078
1532510322.978,37.109,51.270,35.645,32.715,-78.613
1532510322.982,41.016,37.598,43.457,28.320,55.176
1532510322.986,29.297,18.066,34.180,15.137,154.297
1532510322.990,21.484,28.320,35.645,5.859,76.172
1532510322.994,26.367,44.922,29.297,0.977,-92.773
1532510322.998,28.320,44.434,27.344,-1.465,-65.430
1532510323.001,29.785,45.898,34.668,4.883,53.711
1532510323.005,30.273,53.223,31.738,16.602,118.164
1532510323.009,31.738,57.617,25.879,28.809,29.297
1532510323.013,50.293,52.734,41.992,38.086,-164.062
1532510323.017,46.875,32.715,46.875,23.926,-56.641
1532510323.021,40.527,20.020,31.738,12.207,143.555
1532510323.025,33.691,24.902,27.832,15.137,38.574
1532510323.029,36.133,33.203,27.344,29.785,-40.039
1532510323.033,43.457,27.344,20.020,26.855,26.855
1532510323.037,32.227,38.086,27.832,17.090,139.160
1532510323.040,35.156,48.828,43.945,26.367,21.973
1532510323.044,40.039,46.875,42.969,38.574,-81.055
1532510323.048,45.410,54.688,41.016,34.668,76.660
1532510323.052,46.875,49.316,39.551,19.531,66.895
1532510323.056,34.668,40.039,37.598,13.672,-31.250
1532510323.060,37.598,36.133,42.480,13.184,-20.020
1532510323.064,47.852,37.598,48.828,26.367,18.066
1532510323.068,43.457,30.273,39.062,33.691,150.391
1532510323.072,38.574,13.184,30.762,20.996,135.742
1532510323.076,37.109,11.719,39.551,23.438,12.207
1532510323.080,39.551,25.391,41.016,30.762,5.859
1532510323.083,29.297,33.691,30.762,26.855,100.098
1532510323.087,27.832,37.598,41.016,28.809,140.625
1532510323.091,33.691,40.527,53.711,24.902,-64.941
1532510323.095,36.133,21.973,49.316,24.414,-160.156
1532510323.099,52.246,20.508,51.758,42.480,55.664
1532510323.103,58.594,40.039,47.363,41.504,164.062
1532510323.107,47.852,20.996,23.438,22.949,75.684
1532510323.111,41.992,11.719,29.785,30.762,-59.570
1532510323.115,54.688,29.297,42.480,44.434,-9.277
1532510323.119,51.270,31.250,37.598,30.273,155.762
1532510323.122,41.504,28.809,34.180,25.391,116.211
1532510323.126,45.898,31.250,29.785,40.039,7.812
1532510323.130,43.457,22.461,40.527,33.691,-27.344
1532510323.134,43.457,11.230,45.898,30.273,31.738
1532510323.138,44.434,19.531,43.457,35.645,66.895
1532510323.142,43.945,42.480,41.016,37.598,-39.551
1532510323.146,42.480,38.086,29.785,29.785,-11.719
1532510323.150,51.758,28.320,33.203,26.367,77.637
1532510323.154,61.035,28.320,38.086,49.805,29.297
1532510323.158,41.016,18.555,35.645,51.758,0.000
1532510323.162,21.973,19.043,35.156,30.273,-11.230
1532510323.165,23.438,21.484,41.016,33.203,44.922
1532510323.169,31.738,20.996,53.711,36.621,125.000
1532510323.173,25.391,11.719,53.223,35.156,54.199
1532510323.177,21.973,6.836,46.875,34.668,4.883
1532510323.181,38.086,15.625,54.688,50.293,-36.621
1532510323.185,41.504,14.160,60.547,59.082,30.762
1532510323.189,19.531,-1.953,55.176,30.762,106.445
1532510323.193,21.484,-1.465,43.457,22.949,-94.727
1532510323.197,25.391,-3.906,42.969,35.645,-113.770
1532510323.201,37.598,-7.812,56.641,46.387,126.953
1532510323.205,48.828,-5.859,56.641,49.805,157.227
1532510323.208,33.203,2.930,52.246,45.898,44.434
1532510323.212,32.227,11.719,57.617,44.434,-35.156
1532510323.216,27.832,5.371,60.547,42.480,64.941
1532510323.220,39.551,4.883,70.801,52.734,163.574
1532510323.224,40.527,1.465,71.777,56.641,32.227
1532510323.228,30.273,-10.742,60.059,50.781,-67.871
1532510323.232,41.504,-7.812,60.059,46.875,-66.406
1532510323.236,42.480,-3.906,63.965,44.434,24.414
1532510323.240,45.898,-10.742,45.410,50.781,96.680
1532510323.244,47.363,-0.488,43.945,54.688,7.812
1532510323.247,37.598,22.949,53.223,55.176,57.129
1532510323.251,40.527,28.320,53.223,50.781,129.395
1532510323.255,42.969,20.996,69.336,48.340,114.746
1532510323.259,37.109,11.719,66.406,46.875,26.367
1532510323.263,41.016,21.484,56.641,45.898,-14.160
1532510323.267,30.273,30.762,53.223,35.645,100.098
1532510323.271,12.695,21.973,51.270,29.785,141.602
1532510323.275,29.785,20.020,51.758,42.480,2.930
1532510323.279,40.527,13.672,41.992,53.223,-97.168
1532510323.283,38.086,12.695,34.668,57.129,15.137
1532510323.287,53.223,23.438,43.457,65.918,170.410
1532510323.290,54.199,14.648,42.480,57.617,31.250
1532510323.294,53.711,3.418,48.828,42.480,-88.867
1532510323.298,58.105,21.973,59.570,46.875,33.203
1532510323.302,42.480,33.203,47.852,33.203,139.648
1532510323.306,31.738,35.156,38.574,29.297,125.000
1532510323.310,29.785,40.039,39.551,33.691,-23.438
1532510323.314,34.180,28.320,38.086,34.180,-107.910
1532510323.318,37.598,25.391,31.738,41.992,80.566
1532510323.322,40.039,26.855,34.180,44.434,109.863
1532510323.326,43.945,21.973,48.828,48.340,-32.227
1532510323.330,41.016,15.137,53.711,54.688,-35.645
1532510323.333,35.156,12.207,52.246,48.828,36.621
1532510323.337,30.273,18.066,46.875,36.621,126.465
1532510323.341,28.809,29.785,29.785,26.367,28.320
1532510323.345,34.668,26.367,32.715,27.832,-19.531
1532510323.349,45.410,26.367,48.340,45.410,61.035
1532510323.353,35.156,29.785,44.434,36.133,-2.441
1532510323.357,33.203,25.391,38.574,33.691,-56.152
1532510323.361,58.594,27.832,43.945,55.176,-38.574
1532510323.365,58.105,20.020,44.922,42.480,25.391
1532510323.369,29.785,9.766,44.434,20.508,116.211
1532510323.372,22.461,9.277,46.875,23.438,-23.438
1532510323.376,26.367,20.508,42.480,27.344,-104.980
1532510323.380,23.926,42.480,39.062,29.297,14.160
1532510323.384,36.133,45.410,36.133,36.621,106.934
1532510323.388,35.645,39.551,34.668,34.180,143.066
1532510323.392,29.297,27.344,40.527,28.320,-10.742
1532510323.396,25.391,19.043,48.340,26.855,-41.504
1532510323.400,27.832,15.137,52.246,19.531,100.586
1532510323.404,34.180,9.277,45.898,23.926,158.691
1532510323.408,34.180,10.742,36.621,29.785,48.340
1532510323.412,28.809,19.043,29.785,22.461,-65.430
1532510323.415,34.180,31.250,32.227,26.855,-34.180
1532510323.419,41.016,32.715,36.621,39.062,93.262
1532510323.423,42.480,30.762,43.945,39.551,105.957
1532510323.427,39.062,38.086,46.875,29.785,32.715
1532510323.431,30.762,27.832,37.598,16.113,-36.621
1532510323.435,30.273,16.113,41.992,14.160,-26.855
1532510323.439,24.902,16.113,30.762,23.926,64.453
1532510323.443,23.438,21.484,28.320,29.785,-8.301
1532510323.447,30.762,13.672,45.410,28.320,7.812
1532510323.451,32.715,4.395,44.434,22.949,83.496
1532510323.455,30.273,35.645,29.785,22.461,121.094
1532510323.458,27.832,44.922,27.832,30.273,74.219
1532510323.462,25.391,41.016,41.016,27.832,-59.082
1532510323.466,35.645,41.016,51.270,36.621,16.113
1532510323.470,26.855,21.484,45.410,26.367,96.680
1532510323.474,16.113,22.949,32.227,-0.977,-88.867
1532510323.478,21.973,27.344,31.738,3.418,-98.145
1532510323.482,22.949,21.484,31.738,20.020,41.992
1532510323.486,27.832,20.996,28.809,27.832,141.113
1532510323.490,32.715,18.066,31.738,29.297,62.988
1532510323.494,34.180,15.137,42.480,34.180,-75.195
1532510323.497,40.039,25.879,45.410,35.156,-0.488
1532510323.501,42.969,21.973,40.039,30.273,146.484
1532510323.505,50.781,25.879,38.574,42.480,158.203
1532510323.509,45.898,39.062,41.992,35.645,-0.488
1532510323.513,30.762,35.156,39.062,10.742,-140.137
1532510323.517,16.602,32.715,33.691,17.090,-19.531
1532510323.521,22.949,29.297,39.551,32.715,138.672
1532510323.525,34.180,32.227,33.691,27.344,41.992
1532510323.529,36.621,23.926,22.461,19.043,-12.695
1532510323.533,38.574,16.113,30.273,22.949,46.875
1532510323.537,41.504,10.742,41.992,34.180,152.344
1532510323.540,60.059,16.602,47.363,46.387,99.121
1532510323.544,58.105,40.527,31.250,31.738,-11.719
1532510323.548,46.875,41.992,20.508,7.812,40.039
1532510323.552,62.988,37.598,28.809,13.672,105.469
1532510323.556,65.430,37.598,25.391,14.160,20.020
1532510323.560,45.410,37.109,9.277,-0.977,-95.215
1532510323.564,36.621,39.551,5.859,1.953,-27.344
1532510323.568,26.367,42.969,4.883,5.371,143.066
1532510323.572,21.484,38.574,2.441,-0.977,38.574
1532510323.576,25.879,31.738,8.789,-4.883,-142.090
1532510323.579,25.879,34.180,8.301,-6.348,-20.508
1532510323.583,22.949,36.133,11.230,-1.465,105.957
1532510323.587,21.973,44.922,1.953,9.277,180.176
1532510323.591,23.926,50.293,-6.348,4.395,63.477
1532510323.595,26.367,45.410,0.488,-7.812,-44.434
1532510323.599,29.297,45.898,5.371,-14.648,58.594
1532510323.603,46.387,55.664,13.184,0.488,130.371
1532510323.607,36.621,57.617,4.883,-5.859,41.992
1532510323.611,21.484,45.898,-2.441,-19.531,-104.004
1532510323.615,28.320,43.945,-4.883,-8.789,-120.117
1532510323.619,40.039,41.504,-5.371,8.789,88.379
1532510323.622,44.922,48.828,1.953,8.301,156.250
1532510323.626,41.992,62.012,4.883,16.113,57.129
1532510323.630,47.363,42.480,8.301,19.043,1.953
1532510323.634,40.039,24.902,10.742,4.883,85.938
1532510323.638,41.992,45.898,26.367,11.230,150.879
1532510323.642,47.363,47.363,37.109,19.043,39.062
1532510323.646,36.133,38.086,23.926,13.672,-30.273
1532510323.650,36.133,53.223,21.973,11.230,16.113
1532510323.654,51.758,57.617,21.484,13.672,38.086
1532510323.658,56.641,51.270,19.531,18.066,4.883
1532510323.662,48.828,36.621,22.461,29.785,-13.184
1532510323.665,47.363,36.621,21.484,29.297,57.617
1532510323.669,50.293,41.992,25.391,26.855,136.719
1532510323.673,65.430,42.969,37.109,33.691,11.230
1532510323.677,71.289,42.969,36.621,28.809,-70.801
1532510323.681,48.828,30.273,16.113,20.020,30.273
1532510323.685,49.805,31.738,19.043,24.414,126.953
1532510323.689,56.152,37.109,32.715,31.250,121.094
1532510323.693,40.527,36.133,26.855,24.414,19.531
1532510323.697,47.852,27.832,27.832,23.438,-38.574
1532510323.701,59.570,17.090,25.879,42.969,42.480
1532510323.704,61.523,23.438,23.438,45.898,131.836
1532510323.708,56.152,32.715,28.809,25.879,85.938
1532510323.712,52.734,47.852,24.414,20.996,-101.074
1532510323.716,53.223,51.270,28.809,25.391,-71.777
1532510323.720,53.711,43.945,41.992,31.738,151.367
1532510323.724,56.152,40.039,36.133,28.809,100.586
1532510323.728,51.270,32.227,20.996,23.926,17.090
1532510323.732,51.270,39.062,36.133,36.621,18.066
1532510323.736,53.223,33.691,48.340,31.250,112.305
1532510323.740,46.387,10.742,31.250,16.113,120.605
1532510323.744,43.457,16.602,29.297,20.020,-30.273
1532510323.747,55.664,26.855,29.297,27.344,-35.645
1532510323.751,62.012,26.367,26.855,40.527,0.000
1532510323.755,60.547,26.855,28.809,39.062,-24.902
1532510323.759,57.617,36.133,34.180,32.227,-5.859
1532510323.763,43.457,44.922,39.062,44.434,8.789
1532510323.767,43.457,44.922,30.273,41.016,104.004
1532510323.771,64.941,48.828,14.160,28.320,166.016
1532510323.775,82.520,41.016,27.832,45.410,48.340
1532510323.779,57.129,22.461,53.223,43.945,-6.836
1532510323.783,37.109,26.367,59.082,24.414,86.914
1532510323.787,41.504,19.043,54.688,31.738,182.129
1532510323.790,31.738,6.348,38.574,34.180,13.184
1532510323.794,22.949,11.719,32.715,21.973,-134.277
1532510323.798,23.438,11.719,43.457,31.738,20.996
1532510323.802,25.391,3.418,50.781,34.180,151.367
1532510323.806,23.926,0.977,54.688,34.180,135.254
1532510323.810,18.066,13.184,55.664,30.762,-44.922
1532510323.814,11.230,20.508,53.223,21.484,-83.496
1532510323.818,14.160,24.902,46.875,27.344,117.188
1532510323.822,20.996,16.602,46.387,30.762,147.461
1532510323.826,20.996,12.695,60.059,43.457,28.809
1532510323.829,21.484,10.254,62.988,47.363,-25.879
1532510323.833,18.066,-7.812,55.176,37.109,68.359
1532510323.837,6.348,-11.230,52.734,31.250,115.234
1532510323.841,2.441,-8.789,49.805,21.973,-12.695
1532510323.845,19.043,-6.348,50.781,31.738,-41.504
1532510323.849,36.621,5.371,56.152,44.922,63.965
1532510323.853,37.109,0.977,56.152,43.945,31.738
1532510323.857,29.785,-4.395,47.852,34.668,-58.105
1532510323.861,37.109,16.113,42.480,35.645,-33.203
1532510323.865,42.969,20.508,44.434,40.527,34.180
1532510323.869,49.316,23.926,56.641,52.734,140.137
1532510323.872,45.898,20.020,58.594,54.199,102.539
1532510323.876,34.180,2.441,53.711,46.875,-9.277
1532510323.880,30.762,11.230,49.805,50.293,4.395
1532510323.884,28.320,23.926,43.945,42.480,67.383
1532510323.888,34.668,15.137,51.270,49.316,69.824
1532510323.892,47.852,9.277,46.875,55.664,-102.051
1532510323.896,44.922,15.137,45.898,52.734,-152.832
1532510323.900,32.715,19.531,52.246,55.664,47.852
1532510323.904,36.133,24.414,43.457,49.805,161.133
1532510323.908,35.156,31.250,46.875,49.805,95.703
1532510323.911,40.039,34.668,63.965,51.758,-20.508
1532510323.915,32.715,7.324,54.688,39.062,41.504
1532510323.919,23.926,-7.324,38.574,34.668,154.297
1532510323.923,27.344,10.254,40.039,33.691,89.844
1532510323.927,24.902,26.855,43.457,33.691,-10.742
1532510323.931,37.109,30.762,48.828,27.832,-66.406
1532510323.935,44.922,37.598,46.387,39.062,0.977
1532510323.939,34.668,42.480,35.156,45.898,126.465
1532510323.943,31.738,38.086,36.133,34.668,31.738
1532510323.947,33.691,37.598,41.016,31.250,-5.859
1532510323.951,41.992,31.738,35.645,24.414,22.949
1532510323.954,42.480,15.137,34.180,28.320,62.500
1532510323.958,37.598,30.273,48.340,40.039,42.480
1532510323.962,41.992,45.898,43.945,35.645,-41.016
1532510323.966,38.086,33.203,29.785,28.809,69.336
1532510323.970,36.133,31.738,36.133,28.320,129.883
1532510323.974,43.945,36.133,44.922,33.203,20.020
1532510323.978,45.898,35.645,41.992,43.457,-76.172
1532510323.982,42.480,20.020,35.156,44.922,-72.754
1532510323.986,34.668,13.672,37.598,37.598,86.426
1532510323.990,32.227,34.668,33.203,42.480,96.680
1532510323.994,49.316,46.387,34.180,39.062,-142.578
1532510323.997,55.664,40.039,48.828,43.945,-101.562
1532510324.001,44.922,35.156,49.805,52.246,124.023
1532510324.005,45.410,33.691,42.969,51.758,142.578
1532510324.009,54.199,36.621,47.852,53.711,18.555
1532510324.013,59.082,39.062,47.852,63.477,-35.156
1532510324.017,42.480,20.020,36.133,60.059,83.008
1532510324.021,36.621,22.461,26.855,40.527,163.574
1532510324.025,38.574,37.109,35.645,38.574,18.066
1532510324.029,34.668,25.879,52.246,45.410,-62.012
1532510324.033,42.480,17.578,36.621,42.969,-81.543
1532510324.036,43.945,26.367,25.879,36.621,12.207
1532510324.040,36.621,40.039,41.504,36.621,91.797
1532510324.044,41.016,41.504,41.016,41.016,-7.812
1532510324.048,47.363,28.809,31.738,49.316,39.551
1532510324.052,43.457,29.297,41.016,44.922,131.348
1532510324.056,49.316,41.504,55.664,48.340,133.301
1532510324.060,54.199,42.480,55.664,63.477,2.930
1532510324.064,34.668,29.297,44.434,53.711,-19.043
1532510324.068,26.367,30.273,37.598,39.551,83.496
1532510324.072,22.949,33.203,40.527,38.574,-11.230
1532510324.076,47.363,27.344,47.363,64.941,-88.379
1532510324.079,66.406,41.016,38.086,63.477,-10.742
1532510324.083,50.781,49.316,27.832,34.668,76.660
1532510324.087,38.574,50.293,29.785,26.367,168.457
1532510324.091,35.645,45.898,24.414,12.695,-8.301
1532510324.095,29.785,45.898,29.297,4.883,-132.324
1532510324.099,22.949,50.293,34.668,5.859,41.504
1532510324.103,25.391,49.805,26.367,2.930,145.996
1532510324.107,28.809,56.641,24.414,-7.324,85.938
1532510324.111,13.672,67.383,24.902,-24.902,-47.852
1532510324.115,-0.977,65.918,20.020,-35.156,-20.508
1532510324.119,1.465,57.617,19.531,-30.762,98.145
1532510324.122,-1.465,62.988,24.902,-25.879,69.336
1532510324.126,-5.371,57.617,18.555,-41.504,-7.812
1532510324.130,2.441,71.777,20.020,-57.617,-37.598
1532510324.134,0.977,99.609,22.461,-63.965,-30.762
1532510324.138,-16.602,98.145,8.789,-72.754,90.820
1532510324.142,-32.227,101.074,4.883,-83.496,72.754
1532510324.146,-38.574,108.398,2.441,-83.008,-6.348
1532510324.150,-19.043,93.262,-2.930,-75.684,31.738
1532510324.154,-21.484,83.008,-2.441,-70.312,101.074
1532510324.158,-27.344,83.496,0.488,-57.617,73.242
1532510324.161,-15.625,80.078,3.906,-60.547,-35.156
1532510324.165,-17.090,80.078,1.953,-73.242,-28.809
1532510324.169,-12.695,67.383,-4.395,-58.594,80.566
1532510324.173,-5.859,69.824,-6.836,-51.270,-58.594
1532510324.177,1.465,93.750,-4.883,-50.293,-140.625
1532510324.181,6.348,91.309,0.488,-38.574,5.859
1532510324.185,10.742,80.566,-4.883,-25.391,88.867
1532510324.189,25.879,78.125,-10.742,-14.648,115.234
1532510324.193,27.832,63.477,-15.625,-9.766,-23.926
1532510324.197,34.668,56.641,-6.836,0.488,-36.621
1532510324.201,39.551,53.711,-0.488,-6.348,101.562
1532510324.204,37.598,50.781,-1.465,0.000,152.344
1532510324.208,42.480,45.410,-4.883,13.672,64.941
1532510324.212,44.434,41.992,-7.324,18.066,-57.129
1532510324.216,51.270,35.156,3.418,16.113,-1.953
1532510324.220,62.500,27.832,4.883,20.508,127.441
1532510324.224,61.523,28.320,7.812,28.320,88.867
1532510324.228,57.129,34.180,10.742,38.086,3.906
1532510324.232,63.965,48.340,15.137,47.852,-89.355
1532510324.236,66.895,48.340,18.555,41.992,-17.090
1532510324.240,54.688,34.180,1.465,46.387,91.309
1532510324.243,52.734,27.344,0.000,48.340,-13.672
1532510324.247,55.664,26.855,15.625,42.480,-2.930
1532510324.251,59.082,18.555,20.508,43.457,62.500
1532510324.255,55.176,9.766,18.066,43.457,102.539
1532510324.259,51.758,20.508,20.020,50.293,12.695
1532510324.263,53.223,28.320,9.766,57.129,-89.844
1532510324.267,57.617,30.762,15.625,53.711,48.340
1532510324.271,57.617,35.156,31.250,50.293,77.637
1532510324.275,57.129,26.855,31.738,47.852,-80.078
1532510324.279,67.871,25.391,31.738,56.152,-64.941
1532510324.283,66.895,35.156,23.926,63.477,32.715
1532510324.286,60.547,26.367,19.531,57.617,145.020
1532510324.290,54.199,24.902,19.043,44.434,55.176
1532510324.294,41.016,18.066,21.973,40.039,-58.594
1532510324.298,51.758,8.301,29.785,58.594,15.137
1532510324.302,55.176,27.832,29.297,50.293,122.559
1532510324.306,52.246,46.875,26.855,39.062,86.426
1532510324.310,56.152,48.340,24.902,49.316,-79.102
1532510324.314,53.223,34.668,31.738,42.480,-144.531
1532510324.318,47.852,16.602,33.691,37.598,52.734
1532510324.322,53.711,23.438,15.137,49.805,178.223
1532510324.326,55.176,29.297,5.859,49.805,42.480
1532510324.329,58.105,27.344,34.668,54.688,-15.625
1532510324.333,61.523,30.273,49.316,62.500,55.176
1532510324.337,43.457,33.691,30.762,40.527,129.395
1532510324.341,43.945,34.668,26.855,35.156,57.129
1532510324.345,46.387,32.227,35.645,41.504,-16.113
1532510324.349,48.340,38.086,39.062,43.945,21.484
1532510324.353,58.594,39.551,30.273,49.316,69.336
1532510324.357,50.781,36.621,23.926,44.434,-3.418
1532510324.361,45.898,29.297,28.320,37.109,-41.016
1532510324.365,47.363,21.973,30.762,39.551,35.156
1532510324.368,43.457,21.973,31.738,43.945,145.020
1532510324.372,55.176,24.902,36.133,41.016,27.832
1532510324.376,61.035,30.762,34.668,37.598,-105.469
1532510324.380,44.434,36.133,32.227,35.156,0.977
1532510324.384,42.969,30.273,31.250,32.227,88.867
1532510324.388,56.641,44.434,39.551,46.875,148.926
1532510324.392,57.129,49.316,41.992,49.316,40.527
1532510324.396,49.805,33.203,25.391,38.086,-40.527
1532510324.400,46.875,29.785,20.020,34.668,46.875
1532510324.404,47.363,28.320,19.043,37.598,86.426
1532510324.408,46.387,26.855,25.391,36.621,38.086
1532510324.411,40.527,22.461,37.598,25.391,-112.305
1532510324.415,39.551,20.996,33.203,27.832,-102.539
1532510324.419,43.945,29.785,27.344,38.574,128.418
1532510324.423,43.945,32.715,32.227,38.574,125.488
1532510324.427,49.805,32.715,31.738,37.598,6.836
1532510324.431,44.922,29.297,25.391,33.203,-6.348
1532510324.435,40.527,27.344,35.645,31.738,81.543
1532510324.439,41.016,46.875,46.875,36.133,113.281
1532510324.443,31.250,42.480,28.809,24.902,14.648
1532510324.447,25.879,23.926,20.020,18.066,-49.805
1532510324.451,24.902,25.391,32.715,19.043,-38.574
1532510324.454,24.414,34.180,35.156,19.531,-30.762
1532510324.458,33.203,39.062,29.297,22.461,-3.906
1532510324.462,48.340,31.250,36.133,32.715,4.395
1532510324.466,48.828,27.344,39.551,36.621,83.496
1532510324.470,53.711,42.480,33.691,37.109,125.977
1532510324.474,52.734,49.316,34.668,39.551,16.113
1532510324.478,53.223,48.340,37.598,46.387,8.789
1532510324.482,59.570,45.410,44.922,52.246,69.824
1532510324.486,46.387,40.527,55.664,42.480,132.812
1532510324.490,53.711,53.223,57.129,44.922,66.406
1532510324.493,62.500,53.711,51.758,53.711,-69.336
1532510324.497,55.176,40.039,45.898,51.758,-55.664
1532510324.501,51.758,46.875,42.969,51.270,79.102
1532510324.505,68.359,56.152,43.457,61.035,142.578
1532510324.509,85.938,57.617,43.945,64.941,18.066
1532510324.513,76.660,60.547,45.410,64.453,-152.832
1532510324.517,82.031,62.500,47.852,73.730,-27.832
1532510324.521,88.867,62.012,49.316,74.707,174.316
1532510324.525,91.797,61.523,50.293,86.914,78.125
1532510324.529,96.680,64.453,48.828,95.215,-1.465
1532510324.533,95.215,68.848,47.852,89.844,51.270
1532510324.536,98.633,64.453,49.316,94.238,155.273
1532510324.540,95.215,61.523,49.316,98.145,49.805
1532510324.544,92.773,67.871,47.363,97.656,-113.770
1532510324.548,96.191,65.918,42.969,87.402,-19.043
1532510324.552,104.004,65.430,42.480,84.961,86.426
1532510324.556,117.676,69.824,45.898,83.496,64.941
1532510324.560,114.746,69.824,45.898,80.566,6.836
1532510324.564,115.234,70.312,47.363,87.402,9.766
1532510324.568,122.559,69.824,48.340,84.961,152.832
1532510324.572,132.324,72.754,54.199,80.566,77.637
1532510324.576,127.930,70.801,62.012,85.938,-86.426
1532510324.579,101.074,60.547,53.223,78.125,-32.227
1532510324.583,95.215,57.129,51.270,79.590,68.359
1532510324.587,102.539,48.340,54.199,92.285,101.074
1532510324.591,90.332,59.570,47.363,91.797,-57.129
1532510324.595,80.566,72.266,48.340,94.727,-94.238
1532510324.599,79.102,68.848,54.199,98.145,48.340
1532510324.603,75.195,65.918,54.199,91.309,133.301
1532510324.607,76.172,62.012,56.152,86.914,87.402
1532510324.611,70.801,55.176,61.035,85.938,-87.891
1532510324.615,61.035,52.246,62.500,82.031,-117.188
1532510324.618,56.641,55.664,59.570,77.148,100.586
1532510324.622,62.500,59.082,58.594,66.895,139.160
1532510324.626,66.406,61.035,56.152,62.988,26.855
1532510324.630,64.453,61.035,56.152,68.848,-27.344
1532510324.634,60.547,55.176,61.035,70.801,41.992
1532510324.638,66.406,50.781,57.617,76.172,63.965
1532510324.642,75.684,57.617,56.641,82.520,-38.574
1532510324.646,80.078,58.594,55.176,85.938,-22.949
1532510324.650,84.961,60.059,42.480,80.078,52.734
1532510324.654,68.359,62.012,51.758,67.383,0.000
1532510324.658,62.988,49.316,73.730,75.195,-22.949
1532510324.661,70.312,37.598,70.312,71.289,-5.859
1532510324.665,56.641,46.387,59.082,61.523,57.129
1532510324.669,61.035,58.105,60.059,66.406,122.559
1532510324.673,62.012,56.641,61.523,58.105,66.895
1532510324.677,49.805,49.805,58.594,53.223,2.441
1532510324.681,52.734,43.945,63.965,61.523,-25.391
1532510324.685,57.617,41.016,64.453,60.547,43.457
1532510324.689,51.758,39.062,61.523,49.316,82.520
1532510324.693,46.387,41.992,60.547,41.504,-113.770
1532510324.697,50.781,47.852,52.246,40.527,-120.117
1532510324.700,63.965,61.523,59.570,63.477,81.055
1532510324.704,64.453,66.406,67.871,74.707,112.305
1532510324.708,50.293,56.152,58.105,48.828,40.039
1532510324.712,49.805,50.781,54.688,40.527,-26.367
1532510324.716,46.387,41.016,57.617,44.434,30.273
1532510324.720,44.922,46.387,52.246,42.969,134.277
1532510324.724,52.246,54.688,41.992,37.109,83.496
1532510324.728,38.086,44.434,50.293,33.691,-54.199
1532510324.732,35.645,31.250,53.711,36.621,-111.816
1532510324.736,42.480,33.691,49.316,31.738,-1.465
1532510324.740,32.715,38.086,54.199,30.762,110.840
1532510324.743,38.574,37.109,56.641,38.574,45.898
1532510324.747,36.621,46.875,48.340,33.691,40.039
1532510324.751,40.527,46.875,52.734,37.109,106.934
1532510324.755,47.852,43.945,61.035,50.293,115.723
1532510324.759,39.551,53.711,45.898,37.598,24.414
1532510324.763,45.898,62.012,47.363,30.273,-1.465
1532510324.767,60.547,62.012,61.035,44.922,102.051
1532510324.771,62.012,50.293,51.758,40.527,111.328
1532510324.775,58.594,44.922,45.898,23.926,-32.715
1532510324.779,47.852,38.574,45.898,20.020,-109.863
1532510324.783,55.176,36.621,42.969,22.461,0.000
1532510324.786,56.152,50.293,44.922,26.367,138.184
1532510324.790,54.688,58.105,43.457,29.785,25.391
1532510324.794,57.617,59.570,40.527,28.320,-159.668
1532510324.798,51.270,41.992,42.480,37.598,-41.992
1532510324.802,53.711,43.945,40.527,35.645,113.770
1532510324.806,59.082,67.383,42.480,26.367,106.934
1532510324.810,49.316,68.359,46.875,24.902,-36.133
1532510324.814,44.434,65.918,46.875,28.320,-75.195
1532510324.818,48.340,57.617,49.316,32.715,104.492
1532510324.822,49.316,45.898,47.852,35.156,96.680
1532510324.825,49.316,41.992,46.387,37.598,-43.945
1532510324.829,45.898,36.133,50.293,39.062,-27.832
1532510324.833,48.340,48.340,61.523,39.551,-55.176
1532510324.837,48.340,56.641,64.941,32.227,18.066
1532510324.841,52.246,40.039,45.898,21.973,55.176
1532510324.845,48.828,27.832,41.504,28.320,-7.324
1532510324.849,29.785,33.691,49.805,37.598,57.129
1532510324.853,24.902,40.527,46.387,30.762,93.262
1532510324.857,28.809,41.504,45.410,28.320,52.246
1532510324.861,34.180,44.434,46.875,38.086,-25.391
1532510324.865,39.551,34.180,46.387,33.691,16.602
1532510324.868,42.969,33.203,47.363,27.832,77.148
1532510324.872,40.039,38.574,44.922,22.949,-61.523
1532510324.876,36.621,27.344,42.480,20.508,-141.602
1532510324.880,41.992,38.086,52.734,24.414,15.137
1532510324.884,43.945,60.059,55.664,25.391,142.090
1532510324.888,30.273,45.410,47.363,16.113,147.949
1532510324.892,26.855,32.227,49.316,16.113,7.324
1532510324.896,31.738,33.203,46.387,24.414,-19.531
1532510324.900,27.832,31.250,41.504,20.996,103.516
1532510324.904,26.855,37.598,47.852,28.320,163.574
1532510324.908,29.297,42.480,50.781,33.203,75.684
1532510324.911,34.180,35.156,49.805,41.016,-22.461
1532510324.915,38.574,32.227,49.316,48.340,7.324
1532510324.919,19.531,38.574,50.293,40.039,67.871
1532510324.923,10.254,37.598,49.316,34.180,37.109
1532510324.927,11.230,32.227,44.922,21.484,14.648
1532510324.931,18.555,33.203,49.805,19.531,-30.762
1532510324.935,27.344,36.133,48.828,28.809,-58.105
1532510324.939,27.344,38.086,42.969,29.785,33.691
1532510324.943,30.273,38.574,45.410,29.297,13.672
1532510324.947,30.273,36.133,45.898,26.367,1.465
1532510324.950,37.598,31.738,48.828,34.180,71.777
1532510324.954,45.898,22.461,57.129,44.434,90.820
1532510324.958,33.203,15.625,51.270,30.273,41.992
1532510324.962,22.461,30.762,44.922,26.367,-46.875
1532510324.966,21.973,42.969,39.551,24.414,49.805
1532510324.970,19.531,41.016,42.480,22.461,122.559
1532510324.974,21.484,43.457,49.805,25.879,-69.336
1532510324.978,32.227,41.504,47.363,35.645,-71.777
1532510324.982,22.949,41.992,41.992,42.480,35.645
1532510324.986,14.648,46.875,45.410,50.781,131.836
1532510324.990,29.785,36.133,49.805,39.062,93.750
1532510324.993,35.645,25.879,49.805,29.785,-53.223
1532510324.997,21.973,25.879,49.805,30.762,4.395
1532510325.001,20.508,31.250,45.410,25.391,129.883
1532510325.005,22.949,39.551,42.969,27.344,158.691
1532510325.009,18.066,40.527,47.852,28.320,25.391
1532510325.013,17.578,29.785,50.781,24.414,-143.066
1532510325.017,24.902,32.227,52.734,36.621,-41.504
1532510325.021,29.297,50.781,50.293,47.852,143.066
1532510325.025,29.297,36.621,41.016,32.227,54.199
1532510325.029,35.645,25.879,41.992,25.879,-43.945
1532510325.032,32.227,33.203,46.387,40.039,19.531
1532510325.036,20.996,34.180,51.270,41.504,139.648
1532510325.040,22.949,37.109,53.711,29.297,102.051
1532510325.044,25.879,37.598,50.781,32.715,9.766
1532510325.048,24.414,28.320,43.945,35.645,41.992
1532510325.052,26.855,24.902,41.504,28.320,106.445
1532510325.056,32.227,23.926,44.434,23.926,41.992
1532510325.060,23.438,31.738,51.270,35.156,-86.914
1532510325.064,17.090,40.527,54.688,37.598,-55.664
1532510325.068,20.508,42.969,53.711,32.227,129.395
1532510325.072,18.555,48.340,51.758,33.691,67.383
1532510325.075,17.090,39.062,49.316,26.855,-111.816
1532510325.079,32.227,39.551,57.129,34.668,-6.348
1532510325.083,43.457,38.574,57.129,37.109,118.164
1532510325.087,29.785,29.297,47.852,23.926,161.133
1532510325.091,21.484,35.156,45.410,19.531,37.598
1532510325.095,25.391,32.227,43.945,22.461,-56.641
1532510325.099,27.344,23.438,46.387,28.320,46.875
1532510325.103,28.809,31.738,45.410,31.250,93.262
1532510325.107,41.504,39.062,44.922,32.715,14.648
1532510325.111,37.109,41.016,43.945,31.738,-95.703
1532510325.115,22.461,44.434,46.387,29.297,-129.395
1532510325.118,25.879,37.598,48.828,28.320,72.754
1532510325.122,23.926,34.180,45.898,27.832,113.770
1532510325.126,24.902,36.133,44.922,40.527,18.066
1532510325.130,26.855,33.691,48.340,36.621,-0.488
1532510325.134,30.273,42.480,52.246,20.996,89.355
1532510325.138,31.738,48.340,50.781,28.809,182.129
1532510325.142,31.250,39.551,43.457,30.273,54.688
1532510325.146,29.297,34.668,41.992,31.250,0.488
1532510325.150,36.621,38.086,48.828,41.504,45.898
1532510325.154,31.738,38.086,44.434,31.250,7.812
1532510325.157,27.344,39.062,41.504,28.809,-10.254
1532510325.161,25.879,45.898,46.875,35.156,2.441
1532510325.165,20.996,44.922,49.805,30.273,89.844
1532510325.169,25.879,41.016,51.270,24.902,146.973
1532510325.173,34.668,34.668,48.828,35.645,59.082
1532510325.177,23.438,32.227,42.969,41.016,8.789
1532510325.181,20.996,39.062,38.086,35.645,32.715
1532510325.185,27.344,38.574,40.039,39.551,133.301
1532510325.189,33.203,30.273,51.270,40.039,117.676
1532510325.193,31.250,32.227,58.105,31.738,-26.367
1532510325.197,23.926,42.969,58.105,27.832,-61.523
1532510325.200,31.738,33.691,53.223,35.156,28.320
1532510325.204,34.180,31.738,51.758,36.621,84.961
1532510325.208,29.297,44.434,47.363,37.109,45.410
1532510325.212,29.785,42.969,46.875,42.969,-95.215
1532510325.216,33.203,35.645,50.293,34.180,-58.594
1532510325.220,43.457,41.504,50.781,27.832,132.324
1532510325.224,57.129,51.758,56.641,41.016,59.570
1532510325.228,32.227,39.062,45.898,37.109,-0.488
1532510325.232,18.555,31.250,40.527,30.762,33.203
1532510325.236,25.391,32.227,43.457,22.461,115.723
1532510325.240,18.555,33.691,35.645,10.254,96.680
1532510325.243,14.648,25.879,37.598,20.020,-50.781
1532510325.247,21.973,21.484,40.039,25.391,-46.875
1532510325.251,22.461,33.691,40.527,20.508,14.648
1532510325.255,13.672,26.367,41.992,23.438,-25.879
1532510325.259,21.973,27.344,39.551,27.344,-15.625
1532510325.263,22.461,40.039,36.621,20.020,8.301
1532510325.267,26.855,53.223,47.852,26.855,100.586
1532510325.271,35.645,56.641,51.270,35.645,116.211
1532510325.275,17.090,46.387,37.598,23.438,-10.742
1532510325.279,16.113,38.086,38.574,21.973,-14.160
1532510325.282,27.344,25.879,40.039,26.855,84.961
1532510325.286,23.438,29.785,36.621,26.855,160.645
1532510325.290,28.809,39.551,38.574,22.461,19.043
1532510325.294,36.133,43.945,41.504,15.625,-167.969
1532510325.298,34.180,42.480,42.969,26.855,-11.719
1532510325.302,31.250,31.250,40.039,36.621,174.316
1532510325.306,32.227,29.297,40.527,36.621,125.977
1532510325.310,29.297,33.203,41.504,32.227,-28.320
1532510325.314,34.180,35.156,38.086,29.785,-41.016
1532510325.318,37.598,41.016,41.992,26.367,114.258
1532510325.322,27.832,31.250,44.434,22.461,141.113
1532510325.325,27.832,22.949,41.504,25.879,34.668
1532510325.329,36.133,39.551,39.062,35.156,-9.766
1532510325.333,49.316,55.176,44.434,50.781,34.668
1532510325.337,41.016,46.387,44.922,41.992,58.594
1532510325.341,24.414,23.926,41.992,20.996,-33.203
1532510325.345,29.297,22.461,43.457,33.691,-40.527
1532510325.349,25.391,33.691,40.527,33.691,78.613
1532510325.353,30.273,29.785,43.457,23.926,32.227
1532510325.357,33.691,32.227,45.898,34.180,-19.531
1532510325.361,28.809,33.203,40.039,36.133,-20.996
1532510325.365,39.551,30.762,37.109,36.621,23.438
1532510325.368,37.598,45.410,39.551,38.574,155.762
1532510325.372,25.391,43.945,35.156,32.227,64.941
1532510325.376,33.203,34.668,33.203,36.133,-39.062
1532510325.380,40.527,28.809,39.062,43.457,14.648
1532510325.384,36.621,25.879,46.875,49.316,74.219
1532510325.388,34.668,38.086,47.363,43.945,102.539
1532510325.392,41.504,50.781,45.410,37.598,-56.152
1532510325.396,43.457,48.340,53.223,42.480,-141.113
1532510325.400,37.598,39.551,45.898,41.504,79.102
1532510325.404,31.250,36.621,31.738,35.645,160.645
1532510325.407,24.414,34.180,35.645,28.809,104.492
1532510325.411,23.438,33.691,39.551,30.273,-4.395
1532510325.415,29.297,35.156,36.621,31.250,24.414
1532510325.419,38.086,36.133,40.527,37.109,144.043
1532510325.423,27.344,24.902,39.551,29.297,92.773
1532510325.427,11.719,22.949,31.738,22.461,13.672
1532510325.431,17.578,35.156,35.156,30.273,-54.688
1532510325.435,24.414,36.621,41.504,26.367,1.953
1532510325.439,20.996,30.762,41.992,34.668,118.652
1532510325.443,26.855,35.156,47.363,45.898,16.113
1532510325.447,32.715,41.016,44.922,43.457,2.930
1532510325.450,35.156,38.086,36.621,41.504,39.551
1532510325.454,43.945,36.621,41.016,42.480,48.828
1532510325.458,46.875,27.832,42.480,44.922,25.879
1532510325.462,39.062,37.598,46.875,47.852,-18.555
1532510325.466,31.250,45.410,46.875,48.340,78.125
1532510325.470,19.043,34.668,33.691,33.203,116.211
1532510325.474,11.230,37.598,33.203,23.438,17.090
1532510325.478,18.066,40.039,38.086,30.762,-68.848
1532510325.482,33.203,42.969,37.598,29.297,-42.969
1532510325.486,38.086,42.480,38.086,29.785,110.840
1532510325.489,34.180,35.156,40.527,42.969,109.863
1532510325.493,27.344,39.062,41.016,39.551,-128.906
1532510325.497,29.785,42.480,37.109,38.574,-76.172
1532510325.501,36.621,34.668,34.668,44.922,143.066
1532510325.505,30.273,35.156,34.180,32.715,137.695
1532510325.509,26.855,41.016,37.598,22.949,25.879
1532510325.513,41.016,39.551,38.086,23.926,-29.785
1532510325.517,53.711,33.203,41.504,28.320,90.332
1532510325.521,53.223,43.457,48.340,29.785,164.062
1532510325.525,46.875,50.293,32.715,11.230,14.160
1532510325.529,44.922,42.969,20.996,11.230,-50.781
1532510325.532,42.969,41.504,26.367,27.344,-47.363
1532510325.536,37.598,45.410,28.320,28.320,-0.488
1532510325.540,29.297,53.711,33.691,31.738,77.637
1532510325.544,19.043,58.594,37.109,38.574,13.184
1532510325.548,16.113,49.805,34.668,33.691,48.340
1532510325.552,17.578,39.062,31.250,31.250,130.859
1532510325.556,17.578,46.875,33.203,36.133,100.586
1532510325.560,14.648,40.527,34.668,35.156,16.113
1532510325.564,17.578,26.367,29.297,30.273,24.902
1532510325.568,20.020,34.180,25.391,32.715,137.207
1532510325.572,14.648,35.645,24.902,32.227,84.961
1532510325.575,17.578,37.598,30.762,36.621,-55.664
1532510325.579,27.832,38.574,31.250,48.340,-14.648
1532510325.583,30.273,25.391,23.926,46.875,93.750
1532510325.587,33.203,40.039,31.738,46.875,175.293
1532510325.591,37.598,56.641,42.480,43.945,4.883
1532510325.595,34.180,38.086,34.668,29.785,-142.090
1532510325.599,26.855,26.855,21.973,34.668,37.598
1532510325.603,24.414,27.344,15.137,38.086,153.809
1532510325.607,23.438,38.086,23.438,28.809,107.422
1532510325.611,23.926,44.922,24.414,33.203,-15.137
1532510325.614,28.809,36.621,17.578,54.199,13.184
1532510325.618,32.227,34.180,18.066,48.828,113.770
1532510325.622,33.691,31.738,17.578,39.062,48.828
1532510325.626,36.621,29.785,17.090,54.688,-2.930
1532510325.630,31.738,34.180,12.207,53.223,-12.695
1532510325.634,25.391,36.621,8.301,26.855,-54.688
1532510325.638,25.391,46.387,7.324,15.625,40.527
1532510325.642,24.902,47.363,10.254,16.113,44.434
1532510325.646,26.367,43.945,20.508,25.391,17.578
1532510325.650,24.414,36.621,19.531,29.785,83.984
1532510325.654,26.855,32.715,16.113,29.297,119.141
1532510325.657,32.715,42.480,16.602,30.762,75.195
1532510325.661,33.203,46.875,15.625,31.250,-15.137
1532510325.665,33.691,44.922,17.578,32.227,17.090
1532510325.669,41.992,52.734,22.949,36.621,83.496
1532510325.673,36.133,49.805,20.508,31.738,-45.410
1532510325.677,28.320,37.598,17.090,35.156,-99.609
1532510325.681,29.785,33.691,16.113,31.738,40.039
1532510325.685,21.484,31.250,20.996,20.020,131.836
1532510325.689,18.555,20.508,25.879,32.227,119.629
1532510325.693,25.391,16.113,20.508,30.273,-12.695
1532510325.697,25.391,27.832,19.531,16.602,2.441
1532510325.700,24.902,33.691,25.879,25.391,121.094
1532510325.704,28.320,31.738,25.879,38.574,141.602
1532510325.708,28.320,37.109,20.020,38.574,70.801
1532510325.712,27.832,46.387,20.996,27.832,-50.781
1532510325.716,30.273,49.316,25.391,23.438,-18.066
1532510325.720,32.715,43.945,25.391,27.344,119.141
1532510325.724,30.273,33.691,27.832,26.367,95.215
1532510325.728,29.297,34.668,28.320,20.996,8.301
1532510325.732,30.273,39.062,24.902,22.949,-20.508
1532510325.736,37.109,44.434,20.508,33.691,63.965
1532510325.739,38.574,39.062,25.879,31.738,113.770
1532510325.743,36.133,29.785,34.180,23.926,-9.766
1532510325.747,40.527,39.551,36.621,33.691,13.184
1532510325.751,34.668,40.039,38.086,34.668,72.266
1532510325.755,24.902,26.855,28.809,17.578,14.648
1532510325.759,21.484,25.391,23.438,20.508,-74.707
1532510325.763,26.367,19.531,27.832,18.066,-91.797
1532510325.767,28.320,20.020,32.715,19.531,99.609
1532510325.771,37.109,30.762,32.715,41.016,130.859
1532510325.775,32.227,37.598,25.879,37.598,-5.859
1532510325.779,29.785,45.410,29.785,24.902,-1.465
1532510325.782,40.527,46.875,38.086,31.738,71.777
1532510325.786,33.691,36.133,32.715,34.180,186.523
1532510325.790,27.832,33.203,27.344,23.926,104.980
1532510325.794,23.438,36.621,32.227,17.090,-92.285
1532510325.798,22.461,30.273,36.133,20.996,5.371
1532510325.802,26.855,33.203,31.250,23.438,139.160
1532510325.806,26.367,40.527,31.250,24.414,62.988
1532510325.810,25.879,43.945,33.203,24.902,-64.453
1532510325.814,27.832,44.434,31.738,20.020,-116.699
1532510325.818,31.738,41.504,34.180,26.367,58.594
1532510325.821,28.809,31.738,34.180,32.227,162.598
1532510325.825,21.973,32.227,32.227,29.297,20.020
1532510325.829,28.320,37.598,31.738,32.715,-40.039
1532510325.833,30.762,36.133,31.738,38.086,25.391
1532510325.837,25.879,49.805,35.156,37.598,147.461
1532510325.841,21.484,49.316,31.250,23.926,87.402
1532510325.845,14.648,41.016,26.367,18.066,5.371
1532510325.849,12.695,35.156,25.879,18.066,69.824
1532510325.853,19.043,24.414,30.273,18.066,96.191
1532510325.857,20.020,26.855,33.203,22.461,15.137
1532510325.861,22.461,27.344,25.879,24.414,-38.574
1532510325.864,30.273,25.391,26.367,19.043,30.762
1532510325.868,29.297,35.645,32.227,16.602,169.434
1532510325.872,23.926,39.062,36.133,15.137,54.688
1532510325.876,24.414,34.180,40.527,16.602,-131.348
1532510325.880,26.367,38.086,33.691,24.414,-8.789
1532510325.884,20.508,42.969,33.691,27.832,105.469
1532510325.888,19.043,41.992,36.133,28.809,125.977
1532510325.892,22.949,38.574,35.645,29.297,29.297
1532510325.896,24.414,30.273,35.645,32.227,-9.277
1532510325.900,25.879,30.762,33.691,33.691,26.855
1532510325.904,26.367,39.062,33.691,32.227,85.449
1532510325.907,35.156,42.480,34.668,33.691,81.055
1532510325.911,32.227,27.832,32.715,37.109,-116.211
1532510325.915,30.762,23.438,35.645,45.410,-125.488
1532510325.919,29.785,34.180,37.109,50.293,122.070
1532510325.923,20.020,34.668,27.832,31.250,138.184
1532510325.927,29.785,37.598,25.879,22.461,31.250
1532510325.931,23.926,30.273,30.273,33.203,-9.277
1532510325.935,13.672,24.414,30.762,34.180,88.867
1532510325.939,17.090,29.785,29.785,27.832,145.020
1532510325.943,18.555,28.320,36.133,31.250,31.738
1532510325.946,21.973,22.461,37.109,33.691,-7.812
1532510325.950,36.133,31.250,34.180,34.668,-5.371
1532510325.954,33.691,41.016,28.320,35.156,-27.832
1532510325.958,21.973,40.039,27.344,32.227,-17.578
1532510325.962,25.391,29.297,32.227,30.762,0.488
1532510325.966,26.367,20.020,31.250,34.180,77.637
1532510325.970,25.391,28.320,33.691,42.969,111.816
1532510325.974,25.879,41.016,36.133,46.387,50.781
1532510325.978,26.855,39.551,38.574,40.039,3.906
1532510325.982,37.109,33.203,35.645,35.645,50.293
1532510325.986,31.250,27.832,28.809,35.156,169.922
1532510325.989,24.902,36.133,43.457,42.969,112.305
1532510325.993,39.551,47.852,45.898,52.734,-49.316
1532510325.997,31.738,40.527,30.273,36.621,-41.016
1532510326.001,26.855,35.645,26.855,28.809,105.469
1532510326.005,31.738,35.156,32.715,35.156,158.203
1532510326.009,27.344,33.203,38.086,36.133,19.531
1532510326.013,17.090,29.297,29.785,24.414,-145.508
1532510326.017,25.391,25.391,26.855,25.879,-34.668
1532510326.021,29.297,22.461,36.133,36.133,169.434
1532510326.025,24.902,24.414,39.551,38.574,92.285
1532510326.029,27.832,32.715,33.691,33.203,-28.320
1532510326.032,28.809,38.574,31.738,40.039,22.461
1532510326.036,40.527,33.203,33.691,55.664,152.344
1532510326.040,41.992,33.203,37.598,50.781,45.410
1532510326.044,35.645,41.992,37.109,47.363,-92.285
1532510326.048,43.945,41.504,38.574,44.434,22.949
1532510326.052,41.504,36.133,42.480,34.668,38.086
1532510326.056,31.738,35.645,42.969,32.715,-32.227
1532510326.060,24.414,36.133,38.086,31.738,-12.695
1532510326.064,33.691,32.715,43.457,32.227,33.691
1532510326.068,34.668,38.574,48.828,38.086,150.391
1532510326.071,16.602,37.109,35.156,32.227,122.559
1532510326.075,14.160,34.668,33.691,24.902,-5.859
1532510326.079,20.020,35.156,36.133,25.879,-19.043
1532510326.083,17.090,31.738,32.715,26.367,66.895
1532510326.087,21.484,35.156,37.109,30.762,120.117
1532510326.091,32.227,37.598,45.410,30.762,-57.129
1532510326.095,28.809,35.645,41.992,26.367,-198.242
1532510326.099,25.391,35.156,37.598,34.180,11.719
1532510326.103,33.691,39.062,39.551,23.926,157.227
1532510326.107,34.180,41.992,41.504,31.738,108.887
1532510326.111,37.109,39.551,38.574,42.969,-13.672
1532510326.114,33.691,35.156,38.574,37.598,-11.230
1532510326.118,34.180,32.715,42.969,39.551,144.531
1532510326.122,34.668,23.926,39.062,37.598,146.484
1532510326.126,33.691,22.461,34.668,35.156,36.133
1532510326.130,31.250,37.109,34.668,31.738,-8.789
1532510326.134,28.320,48.340,43.945,35.645,41.992
1532510326.138,28.320,43.945,52.246,42.969,72.754
1532510326.142,22.461,30.762,45.410,32.227,6.348
1532510326.146,19.043,25.879,36.133,23.926,6.348
1532510326.150,26.367,31.250,33.203,26.367,59.082
1532510326.153,21.484,34.668,37.598,17.090,-6.836
1532510326.157,17.090,26.367,37.109,20.996,-31.250
1532510326.161,25.391,27.344,38.086,32.227,-1.953
1532510326.165,28.320,31.250,37.598,34.668,50.293
1532510326.169,30.762,29.785,32.715,36.621,133.789
1532510326.173,25.391,34.668,37.109,34.180,57.617
1532510326.177,20.020,37.109,37.598,34.180,-20.996
1532510326.181,21.973,39.062,38.086,31.738,-34.180
1532510326.185,29.297,32.227,38.574,39.062,28.320
1532510326.189,31.250,21.484,34.668,38.574,86.426
1532510326.193,28.809,21.973,34.180,21.484,-104.492
1532510326.196,34.180,35.645,40.527,29.297,-124.023
1532510326.200,32.715,42.480,40.527,44.434,110.352
1532510326.204,35.156,47.852,35.156,37.109,167.969
1532510326.208,34.180,43.457,36.621,30.273,72.754
1532510326.212,13.184,22.461,33.203,29.297,-11.230
1532510326.216,6.836,17.578,31.250,30.273,76.172
1532510326.220,12.207,26.855,33.691,26.855,163.574
1532510326.224,17.578,38.086,36.621,24.414,87.402
1532510326.228,20.020,33.203,38.574,25.391,-21.973
1532510326.232,21.484,34.180,38.086,28.320,-95.215
1532510326.236,26.855,45.410,28.809,23.926,-37.109
1532510326.239,27.832,44.434,31.250,24.414,83.984
1532510326.243,31.738,37.109,43.945,37.109,14.160
1532510326.247,33.691,36.133,46.875,39.551,23.438
1532510326.251,27.344,41.992,41.016,33.203,105.469
1532510326.255,29.297,43.457,38.574,28.320,95.215
1532510326.259,30.762,32.715,40.039,31.738,36.621
1532510326.263,31.738,31.738,40.039,35.645,8.301
1532510326.267,36.133,47.363,43.945,35.645,89.355
1532510326.271,31.738,34.668,43.457,39.062,113.770
1532510326.275,28.809,17.578,31.738,29.785,-34.180
1532510326.278,27.832,39.551,25.391,27.832,-105.957
1532510326.282,27.832,49.805,26.855,29.785,-10.254
1532510326.286,33.691,42.480,29.785,30.273,144.531
1532510326.290,33.691,21.973,32.715,30.762,67.383
1532510326.294,41.504,22.461,40.527,34.180,-132.324
1532510326.298,38.086,45.410,44.434,43.457,-7.324
1532510326.302,22.949,48.340,44.922,37.598,168.945
1532510326.306,24.414,42.480,43.945,30.273,140.137
1532510326.310,25.879,44.434,39.551,30.273,-31.250
1532510326.314,20.020,43.945,36.133,25.879,-100.586
1532510326.318,23.926,28.320,39.551,24.414,85.938
1532510326.321,30.762,21.484,41.016,24.902,102.051
1532510326.325,28.320,33.691,39.062,25.879,-31.250
1532510326.329,43.945,42.480,39.062,31.738,-28.809
1532510326.333,40.527,41.992,40.527,14.648,-49.805
1532510326.337,20.996,41.992,40.527,6.348,29.297
1532510326.341,28.809,44.922,40.039,15.625,90.332
1532510326.345,28.320,42.969,46.875,27.832,38.086
1532510326.349,37.109,31.738,48.340,42.969,54.199
1532510326.353,47.363,35.645,36.621,35.645,86.426
1532510326.357,20.020,54.688,38.574,11.719,64.453
1532510326.361,-1.465,61.523,46.387,0.000,-3.418
1532510326.364,-2.441,67.871,45.410,-6.348,36.133
1532510326.368,-8.789,69.336,37.109,-22.949,97.656
1532510326.372,-16.602,63.477,33.691,-36.621,-1.465
1532510326.376,-30.273,60.547,35.156,-46.875,-68.359
1532510326.380,-29.785,71.289,26.855,-49.805,-24.902
1532510326.384,-42.480,88.867,19.043,-64.941,101.074
1532510326.388,-70.312,92.773,22.949,-79.590,153.320
1532510326.392,-62.500,91.797,24.414,-81.055,-56.152
1532510326.396,-55.176,92.285,20.996,-90.332,-106.934
1532510326.400,-56.641,103.516,18.555,-93.262,62.988
1532510326.403,-59.082,107.422,16.602,-98.145,133.789
1532510326.407,-63.477,105.469,15.625,-96.191,69.336
1532510326.411,-51.758,101.562,20.508,-84.473,-25.391
1532510326.415,-35.156,101.074,20.020,-78.613,-18.555
1532510326.419,-32.715,120.605,15.625,-70.312,43.945
1532510326.423,-40.527,112.305,9.277,-74.707,34.668
1532510326.427,-34.668,96.680,3.906,-80.566,2.441
1532510326.431,-25.391,96.191,2.930,-67.383,-54.688
1532510326.435,-15.625,76.660,3.418,-51.270,-52.246
1532510326.439,14.648,66.895,5.859,-41.504,98.633
1532510326.443,36.621,83.984,10.254,-29.785,39.551
1532510326.446,20.508,74.707,3.906,-21.973,0.488
1532510326.450,11.719,58.105,0.000,-16.113,104.004
1532510326.454,29.785,68.359,0.977,-2.441,131.836
1532510326.458,34.668,72.266,-1.953,0.977,86.914
1532510326.462,46.387,65.918,11.230,8.789,-59.082
1532510326.466,65.430,59.570,8.789,11.719,-6.348
1532510326.470,64.941,56.152,-4.395,-9.766,103.516
1532510326.474,71.777,60.547,-1.953,-9.277,-18.066
1532510326.478,73.242,57.129,0.488,0.000,-29.297
1532510326.482,75.195,51.758,4.883,1.465,48.340
1532510326.486,87.891,48.828,9.277,22.949,149.414
1532510326.489,93.262,42.480,13.184,33.691,104.492
1532510326.493,90.332,24.414,16.113,36.621,-64.453
1532510326.497,90.820,20.508,14.648,39.551,5.859
1532510326.501,89.355,33.691,11.719,43.945,146.973
1532510326.505,68.359,34.180,16.602,55.176,110.840
1532510326.509,62.500,35.156,20.020,55.664,-36.621
1532510326.513,63.477,31.738,17.578,49.316,-150.391
1532510326.517,63.965,28.809,17.090,52.246,-29.785
1532510326.521,62.500,24.902,20.508,52.734,124.023
1532510326.525,64.453,31.738,24.414,54.688,65.918
1532510326.528,59.082,41.504,26.367,51.758,4.883
1532510326.532,49.316,24.902,22.461,41.504,33.203
1532510326.536,61.523,17.578,25.391,47.852,135.742
1532510326.540,61.035,19.043,27.344,48.340,99.121
1532510326.544,46.387,10.254,24.902,41.504,8.789
1532510326.548,42.969,11.230,26.855,51.758,65.918
1532510326.552,49.805,23.926,28.320,62.012,96.191
1532510326.556,59.570,29.785,28.320,53.223,5.859
1532510326.560,59.570,33.203,23.926,44.922,-78.613
1532510326.564,68.848,32.227,19.531,42.969,-7.812
1532510326.568,79.102,31.738,25.391,55.176,116.699
1532510326.571,75.684,29.297,31.250,49.805,21.484
1532510326.575,69.336,13.184,29.297,36.621,-124.512
1532510326.579,57.129,0.977,27.832,36.621,-50.293
1532510326.583,66.895,20.020,38.086,44.922,74.219
1532510326.587,61.035,25.879,39.551,45.898,142.578
1532510326.591,45.410,9.766,27.344,32.715,29.297
1532510326.595,41.504,8.301,21.973,35.156,-36.133
1532510326.599,34.180,11.719,21.973,31.738,58.105
1532510326.603,35.156,14.648,25.879,29.297,77.148
1532510326.607,32.227,18.066,32.715,41.016,16.113
1532510326.610,35.645,22.461,34.180,41.504,-84.961
1532510326.614,42.480,16.113,33.691,42.969,-125.488
1532510326.618,49.316,2.930,34.668,56.641,64.941
1532510326.622,41.016,14.160,33.691,53.223,128.418
1532510326.626,31.738,26.367,30.273,41.016,32.227
1532510326.630,35.645,16.113,28.809,36.621,-5.371
1532510326.634,37.109,23.926,34.180,35.645,81.543
1532510326.638,41.992,29.785,33.691,29.785,134.277
1532510326.642,44.922,19.531,34.180,24.414,24.414
1532510326.646,33.691,16.113,33.691,19.531,-11.230
1532510326.650,35.156,23.926,35.156,25.391,30.762
1532510326.653,46.387,34.180,42.969,25.391,-41.504
1532510326.657,45.410,22.949,40.527,22.461,-59.570
1532510326.661,45.898,2.441,32.715,38.086,-13.672
1532510326.665,59.082,6.348,28.320,38.574,84.961
1532510326.669,42.969,22.949,27.344,34.180,155.762
1532510326.673,15.625,26.855,35.645,37.598,48.828
1532510326.677,18.555,20.996,40.039,39.062,0.488
1532510326.681,28.809,25.391,36.133,36.621,59.082
1532510326.685,42.969,23.926,43.457,50.293,121.094
1532510326.689,41.504,22.949,40.039,47.852,88.867
1532510326.693,26.855,29.785,34.180,21.484,-27.344
1532510326.696,24.902,27.344,37.598,18.066,-53.223
1532510326.700,22.949,27.344,40.527,23.438,39.062
1532510326.704,13.672,30.273,34.668,9.277,100.586
1532510326.708,28.809,25.879,32.227,15.137,51.758
1532510326.712,37.109,21.973,36.133,25.391,-101.074
1532510326.716,34.668,18.066,30.762,19.043,-46.387
1532510326.720,43.457,26.367,23.926,21.484,144.043
1532510326.724,39.551,32.227,29.785,23.438,86.914
1532510326.728,30.762,31.250,38.574,30.273,11.230
1532510326.732,34.668,35.645,39.551,36.133,28.809
1532510326.735,36.621,31.738,38.086,35.156,106.934
1532510326.739,22.461,27.344,41.992,41.992,89.355
1532510326.743,19.531,19.531,42.480,40.039,-67.383
1532510326.747,25.391,11.230,37.598,29.297,-58.105
1532510326.751,29.297,15.625,40.527,21.973,9.766
1532510326.755,32.227,25.391,37.109,16.113,-43.457
1532510326.759,35.156,32.715,32.715,20.020,-39.062
1532510326.763,33.691,20.508,39.062,24.414,-2.441
1532510326.767,35.645,19.531,46.387,34.180,125.000
1532510326.771,33.691,33.203,46.387,36.133,134.277
1532510326.775,23.926,16.602,42.480,24.902,23.926
1532510326.778,18.555,16.602,34.180,24.902,7.812
1532510326.782,19.043,30.762,30.762,31.250,74.219
1532510326.786,13.184,27.344,39.062,34.668,165.527
1532510326.790,16.602,22.461,41.992,31.738,-7.812
1532510326.794,24.902,31.738,38.086,22.461,-157.715
1532510326.798,17.578,38.574,35.645,20.508,1.465
1532510326.802,19.531,29.297,34.180,20.020,128.418
1532510326.806,27.832,30.273,33.203,20.020,122.070
1532510326.810,38.574,37.109,36.621,26.367,-42.969
1532510326.814,31.250,31.250,35.156,19.043,-78.125
1532510326.818,20.996,18.066,29.785,23.926,113.281
1532510326.821,22.949,11.719,29.785,37.598,145.020
1532510326.825,20.996,15.625,37.109,40.527,25.879
1532510326.829,26.855,26.367,40.527,40.039,-28.809
1532510326.833,32.227,33.203,32.715,36.621,44.922
1532510326.837,16.113,24.902,25.879,23.438,96.191
1532510326.841,8.301,27.832,29.297,20.020,-1.953
1532510326.845,12.695,35.156,29.785,30.762,-20.020
1532510326.849,8.301,35.645,29.785,30.273,72.266
1532510326.853,14.648,23.926,34.668,21.973,-0.977
1532510326.857,20.996,23.438,29.785,18.066,-88.867
1532510326.860,15.625,33.203,23.926,17.578,-26.855
1532510326.864,18.555,19.531,23.926,21.484,53.223
1532510326.868,28.320,16.602,26.855,27.344,156.738
1532510326.872,29.297,20.996,29.785,27.344,81.543
1532510326.876,30.762,20.020,30.762,34.180,-23.926
1532510326.880,22.461,21.484,26.367,35.156,32.715
1532510326.884,25.879,29.785,26.855,31.738,82.031
1532510326.888,23.438,34.180,34.180,35.156,72.266
1532510326.892,13.672,27.344,30.762,22.461,-84.961
1532510326.896,14.648,24.414,25.391,13.672,-154.785
1532510326.900,18.555,34.668,30.762,26.855,78.613
1532510326.903,28.809,48.340,38.574,41.016,168.945
1532510326.907,23.438,40.527,28.320,31.250,63.477
1532510326.911,14.160,18.066,23.926,13.672,-25.391
1532510326.915,14.160,13.184,27.832,11.719,42.969
1532510326.919,19.043,27.344,29.785,19.043,149.414
1532510326.923,30.762,37.109,32.715,21.484,101.074
1532510326.927,38.574,31.250,33.691,20.508,34.668
1532510326.931,27.344,32.227,33.203,18.066,-55.664
1532510326.935,21.973,31.250,32.227,18.066,-22.461
1532510326.939,22.461,28.320,31.250,20.020,86.426
1532510326.942,22.461,38.086,23.438,20.508,17.090
1532510326.946,33.203,29.785,25.391,24.902,22.461
1532510326.950,37.598,24.414,34.180,28.809,71.777
1532510326.954,45.410,38.086,33.203,26.367,53.711
1532510326.958,37.109,29.785,32.715,21.484,5.371
1532510326.962,24.414,6.836,37.109,25.879,-7.324
1532510326.966,32.715,27.344,40.039,37.109,110.352
1532510326.970,25.391,40.039,34.180,30.762,117.676
1532510326.974,17.090,25.391,29.785,20.996,-3.906
1532510326.978,14.648,25.879,29.297,11.719,-70.801
1532510326.982,20.996,35.156,26.855,14.160,-2.930
1532510326.985,26.367,42.480,28.320,27.832,128.906
1532510326.989,23.438,38.574,29.785,27.344,73.242
1532510326.993,22.949,33.691,28.320,20.508,-152.344
1532510326.997,25.391,30.762,27.344,26.855,-79.590
1532510327.001,26.367,29.297,33.691,28.809,158.203
1532510327.005,30.273,30.762,34.180,23.926,124.023
1532510327.009,33.691,27.344,30.762,22.949,9.766
1532510327.013,35.156,25.391,32.227,24.902,-14.648
1532510327.017,36.621,27.832,32.227,22.461,95.703
1532510327.021,28.809,32.227,29.297,16.113,118.652
1532510327.025,18.066,33.691,27.344,15.137,-23.438
1532510327.028,16.602,41.016,35.645,22.461,-83.008
1532510327.032,24.902,38.086,42.969,31.250,-12.207
1532510327.036,28.320,27.832,35.645,28.320,95.703
1532510327.040,27.344,31.250,31.738,21.973,88.379
1532510327.044,24.414,29.297,27.344,21.484,-10.742
1532510327.048,14.648,27.344,29.297,28.320,73.730
1532510327.052,20.508,13.672,33.691,18.555,68.359
1532510327.056,31.738,5.859,30.762,8.301,-30.762
1532510327.060,22.461,30.273,28.320,15.625,-2.441
1532510327.064,15.625,43.457,30.762,17.090,21.973
1532510327.067,16.602,44.922,30.762,22.461,117.676
1532510327.071,20.996,47.852,31.738,23.926,82.520
1532510327.075,28.320,48.828,35.645,16.602,-55.176
1532510327.079,27.344,39.551,34.668,17.578,-22.461
1532510327.083,35.645,40.039,40.527,27.344,109.375
1532510327.087,39.551,45.898,41.504,30.273,152.344
1532510327.091,24.414,25.879,31.250,14.160,-27.344
1532510327.095,19.531,12.695,26.367,7.812,-145.996
1532510327.099,21.484,14.160,28.809,18.066,37.598
1532510327.103,28.320,21.973,33.203,25.391,150.879
1532510327.107,29.785,29.785,31.250,25.879,90.332
1532510327.110,21.973,36.621,27.344,23.926,-29.785
1532510327.114,25.879,31.738,29.297,22.461,19.531
1532510327.118,31.738,31.250,30.762,20.020,114.258
1532510327.122,30.762,39.551,28.320,17.090,48.828
1532510327.126,29.297,36.133,32.227,17.090,-13.672
1532510327.130,28.809,29.297,31.738,21.484,-26.367
1532510327.134,22.949,22.949,30.273,13.184,-22.461
1532510327.138,13.672,34.668,33.203,8.789,53.223
1532510327.142,17.090,31.738,32.715,20.996,35.156
1532510327.146,19.043,14.160,31.738,28.320,6.348
1532510327.150,27.344,41.016,32.227,26.855,73.730
1532510327.153,21.484,54.199,22.461,13.184,114.746
1532510327.157,11.230,48.340,21.973,7.324,94.238
1532510327.161,18.066,50.293,28.809,12.207,23.438
1532510327.165,18.555,44.434,26.367,16.602,14.160
1532510327.169,19.043,36.133,24.902,20.508,74.219
1532510327.173,26.367,32.227,26.855,23.438,-63.477
1532510327.177,29.785,39.551,29.785,23.926,-133.789
1532510327.181,27.344,42.480,30.273,25.391,50.293
1532510327.185,26.855,32.715,26.855,20.996,166.992
1532510327.189,31.738,36.133,30.273,20.020,124.512
1532510327.192,26.367,42.969,30.273,14.160,-10.254
1532510327.196,27.344,40.527,26.367,15.625,10.254
1532510327.200,34.668,35.645,23.438,23.926,117.188
1532510327.204,30.762,27.832,26.367,28.320,123.047
1532510327.208,30.273,28.320,33.691,27.344,25.879
1532510327.212,39.062,53.223,39.062,29.785,-57.617
1532510327.216,34.180,41.992,41.992,36.133,0.488
1532510327.220,25.879,21.973,28.320,25.391,110.840
1532510327.224,25.391,37.598,25.879,14.648,59.570
1532510327.228,19.531,41.504,29.297,12.207,21.973
1532510327.232,16.113,37.598,27.344,10.254,11.230
1532510327.235,18.066,36.133,26.367,8.789,14.648
1532510327.239,23.438,43.457,30.762,21.973,68.848
1532510327.243,26.367,39.062,37.598,38.086,1.953
1532510327.247,31.738,21.973,34.668,30.762,45.898
1532510327.251,35.156,26.367,32.227,19.043,93.750
1532510327.255,30.762,43.457,36.133,23.926,57.129
1532510327.259,26.855,58.105,37.109,28.320,-13.184
1532510327.263,29.785,53.223,33.691,23.438,-58.105
1532510327.267,29.785,33.691,28.320,23.438,87.402
1532510327.271,29.785,39.062,34.180,28.320,96.191
1532510327.274,32.715,45.410,35.156,26.367,-89.355
1532510327.278,38.574,42.480,34.668,31.250,-53.711
1532510327.282,43.457,44.922,34.668,36.133,78.125
1532510327.286,32.227,39.062,20.508,24.902,150.391
1532510327.290,29.297,36.133,20.996,28.320,42.969
1532510327.294,30.273,37.109,27.344,23.926,-44.922
1532510327.298,26.367,33.691,23.926,10.742,55.664
1532510327.302,31.738,41.016,25.391,18.555,139.160
1532510327.306,41.016,38.574,32.715,32.227,62.988
1532510327.310,41.504,21.973,32.715,33.691,-71.289
1532510327.314,27.832,31.250,27.344,25.391,-135.742
1532510327.317,22.949,42.969,27.832,29.785,2.441
1532510327.321,32.715,25.879,30.762,36.133,108.887
1532510327.325,31.738,17.578,31.250,33.691,41.504
1532510327.329,31.738,30.762,26.855,33.691,19.043
1532510327.333,28.809,43.945,22.461,32.715,71.289
1532510327.337,32.227,47.363,36.133,31.738,138.184
1532510327.341,35.156,42.480,41.504,28.809,79.590
1532510327.345,27.344,27.832,34.180,26.855,15.137
1532510327.349,28.809,28.320,34.180,24.902,79.102
1532510327.353,34.668,28.320,27.344,25.391,88.379
1532510327.357,35.156,17.578,25.879,29.785,-28.320
1532510327.360,28.320,30.762,29.785,30.273,-76.172
1532510327.364,32.227,46.875,25.391,28.320,27.344
1532510327.368,39.062,29.785,23.438,28.809,146.484
1532510327.372,36.133,20.020,28.809,20.508,4.883
1532510327.376,35.156,35.645,28.809,22.461,-131.836
1532510327.380,34.180,34.668,25.879,31.738,-12.695
1532510327.384,37.109,45.898,31.250,26.367,102.051
1532510327.388,38.086,55.664,33.203,25.391,121.094
1532510327.392,30.273,44.922,23.926,26.855,-10.254
1532510327.396,28.320,34.668,20.020,32.227,-18.555
1532510327.399,41.504,41.504,31.250,40.527,71.777
1532510327.403,36.133,31.738,29.785,29.297,111.328
1532510327.407,32.715,10.254,21.973,23.438,103.027
1532510327.411,33.691,18.555,20.996,17.090,-57.129
1532510327.415,22.949,20.020,17.578,3.906,-75.684
1532510327.419,37.109,20.020,19.531,10.742,111.816
1532510327.423,43.457,35.645,21.973,6.348,110.352
1532510327.427,43.945,41.992,24.414,0.488,33.203
1532510327.431,48.340,37.598,20.996,2.930,14.648
1532510327.435,44.922,37.109,21.484,10.254,71.777
1532510327.439,38.086,36.621,30.273,20.996,89.355
1532510327.442,25.879,31.250,29.297,20.020,-31.250
1532510327.446,24.902,19.043,23.438,18.555,-66.895
1532510327.450,33.691,8.301,29.785,28.320,4.883
1532510327.454,30.273,12.695,27.344,28.809,-27.344
1532510327.458,25.391,41.504,20.508,32.227,-26.367
1532510327.462,21.484,54.199,27.344,36.133,-0.488
1532510327.466,20.020,29.785,32.227,31.250,92.773
1532510327.470,22.461,27.832,30.273,26.855,115.723
1532510327.474,19.531,38.086,25.879,26.855,5.859
1532510327.478,11.719,28.320,19.531,25.879,6.348
1532510327.482,23.438,17.090,17.578,25.391,90.820
1532510327.485,30.273,22.461,17.090,25.391,172.852
1532510327.489,22.949,26.855,14.648,22.949,82.520
1532510327.493,25.879,29.297,20.020,24.902,-85.938
1532510327.497,30.762,33.203,18.555,31.250,-69.824
1532510327.501,24.902,31.738,9.766,28.320,67.871
1532510327.505,21.484,30.762,15.137,24.902,117.188
1532510327.509,22.949,31.738,24.414,26.855,34.668
1532510327.513,29.297,37.598,28.320,24.414,-136.719
1532510327.517,39.551,46.875,32.715,33.691,-52.246
1532510327.521,37.109,37.109,29.297,35.645,127.930
1532510327.524,28.320,29.297,27.344,31.738,38.574
1532510327.528,27.832,34.668,24.902,33.203,-24.902
1532510327.532,29.785,31.738,28.320,29.785,34.668
1532510327.536,38.086,39.551,35.156,34.668,130.859
1532510327.540,42.480,49.316,38.574,46.387,26.367
1532510327.544,41.504,50.293,40.527,41.992,-115.723
1532510327.548,47.363,51.270,39.551,28.320,19.531
1532510327.552,51.270,36.621,38.086,26.367,52.734
1532510327.556,41.504,33.203,34.668,29.297,-31.250
1532510327.560,36.133,40.039,39.551,28.809,16.602
1532510327.564,41.016,41.992,48.828,35.645,23.926
1532510327.567,43.457,47.852,48.340,40.527,106.934
1532510327.571,55.176,52.734,53.711,48.340,114.258
1532510327.575,60.547,59.570,59.570,57.129,-0.488
1532510327.579,39.551,51.758,44.922,40.527,4.883
1532510327.583,35.645,39.062,42.480,31.738,112.305
1532510327.587,39.062,43.945,49.316,32.715,112.793
1532510327.591,36.621,45.898,46.875,23.438,-67.871
1532510327.595,25.879,34.668,44.922,17.090,-167.969
1532510327.599,22.461,41.016,42.969,23.438,14.648
1532510327.603,33.691,43.457,46.387,26.367,139.648
1532510327.607,34.180,28.320,50.293,30.273,77.637
1532510327.610,46.387,23.926,46.387,36.621,-21.973
1532510327.614,42.969,38.086,42.969,36.133,-5.371
1532510327.618,31.250,52.246,41.992,38.574,126.953
1532510327.622,50.781,48.828,41.504,36.621,140.625
1532510327.626,50.781,41.016,42.969,38.574,21.973
1532510327.630,49.316,49.316,55.664,50.293,-42.480
1532510327.634,44.922,51.758,54.688,40.039,5.371
1532510327.638,32.715,36.133,38.086,24.902,30.762
1532510327.642,33.691,27.344,29.785,29.297,-17.578
1532510327.646,42.480,25.391,34.668,29.785,22.461
1532510327.649,44.922,24.414,43.945,32.715,84.473
1532510327.653,35.645,33.691,42.969,28.320,6.836
1532510327.657,32.715,41.504,42.969,25.391,-21.973
1532510327.661,32.227,33.691,41.504,28.320,12.207
1532510327.665,32.227,25.391,40.527,30.762,70.312
1532510327.669,30.273,34.180,42.969,30.762,136.230
1532510327.673,29.785,46.875,44.434,31.250,85.938
1532510327.677,29.297,34.668,46.387,31.738,14.160
1532510327.681,30.762,23.438,45.410,25.879,1.953
1532510327.685,27.832,22.949,41.992,26.855,77.637
1532510327.689,26.367,17.090,35.645,28.809,102.539
1532510327.692,39.551,42.969,41.504,34.668,-111.328
1532510327.696,41.504,59.570,47.852,38.574,-131.836
1532510327.700,31.738,48.828,41.504,30.273,114.746
1532510327.704,28.809,44.434,41.504,28.809,150.391
1532510327.708,26.855,37.109,34.668,28.320,57.617
1532510327.712,28.320,24.414,37.109,27.344,-31.250
1532510327.716,38.086,28.320,42.969,32.227,59.082
1532510327.720,32.227,37.109,40.527,36.621,164.062
1532510327.724,31.250,31.250,40.039,40.527,43.945
1532510327.728,41.504,25.879,39.551,42.480,-45.410
1532510327.731,35.156,20.020,37.598,37.598,-104.492
1532510327.735,28.809,27.832,40.527,29.297,-63.477
1532510327.739,38.574,41.992,48.340,37.109,74.219
1532510327.743,33.203,34.180,41.016,30.762,39.551
1532510327.747,25.391,37.109,39.551,36.621,41.016
1532510327.751,29.297,42.969,47.852,52.246,86.426
1532510327.755,32.227,32.715,43.945,36.133,83.984
1532510327.759,28.809,16.602,41.016,23.438,20.020
1532510327.763,17.578,11.230,33.203,24.902,-17.090
1532510327.767,23.926,24.902,31.738,30.273,91.797
1532510327.771,29.297,31.738,36.133,28.809,111.328
1532510327.774,29.297,46.875,35.645,31.250,-33.691
1532510327.778,32.715,53.711,41.992,31.738,-97.656
1532510327.782,32.715,44.434,41.504,27.832,42.969
1532510327.786,36.133,36.133,37.109,36.621,161.621
1532510327.790,37.598,28.809,41.016,32.227,42.480
1532510327.794,30.273,30.762,39.551,16.113,-149.414
1532510327.798,24.902,29.297,39.551,21.484,-57.617
1532510327.802,30.273,36.133,40.527,25.879,125.000
1532510327.806,31.250,28.809,38.086,23.926,112.305
1532510327.810,35.645,35.156,49.316,35.156,-30.273
1532510327.814,34.668,53.711,52.734,40.527,-19.043
1532510327.817,33.691,36.621,38.574,35.156,128.906
1532510327.821,38.086,25.879,32.227,41.016,78.125
1532510327.825,35.645,21.484,33.691,47.852,-37.109
1532510327.829,31.738,21.484,39.062,41.504,-12.695
1532510327.833,28.809,38.086,39.062,32.227,-24.902
1532510327.837,37.109,47.363,35.156,32.715,34.668
1532510327.841,32.715,49.805,34.668,23.438,73.242
1532510327.845,21.973,40.039,38.086,20.020,-12.207
1532510327.849,26.855,33.203,38.086,28.320,54.688
1532510327.853,35.156,30.762,35.156,32.227,124.512
1532510327.856,41.992,32.715,42.480,37.109,61.523
1532510327.860,37.109,36.133,41.504,34.180,-20.508
1532510327.864,37.109,41.016,44.922,38.574,-6.348
1532510327.868,36.621,48.340,44.922,45.898,81.543
1532510327.872,27.344,40.527,36.621,28.809,-29.785
1532510327.876,23.438,36.133,35.645,13.672,-141.602
1532510327.880,24.902,42.480,29.785,19.043,-10.742
1532510327.884,35.645,45.410,32.227,27.344,122.070
1532510327.888,38.086,41.504,40.039,35.156,154.785
1532510327.892,35.156,32.715,32.227,29.785,25.391
1532510327.896,36.621,40.039,28.809,24.902,-10.254
1532510327.899,35.156,32.227,36.133,29.785,120.117
1532510327.903,31.250,6.836,36.621,31.738,162.109
1532510327.907,29.297,21.973,30.762,31.250,84.961
1532510327.911,31.738,55.176,30.273,23.438,-7.324
1532510327.915,32.715,54.199,32.227,20.020,8.789
1532510327.919,35.645,32.227,30.762,21.484,72.266
1532510327.923,41.992,28.809,31.250,27.344,15.137
1532510327.927,40.527,49.316,36.621,33.691,0.488
1532510327.931,37.598,49.316,43.945,28.809,0.488
1532510327.935,33.691,34.668,38.086,16.113,-21.484
1532510327.939,27.344,31.738,25.391,18.066,54.199
1532510327.942,29.297,29.785,22.949,26.855,38.574
1532510327.946,28.320,29.297,27.832,28.320,40.039
1532510327.950,25.391,35.645,30.273,27.832,91.309
1532510327.954,33.691,41.504,32.227,25.879,86.914
1532510327.958,33.691,41.016,31.250,20.996,36.133
1532510327.962,35.156,41.016,28.320,27.344,-62.988
1532510327.966,36.621,37.598,27.344,33.691,2.930
1532510327.970,32.227,35.156,32.227,30.762,102.539
1532510327.974,40.039,41.016,37.598,22.949,-72.266
1532510327.978,37.598,42.969,34.180,21.484,-110.840
1532510327.981,34.180,36.133,28.809,29.785,40.527
1532510327.985,41.016,33.691,26.855,34.180,145.020
1532510327.989,41.504,40.527,33.203,37.109,93.750
1532510327.993,36.133,38.574,35.156,36.133,-24.902
1532510327.997,32.227,24.414,28.809,32.715,6.348
1532510328.001,42.969,29.785,29.297,35.645,105.469
1532510328.005,44.434,43.457,38.574,39.551,118.652
1532510328.009,29.785,36.133,34.668,32.715,-8.301
1532510328.013,18.066,30.273,25.391,20.508,-130.371
1532510328.017,16.113,36.621,31.738,22.949,-16.113
1532510328.021,23.926,39.062,36.133,32.715,143.066
1532510328.024,26.855,39.062,34.180,29.785,53.711
1532510328.028,26.367,46.387,28.320,27.344,5.859
1532510328.032,26.855,41.992,22.949,27.832,42.480
1532510328.036,34.180,40.527,29.785,33.203,99.609
1532510328.040,36.621,41.016,33.203,33.691,65.430
1532510328.044,40.527,42.480,32.715,35.156,-15.625
1532510328.048,42.969,40.039,34.668,38.086,35.156
1532510328.052,31.738,30.762,30.762,35.156,99.121
1532510328.056,24.414,34.668,26.367,32.227,29.785
1532510328.060,22.949,37.109,26.367,32.227,-74.707
1532510328.063,30.762,36.621,29.297,31.738,-16.113
1532510328.067,39.062,51.758,36.133,33.203,150.391
1532510328.071,39.062,47.363,41.016,35.645,73.730
1532510328.075,31.738,36.133,33.691,22.949,-138.672
1532510328.079,30.273,34.180,25.879,17.578,-58.594
1532510328.083,39.551,23.926,25.391,25.879,94.727
1532510328.087,40.527,28.809,21.973,24.902,141.113
1532510328.091,28.320,34.180,22.949,17.578,9.766
1532510328.095,19.531,34.668,26.367,15.137,-63.965
1532510328.099,34.668,37.598,25.391,24.414,45.410
1532510328.103,44.922,39.551,28.809,31.250,67.871
1532510328.106,36.133,33.203,32.227,28.320,-19.531
1532510328.110,30.273,33.691,31.738,22.949,-87.402
1532510328.114,23.438,30.273,33.203,19.531,-120.117
1532510328.118,24.902,26.855,33.203,30.273,43.945
1532510328.122,23.926,39.062,26.855,27.344,97.168
1532510328.126,21.484,45.410,22.461,24.902,19.531
1532510328.130,29.785,34.668,24.902,26.367,24.414
1532510328.134,39.062,36.133,32.715,29.785,77.148
1532510328.138,40.039,47.363,33.203,27.832,119.141
1532510328.142,25.879,28.809,26.367,17.578,27.344
1532510328.146,18.066,22.949,22.461,18.555,8.789
1532510328.149,20.508,30.762,26.367,19.531,66.895
1532510328.153,24.902,30.273,32.227,26.367,-27.832
1532510328.157,29.297,39.551,28.320,24.414,-59.082
1532510328.161,33.203,45.898,23.926,21.484,8.301
1532510328.165,28.320,31.250,24.414,20.996,61.523
1532510328.169,24.902,13.672,21.484,17.090,97.168
1532510328.173,28.809,30.762,21.484,22.949,44.434
1532510328.177,26.855,33.691,26.367,26.855,16.602
1532510328.181,28.809,25.879,29.297,32.227,46.875
1532510328.185,44.434,38.574,31.738,41.992,130.371
1532510328.188,45.898,38.086,28.320,33.691,105.957
1532510328.192,29.297,38.086,28.320,28.320,-45.410
1532510328.196,28.809,37.109,29.785,35.645,-77.148
1532510328.200,36.133,37.109,30.762,32.227,45.410
1532510328.204,35.156,35.156,28.809,25.391,98.145
1532510328.208,37.109,34.668,32.227,33.691,62.500
1532510328.212,43.457,42.969,34.668,34.668,-113.770
1532510328.216,30.762,33.203,19.531,17.578,-94.727
1532510328.220,28.809,29.785,16.602,20.020,126.465
1532510328.224,20.508,31.738,23.926,22.461,90.332
1532510328.228,22.461,23.438,25.879,29.297,-9.766
1532510328.231,34.668,13.184,22.949,40.039,9.766
1532510328.235,27.832,18.066,22.949,29.297,114.746
1532510328.239,24.414,37.109,27.832,29.297,83.984
1532510328.243,26.855,41.992,29.297,31.738,-41.992
1532510328.247,26.367,34.180,25.391,24.902,-31.250
1532510328.251,30.762,32.715,22.949,20.996,39.551
1532510328.255,30.762,41.016,26.367,28.809,9.766
1532510328.259,28.809,42.480,25.879,33.203,-10.742
1532510328.263,26.367,35.156,17.578,19.043,0.488
1532510328.267,29.785,25.879,21.484,27.344,116.699
1532510328.271,37.598,30.762,36.621,32.227,104.980
1532510328.274,19.531,32.715,30.762,15.625,-79.102
1532510328.278,18.555,31.738,22.461,16.602,-54.688
1532510328.282,27.344,33.203,22.461,12.695,71.289
1532510328.286,25.391,30.273,11.719,6.348,104.004
1532510328.290,40.039,42.969,5.859,20.996,-20.020
1532510328.294,45.898,50.293,21.484,37.598,-177.734
1532510328.298,32.227,34.668,35.156,35.645,-38.574
1532510328.302,22.461,29.785,34.668,29.297,166.992
1532510328.306,22.949,33.691,34.668,27.832,142.578
1532510328.310,23.926,29.297,31.250,28.809,12.695
1532510328.313,28.809,24.414,31.738,27.832,-16.602
1532510328.317,29.297,26.855,37.598,23.926,106.445
1532510328.321,26.367,21.973,40.527,17.578,119.141
1532510328.325,26.367,19.043,40.039,7.324,25.879
1532510328.329,29.297,21.484,37.598,10.742,-12.207
1532510328.333,22.949,20.996,44.434,21.973,34.668
1532510328.337,4.395,17.578,52.734,20.996,46.387
1532510328.341,0.000,10.742,52.734,22.461,-19.043
1532510328.345,-4.883,10.742,57.617,29.297,-26.367
1532510328.349,-9.766,11.230,62.988,35.156,65.918
1532510328.353,-17.090,9.766,56.641,27.344,17.578
1532510328.356,-15.137,14.160,60.547,33.203,-71.289
1532510328.360,-11.719,10.254,63.965,48.340,-20.508
1532510328.364,-20.508,-3.418,58.105,48.340,52.734
1532510328.368,-14.160,-12.695,60.547,49.316,166.992
1532510328.372,-6.348,-12.695,59.570,45.898,93.750
1532510328.376,-7.812,-9.277,57.129,45.898,-21.484
1532510328.380,7.812,-4.395,50.293,58.594,3.418
1532510328.384,11.230,-2.930,45.410,67.871,63.965
1532510328.388,9.277,-11.230,42.969,59.082,63.477
1532510328.392,12.207,-15.625,42.969,60.059,-31.738
1532510328.395,9.277,-19.531,42.480,75.195,-4.883
1532510328.399,10.742,-16.113,40.527,64.453,102.539
1532510328.403,8.789,-8.789,37.598,53.711,98.145
1532510328.407,12.207,-7.812,36.621,51.758,49.316
1532510328.411,20.996,-7.324,36.133,41.504,-103.027
1532510328.415,24.414,-9.277,35.156,43.945,-83.496
1532510328.419,28.809,-5.859,32.715,53.223,124.512
1532510328.423,29.297,-1.465,27.344,49.805,85.449
1532510328.427,29.297,-0.977,24.902,52.734,23.926
1532510328.431,31.738,5.859,22.461,60.059,-19.043
1532510328.435,43.457,8.301,20.996,63.477,18.066
1532510328.438,49.316,6.348,20.996,66.895,92.285
1532510328.442,36.621,1.953,14.648,61.035,7.324
1532510328.446,41.992,4.883,18.555,55.176,35.645
1532510328.450,48.828,17.578,30.273,58.594,70.801
1532510328.454,37.109,12.207,18.555,46.875,26.855
1532510328.458,30.762,5.859,9.766,38.086,20.508
1532510328.462,32.715,15.625,11.230,41.016,14.160
1532510328.466,30.762,10.254,10.742,40.039,110.352
1532510328.470,24.902,-0.488,12.207,36.621,126.465
1532510328.474,29.785,5.371,16.113,39.551,25.391
1532510328.478,39.551,16.602,20.020,47.852,-48.828
1532510328.481,42.480,20.996,15.625,45.410,-62.012
1532510328.485,38.574,19.043,10.742,33.203,85.938
1532510328.489,40.039,18.066,5.859,31.738,106.445
1532510328.493,44.434,19.531,4.395,34.668,-139.160
1532510328.497,43.457,26.367,7.812,33.203,-135.742
1532510328.501,41.992,31.738,7.324,33.203,100.098
1532510328.505,40.039,26.855,7.324,38.086,127.930
1532510328.509,41.016,23.926,4.883,45.898,13.184
1532510328.513,36.133,17.090,2.441,36.621,-9.277
1532510328.517,39.551,20.508,9.277,29.297,123.535
1532510328.520,35.645,31.738,19.043,37.598,166.016
1532510328.524,26.855,20.996,9.766,33.203,-13.672
1532510328.528,28.320,15.625,-0.977,31.250,-75.195
1532510328.532,30.762,21.973,-5.859,22.461,-56.152
1532510328.536,34.180,24.902,-3.906,18.555,-35.156
1532510328.540,36.133,23.926,8.789,35.156,44.922
1532510328.544,23.926,27.344,11.230,30.762,6.836
1532510328.548,22.949,23.926,8.789,27.344,62.988
1532510328.552,35.156,20.020,5.371,24.414,126.465
1532510328.556,34.180,22.461,3.418,16.113,83.984
1532510328.560,32.715,20.508,-0.488,20.996,13.672
1532510328.563,30.273,15.625,-1.953,24.414,39.062
1532510328.567,34.668,19.531,0.488,23.926,131.348
1532510328.571,35.645,30.762,-1.465,18.066,55.176
1532510328.575,24.414,33.203,-1.953,14.648,-63.477
1532510328.579,27.344,28.809,0.977,20.508,-32.227
1532510328.583,32.227,21.973,6.836,28.320,76.660
1532510328.587,35.156,18.555,9.766,25.879,134.277
1532510328.591,35.645,18.555,9.766,14.648,-36.621
1532510328.595,37.598,29.785,14.160,17.578,-142.578
1532510328.599,39.551,40.039,22.949,32.715,41.016
1532510328.603,33.691,37.109,17.090,25.879,134.277
1532510328.606,32.715,33.691,8.301,20.020,71.777
1532510328.610,30.273,23.438,1.465,20.020,-56.152
1532510328.614,29.297,22.949,-1.953,24.902,-10.742
1532510328.618,28.320,25.391,2.930,26.367,95.215
1532510328.622,33.691,20.508,0.977,22.949,40.527
1532510328.626,32.227,25.391,-0.488,30.762,11.230
1532510328.630,26.367,24.902,9.766,21.973,21.973
1532510328.634,22.461,19.531,19.531,17.090,-40.527
1532510328.638,17.578,16.602,22.949,27.832,17.090
1532510328.642,23.438,17.578,16.602,31.250,22.949
1532510328.645,27.832,26.855,10.254,37.598,-15.625
1532510328.649,25.391,20.996,12.695,29.785,60.059
1532510328.653,21.484,5.859,11.230,16.602,87.891
1532510328.657,35.645,23.438,15.625,26.367,38.086
1532510328.661,32.227,36.133,16.602,33.203,3.906
1532510328.665,19.531,34.668,9.277,24.902,28.320
1532510328.669,28.809,41.504,15.625,26.367,59.082
1532510328.673,39.062,43.457,19.043,24.414,-93.750
1532510328.677,27.832,32.715,9.277,14.160,-141.113
1532510328.681,24.414,22.461,9.277,18.555,38.086
1532510328.685,32.227,20.508,14.648,27.832,167.480
1532510328.688,36.133,30.762,14.160,34.668,170.410
1532510328.692,35.645,36.133,10.742,43.457,-2.441
1532510328.696,38.086,30.273,11.230,39.062,-21.973
1532510328.700,43.457,25.391,12.695,33.691,101.562
1532510328.704,33.691,18.555,18.066,40.527,126.465
1532510328.708,30.762,27.344,20.508,26.855,17.578
1532510328.712,29.297,42.969,17.090,18.066,-109.375
1532510328.716,24.414,35.156,17.090,26.367,-2.930
1532510328.720,31.738,31.250,18.555,28.809,150.391
1532510328.724,41.504,42.480,20.508,22.949,79.590
1532510328.728,40.039,34.180,18.555,21.973,17.090
1532510328.731,34.180,25.879,14.160,18.555,-8.301
1532510328.735,37.109,29.297,17.090,16.113,50.293
1532510328.739,38.086,31.250,18.555,24.414,88.379
1532510328.743,37.109,31.738,16.602,27.832,9.766
1532510328.747,39.062,21.973,17.090,24.414,48.340
1532510328.751,44.434,17.578,15.137,24.902,99.609
1532510328.755,47.363,19.531,21.973,33.691,113.281
1532510328.759,34.668,21.484,20.508,31.250,0.000
1532510328.763,24.902,32.227,10.742,26.367,-81.055
1532510328.767,24.902,37.598,11.230,20.508,87.891
1532510328.770,29.785,36.621,11.719,17.090,93.750
1532510328.774,40.527,34.668,17.090,17.090,-120.605
1532510328.778,37.109,28.809,20.508,23.926,-72.754
1532510328.782,36.621,31.250,21.973,35.156,95.703
1532510328.786,45.410,35.645,24.414,41.504,179.199
1532510328.790,41.016,32.227,21.484,41.504,83.496
1532510328.794,41.016,28.809,19.531,32.715,-48.340
1532510328.798,45.410,26.367,19.531,25.879,30.762
1532510328.802,36.133,27.832,17.578,22.949,123.535
1532510328.806,32.715,31.738,16.602,21.973,55.664
1532510328.810,33.203,27.832,17.578,25.391,-82.031
1532510328.813,29.297,32.227,18.066,26.367,-179.688
1532510328.817,24.902,33.691,18.555,18.066,-12.207
1532510328.821,33.203,26.367,13.672,22.949,141.113
1532510328.825,43.945,35.156,12.207,25.391,33.203
1532510328.829,38.574,40.527,18.555,26.367,-13.184
1532510328.833,41.504,45.898,28.320,33.203,26.855
1532510328.837,39.551,48.828,28.809,29.785,112.305
1532510328.841,27.344,42.480,19.531,17.578,74.219
1532510328.845,24.414,30.273,19.531,17.090,-16.113
1532510328.849,19.531,24.902,19.531,20.020,31.738
1532510328.852,21.973,29.297,19.531,18.066,65.430
1532510328.856,28.320,31.738,18.555,21.973,-20.020
1532510328.860,29.297,31.250,17.578,22.461,-51.270
1532510328.864,36.133,28.320,11.719,18.555,15.625
1532510328.868,33.691,37.109,8.301,26.855,133.301
1532510328.872,27.832,40.527,19.531,21.973,-0.977
1532510328.876,22.949,22.949,20.020,13.184,-169.434
1532510328.880,26.367,18.555,15.137,21.484,-18.555
1532510328.884,29.785,34.668,14.648,16.113,106.934
1532510328.888,31.738,33.203,19.043,16.113,136.230
1532510328.892,30.762,21.484,25.879,25.879,21.484
1532510328.895,30.762,29.297,23.926,22.949,-29.297
1532510328.899,33.203,37.109,22.949,25.391,11.230
1532510328.903,33.203,28.809,23.438,29.785,56.152
1532510328.907,32.227,25.879,18.066,20.996,60.547
1532510328.911,41.016,39.062,20.996,25.879,-102.051
1532510328.915,34.668,43.945,20.996,33.203,-111.816
1532510328.919,22.949,29.785,12.695,24.902,83.984
1532510328.923,27.344,17.090,15.625,25.391,58.594
1532510328.927,24.902,12.207,12.207,22.461,-14.648
1532510328.931,21.484,20.508,8.301,15.625,2.930
1532510328.935,22.949,22.461,9.277,17.578,64.453
1532510328.938,25.879,25.391,14.648,21.484,103.027
1532510328.942,26.367,31.250,18.066,21.484,30.762
1532510328.946,21.973,29.785,15.625,15.625,0.000
1532510328.950,19.043,26.367,15.137,17.090,14.648
1532510328.954,19.043,19.043,13.672,19.531,-16.602
1532510328.958,27.344,15.625,15.137,16.602,-23.926
1532510328.962,38.574,10.254,16.602,17.090,-1.465
1532510328.966,42.969,7.812,15.137,21.484,76.172
1532510328.970,29.297,17.578,10.742,24.414,129.395
1532510328.974,18.555,28.809,4.395,19.043,49.805
1532510328.977,29.785,40.039,17.090,24.414,6.836
1532510328.981,29.785,33.691,26.855,28.809,57.129
1532510328.985,15.625,18.555,14.648,14.160,145.020
1532510328.989,5.859,17.578,11.719,10.254,101.562
1532510328.993,8.789,19.043,19.531,14.648,-59.570
1532510328.997,17.090,17.578,20.996,19.043,-60.059
1532510329.001,20.020,10.742,19.531,25.879,88.379
1532510329.005,24.414,9.277,22.461,20.996,124.512
1532510329.009,20.996,17.090,21.973,13.184,32.227
1532510329.013,16.602,9.766,19.043,5.859,-117.188
1532510329.017,11.719,0.488,20.020,7.812,-45.410
1532510329.020,12.695,13.184,19.531,15.137,129.395
1532510329.024,13.184,21.973,20.020,5.371,34.668
1532510329.028,6.836,22.949,19.043,4.883,-20.508
1532510329.032,14.648,24.902,20.996,18.555,-5.859
1532510329.036,28.320,32.227,30.273,27.344,80.078
1532510329.040,21.973,30.273,23.926,20.020,26.855
1532510329.044,5.371,15.137,10.254,2.930,-97.168
1532510329.048,4.395,13.184,14.160,-5.371,32.715
1532510329.052,6.836,20.996,16.113,1.465,47.852
1532510329.056,9.766,19.043,15.137,7.324,-59.082
1532510329.060,20.508,14.648,20.508,6.348,-15.625
1532510329.063,26.855,7.812,18.066,4.395,23.926
1532510329.067,24.902,3.418,16.602,18.066,130.859
1532510329.071,21.973,17.578,20.508,19.531,130.859
1532510329.075,23.926,27.832,18.066,6.836,19.043
1532510329.079,22.461,31.738,20.020,11.230,16.113
1532510329.083,15.137,23.926,23.438,14.648,98.145
1532510329.087,26.855,10.742,30.273,20.508,112.793
1532510329.091,30.273,14.648,34.668,21.484,-58.105
1532510329.095,24.414,18.066,28.809,1.465,-180.176
1532510329.099,21.484,10.742,21.973,-0.977,-8.789
1532510329.102,24.902,15.137,24.414,18.555,151.855
1532510329.106,19.531,20.996,20.508,11.230,113.770
1532510329.110,12.207,18.066,18.555,0.977,-25.879
1532510329.114,13.184,12.695,15.625,7.812,-0.977
1532510329.118,7.324,4.883,8.789,-2.930,141.602
1532510329.122,4.883,15.625,17.578,-5.371,120.117
1532510329.126,11.230,23.926,22.949,1.953,37.109
1532510329.130,26.367,18.066,22.461,8.301,-13.184
1532510329.134,34.180,18.066,24.902,14.648,-4.395
1532510329.138,21.973,22.949,20.996,10.742,43.457
1532510329.142,19.043,21.973,14.648,8.789,8.789
1532510329.145,23.438,16.113,14.160,16.602,13.184
1532510329.149,21.484,13.184,20.508,19.531,111.816
1532510329.153,22.461,14.160,22.949,11.719,53.711
1532510329.157,29.297,19.043,25.879,19.531,-21.973
1532510329.161,27.344,17.578,22.461,26.855,9.766
1532510329.165,39.062,14.648,18.555,24.902,67.383
1532510329.169,44.434,18.555,29.785,30.273,152.832
1532510329.173,21.484,20.020,29.785,23.438,68.848
1532510329.177,13.672,25.391,21.973,13.184,-28.320
1532510329.181,21.973,19.043,17.578,21.484,-49.316
1532510329.184,26.855,12.695,20.020,25.879,21.484
1532510329.188,31.250,17.578,24.414,20.996,113.281
1532510329.192,32.715,10.254,21.973,14.648,-79.590
1532510329.196,34.668,12.695,26.855,14.648,-133.789
1532510329.200,41.504,16.113,30.762,25.391,77.637
1532510329.204,36.133,11.230,27.344,20.996,134.766
1532510329.208,26.367,19.531,32.227,18.555,48.340
1532510329.212,20.020,23.438,33.203,20.996,-15.137
1532510329.216,16.113,16.113,28.320,18.555,58.105
1532510329.220,15.625,9.766,24.414,14.160,139.648
1532510329.224,14.648,4.395,24.414,9.766,85.938
1532510329.227,16.602,12.695,26.367,18.555,-24.902
1532510329.231,18.555,20.020,24.414,23.438,-76.660
1532510329.235,27.344,28.320,36.133,30.762,2.930
1532510329.239,27.832,22.949,39.551,26.855,90.332
1532510329.243,16.602,12.695,27.344,7.812,21.973
1532510329.247,22.461,16.113,26.367,5.371,19.531
1532510329.251,30.273,16.602,25.879,11.230,73.730
1532510329.255,28.320,20.508,20.996,8.789,93.750
1532510329.259,36.621,21.484,21.973,7.324,13.184
1532510329.263,45.898,17.578,26.367,2.441,-23.926
1532510329.267,55.664,16.113,25.391,-2.441,97.168
1532510329.270,52.734,18.066,24.414,0.000,123.535
1532510329.274,29.785,19.531,26.855,5.371,-30.762
1532510329.278,32.715,15.625,25.391,13.672,-88.379
1532510329.282,28.320,4.883,19.531,14.160,31.738
1532510329.286,10.742,10.254,25.391,13.184,166.504
1532510329.290,12.207,19.531,33.691,19.043,72.266
1532510329.294,16.602,20.020,32.715,15.625,-162.598
1532510329.298,10.742,20.020,28.320,18.555,-60.059
1532510329.302,13.184,13.184,26.855,29.785,131.836
1532510329.306,26.855,29.785,37.598,40.039,130.859
1532510329.309,18.066,31.250,33.691,37.598,-6.836
1532510329.313,9.277,16.602,18.555,24.902,-36.133
1532510329.317,3.418,10.742,22.461,26.855,110.840
1532510329.321,0.000,7.812,31.738,43.945,87.402
1532510329.325,16.602,14.648,32.227,38.086,-53.711
1532510329.329,10.742,20.996,26.855,12.207,-76.172
1532510329.333,12.207,14.648,24.414,7.812,-76.172
1532510329.337,29.785,11.719,21.484,18.555,26.855
1532510329.341,27.344,23.926,20.996,17.578,76.172
1532510329.345,19.043,26.367,20.020,8.301,-20.020
1532510329.349,17.090,22.461,15.137,10.254,40.527
1532510329.352,16.113,21.973,15.625,11.230,106.445
1532510329.356,16.113,25.391,22.461,12.207,62.012
1532510329.360,20.020,19.531,28.809,18.555,-1.465
1532510329.364,25.391,5.859,28.320,24.902,13.672
1532510329.368,25.879,13.184,27.832,29.297,83.008
1532510329.372,28.809,35.645,34.668,20.508,-27.344
1532510329.376,29.785,28.320,25.391,6.348,-139.160
1532510329.380,24.414,17.090,23.926,12.695,11.719
1532510329.384,22.461,20.508,25.879,21.484,145.508
1532510329.388,20.508,16.602,17.578,22.949,148.438
1532510329.392,13.672,17.578,17.578,13.672,29.297
1532510329.395,9.766,13.184,15.625,9.277,-34.668
1532510329.399,13.184,7.812,11.719,13.184,67.383
1532510329.403,13.184,16.113,14.160,8.301,148.926
1532510329.407,10.742,22.461,8.789,2.930,85.938
1532510329.411,9.277,25.879,3.906,4.395,-41.504
1532510329.415,6.836,19.531,8.789,11.230,-33.691
1532510329.419,9.766,16.113,5.859,15.625,63.965
1532510329.423,13.672,18.066,4.883,11.230,31.250
1532510329.427,23.926,17.578,15.137,12.695,-7.324
1532510329.431,31.250,24.414,22.949,24.414,-19.043
1532510329.434,34.180,34.180,24.414,36.621,47.363
1532510329.438,33.203,32.715,15.625,26.855,126.465
1532510329.442,23.926,21.973,10.742,17.578,13.672
1532510329.446,15.625,15.137,19.043,17.578,-3.418
1532510329.450,11.719,14.648,19.531,4.883,44.922
1532510329.454,20.020,26.367,20.508,3.906,-7.324
1532510329.458,30.762,27.832,23.438,15.137,0.488
1532510329.462,28.809,18.066,20.996,20.020,-63.965
1532510329.466,29.785,20.996,22.949,22.949,-25.391
1532510329.470,37.109,25.879,26.367,17.578,100.586
1532510329.474,29.297,20.508,25.879,14.648,-73.730
1532510329.477,32.715,10.742,22.949,23.438,-118.164
1532510329.481,33.203,21.484,18.066,30.273,55.664
1532510329.485,25.879,29.785,21.973,32.227,158.203
1532510329.489,35.156,26.367,29.297,27.344,122.559
1532510329.493,28.809,25.391,22.949,19.531,-8.301
1532510329.497,25.391,27.832,25.391,24.902,25.879
