timestamps,TP9,AF7,AF8,TP10,Right AUX
1532511143.925,15.625,16.602,38.086,15.625,-411.133
1532511143.929,35.156,29.297,32.227,27.344,-247.070
1532511143.933,39.551,40.039,35.645,45.898,-238.281
1532511143.937,24.902,35.156,36.133,28.320,-66.406
1532511143.941,55.664,38.574,29.297,14.160,-120.117
1532511143.945,20.996,37.109,34.668,46.875,94.238
1532511143.948,0.488,22.949,50.293,65.918,118.652
1532511143.952,4.395,23.438,44.434,33.691,-431.641
1532511143.956,33.203,27.832,36.621,27.832,331.055
1532511143.960,20.020,28.809,49.316,48.340,652.344
1532511143.964,29.297,27.344,39.551,45.410,-322.754
1532511143.968,32.715,22.949,33.691,26.855,-437.500
1532511143.972,26.367,28.320,36.621,38.574,-360.352
1532511143.976,28.320,35.156,33.203,42.480,-3.418
1532511143.980,45.898,30.273,34.180,42.969,18.066
1532511143.984,59.082,24.902,36.133,42.480,-340.332
1532511143.988,7.324,22.461,43.457,39.062,-267.090
1532511143.991,16.602,30.762,47.363,51.270,-16.602
1532511143.995,9.277,26.855,50.781,41.504,571.289
1532511143.999,19.043,22.461,49.316,19.531,832.031
1532511144.003,63.965,34.668,43.457,34.668,-162.598
1532511144.007,31.250,28.320,46.875,45.898,-481.445
1532511144.011,16.602,35.645,45.898,17.578,-344.727
1532511144.015,36.621,35.156,43.457,35.156,116.211
1532511144.019,45.410,31.738,43.457,39.551,220.215
1532511144.023,27.344,31.250,48.340,49.316,-358.887
1532511144.027,-6.348,19.043,46.387,33.691,-178.711
1532511144.030,26.855,29.297,55.176,19.531,-248.535
1532511144.034,61.523,33.691,53.711,53.711,-22.461
1532511144.038,47.363,35.645,42.969,44.922,376.953
1532511144.042,9.766,41.016,45.410,24.414,2.930
1532511144.046,29.297,34.180,51.758,40.039,-177.246
1532511144.050,44.922,29.297,54.688,36.133,-334.961
1532511144.054,20.996,31.738,39.551,9.277,-166.992
1532511144.058,37.109,27.344,49.316,24.414,755.371
1532511144.062,40.527,25.879,51.270,68.359,283.691
1532511144.066,-35.645,25.391,50.293,65.918,-449.707
1532511144.070,10.742,33.203,49.805,17.090,-400.391
1532511144.073,86.426,41.504,43.945,36.133,-187.500
1532511144.077,46.875,34.180,51.758,60.059,136.719
1532511144.081,30.762,33.691,50.781,41.504,-157.227
1532511144.085,17.090,29.297,47.363,19.043,-84.473
1532511144.089,40.039,30.762,48.828,38.086,-17.090
1532511144.093,37.598,38.574,53.223,61.035,-283.691
1532511144.097,21.973,34.668,50.293,16.113,558.105
1532511144.101,52.734,33.203,52.246,33.691,456.055
1532511144.105,49.316,35.645,46.875,67.871,-516.113
1532511144.109,8.789,19.043,50.781,31.738,-332.520
1532511144.113,30.273,21.484,51.270,36.621,-217.285
1532511144.116,66.895,45.898,45.898,48.828,-83.984
1532511144.120,27.832,37.109,47.363,5.859,-195.312
1532511144.124,11.719,28.809,49.316,5.859,-314.453
1532511144.128,31.738,31.250,39.551,45.410,-8.789
1532511144.132,-11.719,22.461,44.434,24.902,-22.949
1532511144.136,12.695,22.461,49.805,34.668,476.562
1532511144.140,81.055,42.480,41.504,62.988,629.395
1532511144.144,26.367,37.109,43.945,7.812,-286.133
1532511144.148,29.297,36.621,37.109,-4.395,-390.137
1532511144.152,54.688,46.875,42.480,66.895,-409.668
1532511144.155,18.555,35.645,42.969,41.016,-91.797
1532511144.159,16.113,24.902,42.969,21.973,35.645
1532511144.163,35.645,28.809,43.457,58.105,-250.000
1532511144.167,36.621,24.902,41.016,56.641,-270.508
1532511144.171,30.762,21.973,38.086,29.785,-353.027
1532511144.175,-0.488,21.973,32.715,27.832,93.750
1532511144.179,-20.020,22.461,28.320,43.457,410.156
1532511144.183,-1.465,33.691,26.367,32.227,85.938
1532511144.187,36.133,32.227,29.785,1.465,-151.367
1532511144.191,40.527,20.020,29.297,41.016,-400.879
1532511144.195,25.391,14.160,39.551,91.309,169.922
1532511144.198,31.738,33.203,29.785,25.391,834.473
1532511144.202,9.766,32.227,26.367,25.879,-69.336
1532511144.206,15.137,21.973,31.738,53.711,-474.121
1532511144.210,20.996,22.949,23.926,30.762,-291.504
1532511144.214,10.254,18.066,29.785,39.062,-7.812
1532511144.218,18.555,28.320,30.762,17.090,113.281
1532511144.222,26.367,24.902,25.391,15.625,-312.012
1532511144.226,34.668,19.531,26.367,37.109,85.449
1532511144.230,12.695,16.602,24.902,61.523,48.828
1532511144.234,11.719,16.602,22.949,7.812,-277.832
1532511144.238,24.414,23.438,24.902,-12.207,632.812
1532511144.241,30.273,11.719,33.203,79.590,359.375
1532511144.245,36.621,18.555,25.391,45.410,-410.645
1532511144.249,27.832,30.762,21.973,28.809,-355.469
1532511144.253,-3.418,22.949,22.461,34.668,-321.289
1532511144.257,25.391,16.602,24.414,-16.602,4.395
1532511144.261,53.223,21.973,27.344,34.180,-77.637
1532511144.265,36.621,26.855,22.461,53.223,-261.230
1532511144.269,40.527,25.391,20.508,5.859,-270.020
1532511144.273,28.320,25.391,15.137,24.414,-74.219
1532511144.277,39.551,27.344,13.184,30.273,682.617
1532511144.280,75.195,25.391,23.926,35.156,505.859
1532511144.284,46.875,32.715,16.602,16.602,-465.332
1532511144.288,22.949,30.762,9.766,-21.484,-443.848
1532511144.292,25.391,24.902,15.625,21.973,-250.000
1532511144.296,38.574,24.902,16.113,45.410,7.324
1532511144.300,71.777,21.973,13.672,27.832,-136.230
1532511144.304,33.691,12.207,17.090,32.715,-378.906
1532511144.308,-20.508,11.230,26.367,3.418,-205.566
1532511144.312,10.254,16.602,27.344,24.902,-166.016
1532511144.316,24.414,15.137,31.738,47.363,51.758
1532511144.320,17.090,18.066,28.320,33.691,166.016
1532511144.323,12.207,24.414,16.113,46.875,68.359
1532511144.327,-32.715,-2.441,24.902,40.527,94.238
1532511144.331,6.348,11.719,22.949,19.531,-304.688
1532511144.335,61.523,26.855,16.602,20.020,201.172
1532511144.339,53.711,10.742,20.996,32.715,763.672
1532511144.343,24.902,21.484,17.090,3.906,-103.516
1532511144.347,-14.648,13.672,11.719,3.906,-345.215
1532511144.351,15.137,6.348,24.902,52.734,-386.230
1532511144.355,47.363,16.602,20.020,40.527,-37.109
1532511144.359,40.527,24.414,7.324,23.438,202.148
1532511144.363,12.695,17.090,15.625,18.066,-210.449
1532511144.366,41.016,13.184,12.695,18.066,50.781
1532511144.370,43.457,17.090,20.996,38.574,-121.094
1532511144.374,-28.320,10.742,17.090,9.277,-45.898
1532511144.378,14.160,12.207,10.742,23.926,824.219
1532511144.382,58.105,21.484,15.137,41.016,95.215
1532511144.386,17.578,21.484,13.184,28.320,-555.176
1532511144.390,40.039,26.855,20.996,42.969,-391.602
1532511144.394,16.113,16.602,23.438,63.965,-66.406
1532511144.398,-15.625,11.230,14.160,37.109,163.574
1532511144.402,17.090,16.113,17.578,11.719,-278.320
1532511144.405,11.719,20.996,16.113,16.113,-327.637
1532511144.409,12.207,19.531,11.230,23.438,-145.020
1532511144.413,56.641,10.254,22.461,70.801,58.105
1532511144.417,29.785,23.926,15.137,18.066,736.328
1532511144.421,15.137,29.297,4.883,-31.250,363.281
1532511144.425,17.578,11.230,22.461,59.082,-426.270
1532511144.429,44.922,16.602,15.137,69.824,-287.598
1532511144.433,43.457,30.273,3.906,42.969,-296.387
1532511144.437,3.418,15.625,11.719,46.875,-108.398
1532511144.441,29.297,11.719,15.137,49.316,-145.508
1532511144.445,57.617,32.715,6.348,33.691,-210.938
1532511144.448,47.363,27.832,1.953,14.160,-205.566
1532511144.452,27.832,21.973,8.301,20.020,-321.289
1532511144.456,4.395,20.020,5.859,25.391,-48.340
1532511144.460,-20.508,14.160,0.977,-11.230,279.297
1532511144.464,28.320,19.043,6.836,11.719,113.281
1532511144.468,56.152,28.809,6.348,42.480,-232.422
1532511144.472,2.441,20.020,10.254,18.066,-425.293
1532511144.476,15.625,13.672,5.859,20.020,376.953
1532511144.480,8.301,20.508,-4.395,20.020,689.941
1532511144.484,12.207,14.648,2.441,56.152,-304.199
1532511144.487,44.434,21.484,5.371,52.734,-442.383
1532511144.491,20.996,26.855,-4.395,-4.883,-289.062
1532511144.495,25.391,17.090,-5.371,-20.508,122.070
1532511144.499,22.949,22.461,8.301,24.414,46.387
1532511144.503,19.531,24.414,8.301,35.156,-376.953
1532511144.507,29.297,26.367,-1.465,12.207,91.309
1532511144.511,-4.883,17.578,0.488,4.883,17.578
1532511144.515,9.277,10.742,12.695,13.672,216.797
1532511144.519,50.293,20.020,0.977,19.043,770.996
1532511144.523,20.508,11.230,0.000,27.832,-115.723
1532511144.527,29.297,13.184,4.883,35.645,-378.906
1532511144.530,26.367,11.719,5.859,46.875,-313.965
1532511144.534,4.883,19.043,-1.465,13.184,-65.430
1532511144.538,18.066,22.461,-5.371,14.160,139.160
1532511144.542,24.414,13.672,6.348,13.184,-218.750
1532511144.546,25.879,24.414,-7.812,-26.367,-187.988
1532511144.550,28.320,20.508,-8.301,24.902,-170.410
1532511144.554,29.785,10.742,7.812,33.691,75.684
1532511144.558,-4.883,7.324,13.184,19.531,771.484
1532511144.562,31.250,21.973,9.277,54.688,247.070
1532511144.566,64.453,25.391,3.418,44.434,-500.000
1532511144.570,-20.996,11.230,9.766,19.043,-448.242
1532511144.573,-54.688,-0.977,16.113,26.367,-244.141
1532511144.577,32.227,13.672,2.441,7.812,104.980
1532511144.581,65.430,29.297,1.465,-4.395,-156.738
1532511144.585,50.293,19.043,20.508,58.105,-352.051
1532511144.589,35.645,16.602,22.949,50.293,-284.668
1532511144.593,18.066,22.461,11.719,28.320,-153.320
1532511144.597,22.949,29.297,3.906,39.062,98.633
1532511144.601,27.832,32.715,13.184,21.484,89.355
1532511144.605,4.395,25.879,12.695,7.812,-107.910
1532511144.609,16.602,19.043,12.207,36.621,-156.738
1532511144.612,62.500,21.484,19.531,81.543,-256.836
1532511144.616,39.551,25.391,18.066,55.176,435.059
1532511144.620,-40.039,9.277,25.391,12.207,505.859
1532511144.624,-0.488,16.602,18.555,-33.203,-339.844
1532511144.628,78.613,32.227,7.324,5.371,-216.797
1532511144.632,39.062,22.461,16.113,68.359,-283.203
1532511144.636,-19.531,20.020,25.879,42.480,31.250
1532511144.640,31.250,26.367,17.090,26.855,66.406
1532511144.644,23.438,17.090,16.113,17.090,-226.562
1532511144.648,39.062,11.719,20.996,28.809,111.328
1532511144.652,47.852,27.832,10.254,33.691,-178.223
1532511144.655,26.855,30.762,10.254,32.227,222.656
1532511144.659,18.066,16.602,20.996,23.438,744.141
1532511144.663,4.395,13.184,25.391,40.527,-186.035
1532511144.667,-23.438,19.043,16.602,49.316,-448.730
1532511144.671,5.859,20.508,9.277,-3.906,-396.973
1532511144.675,62.500,27.344,16.602,20.996,51.758
1532511144.679,20.996,29.785,23.926,36.133,176.270
1532511144.683,0.977,24.902,16.602,0.488,-292.480
1532511144.687,34.668,13.672,12.207,22.461,-280.273
1532511144.691,60.059,13.672,21.484,57.129,-281.738
1532511144.695,51.758,20.996,21.973,31.738,306.152
1532511144.698,13.184,11.719,22.461,11.230,854.004
1532511144.702,-35.645,6.348,24.902,7.324,-65.918
1532511144.706,10.254,10.742,18.066,35.156,-456.055
1532511144.710,63.965,27.832,11.230,52.246,-277.344
1532511144.714,28.320,31.738,10.742,20.996,-17.578
1532511144.718,-4.883,15.137,15.625,27.832,109.375
1532511144.722,27.344,20.020,19.043,49.805,-305.664
1532511144.726,42.969,28.320,9.277,-0.977,-204.102
1532511144.730,-29.297,16.602,0.000,-36.133,-178.223
1532511144.734,-23.438,11.230,14.648,35.156,-124.512
1532511144.737,40.039,15.137,19.043,42.480,98.145
1532511144.741,24.902,12.207,19.531,26.367,101.562
1532511144.745,-20.996,10.742,22.949,3.418,180.664
1532511144.749,2.441,13.184,9.277,-19.531,-123.535
1532511144.753,56.641,19.531,8.301,34.180,-390.137
1532511144.757,29.297,17.578,20.996,45.898,508.301
1532511144.761,-39.062,5.859,17.090,11.719,627.930
1532511144.765,-12.207,13.672,11.719,19.531,-303.711
1532511144.769,34.180,23.926,15.137,41.504,-439.453
1532511144.773,-5.371,20.996,17.090,-7.812,-318.359
1532511144.777,12.695,16.602,21.973,-3.906,35.645
1532511144.780,63.965,20.508,19.531,66.406,-70.801
1532511144.784,44.922,21.484,19.043,68.848,-345.703
1532511144.788,41.016,18.066,14.648,32.715,36.621
1532511144.792,34.668,13.184,14.160,19.531,-37.109
1532511144.796,27.344,14.160,20.996,25.879,416.016
1532511144.800,14.648,19.531,16.113,27.344,598.633
1532511144.804,17.090,19.043,20.508,34.180,-410.645
1532511144.808,3.418,9.277,20.996,21.973,-391.602
1532511144.812,1.465,8.789,23.926,28.320,-234.863
1532511144.816,13.184,12.695,32.227,15.137,-10.254
1532511144.819,0.977,13.672,19.531,21.973,-79.102
1532511144.823,35.645,16.113,16.602,35.645,-299.316
1532511144.827,77.637,27.344,9.766,11.719,-125.000
1532511144.831,65.430,34.180,15.137,24.414,-277.344
1532511144.835,23.926,22.949,21.484,33.203,316.406
1532511144.839,4.395,16.113,20.996,41.504,765.625
1532511144.843,22.461,18.555,20.996,11.719,-127.441
1532511144.847,33.203,22.461,14.160,31.738,-363.770
1532511144.851,-18.066,20.996,9.766,23.926,-418.945
1532511144.855,-9.766,10.254,14.160,-3.906,-60.059
1532511144.859,57.129,18.066,23.438,51.270,211.426
1532511144.862,54.688,38.574,15.625,39.551,-200.684
1532511144.866,-0.488,32.715,10.254,-2.930,-259.766
1532511144.870,8.301,32.227,16.113,18.066,-353.516
1532511144.874,71.289,39.062,26.855,53.711,11.230
1532511144.878,26.367,29.785,32.227,16.113,272.461
1532511144.882,-0.488,20.508,21.973,1.953,77.148
1532511144.886,16.113,30.273,16.113,13.672,-11.230
1532511144.890,32.227,42.480,19.043,-7.324,-286.133
1532511144.894,11.719,40.527,25.879,12.207,-84.961
1532511144.898,-36.621,28.320,36.133,0.000,751.953
1532511144.902,-30.273,30.762,28.809,-8.301,237.793
1532511144.905,-31.738,42.969,24.902,11.719,-498.535
1532511144.909,-25.879,58.105,26.367,-14.648,-261.230
1532511144.913,-41.016,58.105,25.879,-48.828,-130.371
1532511144.917,-51.758,52.246,35.645,-50.781,34.180
1532511144.921,-49.316,59.082,35.156,-81.055,-207.031
1532511144.925,-75.684,54.199,36.133,-93.262,-222.656
1532511144.929,-74.219,51.758,42.969,-53.223,117.676
1532511144.933,-42.480,74.707,45.410,-46.387,33.203
1532511144.937,-68.848,71.289,47.363,-81.543,539.551
1532511144.941,-106.445,60.547,51.270,-107.422,535.645
1532511144.944,-91.797,69.336,56.641,-81.543,-324.707
1532511144.948,-67.383,79.590,43.457,-81.055,-346.680
1532511144.952,-62.500,82.031,43.945,-92.773,-362.305
1532511144.956,-62.500,75.195,51.758,-52.734,-93.262
1532511144.960,-58.594,76.172,52.246,-44.922,-24.414
1532511144.964,-55.176,81.055,33.691,-93.750,-229.980
1532511144.968,-54.688,73.242,32.715,-57.129,-275.391
1532511144.972,-46.387,63.477,42.969,-8.789,-282.715
1532511144.976,-43.457,56.641,37.109,-32.227,517.090
1532511144.980,-49.316,55.176,36.621,-62.012,543.457
1532511144.984,16.602,62.012,30.762,-27.344,-391.113
1532511144.987,15.625,62.500,28.809,22.461,-382.812
1532511144.991,13.184,47.852,31.738,9.766,-347.656
1532511144.995,7.324,33.203,35.156,-6.348,302.246
1532511144.999,4.395,35.156,33.203,-2.930,393.066
1532511145.003,72.266,46.387,26.855,0.977,-402.832
1532511145.007,55.176,41.992,20.508,6.836,-278.809
1532511145.011,22.949,33.203,26.855,47.852,-214.355
1532511145.015,63.965,29.785,26.855,43.945,104.004
1532511145.019,93.750,18.555,23.926,11.719,126.953
1532511145.023,81.543,20.508,26.367,48.828,-31.738
1532511145.027,41.992,15.137,30.762,107.910,136.230
1532511145.030,52.246,12.207,26.367,80.566,-306.641
1532511145.034,72.266,17.090,20.508,63.477,22.461
1532511145.038,57.129,20.020,20.020,59.082,434.570
1532511145.042,49.316,12.207,27.344,75.684,-154.297
1532511145.046,2.441,-1.953,35.645,95.703,-162.109
1532511145.050,43.945,8.301,31.738,85.938,-270.020
1532511145.054,96.680,17.578,25.879,55.664,-101.074
1532511145.058,38.086,11.230,33.203,46.875,479.004
1532511145.062,44.922,7.812,32.227,70.801,19.043
1532511145.066,73.242,19.043,21.973,66.406,-295.898
1532511145.069,39.062,19.531,26.855,60.059,-40.039
1532511145.073,49.805,12.207,28.809,62.500,40.039
1532511145.077,86.426,18.555,22.461,74.219,729.492
1532511145.081,101.074,22.461,27.344,65.918,617.188
1532511145.085,77.148,17.578,31.738,72.754,-469.238
1532511145.089,51.758,16.602,26.855,92.285,-513.672
1532511145.093,41.504,21.973,27.344,69.824,-250.000
1532511145.097,71.289,13.672,23.926,59.082,-3.906
1532511145.101,66.895,18.066,19.531,71.777,-230.469
1532511145.105,58.105,22.949,30.273,74.707,-380.859
1532511145.109,83.496,20.020,29.297,51.758,-206.055
1532511145.112,54.199,19.043,23.438,59.082,-186.523
1532511145.116,24.902,17.090,23.926,70.312,199.219
1532511145.120,78.125,27.832,29.297,99.121,139.160
1532511145.124,101.562,23.926,32.227,55.176,-278.809
1532511145.128,74.707,26.367,22.949,56.641,-132.812
1532511145.132,55.664,27.832,24.414,85.449,-308.594
1532511145.136,86.426,30.762,19.043,78.125,333.008
1532511145.140,87.891,33.203,22.461,81.543,582.520
1532511145.144,61.035,25.391,24.902,71.777,-271.484
1532511145.148,71.777,21.973,20.508,47.852,-301.270
1532511145.152,87.402,21.973,28.320,58.105,-349.609
1532511145.155,53.711,18.066,30.762,59.082,-38.086
1532511145.159,31.738,25.879,14.160,16.602,92.773
1532511145.163,54.199,26.367,25.879,57.129,30.762
1532511145.167,78.125,30.762,35.645,89.355,131.348
1532511145.171,51.270,38.574,30.762,64.941,-342.773
1532511145.175,17.578,30.762,29.785,19.043,152.832
1532511145.179,66.406,30.762,19.043,35.156,791.504
1532511145.183,85.938,31.250,21.484,81.055,-32.227
1532511145.187,69.824,27.832,27.344,69.336,-384.277
1532511145.191,59.082,23.438,31.250,63.477,-384.277
1532511145.194,58.105,20.996,24.902,47.852,71.289
1532511145.198,31.250,21.973,23.926,50.781,196.777
1532511145.202,0.000,24.414,26.855,17.578,-357.422
1532511145.206,71.289,36.621,22.949,38.574,-250.000
1532511145.210,106.445,35.645,33.203,91.797,87.891
1532511145.214,78.125,26.855,31.250,72.754,213.379
1532511145.218,62.500,28.320,28.320,33.203,722.168
1532511145.222,40.527,33.203,29.297,24.902,173.340
1532511145.226,26.855,34.180,29.785,60.059,-427.246
1532511145.230,66.895,31.250,33.691,42.480,-282.715
1532511145.234,82.031,26.855,35.645,51.270,-219.727
1532511145.237,46.875,26.367,41.016,59.082,10.254
1532511145.241,44.434,30.273,34.180,61.035,-178.711
1532511145.245,80.078,33.203,29.297,56.152,-187.500
1532511145.249,53.711,23.926,40.039,41.016,-214.355
1532511145.253,54.199,30.273,32.715,40.039,-287.109
1532511145.257,40.527,38.086,29.297,30.273,131.836
1532511145.261,20.996,28.809,40.039,65.430,272.461
1532511145.265,60.059,32.715,33.691,53.711,-132.812
1532511145.269,67.383,32.715,29.297,26.855,-311.035
1532511145.273,53.223,25.391,28.320,36.133,-343.750
1532511145.276,32.227,23.438,29.785,32.227,465.332
1532511145.280,7.324,27.832,38.574,6.348,587.402
1532511145.284,4.883,31.738,33.203,6.836,-404.785
1532511145.288,25.391,33.203,32.715,60.059,-413.086
1532511145.292,-12.695,22.461,42.480,62.500,-221.680
1532511145.296,24.902,20.020,32.715,22.461,56.641
1532511145.300,76.172,29.785,21.484,65.430,-73.730
1532511145.304,33.203,25.391,24.902,58.594,-60.547
1532511145.308,53.223,29.297,22.461,3.418,107.422
1532511145.312,53.223,43.945,17.578,25.879,-298.828
1532511145.316,5.371,26.855,25.879,52.246,329.590
1532511145.319,-10.254,15.625,18.066,20.996,688.477
1532511145.323,34.180,24.902,15.625,17.578,-267.578
1532511145.327,43.457,30.762,25.391,55.664,-324.219
1532511145.331,29.297,40.039,21.484,46.387,-295.410
1532511145.335,19.043,37.109,16.113,20.508,-40.039
1532511145.339,17.090,38.086,20.508,53.711,52.246
1532511145.343,36.133,26.855,29.297,48.340,-259.277
1532511145.347,47.363,29.297,24.902,34.180,-122.070
1532511145.351,-8.301,25.391,25.391,33.203,-121.094
1532511145.355,-26.367,20.020,22.949,8.789,277.832
1532511145.359,48.828,23.926,22.949,8.301,826.172
1532511145.362,21.973,25.391,21.973,55.176,29.785
1532511145.366,34.668,32.715,22.949,42.480,-451.660
1532511145.370,54.688,29.785,18.555,29.297,-432.129
1532511145.374,13.672,23.438,27.344,41.504,-76.660
1532511145.378,26.367,34.180,27.344,3.906,223.633
1532511145.382,59.570,41.504,18.555,30.762,-228.027
1532511145.386,25.879,33.691,24.902,49.805,-310.547
1532511145.390,-52.246,22.949,29.297,49.316,-291.504
1532511145.394,39.551,32.227,18.555,22.949,40.039
1532511145.398,81.543,36.133,18.555,29.785,501.465
1532511145.401,26.855,25.879,28.809,77.637,18.066
1532511145.405,41.992,23.926,29.297,62.988,-332.031
1532511145.409,43.457,18.066,30.273,27.344,-187.988
1532511145.413,8.301,17.090,24.414,37.109,-160.645
1532511145.417,18.066,28.320,6.348,45.410,517.090
1532511145.421,37.109,29.297,-2.930,43.457,261.230
1532511145.425,20.996,25.391,-4.395,53.223,-382.812
1532511145.429,29.785,29.297,-7.324,28.809,-189.941
1532511145.433,28.320,29.297,-8.789,26.855,-229.492
1532511145.437,1.465,23.926,-15.625,30.762,-73.242
1532511145.441,16.602,13.184,-21.973,35.645,-101.074
1532511145.444,36.133,26.367,-22.461,37.109,102.051
1532511145.448,43.945,37.598,-23.438,46.875,129.883
1532511145.452,42.480,36.621,-23.438,60.059,-427.734
1532511145.456,48.828,35.156,-22.949,56.152,319.336
1532511145.460,29.297,30.762,-24.902,45.410,670.898
1532511145.464,19.043,30.273,-30.762,21.973,-296.387
1532511145.468,22.949,28.809,-28.809,44.922,-436.035
1532511145.472,4.883,35.645,-33.203,38.574,-368.164
1532511145.476,38.086,37.109,-30.762,34.180,21.973
1532511145.480,59.570,28.320,-30.762,64.453,62.988
1532511145.484,28.320,24.902,-28.320,39.551,-317.871
1532511145.487,-4.883,13.672,-21.973,8.789,-257.812
1532511145.491,-27.832,18.066,-32.715,13.184,-6.348
1532511145.495,24.902,34.180,-31.250,26.855,596.680
1532511145.499,92.773,40.527,-30.762,49.805,698.242
1532511145.503,68.848,32.715,-35.156,45.410,-284.180
1532511145.507,32.715,22.461,-26.367,39.062,-448.730
1532511145.511,31.250,22.461,-17.578,45.898,-285.156
1532511145.515,29.785,31.250,-33.203,35.645,63.965
1532511145.519,21.484,30.273,-31.250,39.551,109.375
1532511145.523,22.461,23.438,-23.438,57.129,-330.566
1532511145.526,1.953,21.973,-23.438,35.156,-159.180
1532511145.530,50.781,31.738,-21.484,15.137,-229.980
1532511145.534,55.664,32.715,-26.855,31.250,-5.859
1532511145.538,34.668,36.133,-27.832,65.430,403.809
1532511145.542,14.160,31.738,-21.484,51.758,29.785
1532511145.546,-5.371,19.043,-24.414,20.508,-145.508
1532511145.550,9.766,40.527,-26.855,23.926,-282.715
1532511145.554,29.785,53.223,-20.020,57.617,-172.363
1532511145.558,74.219,41.992,-21.973,24.902,737.793
1532511145.562,41.016,29.785,-12.695,14.160,319.824
1532511145.566,45.410,29.297,-9.277,44.922,-439.941
1532511145.569,46.387,36.133,-12.207,38.574,-400.391
1532511145.573,30.273,35.156,-10.254,27.344,-222.168
1532511145.577,55.664,40.527,-10.254,32.227,125.488
1532511145.581,25.391,39.062,-14.648,20.996,-121.582
1532511145.585,37.598,49.805,-11.230,43.457,-64.453
1532511145.589,65.430,50.293,-0.977,53.223,-4.883
1532511145.593,49.316,45.410,-5.859,12.207,-291.992
1532511145.597,19.043,37.598,-4.395,17.090,535.645
1532511145.601,45.898,37.109,-4.883,51.270,475.586
1532511145.605,55.664,55.176,-3.418,37.598,-414.062
1532511145.608,40.527,47.363,8.789,59.082,-274.902
1532511145.612,16.602,35.156,3.906,57.617,-248.047
1532511145.616,26.367,37.109,1.953,34.180,-68.848
1532511145.620,47.852,49.805,11.230,40.527,-171.387
1532511145.624,14.160,45.410,11.230,58.105,-314.941
1532511145.628,60.547,38.574,12.207,49.316,-123.535
1532511145.632,75.195,47.852,19.043,27.344,-95.215
1532511145.636,50.293,44.922,20.996,48.340,493.652
1532511145.640,13.672,40.527,17.090,37.109,637.207
1532511145.644,36.621,42.480,20.508,45.410,-255.371
1532511145.648,53.711,37.109,19.043,60.059,-378.418
1532511145.651,20.996,31.250,21.973,8.789,-406.738
1532511145.655,41.992,50.293,11.230,8.789,-90.332
1532511145.659,16.602,55.664,7.324,70.312,41.992
1532511145.663,4.395,43.457,19.043,53.223,-240.723
1532511145.667,16.113,50.293,16.602,37.109,-258.789
1532511145.671,21.484,60.059,12.207,47.852,-365.723
1532511145.675,58.594,53.711,13.672,24.902,85.449
1532511145.679,43.457,48.340,16.113,39.062,442.383
1532511145.683,35.156,55.664,11.719,20.996,99.609
1532511145.687,42.969,56.152,6.348,20.508,-145.508
1532511145.691,38.574,47.852,25.879,58.105,-382.324
1532511145.694,37.598,49.316,21.973,13.184,133.301
1532511145.698,27.344,44.434,17.090,33.203,840.820
1532511145.702,54.688,44.922,21.484,61.523,-23.926
1532511145.706,65.430,53.223,10.742,30.273,-482.910
1532511145.710,28.320,50.293,19.531,16.602,-270.508
1532511145.714,10.254,42.480,27.832,53.223,-14.648
1532511145.718,14.160,49.805,19.531,56.152,107.422
1532511145.722,44.922,52.246,22.949,29.785,-294.922
1532511145.726,12.207,37.109,34.668,58.594,27.344
1532511145.730,51.270,51.270,24.414,61.035,166.504
1532511145.733,99.609,59.082,14.648,41.504,-196.777
1532511145.737,51.758,45.410,20.020,6.836,560.547
1532511145.741,34.180,41.992,16.602,8.789,407.715
1532511145.745,41.016,40.039,16.602,15.625,-399.414
1532511145.749,61.523,50.293,15.625,1.953,-354.980
1532511145.753,83.984,47.852,21.484,54.199,-352.539
1532511145.757,90.332,47.363,26.855,46.387,-41.504
1532511145.761,54.199,52.246,20.996,24.902,-83.496
1532511145.765,47.363,47.363,23.926,48.340,-265.625
1532511145.769,13.184,29.785,25.879,19.531,-274.902
1532511145.773,-8.301,36.133,20.020,58.105,-78.125
1532511145.776,79.590,55.664,17.578,72.754,677.246
1532511145.780,62.988,47.852,25.391,40.527,527.832
1532511145.784,-9.766,29.785,36.133,58.105,-460.449
1532511145.788,24.414,28.320,27.344,22.949,-477.539
1532511145.792,48.340,48.828,13.184,0.488,-293.457
1532511145.796,38.086,49.805,20.996,52.246,-0.977
1532511145.800,38.574,44.922,23.926,46.875,-111.816
1532511145.804,10.742,46.387,13.184,27.344,-365.723
1532511145.808,4.883,40.039,23.438,28.809,-221.191
1532511145.812,29.297,37.598,20.996,28.809,-141.602
1532511145.816,57.129,41.504,25.391,59.082,163.086
1532511145.819,49.805,47.852,31.250,62.012,186.035
1532511145.823,38.574,49.805,22.949,42.480,49.316
1532511145.827,8.789,31.250,30.273,42.480,12.207
1532511145.831,12.695,44.434,24.414,34.180,-368.652
1532511145.835,29.297,57.617,19.531,33.203,181.152
1532511145.839,38.574,37.598,26.855,30.273,770.020
1532511145.843,33.691,42.969,23.438,8.301,-86.426
1532511145.847,31.738,47.363,22.461,31.738,-348.145
1532511145.851,19.531,34.668,33.203,61.035,-388.184
1532511145.855,3.906,42.480,26.367,32.227,-51.758
1532511145.858,48.340,43.457,19.531,40.039,208.496
1532511145.862,27.832,37.598,24.414,23.926,-201.172
1532511145.866,17.578,36.621,23.438,15.625,44.922
1532511145.870,39.551,39.062,21.484,44.922,-113.281
1532511145.874,69.336,51.758,15.137,42.480,-88.867
1532511145.878,13.184,38.086,23.926,36.133,800.781
1532511145.882,0.977,35.645,32.227,16.602,173.340
1532511145.886,53.223,48.340,23.926,20.996,-520.020
1532511145.890,36.621,50.781,17.090,42.480,-385.742
1532511145.894,41.016,46.875,20.020,26.855,-90.332
1532511145.898,20.996,32.715,30.762,30.762,150.879
1532511145.901,37.598,35.156,35.645,63.477,-256.836
1532511145.905,56.152,43.457,27.832,58.594,-327.148
1532511145.909,50.781,42.969,25.391,35.645,-161.133
1532511145.913,-9.277,43.945,24.902,23.926,93.262
1532511145.917,-12.695,42.969,23.926,1.953,587.891
1532511145.921,69.336,37.598,29.785,34.668,107.910
1532511145.925,66.895,40.039,30.273,81.543,-396.484
1532511145.929,63.477,39.062,35.156,85.938,-196.777
1532511145.933,56.152,40.527,31.738,41.504,-292.480
1532511145.937,35.156,42.480,22.949,13.184,152.832
1532511145.941,47.852,42.969,24.902,46.387,114.746
1532511145.944,51.758,48.828,20.020,42.480,-256.348
1532511145.948,49.805,38.574,22.461,44.922,-197.266
1532511145.952,42.480,41.992,14.160,31.738,-320.801
1532511145.956,22.461,43.945,16.113,13.672,-66.406
1532511145.960,16.113,34.668,25.879,38.574,222.656
1532511145.964,47.363,47.363,23.438,50.781,115.234
1532511145.968,83.008,52.734,20.020,47.363,-177.246
1532511145.972,71.777,45.898,20.508,49.316,-453.125
1532511145.976,59.570,32.715,20.508,47.363,348.145
1532511145.980,53.711,34.668,16.602,9.766,700.684
1532511145.983,32.715,39.062,23.926,12.207,-303.223
1532511145.987,51.758,35.156,26.367,60.059,-458.984
1532511145.991,36.133,44.922,16.602,61.523,-309.082
1532511145.995,18.066,41.992,26.367,34.180,101.562
1532511145.999,45.898,38.086,36.621,50.781,59.570
1532511146.003,74.707,41.504,23.438,50.781,-372.070
1532511146.007,22.461,43.945,13.184,34.180,88.379
1532511146.011,33.203,35.645,16.602,71.289,16.113
1532511146.015,94.727,41.016,16.602,51.758,184.570
1532511146.019,53.223,48.340,18.066,19.531,795.410
1532511146.023,4.395,41.992,20.508,21.484,-91.797
1532511146.026,30.762,33.691,20.020,44.434,-274.414
1532511146.030,55.176,32.715,31.250,20.508,-216.309
1532511146.034,40.527,36.621,26.367,19.531,-119.141
1532511146.038,66.895,48.340,11.719,69.824,119.141
1532511146.042,46.387,39.551,23.926,51.270,-230.469
1532511146.046,20.996,35.645,27.344,37.109,-171.875
1532511146.050,38.086,36.133,21.484,56.152,-251.953
1532511146.054,34.180,33.691,32.715,66.406,-38.086
1532511146.058,21.973,43.457,21.484,5.859,762.695
1532511146.062,40.527,35.156,9.766,29.297,294.922
1532511146.065,52.734,40.527,24.414,76.660,-462.891
1532511146.069,35.156,43.457,24.902,44.434,-442.871
1532511146.073,28.320,33.203,28.320,48.828,-267.090
1532511146.077,36.621,40.527,20.508,32.715,94.727
1532511146.081,57.617,43.457,15.625,21.973,-135.254
1532511146.085,40.039,36.621,26.855,52.246,-341.309
1532511146.089,0.488,19.531,22.949,34.668,-271.973
1532511146.093,60.059,25.879,23.926,32.227,-152.344
1532511146.097,53.711,43.457,23.926,55.176,83.008
1532511146.101,11.230,33.691,18.066,43.945,126.953
1532511146.105,49.805,21.973,25.391,68.848,-65.430
1532511146.108,46.387,19.531,27.832,64.941,-168.945
1532511146.112,15.137,38.086,13.184,16.113,-270.020
1532511146.116,26.855,44.922,18.555,14.160,430.664
1532511146.120,12.207,32.715,27.344,21.973,587.891
1532511146.124,35.645,36.133,16.602,5.859,-339.844
1532511146.128,29.297,37.598,26.855,56.152,-287.109
1532511146.132,11.719,40.527,17.578,50.293,-263.184
1532511146.136,26.855,40.527,15.137,-21.973,-77.637
1532511146.140,30.762,24.414,31.738,27.344,-56.641
1532511146.144,28.320,26.855,33.691,82.520,-200.684
1532511146.148,10.742,31.738,29.297,34.180,141.113
1532511146.151,25.391,31.738,24.902,46.875,-152.832
1532511146.155,46.875,20.996,32.227,45.898,201.660
1532511146.159,40.039,26.855,25.391,37.598,756.836
1532511146.163,51.270,41.504,24.902,52.734,-147.461
1532511146.167,36.133,27.832,35.156,49.805,-441.406
1532511146.171,39.062,26.855,27.344,55.664,-421.387
1532511146.175,42.480,34.180,23.438,-2.930,23.438
1532511146.179,-10.742,27.344,36.133,20.996,210.938
1532511146.183,-17.090,27.344,29.297,46.387,-270.020
1532511146.187,62.988,46.387,3.906,3.906,-281.738
1532511146.190,67.383,40.527,20.020,39.551,-281.250
1532511146.194,-3.418,36.621,30.762,77.637,276.855
1532511146.198,11.719,30.273,32.227,79.102,867.188
1532511146.202,79.590,33.691,23.926,45.410,-33.203
1532511146.206,33.691,34.668,21.973,35.156,-496.094
1532511146.210,11.719,33.203,29.785,65.918,-298.828
1532511146.214,40.039,38.574,23.926,26.367,-42.480
1532511146.218,51.270,42.480,22.461,-14.160,108.398
1532511146.222,15.625,24.902,30.762,10.254,-277.832
1532511146.226,13.184,32.227,21.973,46.875,-203.613
1532511146.230,16.113,41.016,23.438,47.852,-152.832
1532511146.233,35.156,30.273,35.156,37.598,-162.109
1532511146.237,29.297,32.227,29.297,48.340,147.949
1532511146.241,15.137,27.832,27.344,18.555,170.898
1532511146.245,36.621,24.414,29.297,41.016,136.719
1532511146.249,21.484,29.297,29.297,65.918,-114.258
1532511146.253,31.250,39.551,24.902,18.066,-419.434
1532511146.257,25.879,36.133,35.156,24.902,483.887
1532511146.261,58.105,32.715,33.203,71.289,551.270
1532511146.265,70.312,45.898,13.184,14.648,-390.137
1532511146.269,32.227,29.785,27.832,24.414,-409.668
1532511146.273,39.551,28.809,35.156,77.637,-324.707
1532511146.276,85.938,40.039,25.879,76.660,15.137
1532511146.280,40.527,29.785,28.809,41.016,-45.898
1532511146.284,7.812,24.902,30.762,21.973,-338.867
1532511146.288,34.668,25.879,32.227,34.668,36.621
1532511146.292,19.043,30.273,34.180,19.531,-36.133
1532511146.296,49.316,28.809,26.367,18.066,404.297
1532511146.300,62.012,38.086,19.531,34.668,619.629
1532511146.304,59.082,29.785,38.574,51.270,-402.832
1532511146.308,66.406,26.367,40.039,58.105,-413.086
1532511146.312,12.695,30.273,28.320,65.918,-246.094
1532511146.315,-28.320,13.672,38.574,31.738,17.090
1532511146.319,43.945,27.832,27.832,20.508,-54.688
1532511146.323,59.082,37.109,23.438,53.223,-323.730
1532511146.327,41.016,31.250,23.926,36.621,-125.000
1532511146.331,38.086,27.344,15.137,15.625,-254.395
1532511146.335,20.020,35.645,19.531,14.160,312.500
1532511146.339,47.852,40.039,24.414,38.574,783.203
1532511146.343,51.758,39.551,21.484,15.625,-105.469
1532511146.347,34.180,45.898,14.160,4.395,-352.539
1532511146.351,22.949,32.227,21.973,42.969,-398.438
1532511146.355,45.898,29.297,21.973,25.879,-80.078
1532511146.358,30.762,30.762,20.020,38.086,201.172
1532511146.362,-21.973,28.809,22.949,62.500,-194.824
1532511146.366,30.273,16.602,21.484,42.480,-251.465
1532511146.370,42.969,16.602,17.090,43.945,-368.652
1532511146.374,-2.930,38.086,5.371,35.156,-41.504
1532511146.378,33.691,32.227,9.277,18.066,262.207
1532511146.382,40.039,26.855,10.742,5.371,94.727
1532511146.386,35.156,27.832,12.207,39.062,-22.461
1532511146.390,65.430,30.273,23.926,60.547,-296.875
1532511146.394,38.086,26.367,13.184,33.691,-127.930
1532511146.397,18.555,33.203,6.836,14.648,736.816
1532511146.401,29.785,40.527,12.695,19.531,274.902
1532511146.405,25.879,30.273,16.602,60.059,-521.973
1532511146.409,27.832,27.344,20.508,39.551,-282.715
1532511146.413,4.395,26.367,12.207,19.531,-141.113
1532511146.417,8.301,24.414,20.508,36.621,31.738
1532511146.421,44.922,32.715,23.926,41.992,-215.332
1532511146.425,17.578,22.949,17.578,64.941,-254.395
1532511146.429,22.949,22.461,24.414,55.176,156.738
1532511146.433,53.223,41.992,12.695,19.043,-45.410
1532511146.437,24.902,33.203,10.742,15.137,414.551
1532511146.440,34.180,21.973,26.367,46.875,571.289
1532511146.444,55.664,26.367,24.902,47.363,-331.055
1532511146.448,44.434,31.738,15.137,54.199,-233.398
1532511146.452,28.809,13.672,16.113,46.875,-276.367
1532511146.456,48.340,22.949,20.508,37.598,-166.992
1532511146.460,42.969,42.480,15.137,51.270,-58.105
1532511146.464,12.207,42.480,16.113,15.625,-244.141
1532511146.468,75.195,48.340,17.578,39.062,-268.066
1532511146.472,67.871,42.480,16.602,49.316,-362.793
1532511146.476,28.809,29.785,21.973,34.668,449.707
1532511146.480,78.125,29.297,21.973,43.457,574.219
1532511146.483,76.660,32.715,14.648,9.766,-377.441
1532511146.487,29.785,34.180,15.137,-21.484,-375.977
1532511146.491,59.082,31.250,26.855,24.414,-347.168
1532511146.495,31.738,26.855,29.785,61.035,293.945
1532511146.499,-19.531,23.926,29.297,45.410,420.410
1532511146.503,54.688,32.715,29.785,86.914,-395.020
1532511146.507,79.102,39.062,23.926,102.539,-296.875
1532511146.511,28.320,34.668,25.391,51.270,-216.797
1532511146.515,9.766,32.715,21.484,28.320,109.375
1532511146.519,17.578,38.086,19.043,30.762,138.672
1532511146.522,22.949,32.227,22.949,58.594,-62.500
1532511146.526,37.598,29.785,18.066,31.738,186.035
1532511146.530,31.738,39.551,7.812,-33.203,-204.102
1532511146.534,19.043,27.832,22.461,15.625,-53.711
1532511146.538,44.434,25.391,38.086,83.496,802.734
1532511146.542,38.086,41.504,22.949,67.383,178.711
1532511146.546,15.137,36.621,34.668,21.484,-364.746
1532511146.550,28.320,36.621,34.668,-1.953,-349.121
1532511146.554,21.484,49.316,19.531,31.738,-213.867
1532511146.558,-11.719,32.227,33.203,55.176,138.184
1532511146.562,28.320,34.668,34.180,36.621,-109.375
1532511146.565,58.594,40.039,33.691,31.738,-210.449
1532511146.569,37.109,32.227,35.156,41.992,-65.918
1532511146.573,40.527,33.203,27.344,41.992,28.809
1532511146.577,41.016,36.621,27.832,52.246,700.195
1532511146.581,55.664,45.410,35.156,38.574,395.020
1532511146.585,47.852,29.297,40.527,23.926,-522.949
1532511146.589,-8.789,25.879,32.715,62.500,-414.551
1532511146.593,29.785,39.551,30.273,69.336,-217.285
1532511146.597,64.941,43.945,31.250,38.574,39.062
1532511146.601,49.805,43.945,30.273,47.852,-170.410
1532511146.605,57.129,39.062,33.691,43.945,-347.168
1532511146.608,54.199,40.527,32.227,12.695,-163.086
1532511146.612,1.465,27.344,35.156,48.340,-216.309
1532511146.616,20.508,28.809,43.945,18.066,472.656
1532511146.620,42.969,35.645,42.480,12.695,482.422
1532511146.624,17.090,19.043,42.480,62.012,-377.441
1532511146.628,66.895,36.133,32.227,62.988,-235.840
1532511146.632,27.344,43.945,37.598,62.988,-274.414
1532511146.636,16.113,40.039,38.086,15.137,72.266
1532511146.640,38.086,32.715,39.062,33.203,106.445
1532511146.644,37.598,27.832,45.898,66.895,-229.004
1532511146.647,74.219,41.504,27.832,77.637,-157.715
1532511146.651,81.543,35.645,34.180,81.543,-292.480
1532511146.655,34.180,35.645,26.855,3.418,-0.977
1532511146.659,-34.668,18.555,32.227,-12.207,235.352
1532511146.663,23.926,33.691,47.852,86.426,186.523
1532511146.667,79.102,41.016,41.504,90.820,24.414
1532511146.671,70.801,31.250,37.109,36.133,-438.965
1532511146.675,32.715,35.645,36.133,15.137,162.109
1532511146.679,20.508,37.109,28.320,27.344,839.355
1532511146.683,35.645,34.668,24.902,24.414,-88.867
1532511146.687,36.621,37.109,33.203,25.391,-492.676
1532511146.690,71.777,42.480,38.574,42.969,-350.586
1532511146.694,30.273,29.297,45.410,70.312,72.754
1532511146.698,53.223,30.273,33.691,21.973,229.492
1532511146.702,15.137,39.062,29.785,-22.949,-311.523
1532511146.706,-48.828,35.645,44.434,25.879,-240.234
1532511146.710,78.613,41.016,35.645,55.176,100.586
1532511146.714,63.965,38.574,28.809,14.160,185.547
1532511146.718,0.977,34.668,42.969,38.574,698.242
1532511146.722,50.781,35.645,45.410,62.500,223.633
1532511146.726,55.664,33.203,49.316,50.293,-423.828
1532511146.730,70.312,44.434,39.062,36.133,-268.066
1532511146.733,61.523,39.551,28.320,53.711,-225.098
1532511146.737,31.738,32.715,41.504,72.754,-13.184
1532511146.741,47.852,38.574,33.203,51.270,-173.340
1532511146.745,54.199,36.133,35.645,21.484,-188.965
1532511146.749,50.293,43.457,35.156,22.949,-210.449
1532511146.753,11.719,30.762,40.039,50.781,-310.059
1532511146.757,-23.926,21.973,46.387,50.781,154.297
1532511146.761,9.277,40.527,39.062,-1.465,224.121
1532511146.765,67.871,40.039,35.645,33.691,-190.918
1532511146.769,92.773,35.156,40.039,89.355,-256.836
1532511146.772,48.828,43.457,45.898,45.898,-347.656
1532511146.776,12.207,38.086,44.922,-1.953,438.477
1532511146.780,41.992,41.016,41.504,28.320,607.422
1532511146.784,66.406,44.434,37.109,71.777,-386.719
1532511146.788,34.180,37.109,34.180,65.918,-408.203
1532511146.792,20.020,43.457,41.016,52.246,-219.727
1532511146.796,48.828,55.176,31.250,44.434,62.988
1532511146.800,43.457,42.969,33.203,12.207,-54.688
1532511146.804,36.621,30.762,47.852,49.316,-63.965
1532511146.808,69.336,41.016,38.086,75.195,103.516
1532511146.812,77.637,40.527,32.715,58.594,-285.645
1532511146.815,28.809,37.109,43.457,39.551,316.895
1532511146.819,-21.484,42.969,41.504,-31.738,705.078
1532511146.823,12.695,38.574,29.297,6.348,-226.562
1532511146.827,65.918,38.086,31.738,53.223,-316.895
1532511146.831,49.316,45.898,42.480,64.453,-289.062
1532511146.835,13.184,34.668,44.434,37.598,-32.715
1532511146.839,37.598,31.250,44.434,31.250,85.938
1532511146.843,77.148,51.270,34.668,57.129,-231.934
1532511146.847,85.938,52.246,39.062,57.617,-125.000
1532511146.851,31.738,34.180,45.410,83.984,-69.824
1532511146.854,-11.719,39.062,39.551,33.203,283.203
1532511146.858,35.156,48.828,47.363,34.180,813.477
1532511146.862,40.527,41.504,55.664,62.500,76.172
1532511146.866,50.781,35.156,65.918,46.387,-476.562
1532511146.870,49.316,34.668,61.035,54.199,-329.590
1532511146.874,23.438,41.504,46.875,-9.277,-17.090
1532511146.878,-35.156,41.992,60.547,17.578,172.363
1532511146.882,9.277,41.992,61.523,41.016,-228.516
1532511146.886,98.145,46.875,43.945,34.668,-341.797
1532511146.890,42.969,45.898,59.570,50.781,-299.316
1532511146.894,26.855,36.621,64.453,-13.184,-70.312
1532511146.897,14.648,37.109,63.477,32.715,332.031
1532511146.901,10.742,44.922,56.641,49.316,115.723
1532511146.905,36.621,35.645,65.430,22.949,-221.680
1532511146.909,17.578,46.875,71.289,26.367,-202.148
1532511146.913,18.066,50.781,54.688,52.246,-205.078
1532511146.917,56.152,39.062,61.035,71.777,562.500
1532511146.921,62.012,46.387,55.176,42.969,455.078
1532511146.925,29.297,35.156,53.223,36.621,-418.457
1532511146.929,-13.184,26.367,54.688,19.043,-267.578
1532511146.933,11.719,29.297,57.617,40.039,-252.930
1532511146.937,80.078,43.457,55.664,33.203,-116.211
1532511146.940,41.016,32.227,54.199,10.254,-131.836
1532511146.944,10.742,15.137,57.129,46.875,92.285
1532511146.948,33.691,36.133,57.617,16.113,89.844
1532511146.952,61.523,46.875,57.129,35.645,-392.090
1532511146.956,31.250,37.109,60.059,56.641,119.141
1532511146.960,11.719,27.832,61.035,20.508,243.652
1532511146.964,36.133,47.852,54.199,50.781,-246.582
1532511146.968,11.230,47.852,53.711,60.547,-243.164
1532511146.972,14.648,21.484,53.223,52.734,-378.418
1532511146.976,31.250,24.902,58.594,-11.719,354.980
1532511146.979,51.270,36.621,47.852,4.883,603.516
1532511146.983,70.801,38.574,49.805,88.867,-333.984
1532511146.987,58.105,34.180,59.570,31.250,-347.656
1532511146.991,30.762,34.180,55.176,0.488,-31.738
1532511146.995,24.902,30.273,50.781,17.578,463.379
1532511146.999,4.395,37.109,41.504,19.043,999.023
1532511147.003,9.766,38.086,37.598,90.332,114.746
1532511147.007,59.570,39.551,36.133,36.133,-549.805
1532511147.011,57.617,47.852,31.738,18.066,-366.211
1532511147.015,47.363,44.434,30.273,48.340,1.953
1532511147.019,16.602,34.180,37.109,47.852,49.805
1532511147.022,47.363,31.738,33.203,33.203,-385.742
1532511147.026,32.715,29.297,25.879,58.594,-205.078
1532511147.030,6.836,37.598,25.391,57.129,-240.723
1532511147.034,85.938,45.898,28.320,58.105,-67.383
1532511147.038,82.031,45.898,29.785,35.156,335.938
1532511147.042,34.180,33.203,27.832,28.809,28.320
1532511147.046,34.180,13.184,48.340,70.312,-171.387
1532511147.050,80.078,36.621,40.039,53.711,-293.457
1532511147.054,45.898,53.223,25.879,40.039,-229.492
1532511147.058,-14.160,43.945,33.691,53.711,681.152
1532511147.062,34.180,36.133,40.039,33.691,348.145
1532511147.065,39.551,44.922,33.203,-7.812,-439.453
1532511147.069,21.484,41.992,33.691,43.945,-409.668
1532511147.073,20.996,36.133,38.086,33.691,-265.625
1532511147.077,24.414,42.969,28.809,-4.883,72.266
1532511147.081,-7.324,39.062,30.762,10.742,-20.020
1532511147.085,11.719,46.875,28.320,13.672,-12.695
1532511147.089,31.738,50.293,24.414,15.137,-74.707
1532511147.093,41.016,40.039,29.297,31.250,-324.707
1532511147.097,13.184,32.227,31.738,10.254,497.559
1532511147.101,-17.578,38.574,24.902,-24.902,518.555
1532511147.104,-2.930,35.645,27.832,-29.297,-468.262
1532511147.108,-23.438,28.320,35.645,23.926,-344.727
1532511147.112,-4.395,36.621,38.086,14.160,-209.473
1532511147.116,21.973,31.738,41.016,60.547,-73.730
1532511147.120,9.766,27.344,33.203,62.012,-181.641
1532511147.124,14.648,39.062,25.879,-14.160,-321.289
1532511147.128,55.664,40.527,15.137,11.719,-123.047
1532511147.132,53.223,34.668,22.461,24.414,-87.402
1532511147.136,-22.461,25.391,28.320,41.016,493.652
1532511147.140,-16.602,34.180,16.602,40.039,660.156
1532511147.144,17.090,24.902,23.926,19.531,-227.051
1532511147.147,5.859,14.160,20.508,8.301,-353.516
1532511147.151,32.227,23.926,14.648,-2.441,-381.348
1532511147.155,47.852,26.855,27.344,33.203,-71.777
1532511147.159,-34.180,25.391,25.879,29.785,65.430
1532511147.163,-22.461,24.902,12.207,16.113,-239.746
1532511147.167,49.316,35.156,19.531,31.738,-259.277
1532511147.171,57.617,36.621,28.809,26.367,-378.906
1532511147.175,19.043,29.785,29.785,1.953,76.172
1532511147.179,-18.555,5.371,34.180,6.836,482.910
1532511147.183,49.805,6.836,28.320,42.969,96.680
1532511147.186,23.438,34.668,20.508,14.160,-198.242
1532511147.190,-27.344,23.926,31.738,-1.953,-362.793
1532511147.194,39.062,23.926,38.574,34.180,183.594
1532511147.198,74.707,35.645,27.832,39.062,468.262
1532511147.202,38.086,32.715,31.250,20.020,-252.441
1532511147.206,-47.852,7.812,33.203,-21.973,-266.602
1532511147.210,-2.441,11.719,31.250,5.859,-153.320
1532511147.214,35.156,30.273,31.250,22.949,92.285
1532511147.218,9.766,33.691,20.996,-64.453,452.148
1532511147.222,16.113,29.785,38.086,-21.973,-104.004
1532511147.226,39.062,14.160,44.922,60.547,34.668
1532511147.229,19.531,13.184,30.762,42.480,131.836
1532511147.233,37.598,24.902,34.668,23.926,-337.402
1532511147.237,5.859,17.090,41.016,20.996,574.219
1532511147.241,11.719,12.695,40.039,36.621,696.289
1532511147.245,64.453,21.484,35.645,48.340,-328.125
1532511147.249,27.832,7.812,38.574,57.129,-465.332
1532511147.253,25.391,20.996,36.133,43.945,-410.156
1532511147.257,15.137,30.762,36.621,38.086,-114.258
1532511147.261,29.297,14.648,42.480,33.691,-111.328
1532511147.265,16.113,22.461,40.527,25.879,-290.527
1532511147.269,8.789,25.879,34.668,-8.301,-292.969
1532511147.272,-39.551,16.113,36.621,-21.484,-105.469
1532511147.276,-43.945,12.695,38.574,15.137,650.879
1532511147.280,42.969,22.949,32.715,26.367,550.781
1532511147.284,47.852,13.184,48.828,28.809,-461.914
1532511147.288,5.859,9.766,43.457,-14.648,-518.066
1532511147.292,10.742,13.184,29.785,34.668,-187.012
1532511147.296,70.801,19.043,40.527,79.102,90.332
1532511147.300,52.734,32.227,37.109,41.992,-155.273
1532511147.304,37.109,24.902,35.156,32.715,-405.762
1532511147.308,0.488,7.812,38.574,34.180,-243.652
1532511147.311,-21.973,10.742,33.691,-11.719,-197.266
1532511147.315,56.641,21.484,25.879,-2.930,86.426
1532511147.319,94.238,20.508,30.762,64.453,220.215
1532511147.323,64.941,25.391,19.043,65.918,52.246
1532511147.327,-49.316,10.742,13.672,-23.926,46.387
1532511147.331,-26.855,8.301,15.137,-17.578,-308.594
1532511147.335,99.609,36.621,5.859,75.195,150.391
1532511147.339,53.711,34.180,0.000,48.828,404.297
1532511147.343,17.578,17.578,5.371,38.086,-229.980
1532511147.347,23.438,16.602,11.719,5.371,-152.832
1532511147.351,-25.391,15.137,9.766,-22.949,-331.055
1532511147.354,18.555,5.371,0.000,38.086,82.520
1532511147.358,104.004,7.324,-4.395,23.438,721.191
1532511147.362,83.496,28.320,-5.859,52.734,-29.785
1532511147.366,57.129,39.062,4.395,72.754,-99.121
1532511147.370,21.973,27.832,4.883,39.062,-129.395
1532511147.374,2.441,26.855,-4.395,65.918,-159.668
1532511147.378,-6.836,36.621,-5.371,17.578,769.043
1532511147.382,8.301,12.695,8.301,11.230,213.379
1532511147.386,65.918,5.859,13.672,75.684,-550.293
1532511147.390,63.477,28.809,3.906,44.922,-421.387
1532511147.394,22.461,33.203,5.859,19.043,-152.832
1532511147.397,5.859,39.062,1.465,-18.066,107.910
1532511147.401,20.996,30.762,-5.859,-11.230,-249.512
1532511147.405,-10.742,24.414,16.113,39.062,-356.445
1532511147.409,5.859,29.785,20.020,-13.672,-160.645
1532511147.413,-37.109,27.344,-5.371,-22.461,51.758
1532511147.417,-44.922,18.066,3.906,32.715,718.750
1532511147.421,76.172,39.551,-8.301,-38.086,402.832
1532511147.425,20.020,46.387,-20.020,-59.570,-444.336
1532511147.429,-2.930,38.574,5.371,41.016,-292.969
1532511147.433,32.715,49.805,2.930,16.113,-305.664
1532511147.436,13.672,45.898,-1.465,-26.367,-145.996
1532511147.440,-13.184,44.434,10.254,-12.207,-139.648
1532511147.444,-42.480,56.152,-2.930,-61.035,-206.543
1532511147.448,-20.508,43.945,-4.883,-59.082,-169.922
1532511147.452,27.832,39.062,6.836,20.996,-323.242
1532511147.456,17.090,27.832,12.695,0.488,-73.730
1532511147.460,-40.527,-1.953,9.277,-53.223,253.906
1532511147.464,-25.879,29.785,-5.859,5.859,146.484
1532511147.468,11.719,52.734,0.977,31.738,-167.480
1532511147.472,23.438,21.973,23.926,-3.906,-466.797
1532511147.476,21.973,25.391,12.695,16.113,312.012
1532511147.479,-1.953,41.992,-9.277,22.949,729.492
1532511147.483,26.367,27.832,-3.418,18.066,-262.695
1532511147.487,50.781,39.062,3.906,16.113,-474.121
1532511147.491,25.879,33.203,20.508,20.996,-331.055
1532511147.495,11.230,16.602,34.668,21.973,108.887
1532511147.499,58.105,55.176,13.184,3.906,84.961
1532511147.503,42.969,53.223,2.441,30.273,-294.922
1532511147.507,-10.742,33.203,25.391,55.664,76.660
1532511147.511,7.812,37.598,26.855,-14.160,34.668
1532511147.515,1.465,12.695,17.578,5.371,221.191
1532511147.519,0.488,15.137,25.391,80.078,783.691
1532511147.522,26.367,38.574,22.949,47.363,-49.316
1532511147.526,23.438,40.039,16.602,29.297,-424.805
1532511147.530,56.152,37.598,19.531,58.594,-313.477
1532511147.534,43.457,25.879,25.879,50.781,-120.605
1532511147.538,27.344,17.090,22.949,20.508,80.566
1532511147.542,39.551,32.715,16.602,20.996,-248.047
1532511147.546,31.250,31.738,23.438,-4.883,-193.848
1532511147.550,-3.906,16.113,23.926,6.836,-249.023
1532511147.554,-15.625,25.391,18.555,69.824,-81.543
1532511147.558,35.156,36.621,12.207,25.879,723.633
1532511147.561,46.875,31.250,23.926,20.996,320.801
1532511147.565,50.293,33.203,26.367,53.711,-458.008
1532511147.569,10.254,25.879,31.250,50.293,-434.082
1532511147.573,17.578,16.602,44.434,47.852,-287.598
1532511147.577,22.949,20.508,35.645,64.941,67.871
1532511147.581,10.254,36.133,21.484,36.621,-126.953
1532511147.585,41.504,47.852,24.902,2.930,-351.074
1532511147.589,52.246,34.668,35.156,36.133,-302.734
1532511147.593,23.926,36.133,34.180,51.758,-182.617
1532511147.597,26.367,31.250,29.785,38.574,81.543
1532511147.601,33.691,19.531,39.062,-2.441,122.559
1532511147.604,-9.277,26.367,28.320,-37.109,-93.262
1532511147.608,-9.277,47.852,23.926,12.207,-165.039
1532511147.612,3.906,44.922,40.039,82.031,-259.766
1532511147.616,33.203,28.320,40.527,63.965,423.828
1532511147.620,70.312,37.109,22.461,42.480,599.121
1532511147.624,54.688,32.227,33.691,41.992,-340.820
1532511147.628,17.578,11.230,42.480,35.156,-298.340
1532511147.632,38.574,11.719,28.809,40.039,-257.812
1532511147.636,33.691,32.715,36.133,44.922,-63.965
1532511147.640,-17.090,25.879,26.367,16.113,-55.176
1532511147.643,0.488,18.066,20.996,1.953,-221.680
1532511147.647,37.109,35.156,32.227,23.926,136.719
1532511147.651,29.785,35.156,29.297,62.012,-109.863
1532511147.655,10.254,26.855,35.645,64.453,199.707
1532511147.659,35.645,23.926,33.203,3.906,764.648
1532511147.663,54.199,28.809,32.227,38.086,-123.535
1532511147.667,35.645,27.344,32.715,77.637,-472.168
1532511147.671,45.410,33.203,32.227,48.828,-457.520
1532511147.675,29.785,33.203,37.109,43.457,9.277
1532511147.679,21.484,19.043,44.922,37.598,225.586
1532511147.683,34.180,23.438,41.504,-13.184,-279.297
1532511147.686,-18.066,15.625,40.527,36.133,-305.664
1532511147.690,6.836,7.324,54.199,66.406,-286.133
1532511147.694,85.449,30.762,47.852,43.457,208.984
1532511147.698,44.434,27.344,41.504,29.785,920.410
1532511147.702,-14.648,17.090,50.781,10.742,117.188
1532511147.706,8.301,22.949,50.781,56.152,-506.836
1532511147.710,56.641,29.785,50.781,56.641,-332.520
1532511147.714,53.223,22.949,43.945,-18.066,-23.438
1532511147.718,60.059,34.180,46.875,23.438,331.055
1532511147.722,50.781,31.250,44.922,80.566,-228.027
1532511147.726,33.203,20.020,39.551,33.691,-351.074
1532511147.729,16.113,19.043,55.176,45.898,-208.496
1532511147.733,60.059,20.508,60.547,78.125,-215.332
1532511147.737,24.902,22.461,58.105,65.918,-14.160
1532511147.741,11.230,21.484,56.641,20.508,116.211
1532511147.745,9.277,9.766,62.500,39.551,35.645
1532511147.749,18.066,26.855,45.898,25.391,-243.164
1532511147.753,71.777,31.738,44.922,18.555,-410.645
1532511147.757,26.855,18.555,54.688,3.906,445.801
1532511147.761,20.996,18.555,53.711,38.574,578.125
1532511147.765,68.359,30.762,47.852,78.125,-373.535
1532511147.768,64.941,34.668,46.387,48.828,-438.477
1532511147.772,21.973,21.973,56.641,62.988,-356.934
1532511147.776,25.879,24.902,49.316,18.066,-6.348
1532511147.780,30.762,24.414,55.664,15.137,-31.250
1532511147.784,15.625,23.438,65.918,33.203,-313.477
1532511147.788,9.766,20.996,43.945,30.273,-28.809
1532511147.792,63.965,17.578,33.691,77.148,14.160
1532511147.796,71.289,28.320,41.992,74.219,498.047
1532511147.800,12.207,25.391,52.246,-2.930,622.559
1532511147.804,-1.465,21.973,63.965,-21.973,-377.441
1532511147.808,-9.766,18.066,64.941,6.348,-414.062
1532511147.811,9.766,19.531,64.453,49.316,-239.258
1532511147.815,10.254,30.762,61.523,48.828,30.762
1532511147.819,-1.953,18.066,64.453,12.207,-40.527
1532511147.823,21.973,12.207,53.223,48.828,-330.078
1532511147.827,21.484,18.066,56.641,46.387,-132.324
1532511147.831,-1.953,14.648,56.152,1.953,-248.535
1532511147.835,32.227,11.719,48.828,12.207,290.039
1532511147.839,39.062,7.812,54.199,30.762,802.734
1532511147.843,29.785,9.277,58.594,42.480,-74.219
1532511147.847,49.805,23.438,55.664,58.105,-366.211
1532511147.851,60.059,31.250,43.457,77.148,-399.414
1532511147.854,24.902,25.879,63.477,62.012,-121.582
1532511147.858,14.160,22.461,53.711,40.039,156.250
1532511147.862,0.977,22.461,45.898,38.574,-202.148
1532511147.866,29.785,19.043,44.922,32.227,-228.516
1532511147.870,32.227,23.438,38.086,36.621,-343.750
1532511147.874,9.277,29.297,37.598,66.406,-77.148
1532511147.878,42.480,34.668,36.621,77.637,234.863
1532511147.882,45.410,36.621,39.551,64.941,103.027
1532511147.886,39.551,32.227,39.062,17.090,-26.855
1532511147.890,35.645,20.020,41.504,37.109,-299.805
1532511147.893,15.625,16.113,38.086,52.246,-186.523
1532511147.897,-9.277,18.555,38.574,27.832,695.801
1532511147.901,21.484,14.648,41.992,20.508,328.125
1532511147.905,63.477,21.484,49.316,47.363,-514.160
1532511147.909,49.805,31.738,50.781,66.895,-298.340
1532511147.913,36.133,26.855,47.852,51.270,-155.762
1532511147.917,46.875,31.250,34.180,39.551,24.902
1532511147.921,38.574,41.992,32.715,22.949,-225.586
1532511147.925,43.457,36.621,41.504,41.016,-163.574
1532511147.929,36.133,34.668,35.645,38.574,241.211
1532511147.933,31.738,32.715,34.668,35.156,-64.453
1532511147.936,-2.441,31.738,39.062,39.551,407.715
1532511147.940,32.715,27.344,43.945,43.457,583.008
1532511147.944,78.125,28.809,41.016,45.898,-315.430
1532511147.948,6.348,21.484,44.922,42.969,-357.422
1532511147.952,27.344,29.297,41.016,55.664,-379.883
1532511147.956,50.293,44.922,20.020,-1.953,-123.047
1532511147.960,51.270,31.738,29.785,-19.531,-21.973
1532511147.964,35.156,32.715,46.387,62.500,-217.285
1532511147.968,42.480,34.180,46.387,62.500,-244.141
1532511147.972,36.621,24.414,55.176,16.113,-362.793
1532511147.975,16.113,17.578,40.039,13.184,409.668
1532511147.979,62.988,26.367,45.898,36.621,663.574
1532511147.983,35.156,32.715,48.340,-2.441,-280.273
1532511147.987,18.555,26.367,35.645,41.504,-409.180
1532511147.991,36.133,28.320,35.645,82.031,-390.625
1532511147.995,-10.254,24.414,50.781,61.035,265.137
1532511147.999,5.371,29.297,51.270,72.754,458.496
1532511148.003,24.414,34.180,40.039,48.828,-369.141
1532511148.007,-3.418,21.973,35.156,-2.441,-303.711
1532511148.011,-20.508,20.020,43.945,0.000,-211.426
1532511148.015,25.879,35.645,45.410,42.969,141.602
1532511148.018,4.395,34.180,43.945,37.598,187.500
1532511148.022,-1.465,25.391,34.668,20.996,-10.742
1532511148.026,69.824,27.832,39.062,69.824,145.020
1532511148.030,59.570,32.715,46.387,59.082,-232.422
1532511148.034,41.016,31.250,36.133,14.648,-78.125
1532511148.038,33.691,30.762,44.434,41.504,787.598
1532511148.042,9.766,28.809,33.203,25.391,228.516
1532511148.046,24.414,31.738,33.203,26.855,-364.258
1532511148.050,67.383,40.039,53.223,69.824,-334.961
1532511148.054,47.363,38.086,42.969,21.973,-237.793
1532511148.058,30.762,23.438,33.203,7.812,108.398
1532511148.061,24.902,18.066,40.527,12.207,-123.535
1532511148.065,53.711,34.668,34.668,8.301,-241.699
1532511148.069,35.156,37.598,43.457,61.523,1.465
1532511148.073,-15.137,20.508,59.570,41.992,-62.500
1532511148.077,6.348,28.320,39.062,8.789,557.129
1532511148.081,52.734,41.016,18.066,15.625,467.285
1532511148.085,79.102,37.109,34.668,43.945,-500.488
1532511148.089,67.871,35.645,48.828,83.984,-432.129
1532511148.093,66.895,42.480,42.969,68.359,-246.094
1532511148.097,-4.395,39.062,32.227,8.301,19.531
1532511148.100,2.930,19.043,41.504,37.598,-146.484
1532511148.104,30.273,38.574,44.434,44.922,-361.328
1532511148.108,76.660,57.129,31.250,4.395,-201.660
1532511148.112,112.305,33.691,37.109,52.246,-236.816
1532511148.116,44.434,19.531,31.738,51.758,471.191
1532511148.120,13.672,33.691,34.668,34.668,493.164
1532511148.124,22.461,46.387,28.809,0.000,-417.480
1532511148.128,18.066,38.574,33.691,0.488,-266.602
1532511148.132,26.367,30.273,48.340,66.895,-279.785
1532511148.136,81.055,33.691,28.809,60.547,80.078
1532511148.140,47.363,26.855,42.969,60.547,119.629
1532511148.143,12.207,13.184,41.016,22.949,-242.188
1532511148.147,51.270,27.344,34.668,25.391,-134.766
1532511148.151,12.207,43.945,44.434,9.766,-287.109
1532511148.155,54.688,37.109,35.645,12.207,10.742
1532511148.159,68.359,32.715,40.527,39.062,153.320
1532511148.163,13.184,24.902,39.062,1.953,113.281
1532511148.167,54.688,20.020,23.926,11.719,104.492
1532511148.171,76.660,25.879,36.621,63.965,-414.551
1532511148.175,37.598,33.691,49.316,56.152,114.746
1532511148.179,-41.504,28.320,46.875,27.344,856.445
1532511148.183,20.020,37.109,40.527,54.688,-13.672
1532511148.186,133.789,43.457,33.691,44.434,-470.703
1532511148.190,81.055,29.297,32.715,32.715,-371.582
1532511148.194,14.160,9.766,36.621,27.344,38.574
1532511148.198,26.367,23.926,31.738,33.203,244.629
1532511148.202,23.438,25.391,39.551,22.949,-305.664
1532511148.206,30.273,23.438,46.387,16.602,-288.086
1532511148.210,53.711,38.574,44.922,22.461,62.012
1532511148.214,-20.508,12.207,34.180,17.090,233.887
1532511148.218,8.789,17.578,34.668,44.434,729.980
1532511148.222,96.191,53.711,40.039,54.688,208.984
1532511148.225,56.152,36.133,39.062,65.430,-465.820
1532511148.229,9.766,28.809,31.250,-17.578,-277.832
1532511148.233,-35.156,26.367,38.086,-8.301,-228.027
1532511148.237,14.160,22.949,50.781,55.664,-14.160
1532511148.241,74.707,33.203,43.457,24.414,-162.598
1532511148.245,48.340,29.785,37.598,47.363,-199.707
1532511148.249,48.828,32.715,26.855,15.625,-185.547
1532511148.253,-16.113,12.207,29.297,5.859,-296.387
1532511148.257,18.066,19.043,39.062,80.566,178.223
1532511148.261,-1.953,34.668,42.480,74.219,347.168
1532511148.265,39.062,25.391,43.457,52.734,-125.977
1532511148.268,107.910,33.203,47.363,44.434,-303.711
1532511148.272,17.090,41.992,26.367,9.277,-388.672
1532511148.276,27.832,49.805,30.762,25.879,393.555
1532511148.280,-5.859,33.691,41.016,21.484,526.367
1532511148.284,-19.043,39.062,32.227,0.488,-376.953
1532511148.288,56.152,56.641,36.621,7.324,-383.301
1532511148.292,44.434,38.574,32.227,0.000,-265.625
1532511148.296,15.625,44.922,32.715,17.578,69.336
1532511148.300,-10.742,46.875,37.598,-5.371,-16.113
1532511148.304,-55.664,32.715,45.410,-14.160,-46.875
1532511148.308,-13.184,50.293,49.316,-37.109,107.910
1532511148.311,-21.973,43.457,44.434,-49.316,-277.344
1532511148.315,-86.914,10.254,42.480,6.836,321.777
1532511148.319,-19.531,33.691,38.574,-5.859,728.516
1532511148.323,56.152,55.664,34.668,-4.883,-223.633
1532511148.327,18.066,35.156,36.621,-41.992,-329.590
1532511148.331,-54.199,26.855,48.828,-60.059,-253.906
1532511148.335,-8.789,47.852,46.875,13.184,38.574
1532511148.339,31.738,50.781,39.062,15.625,135.742
1532511148.343,11.719,45.410,41.016,-2.930,-265.625
1532511148.347,27.344,46.875,45.898,33.691,-22.949
1532511148.350,-10.742,37.598,38.086,3.418,24.414
1532511148.354,23.438,28.809,24.414,-17.578,197.754
1532511148.358,6.348,27.344,37.598,6.836,786.133
1532511148.362,-10.742,23.926,51.758,70.801,119.629
1532511148.366,32.715,14.648,41.992,44.922,-450.195
1532511148.370,57.129,21.973,41.016,15.625,-451.660
1532511148.374,79.102,41.504,37.598,47.852,-182.617
1532511148.378,43.945,39.062,37.109,13.184,162.109
1532511148.382,-4.883,20.508,44.434,15.625,-207.031
1532511148.386,29.785,24.414,46.875,55.664,-326.172
1532511148.390,64.453,47.363,37.598,16.602,-301.758
1532511148.393,29.785,35.156,32.715,31.250,-108.887
1532511148.397,51.270,30.273,49.316,81.055,295.410
1532511148.401,43.945,39.062,41.992,45.898,179.688
1532511148.405,55.176,24.414,40.527,50.293,-173.828
1532511148.409,43.457,28.809,41.016,15.625,-230.957
1532511148.413,2.441,30.762,41.504,3.906,-213.867
1532511148.417,36.133,37.109,42.480,67.871,546.387
1532511148.421,53.711,39.551,41.504,32.715,470.703
1532511148.425,72.754,42.480,36.133,40.527,-427.734
1532511148.429,20.996,24.902,47.363,17.090,-278.809
1532511148.432,8.789,11.719,42.969,0.488,-251.465
1532511148.436,71.289,49.805,16.602,59.082,-125.000
1532511148.440,44.922,46.387,28.320,52.734,-152.344
1532511148.444,29.297,24.414,44.922,31.738,50.293
1532511148.448,34.180,28.320,40.527,53.711,121.094
1532511148.452,45.898,30.273,36.621,20.508,-452.637
1532511148.456,12.207,14.160,40.527,31.250,264.160
1532511148.460,-48.828,23.926,33.691,46.875,699.707
1532511148.464,-46.387,39.062,26.855,34.668,-261.719
1532511148.468,28.320,38.574,29.785,41.016,-437.988
1532511148.472,100.098,39.551,36.133,37.598,-404.785
1532511148.475,87.891,41.992,33.203,71.777,-6.348
1532511148.479,21.484,26.855,43.457,20.508,88.379
1532511148.483,-33.691,2.441,44.434,19.043,-311.523
1532511148.487,31.738,11.230,43.457,70.312,-267.578
1532511148.491,91.797,39.062,41.992,77.637,-103.027
1532511148.495,61.035,36.621,28.809,78.613,465.820
1532511148.499,60.059,41.504,33.203,41.992,751.465
1532511148.503,52.246,36.133,35.156,27.344,-217.285
1532511148.507,37.109,21.484,35.645,39.551,-493.164
1532511148.511,52.246,28.320,32.715,35.156,-324.219
1532511148.515,27.344,20.996,41.992,60.059,34.668
1532511148.518,17.090,33.203,39.062,39.062,110.840
1532511148.522,36.621,36.621,36.133,43.457,-366.699
1532511148.526,27.832,23.926,35.156,-0.488,-207.520
1532511148.530,20.508,21.973,34.668,-15.137,-206.543
1532511148.534,52.734,30.762,49.805,74.707,-61.035
1532511148.538,45.410,34.668,50.781,32.227,329.590
1532511148.542,9.766,48.340,27.344,-18.066,46.387
1532511148.546,0.000,41.992,26.855,47.852,-146.484
1532511148.550,28.320,15.625,54.199,116.211,-236.816
1532511148.554,93.262,28.320,42.480,81.055,-241.699
1532511148.557,84.473,47.852,26.855,24.414,655.273
1532511148.561,11.719,43.945,23.438,-4.395,410.156
1532511148.565,-21.484,32.227,29.785,-36.621,-396.973
1532511148.569,64.453,32.715,35.156,12.207,-376.953
1532511148.573,86.914,32.715,43.457,102.539,-264.648
1532511148.577,47.363,29.297,42.969,61.523,85.449
1532511148.581,15.137,21.973,32.227,16.602,-78.125
1532511148.585,51.758,25.391,27.344,2.441,-59.570
1532511148.589,84.961,37.598,31.738,-0.488,-2.930
1532511148.593,55.664,30.273,44.434,66.406,-314.453
1532511148.597,44.922,21.484,46.875,82.031,475.586
1532511148.600,38.086,45.898,35.156,61.035,542.969
1532511148.604,3.418,38.574,44.922,35.645,-465.820
1532511148.608,-7.324,15.625,52.246,24.414,-360.352
1532511148.612,9.766,35.645,22.461,-0.977,-210.938
1532511148.616,29.297,36.133,27.832,49.316,-40.527
1532511148.620,59.570,39.062,39.551,47.363,-143.066
1532511148.624,74.707,39.062,28.809,-38.574,-315.918
1532511148.628,47.363,38.086,20.996,66.895,-129.883
1532511148.632,40.527,33.691,26.855,101.074,-5.371
1532511148.636,84.473,39.062,33.203,18.066,373.535
1532511148.640,37.598,37.109,30.273,20.996,188.477
1532511148.643,10.254,32.227,24.414,60.547,-267.578
1532511148.647,64.453,28.320,26.855,66.895,-123.047
1532511148.651,43.457,33.203,28.809,79.590,-358.887
1532511148.655,38.574,32.715,26.855,19.531,210.449
1532511148.659,15.625,37.598,19.531,-38.574,691.895
1532511148.663,18.066,53.223,34.668,52.734,-148.438
1532511148.667,36.133,29.785,56.152,108.398,-345.215
1532511148.671,44.922,32.227,37.109,53.711,-386.719
1532511148.675,99.609,44.922,31.738,29.297,52.246
1532511148.679,71.289,28.320,31.250,36.133,511.230
1532511148.682,20.996,24.414,30.762,51.758,-24.414
1532511148.686,-3.906,29.785,29.297,28.809,-299.805
1532511148.690,31.250,40.039,27.832,10.742,-333.984
1532511148.694,52.246,30.273,31.738,17.578,66.406
1532511148.698,37.598,20.996,26.367,55.664,836.426
1532511148.702,30.273,24.902,38.574,50.781,80.078
1532511148.706,32.715,35.156,22.949,-16.113,-515.137
1532511148.710,17.090,28.320,19.043,21.973,-302.734
1532511148.714,23.438,41.016,38.086,82.520,-61.035
1532511148.718,30.273,40.527,39.062,57.617,85.938
1532511148.722,49.316,21.484,31.250,30.273,-280.762
1532511148.725,48.340,36.621,31.738,31.738,-49.316
1532511148.729,40.039,38.574,26.855,43.457,209.961
1532511148.733,39.062,29.297,23.438,46.875,-186.523
1532511148.737,4.883,14.648,36.133,48.828,472.656
1532511148.741,-39.062,38.086,30.273,41.992,465.332
1532511148.745,55.664,61.035,20.020,33.691,-404.785
1532511148.749,128.418,44.434,20.996,10.254,-354.004
1532511148.753,62.012,36.621,27.832,20.020,-365.234
1532511148.757,27.344,23.438,33.203,32.227,-89.844
1532511148.761,72.754,19.531,20.020,27.344,-74.707
1532511148.764,88.379,28.809,21.973,54.688,-258.301
1532511148.768,64.453,42.480,42.969,42.480,-158.203
1532511148.772,38.086,44.922,32.715,14.648,-35.645
1532511148.776,22.949,33.691,34.180,32.227,606.445
1532511148.780,40.039,31.250,35.645,33.691,588.867
1532511148.784,37.109,25.879,43.457,0.000,-412.598
1532511148.788,37.598,28.809,42.480,52.734,-486.328
1532511148.792,23.438,27.344,27.344,105.469,-327.637
1532511148.796,-15.137,32.227,41.016,89.844,13.672
1532511148.800,-21.973,29.297,37.109,68.359,-52.734
1532511148.804,-43.457,12.207,22.949,43.457,-366.699
1532511148.807,76.660,39.551,25.391,54.199,-220.703
1532511148.811,114.258,50.293,29.297,12.207,-188.477
1532511148.815,26.855,25.391,31.250,-5.859,118.164
1532511148.819,44.922,19.043,45.898,77.148,268.555
1532511148.823,43.945,30.273,53.711,82.031,80.078
1532511148.827,-0.488,28.809,48.828,40.039,16.602
1532511148.831,37.109,29.785,35.645,34.180,-346.191
1532511148.835,8.301,26.367,38.574,-0.488,135.742
1532511148.839,16.113,26.367,48.340,47.363,809.570
1532511148.843,74.707,31.738,49.805,94.238,-16.602
1532511148.847,49.805,41.016,36.133,63.477,-354.004
1532511148.850,20.508,29.297,42.480,59.082,-371.094
1532511148.854,15.137,28.809,39.551,42.480,-81.055
1532511148.858,16.113,44.922,40.039,-0.488,190.918
1532511148.862,41.504,52.246,41.504,-6.348,-174.805
1532511148.866,50.781,43.945,35.156,62.500,29.785
1532511148.870,40.527,23.926,43.945,76.660,-26.367
1532511148.874,33.203,13.672,42.969,45.410,-28.320
1532511148.878,-6.836,24.902,36.621,43.457,356.934
1532511148.882,-8.301,57.617,40.039,17.578,-99.121
1532511148.886,27.832,36.133,47.363,20.996,-359.375
1532511148.889,81.055,19.043,50.781,42.480,-287.109
1532511148.893,62.988,41.992,54.688,46.875,-156.250
1532511148.897,33.691,48.340,40.527,59.082,597.168
1532511148.901,40.039,37.109,35.645,59.082,205.566
1532511148.905,38.086,46.875,27.344,38.574,-495.117
1532511148.909,9.766,51.758,27.344,33.691,-227.051
1532511148.913,10.742,43.457,41.992,42.480,22.949
1532511148.917,49.316,44.922,44.922,4.883,694.824
1532511148.921,40.527,48.340,35.645,0.488,428.223
1532511148.925,6.836,39.062,23.438,-12.207,-442.871
1532511148.929,83.008,35.156,32.227,35.156,-307.617
1532511148.932,74.219,50.293,38.574,65.918,-304.199
1532511148.936,0.977,49.805,32.715,47.363,-169.434
1532511148.940,15.625,31.738,41.504,54.199,-163.086
1532511148.944,83.984,48.340,35.645,20.508,-245.117
1532511148.948,76.172,50.293,28.809,25.391,-200.195
1532511148.952,29.297,36.133,32.715,41.016,-333.496
1532511148.956,67.871,37.598,36.621,39.551,-54.199
1532511148.960,63.965,38.086,39.551,35.645,269.531
1532511148.964,28.809,39.062,30.273,37.109,143.066
1532511148.968,15.625,31.738,28.320,44.434,-149.414
1532511148.972,61.523,34.668,39.062,2.930,-456.055
1532511148.975,62.500,39.062,42.480,-18.555,293.457
1532511148.979,32.715,34.180,40.039,36.621,750.977
1532511148.983,59.082,52.734,40.527,72.754,-230.469
1532511148.987,77.637,45.898,50.781,69.824,-467.285
1532511148.991,23.926,24.414,42.480,46.875,-354.980
1532511148.995,-39.062,26.367,25.391,15.625,107.910
1532511148.999,33.691,36.133,36.133,12.695,172.852
1532511149.003,89.355,39.062,33.203,34.668,-354.004
1532511149.007,74.707,37.598,23.926,36.133,41.992
1532511149.011,62.988,42.969,37.109,63.965,9.277
1532511149.014,-45.410,21.484,42.480,19.531,108.398
1532511149.018,-31.250,12.695,42.480,10.254,813.477
1532511149.022,70.801,33.691,37.109,61.523,0.000
1532511149.026,36.133,32.227,44.434,61.035,-431.641
1532511149.030,41.504,20.996,46.875,44.434,-300.781
1532511149.034,35.156,31.250,36.621,28.809,-118.652
1532511149.038,36.621,38.574,37.109,41.016,91.309
1532511149.042,62.012,33.691,33.203,21.973,-228.516
1532511149.046,41.992,29.785,34.668,42.969,-199.219
1532511149.050,66.406,41.504,40.527,76.172,-236.816
1532511149.054,8.301,30.762,41.504,39.551,-63.965
1532511149.057,-9.766,20.996,34.180,8.789,737.793
1532511149.061,17.578,24.902,20.996,12.695,356.934
1532511149.065,-7.324,32.227,37.109,38.086,-450.195
1532511149.069,0.488,16.602,43.945,42.969,-441.406
1532511149.073,28.320,11.230,34.180,46.875,-327.637
1532511149.077,82.031,36.133,37.109,62.988,37.109
1532511149.081,51.270,31.250,32.715,42.480,-123.535
1532511149.085,32.227,24.902,34.668,38.574,-351.562
1532511149.089,26.855,13.672,43.457,34.668,-295.898
1532511149.093,20.996,12.207,40.527,2.441,-194.336
1532511149.097,52.246,32.715,33.691,36.133,67.871
1532511149.100,60.059,32.715,29.785,84.961,181.641
1532511149.104,37.109,25.879,22.461,26.855,-12.207
1532511149.108,-2.441,31.250,31.250,-2.441,-172.852
1532511149.112,-5.371,17.578,37.598,32.715,-307.129
1532511149.116,50.293,23.438,29.297,32.715,404.785
1532511149.120,61.035,34.180,32.227,35.645,618.652
1532511149.124,22.949,19.043,37.109,41.992,-335.449
1532511149.128,41.992,20.996,30.273,36.133,-305.664
1532511149.132,46.875,32.227,34.668,33.203,-260.742
1532511149.136,4.883,16.113,40.039,9.277,-54.199
1532511149.139,28.809,6.348,29.785,42.480,-41.016
1532511149.143,16.602,20.020,23.926,48.340,-252.441
1532511149.147,-24.414,40.039,26.855,6.348,128.418
1532511149.151,28.809,21.973,46.387,56.152,-149.414
1532511149.155,86.914,11.230,36.621,68.848,131.348
1532511149.159,77.148,25.391,27.832,18.555,782.227
1532511149.163,35.645,33.203,22.461,-12.207,-93.262
1532511149.167,6.348,25.879,25.391,0.977,-445.801
1532511149.171,35.156,27.344,38.574,65.430,-447.266
1532511149.175,42.969,34.668,25.391,56.152,-9.277
1532511149.179,12.695,22.461,33.691,31.738,237.305
1532511149.182,16.113,36.133,38.574,26.367,-269.531
1532511149.186,53.223,36.133,32.227,19.531,-329.102
1532511149.190,74.219,20.508,39.551,45.898,-214.355
1532511149.194,-39.062,12.695,24.902,5.371,245.605
1532511149.198,-16.602,17.090,25.391,-26.367,832.031
1532511149.202,101.074,26.855,32.715,20.020,68.848
1532511149.206,65.430,26.367,19.043,29.297,-546.875
1532511149.210,45.898,23.438,29.297,61.035,-339.844
1532511149.214,42.969,20.996,33.203,52.734,-106.934
1532511149.218,38.574,25.879,24.902,7.324,57.129
1532511149.221,46.875,25.879,28.320,54.688,-304.688
1532511149.225,52.246,17.578,42.480,62.988,-275.391
1532511149.229,25.391,18.066,28.809,16.113,-168.945
1532511149.233,33.691,18.066,25.391,24.414,-185.059
1532511149.237,54.688,19.043,36.621,28.809,-2.441
1532511149.241,6.348,13.184,32.227,7.812,130.371
1532511149.245,0.977,5.371,36.133,30.762,185.547
1532511149.249,18.066,13.184,39.551,24.902,-93.750
1532511149.253,37.109,17.090,39.551,15.625,-437.500
1532511149.257,19.531,7.324,38.574,-8.301,400.391
1532511149.261,-30.273,0.000,38.574,-10.254,606.934
1532511149.264,16.602,21.973,35.645,47.363,-325.684
1532511149.268,57.129,28.809,33.691,67.871,-407.715
1532511149.272,3.906,19.531,23.438,30.762,-359.863
1532511149.276,10.742,20.508,18.066,31.250,-12.207
1532511149.280,39.062,27.344,30.762,49.805,-9.766
1532511149.284,19.043,19.043,36.621,54.199,-312.500
1532511149.288,29.785,17.090,31.738,28.809,14.648
1532511149.292,35.156,24.902,34.180,22.461,-88.867
1532511149.296,47.852,29.297,33.691,27.344,364.258
1532511149.300,27.344,24.414,27.344,23.926,663.574
1532511149.304,-16.602,10.254,36.621,49.316,-362.305
1532511149.307,-25.391,18.066,32.715,-22.461,-422.852
1532511149.311,17.090,27.344,38.086,2.441,-246.094
1532511149.315,86.914,31.250,40.527,62.988,49.805
1532511149.319,41.504,28.320,30.762,25.391,-20.020
1532511149.323,9.766,15.137,38.574,63.965,-351.562
1532511149.327,43.457,19.043,34.180,66.406,-144.043
1532511149.331,21.973,26.855,33.691,40.527,-240.723
1532511149.335,-7.324,24.902,46.875,31.738,267.578
1532511149.339,39.551,40.527,36.621,27.832,821.777
1532511149.343,63.477,37.109,32.227,59.082,-40.039
1532511149.346,36.133,17.578,41.504,52.246,-366.699
1532511149.350,49.316,31.738,26.367,-37.109,-386.230
1532511149.354,40.039,27.832,22.949,-25.391,-109.863
1532511149.358,-63.965,15.625,36.621,33.203,190.430
1532511149.362,-40.527,30.762,39.062,38.574,-176.758
1532511149.366,93.262,32.715,35.156,73.242,-227.539
1532511149.370,67.383,20.508,31.250,44.922,-337.402
1532511149.374,40.039,23.438,34.668,10.742,-84.473
1532511149.378,24.902,28.320,37.109,50.293,253.418
1532511149.382,7.324,27.344,38.574,83.984,152.344
1532511149.386,72.754,37.109,35.645,46.387,-3.906
1532511149.389,47.363,33.691,30.762,39.551,-304.199
1532511149.393,27.344,27.832,30.762,32.715,-116.699
1532511149.397,16.113,43.457,25.879,12.695,295.898
1532511149.401,9.277,35.156,20.020,12.695,41.504
1532511149.405,49.316,20.508,34.180,57.617,-232.422
1532511149.409,45.898,30.273,37.109,54.688,-166.016
1532511149.413,24.414,32.715,38.574,61.523,-196.777
1532511149.417,39.551,24.902,41.504,66.406,542.969
1532511149.421,9.766,21.973,35.645,21.973,504.395
1532511149.425,19.531,31.738,39.062,55.664,-390.625
1532511149.429,7.812,41.016,37.109,8.789,66.895
1532511149.432,51.758,51.270,30.762,-26.855,-79.102
1532511149.436,78.613,38.574,48.828,97.656,323.242
1532511149.440,35.645,30.273,39.062,44.922,591.797
1532511149.444,76.172,30.762,24.902,33.691,-341.309
1532511149.448,39.062,35.645,31.738,40.527,-392.090
1532511149.452,19.043,41.992,17.578,-22.949,-407.715
1532511149.456,31.738,23.438,28.320,44.434,-140.137
1532511149.460,-49.316,17.090,30.762,54.688,-44.922
1532511149.464,32.227,23.926,22.949,34.180,-250.488
1532511149.468,66.895,43.945,34.180,52.734,-275.391
1532511149.471,23.926,41.992,28.320,42.480,-415.527
1532511149.475,71.289,28.320,31.250,78.125,374.023
1532511149.479,27.832,27.832,27.832,22.949,747.559
1532511149.483,-22.949,32.715,17.090,-16.113,-263.672
1532511149.487,42.969,36.621,22.461,60.059,-496.582
1532511149.491,64.453,41.016,19.531,75.195,-386.230
1532511149.495,62.500,35.156,16.602,-36.621,57.617
1532511149.499,21.973,32.715,18.555,-16.602,125.977
1532511149.503,4.883,43.457,13.672,11.230,-364.746
1532511149.507,48.340,40.039,29.297,7.812,-270.508
1532511149.511,29.297,33.691,34.668,80.078,-231.934
1532511149.514,60.059,27.344,22.461,82.520,100.586
1532511149.518,74.707,39.062,19.043,46.875,178.711
1532511149.522,35.156,33.691,18.555,-59.082,-24.902
1532511149.526,-8.789,13.672,17.090,-34.668,121.094
1532511149.530,37.598,13.672,24.414,93.750,-211.426
1532511149.534,99.121,39.551,21.973,91.797,-117.676
1532511149.538,75.684,47.852,18.555,32.715,748.047
1532511149.542,32.715,33.203,15.137,16.113,255.371
1532511149.546,3.906,32.715,12.695,56.152,-380.371
1532511149.550,0.977,37.109,12.695,22.949,-327.637
1532511149.553,13.672,29.297,19.043,27.344,-264.648
1532511149.557,52.734,20.020,13.184,51.758,47.852
1532511149.561,27.344,26.367,3.418,44.922,-131.836
1532511149.565,41.016,39.551,10.742,54.688,-236.816
1532511149.569,59.570,41.016,9.277,2.441,19.043
1532511149.573,43.457,39.551,9.766,21.973,-81.543
1532511149.577,44.922,39.062,20.508,61.035,512.207
1532511149.581,26.367,27.344,14.648,69.336,491.211
1532511149.585,1.953,30.273,16.602,34.180,-492.188
1532511149.589,27.832,31.250,21.484,-64.941,-444.336
1532511149.593,33.691,27.344,15.137,5.371,-265.137
1532511149.596,6.836,13.672,25.391,104.004,10.742
1532511149.600,50.293,20.996,20.996,26.367,-145.020
1532511149.604,81.543,51.270,8.301,0.488,-359.375
1532511149.608,-3.418,29.785,26.367,61.523,-212.891
1532511149.612,-42.480,20.020,32.227,97.656,-115.723
1532511149.616,-20.996,47.363,21.484,4.395,595.215
1532511149.620,64.941,51.270,8.789,-7.812,512.695
1532511149.624,85.449,48.828,10.254,49.805,-392.090
1532511149.628,47.363,25.391,10.254,-11.719,-270.508
1532511149.632,66.406,26.855,23.926,77.148,-274.414
1532511149.636,54.199,47.852,33.691,93.750,86.914
1532511149.639,22.949,20.020,18.066,56.641,142.578
1532511149.643,25.391,12.695,23.926,66.406,-244.141
1532511149.647,24.414,34.668,31.250,65.918,-153.320
1532511149.651,-10.742,19.043,27.344,12.207,-308.594
1532511149.655,12.695,36.621,17.578,-41.016,18.066
1532511149.659,69.336,59.082,14.648,32.227,205.078
1532511149.663,4.395,42.480,15.625,47.363,72.266
1532511149.667,9.277,32.227,13.184,3.418,44.922
1532511149.671,69.336,27.344,15.625,32.715,-398.438
1532511149.675,8.789,30.273,19.531,48.828,87.402
1532511149.678,8.789,30.273,30.273,43.457,865.723
1532511149.682,61.523,32.227,34.668,4.883,15.137
1532511149.686,41.504,41.504,23.926,-18.066,-485.352
1532511149.690,39.062,32.715,30.273,39.551,-365.723
1532511149.694,10.254,16.113,48.340,41.992,22.949
1532511149.698,21.973,26.367,28.320,19.531,239.258
1532511149.702,69.336,31.250,25.879,3.418,-292.480
1532511149.706,46.387,32.227,31.250,17.090,-281.738
1532511149.710,18.555,32.227,29.785,34.180,78.613
1532511149.714,-22.461,34.180,38.086,36.621,121.094
1532511149.718,19.531,27.832,28.809,63.477,662.598
1532511149.721,64.453,25.391,29.297,78.125,280.762
1532511149.725,11.230,27.832,36.133,30.273,-455.078
1532511149.729,21.973,30.273,38.086,21.973,-268.555
1532511149.733,54.688,38.086,30.273,35.156,-244.141
1532511149.737,73.730,45.410,29.785,3.418,-51.270
1532511149.741,25.879,41.992,23.438,9.766,-166.992
1532511149.745,6.348,33.203,27.832,41.504,-198.730
1532511149.749,9.277,23.438,38.086,71.777,-185.547
1532511149.753,24.414,21.973,30.762,63.965,-335.449
1532511149.757,62.988,30.762,28.809,49.805,256.836
1532511149.761,89.355,24.414,29.785,23.926,306.152
1532511149.764,57.617,4.395,30.273,21.973,-264.160
1532511149.768,9.277,26.367,21.973,37.598,-281.738
1532511149.772,47.852,46.387,29.297,27.344,-365.723
1532511149.776,24.902,38.574,37.109,21.484,347.656
1532511149.780,15.625,26.855,44.922,31.250,412.109
1532511149.784,56.152,33.203,40.527,42.480,-381.836
1532511149.788,22.949,32.715,34.180,25.879,-352.051
1532511149.792,25.879,34.180,30.762,38.086,-250.000
1532511149.796,26.367,24.902,39.062,14.648,101.074
1532511149.800,5.859,13.184,41.504,35.156,36.621
1532511149.803,11.230,12.695,28.320,49.805,-133.301
1532511149.807,-3.418,23.438,27.344,49.805,138.672
1532511149.811,20.508,42.480,22.949,27.344,-40.039
1532511149.815,58.105,37.598,21.484,-26.855,273.438
1532511149.819,15.625,26.855,29.785,41.504,293.457
1532511149.823,-1.465,30.273,31.250,8.789,-207.031
1532511149.827,10.254,39.551,25.879,7.324,-12.695
1532511149.831,24.902,18.555,33.691,82.520,-302.246
1532511149.835,26.855,6.348,34.180,44.922,141.602
1532511149.839,9.277,24.902,31.738,28.320,686.523
1532511149.843,0.000,37.598,29.297,8.301,-120.605
1532511149.846,58.105,37.109,25.879,5.371,-262.207
1532511149.850,27.832,30.762,26.855,47.852,-90.820
1532511149.854,-4.883,17.578,23.926,74.219,121.582
1532511149.858,40.527,29.785,27.344,28.320,767.578
1532511149.862,54.199,41.504,29.785,1.465,148.438
1532511149.866,54.688,29.297,34.668,42.480,-482.422
1532511149.870,-8.789,16.602,35.645,-4.883,-469.238
1532511149.874,12.207,23.926,22.949,16.602,-199.219
1532511149.878,40.039,33.691,26.367,87.402,155.762
1532511149.882,-4.883,26.855,29.297,50.293,-203.613
1532511149.886,32.715,28.320,17.578,2.441,-345.215
1532511149.889,-13.672,33.691,24.902,27.832,-313.477
1532511149.893,-25.879,26.367,40.039,55.664,-148.438
1532511149.897,33.691,27.832,30.762,24.902,361.816
1532511149.901,48.340,31.738,34.668,13.184,15.625
1532511149.905,-0.488,30.762,40.527,39.062,-377.441
1532511149.909,-32.715,29.785,34.180,47.852,-179.199
1532511149.913,67.871,35.156,34.180,19.043,-146.973
1532511149.917,41.504,31.738,29.297,29.297,317.871
1532511149.921,7.324,27.832,38.574,50.781,101.074
1532511149.925,51.270,40.039,43.457,56.152,-340.332
1532511149.928,48.828,53.223,27.832,38.574,-135.254
1532511149.932,39.551,57.129,17.090,13.184,-275.879
1532511149.936,22.461,48.828,21.973,11.719,298.828
1532511149.940,-20.996,46.875,31.250,0.977,349.609
1532511149.944,-29.297,48.828,40.039,-20.996,-46.875
1532511149.948,-6.836,39.062,44.922,-43.945,117.188
1532511149.952,-38.086,52.734,15.137,-83.984,-397.949
1532511149.956,-80.078,67.383,21.484,-45.410,245.117
1532511149.960,-84.473,54.199,49.316,12.695,709.961
1532511149.964,-59.082,57.617,38.574,-36.621,-254.883
1532511149.968,-95.215,54.199,33.203,-53.223,-440.430
1532511149.971,-71.289,55.176,37.598,1.465,-406.738
1532511149.975,8.789,70.312,41.016,-27.344,-0.488
1532511149.979,-31.250,53.223,40.039,-55.176,98.145
1532511149.983,-32.715,37.598,36.621,-53.711,-319.336
1532511149.987,-41.016,59.082,34.668,-36.621,-285.156
1532511149.991,-88.867,60.059,49.805,-5.371,-91.797
1532511149.995,-57.617,44.434,41.504,-67.871,463.867
1532511149.999,-33.691,52.734,17.090,-84.961,774.414
1532511150.003,-62.988,50.781,27.344,-29.297,-175.293
1532511150.007,-48.828,37.109,37.598,3.906,-490.723
1532511150.010,-21.484,35.645,27.344,1.465,-330.078
1532511150.014,-10.254,35.645,23.926,-64.941,30.762
1532511150.018,-3.418,19.531,27.832,-35.156,149.414
1532511150.022,-41.016,27.344,35.156,21.484,-358.887
1532511150.026,-65.918,24.902,38.086,40.527,-237.793
1532511150.030,46.387,11.719,28.809,61.523,-216.797
1532511150.034,85.938,32.227,27.832,37.109,-69.336
1532511150.038,41.016,27.344,30.762,51.758,208.984
1532511150.042,33.203,16.113,22.949,17.090,76.172
1532511150.046,-5.371,4.395,23.926,15.625,-88.379
1532511150.050,18.555,5.371,28.320,72.266,-288.086
1532511150.053,43.457,20.508,16.113,49.316,-309.082
1532511150.057,52.246,12.207,21.973,16.113,597.656
1532511150.061,11.230,4.395,32.715,27.344,428.711
1532511150.065,-5.859,3.418,23.438,40.039,-440.430
1532511150.069,60.059,19.043,16.113,31.738,-422.363
1532511150.073,3.906,11.719,24.902,16.113,-312.500
1532511150.077,15.137,10.742,28.809,47.852,34.668
1532511150.081,101.074,27.832,20.020,90.332,-97.168
1532511150.085,69.336,15.625,32.227,75.195,-65.918
1532511150.089,21.484,6.836,31.250,48.340,-7.324
1532511150.093,21.484,4.883,26.855,34.180,-361.328
1532511150.096,-9.766,-4.883,22.949,-16.602,429.199
1532511150.100,32.227,-1.953,25.391,56.152,582.031
1532511150.104,102.051,21.484,29.785,114.258,-444.824
1532511150.108,52.246,39.551,21.973,54.199,-405.273
1532511150.112,22.949,10.742,20.996,40.039,-252.441
1532511150.116,63.965,5.859,15.625,69.824,-48.828
1532511150.120,80.078,25.391,17.090,83.984,-134.277
1532511150.124,56.152,21.973,14.648,39.062,-341.309
1532511150.128,9.766,10.742,22.949,45.898,-125.000
1532511150.132,73.730,3.418,32.715,72.754,-30.273
1532511150.135,89.355,6.836,28.809,39.551,491.211
1532511150.139,60.059,12.207,24.414,37.598,676.270
1532511150.143,37.109,15.137,33.203,80.078,-207.031
1532511150.147,6.348,11.719,28.320,76.172,-371.582
1532511150.151,32.715,9.277,23.438,52.734,-413.086
1532511150.155,60.547,5.371,24.902,13.672,-88.379
1532511150.159,54.199,9.277,22.949,41.992,113.770
1532511150.163,41.016,15.137,28.320,89.355,-238.770
1532511150.167,66.406,15.137,24.902,74.219,-254.883
1532511150.171,43.457,18.555,24.902,44.434,-385.254
1532511150.175,27.832,19.043,20.996,73.730,46.875
1532511150.178,61.035,11.719,11.719,73.242,520.996
1532511150.182,39.062,11.230,26.855,67.871,6.348
1532511150.186,60.059,22.949,27.832,39.551,-287.109
1532511150.190,61.523,24.902,28.320,39.062,-326.172
1532511150.194,49.316,15.625,28.809,31.250,24.414
1532511150.198,23.438,7.812,32.227,-14.648,825.195
1532511150.202,21.973,4.395,37.109,65.918,145.508
1532511150.206,34.668,14.160,14.160,86.426,-495.117
1532511150.210,58.594,10.254,28.320,80.078,-286.621
1532511150.214,62.988,18.066,29.297,69.336,-74.707
1532511150.218,22.461,16.602,25.391,52.734,84.961
1532511150.221,35.645,30.762,24.414,24.902,-256.836
1532511150.225,65.430,39.062,18.066,8.789,27.832
1532511150.229,49.316,23.926,31.250,49.316,111.328
1532511150.233,-4.883,14.160,29.297,33.691,-341.797
1532511150.237,11.719,19.043,24.414,47.852,494.629
1532511150.241,45.898,33.691,25.391,29.785,482.422
1532511150.245,50.293,17.090,38.086,30.273,-266.602
1532511150.249,18.555,8.789,27.832,29.297,-224.121
1532511150.253,42.480,10.742,18.555,54.199,-397.949
1532511150.257,23.926,16.113,31.738,61.523,-110.840
1532511150.260,-16.602,23.926,29.297,24.902,-75.684
1532511150.264,55.176,38.086,20.996,-4.395,-267.090
1532511150.268,24.414,41.016,19.531,56.641,-256.836
1532511150.272,-0.977,22.949,20.020,47.852,-156.738
1532511150.276,35.156,8.789,30.762,30.762,566.895
1532511150.280,53.223,19.043,34.668,81.543,610.352
1532511150.284,0.000,13.184,26.367,44.922,-390.137
1532511150.288,10.254,16.113,28.320,29.297,-473.633
1532511150.292,78.613,46.387,21.973,27.832,-304.199
1532511150.296,31.250,34.180,27.832,31.738,47.852
1532511150.300,17.578,4.883,39.551,55.176,-19.043
1532511150.303,58.594,16.602,28.320,35.645,-368.164
1532511150.307,56.152,34.180,17.090,33.203,-227.051
1532511150.311,75.195,34.668,3.906,21.973,-205.078
1532511150.315,71.777,21.484,16.602,-10.742,131.836
1532511150.319,29.297,21.484,14.160,15.137,302.734
1532511150.323,27.344,14.648,18.066,60.547,69.336
1532511150.327,-26.855,9.766,23.926,54.688,19.531
1532511150.331,39.062,29.785,10.254,0.977,-314.453
1532511150.335,53.223,25.879,15.625,38.086,134.766
1532511150.339,-8.301,25.879,16.602,57.129,829.102
1532511150.342,29.785,15.625,13.184,59.082,22.461
1532511150.346,27.344,10.254,25.879,56.641,-351.074
1532511150.350,46.875,32.227,22.949,39.551,-363.770
1532511150.354,45.898,35.645,10.742,32.715,-112.305
1532511150.358,31.250,17.090,0.977,34.668,182.617
1532511150.362,6.348,17.090,-5.859,25.391,-177.246
1532511150.366,-6.348,15.625,2.930,-21.973,71.777
1532511150.370,43.457,10.254,14.160,37.598,-77.148
1532511150.374,59.082,27.344,25.879,76.660,-251.465
1532511150.378,8.301,11.719,27.832,14.648,707.031
1532511150.382,-16.602,20.020,22.949,-27.832,294.922
1532511150.385,30.273,46.387,8.789,8.301,-530.273
1532511150.389,44.434,15.625,19.043,64.453,-400.879
1532511150.393,31.738,14.648,23.926,42.969,-199.707
1532511150.397,11.230,30.762,19.043,12.695,70.312
1532511150.401,53.711,25.391,13.184,51.758,-218.262
1532511150.405,33.203,19.531,17.090,49.316,-384.766
1532511150.409,-18.555,17.090,20.020,43.945,-194.336
1532511150.413,4.395,29.785,20.508,59.570,39.551
1532511150.417,30.762,29.785,23.926,17.090,694.336
1532511150.421,34.668,21.973,19.531,21.973,450.195
1532511150.425,58.594,33.691,20.020,41.992,-426.270
1532511150.428,60.059,27.832,11.230,19.531,-302.246
1532511150.432,46.875,22.949,11.230,28.320,-290.527
1532511150.436,6.836,29.785,17.090,48.828,-154.785
1532511150.440,10.742,31.738,12.207,41.504,-143.066
1532511150.444,54.199,33.691,16.602,34.668,-237.793
1532511150.448,26.367,19.531,23.926,12.695,-187.500
1532511150.452,14.648,29.785,21.973,19.531,-327.637
1532511150.456,26.855,38.086,17.090,49.805,-30.762
1532511150.460,34.668,34.668,18.555,47.852,346.680
1532511150.464,27.832,23.926,33.691,33.691,72.754
1532511150.467,1.953,10.742,30.762,48.340,-252.930
1532511150.471,-34.180,23.438,18.555,32.715,-437.988
1532511150.475,26.855,28.320,19.531,27.344,282.227
1532511150.479,86.914,20.996,18.066,38.086,762.695
1532511150.483,12.207,22.949,38.086,18.555,-208.008
1532511150.487,-4.395,21.973,45.410,-12.207,-475.098
1532511150.491,59.570,18.066,13.672,28.320,-354.980
1532511150.495,36.133,13.672,8.789,67.383,118.164
1532511150.499,37.109,35.156,12.207,32.227,185.547
1532511150.503,52.246,35.645,12.695,-5.859,-339.844
1532511150.507,-3.418,8.789,25.879,19.043,19.531
1532511150.510,11.719,22.461,28.320,15.137,45.410
1532511150.514,66.406,41.016,20.996,-10.254,122.070
1532511150.518,-17.578,40.527,18.066,23.438,790.527
1532511150.522,11.719,30.273,25.391,68.359,46.387
1532511150.526,96.680,15.137,21.484,55.664,-432.617
1532511150.530,93.262,24.902,24.902,29.297,-291.992
1532511150.534,73.242,25.879,34.668,50.781,-137.207
1532511150.538,35.645,24.414,24.902,55.176,80.566
1532511150.542,19.043,25.391,24.902,19.531,-221.680
1532511150.546,61.523,28.809,25.391,22.461,-200.195
1532511150.550,54.199,26.367,29.297,28.809,-205.078
1532511150.553,-21.484,15.625,35.645,13.672,-59.570
1532511150.557,8.789,25.391,31.738,34.668,722.168
1532511150.561,79.102,41.504,30.762,65.430,396.484
1532511150.565,47.363,26.367,35.645,32.715,-438.477
1532511150.569,23.438,23.438,30.273,14.160,-436.035
1532511150.573,24.902,23.926,28.809,13.672,-339.355
1532511150.577,45.410,7.812,27.344,23.438,21.973
1532511150.581,73.242,17.578,24.414,56.152,-87.891
1532511150.585,46.875,36.133,26.855,48.340,-335.449
1532511150.589,21.484,35.156,37.109,21.973,-291.992
1532511150.592,29.785,18.555,39.551,21.973,-205.566
1532511150.596,42.969,32.715,27.832,30.273,71.289
1532511150.600,60.547,52.246,25.391,31.738,148.926
1532511150.604,33.691,30.762,29.785,58.105,7.324
1532511150.608,2.441,12.695,25.879,18.555,-103.516
1532511150.612,20.020,18.066,27.832,20.508,-302.246
1532511150.616,41.992,20.996,31.738,72.754,413.574
1532511150.620,-19.043,26.367,26.855,31.250,637.207
1532511150.624,7.812,29.297,27.832,24.414,-312.012
1532511150.628,-1.953,23.926,23.926,3.906,-309.570
1532511150.632,-21.484,18.555,27.832,13.184,-253.418
1532511150.635,77.148,41.016,24.414,41.992,-20.508
1532511150.639,64.941,41.016,24.414,36.621,-20.020
1532511150.643,36.621,17.578,28.809,42.969,-246.094
1532511150.647,0.488,20.020,20.996,13.672,140.625
1532511150.651,30.273,38.086,28.809,25.391,-145.020
1532511150.655,62.988,47.852,21.484,24.902,145.996
1532511150.659,34.180,32.715,17.090,21.484,648.438
1532511150.663,-5.371,13.672,41.992,55.664,-203.613
1532511150.667,-5.859,30.762,26.855,18.066,-217.285
1532511150.671,38.086,40.039,22.949,32.715,-322.754
1532511150.674,32.227,25.391,40.527,57.617,37.598
1532511150.678,30.273,22.949,28.320,27.832,610.352
1532511150.682,4.883,0.977,31.250,46.875,-189.453
1532511150.686,-30.762,3.418,33.691,2.930,-426.758
1532511150.690,58.105,27.344,22.461,18.555,-323.730
1532511150.694,16.113,32.227,24.902,62.500,91.309
1532511150.698,-7.812,43.945,32.715,14.648,827.637
1532511150.702,58.105,46.875,19.043,23.438,104.980
1532511150.706,59.570,17.090,24.414,50.293,-557.129
1532511150.710,61.035,10.254,35.645,37.109,-351.562
1532511150.714,61.523,26.367,29.297,23.438,-143.066
1532511150.717,35.156,30.273,41.016,14.160,52.734
1532511150.721,16.602,25.391,32.715,26.855,-278.320
1532511150.725,11.230,23.438,21.484,41.504,-283.203
1532511150.729,-2.930,25.391,30.762,81.543,-159.668
1532511150.733,54.199,37.109,28.809,47.363,-180.664
1532511150.737,62.500,33.691,35.645,39.062,-1.465
1532511150.741,-23.438,26.367,26.855,61.523,151.367
1532511150.745,1.953,20.996,19.043,12.207,62.988
1532511150.749,37.109,24.902,22.949,24.902,-182.129
1532511150.753,26.367,28.809,29.297,53.223,-406.738
1532511150.757,63.477,25.391,34.668,50.781,386.719
1532511150.760,72.266,17.090,42.969,71.289,618.652
1532511150.764,32.715,14.648,32.715,36.621,-324.707
1532511150.768,20.020,29.785,18.066,-5.859,-416.992
1532511150.772,9.277,23.926,21.973,26.855,-368.164
1532511150.776,19.531,37.598,19.531,53.711,-10.742
1532511150.780,28.809,47.852,26.855,41.992,8.301
1532511150.784,-14.160,20.996,34.668,30.273,-305.664
1532511150.788,20.996,16.602,26.855,5.859,-18.066
1532511150.792,21.973,24.414,22.949,31.250,16.602
1532511150.796,28.809,22.949,20.508,42.480,461.426
1532511150.799,44.434,21.484,19.043,36.133,520.508
1532511150.803,40.527,43.945,20.996,-5.371,-405.762
1532511150.807,-9.277,42.480,14.160,-21.973,-327.637
1532511150.811,-15.137,21.973,25.391,63.965,-277.832
1532511150.815,62.500,21.973,34.668,52.246,280.273
1532511150.819,41.504,27.344,22.949,39.551,401.855
1532511150.823,41.504,26.855,25.391,19.531,-361.328
1532511150.827,43.945,31.738,22.949,0.000,-196.777
1532511150.831,12.207,24.414,26.855,29.785,-229.980
1532511150.835,32.227,10.254,31.738,34.668,241.211
1532511150.839,26.855,16.602,26.367,-20.996,829.102
1532511150.842,7.812,16.602,20.508,-20.020,0.977
1532511150.846,-3.418,9.277,35.645,41.016,-370.605
1532511150.850,15.137,21.484,32.227,26.855,-395.508
1532511150.854,48.340,25.391,21.484,33.691,-165.527
1532511150.858,29.297,8.789,20.020,4.395,142.578
1532511150.862,-23.926,26.855,15.625,43.457,-183.594
1532511150.866,3.906,43.457,29.785,42.480,-234.863
1532511150.870,105.469,17.578,25.391,24.902,-324.707
1532511150.874,-0.488,5.371,12.695,49.316,-134.766
1532511150.878,-7.324,26.855,17.090,5.371,302.246
1532511150.882,56.641,29.297,27.832,-12.207,234.863
1532511150.885,14.160,20.996,42.969,36.621,-41.992
1532511150.889,24.414,20.996,39.551,53.711,-299.805
1532511150.893,48.828,27.832,21.973,24.902,-253.418
1532511150.897,27.832,19.531,18.555,20.996,637.695
1532511150.901,31.250,13.184,21.973,61.523,406.250
1532511150.905,16.113,21.973,20.508,43.457,-520.020
1532511150.909,27.344,12.207,21.973,11.230,-330.566
1532511150.913,54.688,0.977,34.668,15.625,-189.941
1532511150.917,28.809,32.715,32.715,26.855,-22.461
1532511150.921,47.363,31.738,31.738,51.758,-202.637
1532511150.924,55.664,21.973,31.738,50.293,-292.969
1532511150.928,10.254,19.531,19.531,36.133,181.641
1532511150.932,-21.484,0.977,16.113,15.137,-50.781
1532511150.936,-6.348,6.836,24.414,-19.531,332.031
1532511150.940,79.102,29.297,28.809,30.762,626.465
1532511150.944,93.750,33.203,26.855,73.242,-287.109
1532511150.948,47.363,34.180,17.090,20.508,-342.773
1532511150.952,29.297,33.203,9.766,39.551,-366.211
1532511150.956,55.176,15.137,27.832,78.613,-104.004
1532511150.960,75.195,25.391,23.438,52.734,0.488
1532511150.964,4.883,23.926,26.367,18.066,-235.840
1532511150.967,-45.898,4.395,39.062,42.969,-251.953
1532511150.971,44.434,12.695,29.785,48.828,-382.812
1532511150.975,93.750,28.809,27.832,30.762,380.859
1532511150.979,88.379,44.922,20.020,62.012,620.605
1532511150.983,42.969,25.879,11.719,39.062,-320.312
1532511150.987,28.320,19.043,20.508,-17.090,-372.070
1532511150.991,53.711,35.156,20.508,-5.859,-361.816
1532511150.995,30.273,31.250,10.742,53.223,237.305
1532511150.999,17.578,26.367,21.973,92.773,495.605
1532511151.003,58.105,25.879,14.160,44.922,-340.332
1532511151.007,21.973,11.719,21.484,-6.348,-333.008
1532511151.010,-12.695,30.762,25.391,49.805,-225.586
1532511151.014,-21.484,17.090,15.625,67.383,95.215
1532511151.018,4.883,7.812,18.555,20.508,204.102
1532511151.022,72.754,31.250,20.508,42.480,15.625
1532511151.026,28.320,18.555,22.461,45.410,118.652
1532511151.030,20.508,13.184,23.438,52.246,-206.055
1532511151.034,62.012,26.367,24.902,0.488,-152.344
1532511151.038,4.395,33.691,19.531,17.578,724.609
1532511151.042,2.441,12.207,21.973,40.039,296.875
1532511151.046,58.594,34.180,18.555,2.930,-370.117
1532511151.049,16.113,36.621,21.484,43.457,-311.523
1532511151.053,-7.324,22.949,28.320,37.109,-286.621
1532511151.057,47.363,29.785,18.555,24.414,41.016
1532511151.061,59.082,23.926,25.391,75.684,-91.309
1532511151.065,25.879,23.438,17.090,19.043,-240.723
1532511151.069,-3.906,22.461,7.812,-17.578,26.367
1532511151.073,11.230,16.602,23.438,80.566,-73.730
1532511151.077,24.414,16.602,27.344,49.316,487.305
1532511151.081,45.898,15.137,26.367,31.250,520.508
1532511151.085,36.133,21.973,23.438,39.062,-492.676
1532511151.089,-37.109,31.250,16.602,13.672,-333.984
1532511151.092,26.367,18.555,27.832,30.762,-161.133
1532511151.096,70.312,3.418,28.809,47.363,-28.320
1532511151.100,-6.348,20.020,9.766,19.043,-142.578
1532511151.104,34.668,32.715,18.066,11.719,-363.770
1532511151.108,12.207,30.762,27.344,3.418,-232.422
1532511151.112,0.488,20.996,18.066,8.789,-190.918
1532511151.116,51.758,22.461,5.371,30.762,359.863
1532511151.120,38.574,29.297,19.043,22.949,322.266
1532511151.124,80.566,33.203,17.090,14.648,-288.574
1532511151.128,68.848,22.949,9.277,-20.508,-151.855
1532511151.131,62.012,27.344,19.531,23.438,-285.156
1532511151.135,37.109,18.555,26.367,24.902,284.180
1532511151.139,12.207,19.043,21.973,9.766,640.625
1532511151.143,24.902,17.090,33.203,43.945,-219.238
1532511151.147,-8.301,12.695,19.531,1.953,-278.809
1532511151.151,-13.672,32.715,8.301,41.504,-321.289
1532511151.155,24.414,18.066,36.621,65.918,-23.926
1532511151.159,26.855,13.672,32.715,4.395,168.945
1532511151.163,11.719,20.996,17.578,35.645,46.387
1532511151.167,41.992,31.738,17.090,78.613,20.996
1532511151.171,8.789,31.738,18.555,24.414,-418.945
1532511151.174,10.254,15.137,27.344,15.137,41.016
1532511151.178,36.621,18.555,30.273,44.434,863.770
1532511151.182,58.105,32.227,21.484,45.410,45.410
1532511151.186,34.668,26.367,25.879,59.082,-511.230
1532511151.190,18.555,8.301,25.391,32.715,-383.789
1532511151.194,39.062,16.113,18.555,8.301,-26.367
1532511151.198,52.246,23.438,17.578,66.406,203.613
1532511151.202,12.695,18.066,18.066,58.594,-295.410
1532511151.206,-23.438,12.207,15.137,26.855,-302.734
1532511151.210,24.414,21.484,17.090,-2.930,81.543
1532511151.214,49.316,40.527,6.348,38.574,92.773
1532511151.217,51.270,14.160,19.043,46.875,634.766
1532511151.221,7.324,4.883,25.391,-9.277,321.777
1532511151.225,-13.672,24.902,25.391,20.508,-453.125
1532511151.229,28.320,26.855,16.602,42.480,-278.320
1532511151.233,58.105,22.949,10.742,74.707,-262.207
1532511151.237,57.129,26.855,7.324,9.766,-74.707
1532511151.241,34.180,23.438,6.836,-26.367,-166.504
1532511151.245,-13.672,20.508,23.926,56.152,-204.590
1532511151.249,45.410,20.996,24.902,86.914,-168.457
1532511151.253,68.848,38.574,20.508,31.250,-385.742
1532511151.256,16.113,40.039,26.855,16.602,389.648
1532511151.260,32.715,19.531,15.625,51.270,532.715
1532511151.264,27.344,25.391,12.207,44.922,-335.449
1532511151.268,44.434,21.973,30.273,7.324,-377.930
1532511151.272,57.617,11.719,20.996,46.387,-369.141
1532511151.276,33.691,24.902,2.930,78.125,110.840
1532511151.280,50.293,24.414,28.320,36.621,128.418
1532511151.284,45.410,32.715,12.207,0.488,-315.918
1532511151.288,27.344,19.043,16.113,32.715,-294.434
1532511151.292,-30.762,6.348,35.156,84.961,-229.492
1532511151.296,19.531,35.156,10.742,15.137,134.766
1532511151.299,100.098,34.668,18.066,11.230,166.016
1532511151.303,32.715,15.625,23.926,57.617,-0.488
1532511151.307,19.043,26.367,16.113,56.152,154.785
1532511151.311,41.016,32.227,20.996,80.566,-194.336
1532511151.315,31.738,37.109,4.883,37.109,229.980
1532511151.319,31.250,22.949,20.996,-10.254,772.949
1532511151.323,39.062,19.043,24.902,25.879,-148.438
1532511151.327,62.988,35.645,20.020,40.527,-339.355
1532511151.331,30.273,22.949,32.715,43.457,-265.137
1532511151.335,25.391,24.902,7.812,29.785,0.977
1532511151.339,59.570,28.320,9.766,16.113,155.273
1532511151.342,8.301,11.719,20.508,45.410,-248.047
1532511151.346,-19.043,22.461,13.184,31.738,-120.117
1532511151.350,21.484,34.180,28.320,50.781,-31.738
1532511151.354,-1.465,21.973,31.250,43.945,129.395
1532511151.358,14.160,30.273,20.508,16.113,758.789
1532511151.362,56.641,33.203,25.879,8.301,207.520
1532511151.366,94.727,26.855,19.043,59.082,-453.125
1532511151.370,70.312,18.555,27.832,52.246,-431.152
1532511151.374,46.875,20.996,30.273,35.156,-199.219
1532511151.378,52.246,10.742,25.391,61.523,160.156
1532511151.381,19.531,17.578,22.461,11.719,-160.645
1532511151.385,34.668,32.227,33.203,26.367,-328.613
1532511151.389,70.801,25.879,40.527,42.969,-285.645
1532511151.393,51.270,23.438,29.785,34.668,-159.180
1532511151.397,12.695,17.090,27.832,66.406,226.074
1532511151.401,12.695,16.113,26.367,44.434,164.551
1532511151.405,10.254,21.973,37.109,32.715,-223.633
1532511151.409,27.832,23.926,37.109,61.035,-215.332
1532511151.413,37.598,28.809,37.109,44.922,-246.582
1532511151.417,11.719,34.668,36.133,-24.414,467.285
1532511151.421,40.527,27.344,22.461,-11.230,615.234
1532511151.424,57.129,15.137,37.598,99.121,-345.215
1532511151.428,48.828,27.344,36.621,62.012,-315.918
1532511151.432,14.648,32.227,35.156,16.113,-263.672
1532511151.436,21.484,22.461,34.180,17.578,-125.977
1532511151.440,44.922,39.551,26.855,17.090,-117.676
1532511151.444,51.758,26.367,45.410,72.266,61.523
1532511151.448,42.480,23.926,44.434,87.402,136.719
1532511151.452,-8.301,9.766,37.598,62.012,-444.824
1532511151.456,10.742,14.648,41.992,18.555,246.094
1532511151.460,44.922,43.457,27.832,-20.020,733.887
1532511151.463,0.977,26.367,36.621,28.320,-226.562
1532511151.467,11.719,17.090,41.504,60.547,-442.383
1532511151.471,57.129,25.879,39.062,34.668,-416.992
1532511151.475,24.902,26.367,36.621,-38.574,7.324
1532511151.479,5.859,17.090,33.203,15.137,148.926
1532511151.483,23.926,26.855,35.156,81.055,-298.828
1532511151.487,27.832,21.973,33.691,48.340,-272.949
1532511151.491,16.113,17.090,30.273,11.719,-104.492
1532511151.495,-7.324,21.484,22.461,-2.441,419.922
1532511151.499,14.648,34.668,18.555,37.598,807.617
1532511151.503,52.246,41.016,21.484,41.016,-128.906
1532511151.506,73.242,32.715,22.949,34.668,-529.297
1532511151.510,40.527,27.344,34.180,61.035,-218.750
1532511151.514,26.367,20.020,37.598,66.406,105.469
1532511151.518,45.410,20.996,40.039,46.387,82.031
1532511151.522,1.465,5.859,56.152,18.066,-357.910
1532511151.526,2.441,10.254,44.434,19.043,-221.680
1532511151.530,46.387,18.555,20.020,17.578,-194.824
1532511151.534,38.086,14.648,32.715,43.945,-105.469
1532511151.538,37.109,26.367,48.828,52.734,265.137
1532511151.542,-34.668,15.137,43.945,61.523,144.043
1532511151.546,-24.902,19.043,33.691,29.785,-75.684
1532511151.549,43.457,25.391,29.785,-2.930,-248.047
1532511151.553,41.992,17.090,34.180,53.711,-329.590
1532511151.557,63.965,38.086,34.668,35.156,562.012
1532511151.561,40.527,39.062,17.090,10.254,481.445
1532511151.565,44.922,22.461,15.625,42.480,-400.391
1532511151.569,50.781,24.414,38.574,33.203,-400.391
1532511151.573,-30.762,17.090,40.039,20.508,-313.477
1532511151.577,35.645,21.484,33.691,81.055,26.367
1532511151.581,71.289,35.156,32.227,55.664,-77.148
1532511151.585,38.574,25.391,40.527,0.488,-41.992
1532511151.588,-6.348,17.578,40.039,7.324,10.254
1532511151.592,-2.930,18.555,24.902,48.340,-354.492
1532511151.596,30.762,29.297,25.879,50.293,424.805
1532511151.600,-3.418,26.367,38.086,30.762,591.309
1532511151.604,46.875,21.973,36.133,37.109,-443.848
1532511151.608,61.523,32.227,30.273,51.758,-409.668
1532511151.612,-4.395,35.156,25.879,38.086,-240.234
1532511151.616,15.625,22.461,18.555,23.926,-9.766
1532511151.620,69.336,25.879,21.973,22.949,-100.098
1532511151.624,30.762,36.133,21.484,10.742,-338.867
1532511151.628,5.371,22.949,32.227,30.762,-122.070
1532511151.631,41.504,9.766,38.086,23.438,-29.297
1532511151.635,60.059,24.414,23.926,21.484,470.215
1532511151.639,11.230,22.461,36.621,31.738,429.199
1532511151.643,19.531,7.812,41.016,43.945,-278.809
1532511151.647,2.930,12.695,32.227,31.250,-177.734
1532511151.651,-39.551,7.812,43.457,13.672,-387.695
1532511151.655,14.160,15.625,40.527,53.223,147.461
1532511151.659,82.031,31.250,20.996,59.082,610.352
1532511151.663,85.938,35.645,23.926,45.898,-195.312
1532511151.667,45.898,32.227,29.297,17.578,-330.566
1532511151.671,32.715,38.574,22.461,27.832,-386.719
1532511151.674,51.270,33.691,18.555,8.301,-13.672
1532511151.678,-37.598,1.953,37.109,-3.418,475.586
1532511151.682,-10.254,7.812,45.898,61.523,132.324
1532511151.686,68.848,26.855,31.250,36.621,-202.637
1532511151.690,-4.883,20.508,28.320,15.625,-379.395
1532511151.694,58.594,20.996,35.156,62.988,10.742
1532511151.698,55.664,18.555,41.992,57.617,592.285
1532511151.702,27.832,17.090,38.574,28.809,-76.660
1532511151.706,58.594,27.832,31.250,32.715,-437.988
1532511151.710,7.324,25.391,23.926,32.227,-243.652
1532511151.713,-17.090,14.160,19.043,50.781,-109.863
1532511151.717,46.875,20.996,22.949,48.828,394.531
1532511151.721,47.363,29.297,29.297,41.992,74.219
1532511151.725,39.062,28.809,29.297,10.742,-37.598
1532511151.729,13.184,26.367,27.832,1.953,76.172
1532511151.733,6.348,17.578,23.926,45.410,-391.602
1532511151.737,20.020,30.273,19.043,29.297,414.551
1532511151.741,48.828,28.320,36.133,37.109,513.184
1532511151.745,76.172,39.551,32.227,62.500,-401.367
1532511151.749,20.508,16.602,11.719,49.805,-370.117
1532511151.753,-3.418,7.324,17.090,31.738,-389.648
1532511151.756,28.809,29.785,25.879,25.391,-140.137
1532511151.760,46.875,13.672,34.668,41.504,-85.938
1532511151.764,53.223,28.320,18.066,40.039,-273.438
1532511151.768,19.531,20.508,14.160,-8.301,-276.367
1532511151.772,32.715,23.438,20.020,17.578,-215.820
1532511151.776,57.617,29.785,14.160,66.895,518.555
1532511151.780,23.926,20.996,20.996,52.734,635.254
1532511151.784,3.906,26.367,20.508,19.531,-383.301
1532511151.788,-36.133,38.086,19.043,-42.480,-514.160
1532511151.792,-4.395,22.949,18.555,-6.348,-342.285
1532511151.796,33.203,25.391,7.324,76.172,43.945
1532511151.799,12.695,36.133,20.508,69.824,-8.789
1532511151.803,-2.441,7.812,27.344,27.832,-387.207
1532511151.807,-13.184,7.812,21.484,28.809,-246.094
1532511151.811,15.137,41.504,11.719,34.668,-218.262
1532511151.815,15.137,34.668,11.230,5.859,121.094
1532511151.819,54.688,15.625,17.090,13.184,333.008
1532511151.823,45.410,25.391,16.113,48.340,22.949
1532511151.827,33.691,24.902,16.602,47.363,-69.824
1532511151.831,16.113,13.184,10.254,-8.789,-321.289
1532511151.835,38.574,1.465,25.391,4.395,101.562
1532511151.838,35.645,6.836,23.926,57.617,830.566
1532511151.842,-0.488,20.996,12.695,56.641,60.059
1532511151.846,-19.531,13.672,27.832,31.250,-355.469
1532511151.850,33.203,19.531,22.461,22.949,-362.305
1532511151.854,37.598,33.691,14.648,24.902,-136.719
1532511151.858,-6.836,26.855,11.230,8.789,173.828
1532511151.862,62.012,20.020,13.184,39.062,-175.293
1532511151.866,93.262,3.906,26.367,50.781,46.387
1532511151.870,55.664,14.160,15.137,30.273,-82.520
1532511151.874,29.297,23.438,20.508,66.406,-286.133
1532511151.878,14.160,10.254,31.738,57.617,681.152
1532511151.881,49.805,13.672,21.973,35.156,337.402
1532511151.885,41.016,11.719,28.809,5.859,-540.039
1532511151.889,32.227,18.555,24.902,25.391,-410.645
1532511151.893,17.090,10.254,24.902,69.824,-203.125
1532511151.897,5.371,7.812,23.438,35.645,80.566
1532511151.901,38.086,21.484,18.066,3.906,-189.453
1532511151.905,29.297,16.113,23.438,20.020,-375.488
1532511151.909,47.852,25.391,8.789,51.270,-183.594
1532511151.913,41.016,22.461,4.395,20.508,32.227
1532511151.917,12.207,13.672,33.203,0.000,682.129
1532511151.920,71.777,17.578,29.297,62.988,483.887
1532511151.924,36.133,20.508,13.184,73.730,-413.574
1532511151.928,24.902,18.066,21.973,10.254,-320.312
1532511151.932,45.898,17.090,18.555,-2.930,-193.848
1532511151.936,26.367,22.949,23.438,41.504,-66.895
1532511151.940,79.590,16.113,33.203,25.391,-158.691
1532511151.944,55.664,10.254,25.391,-25.879,-240.723
1532511151.948,24.902,15.625,30.273,15.625,-160.645
1532511151.952,65.430,16.602,24.414,40.527,-311.035
1532511151.956,49.805,9.766,20.020,41.992,-27.344
1532511151.960,53.223,21.973,26.855,52.734,280.273
1532511151.963,40.527,23.438,26.367,34.180,159.180
1532511151.967,35.645,17.090,19.043,24.902,-23.438
1532511151.971,62.988,30.273,20.508,50.293,-435.059
1532511151.975,6.348,27.344,21.973,31.738,217.773
1532511151.979,-44.434,18.066,15.625,21.484,786.133
1532511151.983,40.039,28.809,9.766,43.945,-177.734
1532511151.987,57.617,22.461,13.672,8.301,-488.281
1532511151.991,-17.090,20.996,1.953,-25.879,-376.953
1532511151.995,-0.977,26.855,-0.488,15.137,126.953
1532511151.999,40.527,26.855,19.043,50.293,227.051
1532511152.003,2.930,23.926,5.859,5.859,-352.051
1532511152.006,30.762,14.160,8.301,0.000,46.875
1532511152.010,4.395,13.184,26.367,14.648,46.875
1532511152.014,10.254,18.066,10.742,38.086,34.180
1532511152.018,41.992,22.949,7.812,42.480,790.039
1532511152.022,19.531,17.578,17.090,43.457,87.891
1532511152.026,16.602,23.926,10.742,27.832,-445.312
1532511152.030,14.648,35.156,11.230,37.109,-294.922
1532511152.034,39.062,29.785,9.766,6.348,-170.898
1532511152.038,46.875,26.367,22.949,29.785,60.059
1532511152.042,20.020,21.484,31.738,40.039,-197.754
1532511152.045,9.766,8.301,24.902,-10.254,-195.801
1532511152.049,-2.441,17.090,16.602,40.527,-207.031
1532511152.053,28.320,50.293,0.488,-19.531,-71.289
1532511152.057,25.391,28.809,8.789,15.137,721.191
1532511152.061,17.578,28.320,19.531,63.965,439.941
1532511152.065,30.762,34.180,27.344,20.996,-418.457
1532511152.069,21.973,8.301,35.645,38.574,-439.453
1532511152.073,82.031,29.785,30.273,53.223,-360.352
1532511152.077,73.242,24.414,29.785,53.711,-8.301
1532511152.081,33.203,13.672,26.367,39.062,-95.703
1532511152.085,24.414,31.250,21.973,60.059,-353.027
1532511152.088,36.621,40.039,23.926,49.805,-304.688
1532511152.092,50.293,26.367,25.879,-19.531,-221.191
1532511152.096,43.457,19.043,15.625,5.371,67.871
1532511152.100,-30.273,34.668,7.324,41.992,173.828
1532511152.104,0.977,32.227,20.020,34.180,20.020
1532511152.108,71.777,22.461,28.809,54.688,-114.258
1532511152.112,69.336,26.855,23.926,47.363,-331.543
1532511152.116,61.523,25.391,27.832,40.527,388.184
1532511152.120,50.293,17.578,24.414,33.203,656.250
1532511152.124,30.762,20.020,20.996,26.367,-301.270
1532511152.128,27.344,28.809,44.922,17.578,-327.148
1532511152.131,44.922,25.879,44.922,35.156,-292.480
1532511152.135,25.391,26.367,34.180,26.855,-46.387
1532511152.139,36.133,37.109,31.250,1.465,-28.320
1532511152.143,57.129,32.715,22.949,32.227,-148.926
1532511152.147,37.109,33.203,20.996,53.711,258.789
1532511152.151,37.598,37.598,13.672,23.438,-158.691
1532511152.155,-7.324,-1.953,32.227,-1.465,61.035
1532511152.159,-1.465,-3.418,44.922,30.762,829.102
1532511152.163,41.016,34.668,36.621,40.039,-6.836
1532511152.167,-1.465,39.551,32.715,9.766,-465.332
1532511152.170,32.715,23.926,44.434,18.555,-468.262
1532511152.174,57.129,28.809,43.945,54.688,-70.801
1532511152.178,62.988,32.227,39.551,69.824,227.539
1532511152.182,49.805,37.598,35.156,32.227,-250.977
1532511152.186,-3.906,23.438,38.574,1.953,-332.520
1532511152.190,22.461,8.789,41.504,-13.672,-283.203
1532511152.194,69.336,20.020,22.461,17.090,144.531
1532511152.198,-27.832,19.531,32.227,49.805,845.703
1532511152.202,-28.320,25.391,44.922,15.137,158.691
1532511152.206,83.008,36.133,24.414,4.395,-525.391
1532511152.210,90.820,41.504,23.438,62.012,-317.871
1532511152.213,41.016,30.273,39.062,62.988,-145.508
1532511152.217,-22.949,12.695,45.410,45.410,25.391
1532511152.221,14.648,22.461,39.551,29.785,-256.836
1532511152.225,74.707,38.086,24.414,16.602,-264.648
1532511152.229,51.270,39.551,28.320,41.016,-151.367
1532511152.233,31.738,19.531,37.109,62.988,-214.355
1532511152.237,32.227,20.020,31.738,27.344,-30.762
1532511152.241,48.340,31.250,32.227,6.836,126.953
1532511152.245,0.488,12.695,44.922,2.930,34.180
1532511152.249,-25.391,-4.395,39.551,12.207,-147.461
1532511152.252,8.789,20.996,18.066,24.414,-390.137
1532511152.256,-14.160,40.527,20.020,31.738,362.793
1532511152.260,12.207,21.484,30.273,62.500,636.719
1532511152.264,85.938,37.109,31.250,88.867,-299.805
1532511152.268,76.660,34.180,32.715,71.289,-418.945
1532511152.272,14.648,13.672,36.133,22.461,-388.672
1532511152.276,29.297,26.855,32.715,5.371,-20.020
1532511152.280,45.410,28.809,25.879,28.320,16.602
1532511152.284,67.871,23.926,38.574,40.527,-310.059
1532511152.288,-7.812,29.297,21.973,28.809,-21.973
1532511152.292,-41.992,32.715,15.137,-15.137,-79.590
1532511152.295,70.312,28.320,50.781,31.738,351.074
1532511152.299,63.965,41.504,41.992,39.062,434.082
1532511152.303,36.621,37.598,16.602,26.855,-414.551
1532511152.307,-11.719,10.742,19.043,8.789,-282.227
1532511152.311,-0.488,27.832,34.668,34.180,-274.902
1532511152.315,86.426,41.504,34.668,68.359,287.109
1532511152.319,4.883,45.898,28.809,31.738,547.852
1532511152.323,-8.301,38.574,28.809,55.176,-296.875
1532511152.327,83.496,21.484,24.902,51.270,-247.070
1532511152.331,48.828,14.648,19.043,15.137,-245.117
1532511152.335,-0.488,27.344,27.344,21.484,185.547
1532511152.338,47.363,33.691,30.762,35.645,833.984
1532511152.342,58.105,26.855,31.738,50.293,36.621
1532511152.346,20.508,34.668,34.180,57.617,-391.602
1532511152.350,40.527,30.762,31.250,-1.465,-387.695
1532511152.354,12.695,19.531,25.391,-70.801,-147.461
1532511152.358,9.277,35.156,33.203,21.484,119.141
1532511152.362,-9.277,34.668,26.855,57.129,-197.266
1532511152.366,49.805,38.086,26.855,32.227,-240.234
1532511152.370,79.590,33.203,41.016,33.203,-334.961
1532511152.374,-40.527,5.371,40.039,53.223,-164.551
1532511152.377,-19.531,18.555,38.086,76.172,199.707
1532511152.381,84.473,42.969,29.785,31.738,122.559
1532511152.385,39.551,45.898,26.855,7.324,38.086
1532511152.389,29.785,31.250,37.598,42.969,-178.711
1532511152.393,41.504,29.297,23.438,33.203,-296.387
1532511152.397,53.711,26.855,14.160,-7.324,607.422
1532511152.401,74.219,21.973,32.715,3.418,456.055
1532511152.405,8.301,34.668,28.320,24.414,-509.766
1532511152.409,-3.418,33.203,14.648,16.602,-350.586
1532511152.413,65.430,32.715,25.879,55.176,-204.102
1532511152.417,18.555,36.621,34.180,75.195,-36.133
1532511152.420,-38.086,25.879,21.484,-11.719,-199.707
1532511152.424,8.301,19.531,29.297,-3.418,-282.227
1532511152.428,92.285,26.855,39.062,86.914,172.363
1532511152.432,72.754,20.996,29.297,78.613,0.488
1532511152.436,38.574,15.625,31.250,28.320,102.539
1532511152.440,36.621,27.832,30.273,20.508,119.629
1532511152.444,23.438,33.691,28.809,39.551,-262.695
1532511152.448,-5.371,15.625,36.133,-21.484,-133.301
1532511152.452,21.484,33.691,29.297,-5.371,-375.488
1532511152.456,18.066,35.156,28.320,58.594,270.508
1532511152.460,25.391,13.672,28.320,24.414,734.375
1532511152.463,39.551,41.016,26.367,12.207,-180.664
1532511152.467,-1.953,34.180,38.086,56.641,-401.367
1532511152.471,12.207,24.414,30.273,62.988,-428.223
1532511152.475,70.801,32.227,24.414,40.527,307.617
1532511152.479,78.125,44.434,17.578,27.344,788.086
1532511152.483,47.363,41.504,32.715,58.105,-218.262
1532511152.487,41.016,29.785,32.227,45.898,-534.668
1532511152.491,38.086,15.625,37.598,35.156,-420.410
1532511152.495,45.410,26.855,46.875,54.688,42.480
1532511152.499,70.312,51.270,32.227,15.137,168.457
1532511152.502,28.809,41.016,29.785,20.996,-375.977
1532511152.506,9.277,31.738,30.762,42.480,-300.293
1532511152.510,46.875,39.551,27.344,26.367,-235.352
1532511152.514,57.617,35.156,31.738,21.484,54.199
1532511152.518,18.555,27.344,40.527,61.035,170.410
1532511152.522,-20.508,34.668,36.621,50.781,-0.488
1532511152.526,11.230,42.480,26.855,8.301,101.074
1532511152.530,31.250,32.715,25.391,29.785,-196.777
1532511152.534,33.203,35.645,27.344,39.062,-200.684
1532511152.538,42.480,38.574,22.949,2.441,674.316
1532511152.542,54.688,40.527,25.879,49.805,332.520
1532511152.545,67.383,44.922,23.926,71.777,-375.977
1532511152.549,71.289,24.902,28.320,48.340,-314.453
1532511152.553,26.855,35.156,33.203,-5.859,-292.480
1532511152.557,-7.324,30.762,31.250,-16.602,35.645
1532511152.561,19.043,29.785,31.738,40.039,-100.586
1532511152.565,10.742,25.879,28.320,24.902,-146.973
1532511152.569,37.598,11.230,29.297,54.688,103.516
1532511152.573,27.344,30.273,25.879,83.496,-110.352
1532511152.577,21.973,28.809,25.879,40.527,370.605
1532511152.581,45.410,32.715,31.250,41.504,328.125
1532511152.585,34.668,45.898,33.691,35.645,-452.148
1532511152.588,-21.484,34.180,41.016,15.137,-381.836
1532511152.592,-23.438,15.625,28.320,16.602,-316.406
1532511152.596,26.855,10.742,32.227,16.113,278.809
1532511152.600,56.152,22.949,43.945,45.898,172.852
1532511152.604,94.238,40.039,29.785,67.383,-445.801
1532511152.608,52.734,40.527,23.926,32.227,-274.414
1532511152.612,8.789,39.551,19.043,15.625,-257.812
1532511152.616,22.461,31.250,24.414,34.668,472.656
1532511152.620,3.418,30.273,28.320,54.688,488.770
1532511152.624,-4.883,34.668,36.621,48.340,-407.227
1532511152.627,40.039,35.645,33.203,7.812,-239.258
1532511152.631,36.621,29.297,25.391,25.879,-322.266
1532511152.635,66.406,28.809,23.438,66.895,206.055
1532511152.639,19.531,22.461,29.785,41.016,401.367
1532511152.643,6.836,23.438,31.250,43.945,-278.809
1532511152.647,32.715,26.367,25.879,54.688,-189.453
1532511152.651,41.016,26.367,18.066,11.719,-322.754
1532511152.655,41.016,31.738,13.672,-17.090,-9.277
1532511152.659,17.090,46.387,18.555,28.320,205.566
1532511152.663,11.230,39.551,38.574,89.844,88.867
1532511152.667,42.969,32.715,35.156,75.684,87.891
1532511152.670,55.176,49.316,8.301,19.043,-404.785
1532511152.674,12.207,25.879,16.113,0.977,-21.484
1532511152.678,-11.719,7.324,31.738,41.016,857.422
1532511152.682,0.488,20.020,22.461,55.664,101.562
1532511152.686,34.180,37.598,24.902,56.641,-514.648
1532511152.690,75.195,45.898,27.344,68.848,-398.438
1532511152.694,39.551,21.973,27.832,66.895,-54.199
1532511152.698,0.977,18.555,23.438,16.602,210.938
1532511152.702,30.273,43.945,14.160,-17.090,-255.859
1532511152.706,15.137,59.082,16.602,25.879,-311.523
1532511152.709,35.645,40.039,21.973,31.738,75.195
1532511152.713,59.570,20.996,14.648,5.859,187.012
1532511152.717,30.762,16.602,20.996,56.641,196.777
1532511152.721,54.688,23.926,23.926,69.824,-153.320
1532511152.725,58.594,28.320,16.602,39.551,-287.109
1532511152.729,23.438,29.785,16.602,20.020,-112.793
1532511152.733,-5.859,22.949,10.742,-1.953,-257.812
1532511152.737,9.766,23.926,11.719,20.020,432.129
1532511152.741,26.855,40.039,8.789,43.945,382.812
1532511152.745,64.453,34.180,11.719,12.695,-330.078
1532511152.749,59.570,26.855,12.695,18.555,-214.844
1532511152.752,38.574,26.855,9.766,17.090,-382.812
1532511152.756,59.570,22.949,10.254,29.297,375.000
1532511152.760,30.762,30.273,14.648,17.578,530.273
1532511152.764,21.484,34.668,19.531,-15.625,-343.262
1532511152.768,-25.391,14.160,24.902,10.742,-376.465
1532511152.772,-14.648,14.648,15.625,42.969,-390.625
1532511152.776,29.297,36.621,5.859,80.566,121.094
1532511152.780,32.227,42.969,2.930,40.527,164.551
1532511152.784,9.277,31.738,5.371,2.930,-324.219
1532511152.788,0.977,31.250,16.602,47.363,-301.270
1532511152.792,19.531,27.344,19.043,62.500,-248.535
1532511152.795,-8.789,26.367,20.020,27.832,151.367
1532511152.799,-6.348,36.621,14.160,39.062,104.492
1532511152.803,50.781,19.531,-0.488,28.320,-79.102
1532511152.807,43.945,10.742,15.137,-4.395,46.875
1532511152.811,8.301,20.508,27.344,29.297,-276.855
1532511152.815,56.152,38.086,15.137,45.410,244.629
1532511152.819,73.730,38.574,18.066,63.477,783.203
1532511152.823,39.551,30.762,20.020,30.273,-141.113
1532511152.827,18.066,14.648,30.762,20.996,-370.605
1532511152.831,25.879,19.531,28.809,62.988,-274.902
1532511152.834,21.973,43.457,9.766,-8.789,-22.949
1532511152.838,10.742,36.621,8.789,0.000,143.555
1532511152.842,-14.160,22.461,19.043,59.082,-240.723
1532511152.846,17.090,29.297,22.949,38.574,-130.859
1532511152.850,32.227,34.668,23.926,58.594,-54.688
1532511152.854,36.621,39.062,16.602,24.902,108.398
1532511152.858,27.832,37.598,11.719,-2.930,762.207
1532511152.862,0.488,27.344,20.996,41.992,252.441
1532511152.866,-0.488,21.973,33.203,14.160,-437.500
1532511152.870,16.602,39.551,25.391,-29.297,-422.363
