timestamps,TP9,AF7,AF8,TP10,Right AUX
1532511616.576,49.805,48.828,34.180,68.359,-437.012
1532511616.580,78.613,50.293,36.133,62.500,-147.949
1532511616.584,72.266,41.504,42.480,68.359,-228.027
1532511616.588,46.387,33.691,41.504,53.223,-485.352
1532511616.591,49.316,44.922,29.297,29.785,-228.027
1532511616.595,36.621,40.527,31.250,24.902,-41.504
1532511616.599,33.203,38.574,41.504,51.270,545.410
1532511616.603,41.016,43.457,36.621,55.664,659.180
1532511616.607,63.477,36.621,41.016,63.965,-264.648
1532511616.611,49.316,41.992,35.645,18.066,-509.277
1532511616.615,-14.160,33.203,34.668,11.719,-593.750
1532511616.619,16.602,31.250,43.457,51.270,-190.430
1532511616.623,74.707,41.992,39.062,65.430,-44.434
1532511616.627,83.008,45.898,42.969,84.961,-428.223
1532511616.631,57.129,44.434,37.598,35.156,-445.801
1532511616.634,16.602,27.344,38.086,5.371,-554.199
1532511616.638,20.020,25.879,41.016,20.020,-22.461
1532511616.642,56.152,44.434,31.250,23.926,479.492
1532511616.646,77.637,39.062,36.133,85.449,205.078
1532511616.650,73.242,33.203,43.457,44.434,-130.371
1532511616.654,-22.949,32.227,46.875,0.000,-517.578
1532511616.658,-14.648,27.344,47.363,83.496,148.438
1532511616.662,104.004,38.086,40.527,36.133,596.191
1532511616.666,70.312,50.293,42.480,-5.371,-300.781
1532511616.670,42.480,45.410,36.133,7.812,-416.016
1532511616.673,68.359,40.527,46.387,67.871,-436.523
1532511616.677,27.832,24.414,58.594,100.586,-4.883
1532511616.681,-18.066,20.996,51.758,75.195,609.863
1532511616.685,66.895,31.250,45.898,61.523,-153.809
1532511616.689,91.309,36.621,43.945,25.879,-70.801
1532511616.693,35.156,41.992,39.551,43.945,206.543
1532511616.697,21.484,35.645,41.504,32.227,-70.801
1532511616.701,39.551,37.109,38.574,15.625,697.754
1532511616.705,36.133,30.762,43.945,74.707,356.934
1532511616.709,37.109,26.367,48.828,55.664,-509.766
1532511616.713,75.195,42.480,40.527,42.969,-589.844
1532511616.716,67.871,47.852,48.340,53.711,-547.852
1532511616.720,48.828,46.875,38.086,6.348,-92.773
1532511616.724,63.477,41.016,37.598,63.965,-237.305
1532511616.728,52.246,36.621,51.758,121.582,-489.746
1532511616.732,54.199,41.016,42.480,34.180,-508.789
1532511616.736,56.152,43.457,33.691,-11.719,-169.434
1532511616.740,35.645,41.504,41.992,71.777,757.812
1532511616.744,16.602,35.645,46.875,65.918,530.273
1532511616.748,28.809,36.133,41.504,50.781,-494.141
1532511616.752,63.965,36.133,36.621,17.090,-621.094
1532511616.756,52.734,32.227,39.551,20.020,-542.969
1532511616.759,32.227,35.645,45.898,102.051,-168.457
1532511616.763,40.527,39.551,42.480,41.016,-224.121
1532511616.767,13.184,29.297,45.898,11.230,-552.734
1532511616.771,3.906,27.832,40.527,67.871,-422.363
1532511616.775,56.641,43.457,33.691,45.898,-426.270
1532511616.779,31.738,35.156,43.945,36.621,-81.543
1532511616.783,18.555,29.297,36.621,47.363,281.250
1532511616.787,21.484,40.039,34.668,33.203,53.223
1532511616.791,9.766,39.551,45.410,61.035,-148.438
1532511616.795,54.199,29.297,50.781,85.449,-493.652
1532511616.798,48.340,32.227,37.598,-19.043,152.832
1532511616.802,25.391,39.062,28.320,-0.977,813.477
1532511616.806,45.898,33.691,43.945,95.215,-84.473
1532511616.810,49.805,35.156,48.340,64.453,-452.148
1532511616.814,21.484,33.203,40.527,24.902,-591.309
1532511616.818,-22.949,22.949,43.457,34.180,-110.840
1532511616.822,-33.203,23.438,44.922,18.066,201.660
1532511616.826,27.344,32.715,41.504,47.852,-360.352
1532511616.830,41.992,36.621,48.340,107.910,-13.184
1532511616.834,64.941,47.852,41.016,63.965,-141.602
1532511616.838,71.777,33.203,41.992,37.598,-48.340
1532511616.841,-16.602,18.555,53.223,33.691,890.137
1532511616.845,-34.180,25.879,42.969,50.293,145.508
1532511616.849,27.344,35.645,33.691,45.898,-562.500
1532511616.853,73.242,47.852,33.203,19.531,-586.914
1532511616.857,68.359,40.039,36.133,23.438,-227.539
1532511616.861,74.707,40.039,36.621,24.902,148.926
1532511616.865,41.992,41.992,38.086,45.898,-376.953
1532511616.869,41.016,38.086,42.969,53.223,-491.211
1532511616.873,-3.418,29.785,42.969,83.008,-388.672
1532511616.877,10.254,32.227,37.598,55.176,-38.086
1532511616.880,81.055,42.969,30.762,16.113,821.777
1532511616.884,62.988,40.527,30.762,55.176,382.324
1532511616.888,-17.578,34.180,39.062,63.477,-469.238
1532511616.892,-51.758,16.113,51.270,53.711,-462.891
1532511616.896,32.227,21.973,49.805,51.758,-477.539
1532511616.900,74.219,44.922,42.480,75.195,-151.367
1532511616.904,41.016,33.691,42.480,71.289,-239.258
1532511616.908,71.289,31.738,44.434,34.180,-430.176
1532511616.912,55.664,32.227,43.945,21.973,-405.273
1532511616.916,23.438,35.645,37.598,43.457,-501.465
1532511616.920,62.988,41.992,37.109,60.059,-132.812
1532511616.923,76.172,41.016,34.180,24.902,326.172
1532511616.927,33.691,38.574,34.180,13.672,276.367
1532511616.931,-18.555,32.715,36.621,77.637,-125.488
1532511616.935,31.250,27.832,43.945,106.934,-552.246
1532511616.939,54.199,27.344,44.434,71.289,276.855
1532511616.943,44.434,28.809,44.434,56.641,726.562
1532511616.947,-1.953,18.066,42.969,32.715,-301.270
1532511616.951,-18.066,23.926,31.250,21.484,-563.477
1532511616.955,98.145,42.969,30.273,45.898,-509.277
1532511616.959,54.688,31.250,36.133,45.410,-36.621
1532511616.963,-18.555,25.391,37.598,58.594,-15.137
1532511616.966,23.926,39.551,43.945,24.902,-513.672
1532511616.970,58.105,35.645,41.504,10.254,-7.812
1532511616.974,73.730,39.062,33.691,70.312,-25.391
1532511616.978,80.078,38.574,39.062,83.496,190.430
1532511616.982,38.086,24.414,49.316,76.660,814.453
1532511616.986,-11.719,20.508,51.270,46.875,-80.078
1532511616.990,6.836,24.414,39.062,11.719,-471.191
1532511616.994,63.477,30.762,43.457,39.062,-543.945
1532511616.998,74.219,40.527,41.016,30.273,-161.133
1532511617.002,63.477,37.598,31.738,-8.789,135.742
1532511617.005,33.203,32.715,45.898,21.973,-384.277
1532511617.009,15.137,20.996,53.711,46.387,-399.414
1532511617.013,20.508,16.602,55.176,44.434,-381.348
1532511617.017,33.691,29.297,49.805,60.547,136.719
1532511617.021,78.613,39.551,48.340,22.461,914.551
1532511617.025,35.645,39.062,52.246,16.113,256.836
1532511617.029,37.598,40.039,50.293,93.262,-509.277
1532511617.033,98.633,40.039,50.293,53.223,-620.117
1532511617.037,51.758,35.645,51.270,46.875,-408.691
1532511617.041,15.625,26.367,54.688,66.406,57.129
1532511617.045,46.387,30.273,51.758,44.434,-300.781
1532511617.048,41.504,37.598,49.316,58.594,-534.668
1532511617.052,25.879,32.715,52.734,60.547,-488.281
1532511617.056,47.363,32.227,51.758,56.152,-348.633
1532511617.060,32.227,32.715,49.805,49.316,28.320
1532511617.064,42.969,31.250,45.410,27.832,187.012
1532511617.068,67.383,28.809,49.316,53.223,53.223
1532511617.072,59.570,35.156,50.781,71.777,-212.402
1532511617.076,52.734,40.527,41.992,10.742,-436.523
1532511617.080,43.457,33.691,49.316,20.508,384.277
1532511617.084,26.855,34.180,64.453,66.895,620.117
1532511617.088,15.625,25.879,65.430,69.824,-355.957
1532511617.091,28.809,22.461,53.223,57.617,-431.641
1532511617.095,62.988,32.227,59.570,70.801,-480.957
1532511617.099,51.758,31.250,58.594,71.777,-184.082
1532511617.103,45.898,34.180,50.293,43.945,-128.418
1532511617.107,40.527,26.367,63.965,68.848,-411.133
1532511617.111,35.645,28.809,48.828,25.879,19.531
1532511617.115,26.855,36.133,39.062,20.996,-151.367
1532511617.119,2.930,33.203,54.199,24.902,231.445
1532511617.123,11.719,30.762,57.129,44.434,731.934
1532511617.127,37.109,39.551,52.246,86.914,-217.285
1532511617.130,19.043,34.180,47.363,42.969,-513.672
1532511617.134,44.922,30.273,44.922,56.152,-628.418
1532511617.138,75.684,37.598,44.922,71.289,44.434
1532511617.142,10.254,29.785,47.852,62.500,335.449
1532511617.146,-17.090,18.555,50.781,36.621,-412.109
1532511617.150,31.250,21.973,43.457,8.301,-452.148
1532511617.154,60.547,32.715,41.016,60.547,-491.211
1532511617.158,57.617,43.457,41.016,75.195,210.449
1532511617.162,48.828,38.086,41.016,20.508,904.297
1532511617.166,52.246,33.691,38.086,3.418,-25.391
1532511617.170,20.508,41.504,34.668,27.344,-533.203
1532511617.173,96.680,41.016,40.527,88.379,-518.066
1532511617.177,96.680,37.598,38.574,75.195,-141.113
1532511617.181,39.551,32.715,38.574,43.457,140.625
1532511617.185,92.773,35.645,39.551,51.270,-434.570
1532511617.189,62.500,36.133,34.668,38.086,-410.156
1532511617.193,44.434,35.645,36.133,42.480,-420.410
1532511617.197,12.695,25.879,51.758,38.574,-254.395
1532511617.201,2.930,32.227,48.828,69.336,126.465
1532511617.205,38.574,33.203,43.945,82.031,114.258
1532511617.209,-7.324,11.230,41.016,33.203,60.547
1532511617.212,20.508,25.391,41.504,54.688,-296.387
1532511617.216,72.266,41.504,44.434,36.133,-439.453
1532511617.220,41.992,35.156,41.016,50.781,519.043
1532511617.224,12.695,31.738,34.180,35.156,701.172
1532511617.228,-60.547,19.043,33.203,-31.250,-226.074
1532511617.232,0.000,23.438,41.016,37.598,-505.371
1532511617.236,94.727,42.969,37.109,45.410,-483.398
1532511617.240,50.293,39.551,36.133,41.992,-50.781
1532511617.244,24.414,28.320,50.293,76.172,-137.207
1532511617.248,11.230,27.832,53.223,60.547,-486.816
1532511617.252,30.273,29.297,42.969,28.809,-49.316
1532511617.255,46.875,30.273,38.086,33.691,-92.773
1532511617.259,24.414,30.273,47.363,69.336,363.770
1532511617.263,64.941,42.969,43.457,49.805,653.809
1532511617.267,57.617,46.875,33.691,-1.953,-381.348
1532511617.271,23.438,37.598,40.527,21.973,-523.926
1532511617.275,14.160,38.574,43.945,79.102,-476.074
1532511617.279,14.648,39.062,46.875,82.520,-134.277
1532511617.283,37.109,41.016,45.898,39.062,-134.277
1532511617.287,41.992,43.457,41.504,29.297,-485.840
1532511617.291,6.836,39.062,43.457,46.387,-341.797
1532511617.295,25.879,30.762,47.852,38.574,-480.957
1532511617.298,29.785,31.250,46.875,23.438,265.137
1532511617.302,9.766,30.273,48.828,37.109,822.266
1532511617.306,42.969,31.250,43.457,67.383,-116.211
1532511617.310,53.223,46.387,42.480,78.125,-469.727
1532511617.314,33.203,42.969,33.691,-28.809,-608.398
1532511617.318,26.855,42.480,21.973,-59.570,-151.855
1532511617.322,15.137,38.574,44.922,86.914,162.109
1532511617.326,-19.043,31.738,52.734,81.055,-374.512
1532511617.330,8.301,34.180,43.945,36.133,-417.969
1532511617.334,87.891,42.969,43.457,55.176,-552.734
1532511617.337,78.613,45.410,40.527,61.523,-90.332
1532511617.341,52.734,41.016,36.621,32.227,279.297
1532511617.345,37.109,32.715,41.504,11.230,84.961
1532511617.349,4.883,27.832,42.969,28.809,51.270
1532511617.353,13.672,25.879,47.852,81.055,-408.203
1532511617.357,54.199,29.297,51.270,57.617,-83.008
1532511617.361,36.621,35.645,45.898,15.137,435.547
1532511617.365,12.695,42.969,35.156,18.066,-190.430
1532511617.369,-25.391,27.832,35.156,13.184,-426.270
1532511617.373,-31.250,19.531,49.805,12.695,-302.734
1532511617.377,30.273,41.016,47.363,29.785,-272.461
1532511617.380,12.207,35.645,44.922,-12.207,650.391
1532511617.384,-13.184,28.320,39.062,-51.270,486.328
1532511617.388,-41.504,29.785,41.016,26.855,-378.906
1532511617.392,-49.316,16.602,49.805,36.133,-65.918
1532511617.396,57.617,39.062,40.527,51.270,110.840
1532511617.400,65.430,42.480,37.109,37.109,681.152
1532511617.404,14.648,35.156,42.969,5.371,533.691
1532511617.408,33.691,36.133,40.527,34.180,-410.645
1532511617.412,47.363,33.691,35.645,24.414,-562.988
1532511617.416,23.438,36.133,42.969,18.066,-641.602
1532511617.420,19.531,30.762,44.434,26.367,-257.324
1532511617.423,39.062,28.809,47.363,78.125,-166.504
1532511617.427,-47.363,23.438,46.387,27.832,-461.426
1532511617.431,-25.391,27.832,43.945,41.016,-491.211
1532511617.435,82.031,40.039,44.434,61.035,-487.793
1532511617.439,83.984,37.109,43.945,-2.930,438.477
1532511617.443,59.082,41.992,38.086,43.945,601.074
1532511617.447,0.488,27.344,44.922,49.316,-398.926
1532511617.451,-13.672,22.949,42.969,-34.180,-505.859
1532511617.455,45.898,49.805,39.551,37.109,-547.363
1532511617.459,62.500,41.992,50.781,89.355,193.359
1532511617.462,54.199,34.668,50.781,52.246,399.902
1532511617.466,41.504,35.645,43.457,47.852,-488.770
1532511617.470,19.531,41.504,39.062,41.016,-467.285
1532511617.474,41.992,42.480,40.039,38.086,-447.266
1532511617.478,14.648,26.855,36.133,30.762,0.000
1532511617.482,0.977,18.555,40.527,19.531,115.234
1532511617.486,48.340,32.715,40.039,33.203,-70.801
1532511617.490,36.621,30.762,44.922,73.730,150.391
1532511617.494,12.207,34.668,48.828,23.438,-350.098
1532511617.498,9.277,32.227,44.922,23.926,-22.949
1532511617.502,32.227,12.695,41.504,62.500,892.090
1532511617.505,-51.758,22.949,36.133,28.809,150.879
1532511617.509,-9.766,32.227,38.574,70.801,-428.223
1532511617.513,32.227,41.504,36.621,28.809,-552.246
1532511617.517,-2.930,37.109,35.156,-9.277,-260.254
1532511617.521,62.012,35.645,38.574,49.805,201.172
1532511617.525,83.008,50.781,28.320,26.367,-271.484
1532511617.529,63.965,42.480,33.203,42.480,-410.156
1532511617.533,47.363,36.133,43.457,83.984,-164.551
1532511617.537,53.711,41.504,34.180,6.836,78.125
1532511617.541,18.555,32.227,36.133,15.137,768.066
1532511617.544,4.395,36.621,43.457,75.195,402.344
1532511617.548,21.973,38.086,43.945,50.293,-526.367
1532511617.552,18.066,36.621,37.598,62.012,-576.172
1532511617.556,40.039,44.434,37.109,27.344,-430.664
1532511617.560,37.109,34.180,43.945,52.246,-33.691
1532511617.564,0.488,31.738,41.016,49.316,-264.160
1532511617.568,45.898,43.945,35.156,1.465,-519.043
1532511617.572,10.254,39.062,41.504,61.523,-389.160
1532511617.576,-5.859,31.738,36.621,36.133,-414.551
1532511617.580,61.035,38.086,32.715,33.203,261.230
1532511617.584,40.527,44.434,35.156,76.660,299.316
1532511617.587,34.668,37.109,40.527,59.082,-384.277
1532511617.591,37.109,40.039,37.109,6.348,-312.012
1532511617.595,50.293,47.363,31.738,31.250,-484.375
1532511617.599,50.293,38.574,36.133,46.875,223.145
1532511617.603,39.062,36.133,40.039,40.039,458.984
1532511617.607,63.965,42.480,42.969,72.266,-348.145
1532511617.611,29.297,33.203,39.551,54.199,-369.629
1532511617.615,-10.254,39.062,34.180,-33.203,-521.484
1532511617.619,-55.176,34.180,41.992,-4.883,77.148
1532511617.623,40.039,34.180,49.316,102.539,290.527
1532511617.627,118.164,45.410,44.434,59.082,27.344
1532511617.630,62.012,32.715,40.527,62.988,87.402
1532511617.634,48.340,39.062,45.898,62.012,-487.305
1532511617.638,28.320,43.945,45.898,31.250,115.723
1532511617.642,9.277,36.621,33.203,39.062,833.496
1532511617.646,40.527,33.203,37.598,38.574,4.395
1532511617.650,48.828,50.781,36.621,42.969,-443.359
1532511617.654,-3.418,40.039,40.039,52.246,-588.867
1532511617.658,9.277,35.156,34.180,23.926,-55.664
1532511617.662,77.637,46.875,27.344,40.039,199.707
1532511617.666,34.180,44.434,35.156,64.453,-472.168
1532511617.669,-31.738,33.691,40.527,27.832,-441.406
1532511617.673,71.289,36.133,42.969,45.410,-99.609
1532511617.677,23.438,37.109,37.598,51.758,250.488
1532511617.681,24.414,35.156,41.016,13.184,839.355
1532511617.685,82.520,44.922,34.668,31.250,199.707
1532511617.689,58.105,44.434,36.133,62.012,-483.887
1532511617.693,-5.371,41.992,43.457,71.777,-500.000
1532511617.697,-23.926,32.227,35.645,33.691,-339.355
1532511617.701,70.312,24.902,33.691,0.488,35.156
1532511617.705,53.711,38.574,42.969,37.598,-301.758
1532511617.709,50.781,54.688,32.715,72.754,-395.020
1532511617.712,78.613,50.781,26.367,49.805,-415.039
1532511617.716,60.547,40.039,34.668,50.293,-466.309
1532511617.720,-7.324,38.086,37.598,43.457,275.879
1532511617.724,-60.547,15.625,48.828,65.430,230.957
1532511617.728,43.945,30.273,36.133,0.488,-338.379
1532511617.732,108.887,64.453,22.949,5.859,-364.258
1532511617.736,38.086,38.574,44.434,86.914,-486.328
1532511617.740,2.930,30.273,44.434,49.805,390.625
1532511617.744,6.836,35.645,37.109,57.617,510.742
1532511617.748,39.062,42.969,32.227,43.945,-423.340
1532511617.751,89.355,43.457,30.762,34.668,-484.863
1532511617.755,81.055,31.738,32.227,52.734,-421.875
1532511617.759,46.875,34.180,32.715,58.594,-46.875
1532511617.763,37.109,37.109,31.250,42.480,-99.121
1532511617.767,27.832,26.367,31.250,31.738,-173.340
1532511617.771,27.344,27.344,24.414,32.227,221.191
1532511617.775,56.152,37.109,22.461,78.613,-186.035
1532511617.779,18.555,25.391,32.227,59.570,268.555
1532511617.783,11.719,25.879,21.484,21.484,736.328
1532511617.787,43.457,28.809,18.066,14.160,-248.047
1532511617.791,22.461,16.602,28.809,42.969,-453.613
1532511617.794,15.137,31.250,19.531,53.223,-498.535
1532511617.798,26.855,19.043,15.625,19.531,-134.766
1532511617.802,45.410,14.160,23.438,40.527,2.441
1532511617.806,38.574,31.738,17.578,70.312,-401.367
1532511617.810,50.293,43.457,12.207,60.547,-331.055
1532511617.814,-13.672,27.344,23.438,30.273,-173.828
1532511617.818,4.883,22.949,23.926,20.508,414.551
1532511617.822,71.777,29.297,14.160,61.523,870.605
1532511617.826,94.727,23.438,23.926,88.379,44.922
1532511617.830,77.637,31.738,26.367,52.246,-508.789
1532511617.834,42.969,34.180,20.020,30.273,-646.484
1532511617.837,39.062,33.691,19.531,36.621,-203.125
1532511617.841,42.969,31.250,17.578,29.297,202.637
1532511617.845,61.523,30.273,24.902,44.434,-382.324
1532511617.849,47.852,23.438,25.391,30.762,-491.699
1532511617.853,25.391,18.066,22.461,45.410,-512.207
1532511617.857,42.969,27.344,29.297,96.191,-129.883
1532511617.861,24.902,30.762,24.902,54.688,453.125
1532511617.865,5.371,20.020,25.391,36.621,66.406
1532511617.869,44.922,28.809,29.297,52.246,-339.844
1532511617.873,40.039,32.227,27.832,41.992,-350.098
1532511617.876,34.180,29.297,22.461,21.973,-325.195
1532511617.880,39.062,29.785,14.648,26.855,597.656
1532511617.884,50.781,33.203,16.113,62.988,475.098
1532511617.888,64.453,31.250,21.484,45.410,-432.617
1532511617.892,8.789,13.672,23.926,10.254,-420.410
1532511617.896,0.488,20.020,26.855,4.883,-431.152
1532511617.900,58.594,41.016,18.066,-17.578,-116.211
1532511617.904,78.125,34.180,17.578,25.391,-198.730
1532511617.908,57.129,26.367,22.949,26.855,-33.203
1532511617.912,47.852,31.738,21.973,-5.859,103.516
1532511617.916,68.848,30.762,23.438,53.711,-509.277
1532511617.919,30.762,26.367,25.879,83.496,250.977
1532511617.923,20.508,21.973,36.133,45.898,703.613
1532511617.927,41.992,25.879,34.180,43.945,-310.059
1532511617.931,38.086,28.809,22.461,12.695,-560.547
1532511617.935,-24.414,29.785,15.625,2.930,-575.195
1532511617.939,7.812,23.926,23.926,72.266,-125.488
1532511617.943,58.105,26.855,26.367,60.547,-33.203
1532511617.947,41.992,38.574,15.137,17.090,-468.262
1532511617.951,38.574,34.180,19.043,14.160,-444.824
1532511617.955,32.715,30.762,33.203,47.363,-174.805
1532511617.959,29.297,25.879,35.645,23.926,563.965
1532511617.962,20.508,18.066,35.645,32.715,754.395
1532511617.966,52.734,29.297,25.391,67.383,-222.168
1532511617.970,45.898,30.762,27.832,60.547,-538.086
1532511617.974,51.270,25.879,29.297,43.945,-522.949
1532511617.978,48.340,26.855,19.043,9.766,-76.172
1532511617.982,22.949,24.414,16.113,0.000,60.059
1532511617.986,29.297,28.809,15.625,27.832,-488.770
1532511617.990,44.922,36.133,18.066,49.805,-369.629
1532511617.994,41.504,33.203,14.648,41.992,-455.078
1532511617.998,28.809,28.809,15.625,37.598,-90.332
1532511618.001,14.160,32.715,14.160,21.973,503.418
1532511618.005,51.758,38.086,13.672,33.691,45.410
1532511618.009,77.148,34.180,21.973,67.383,-238.281
1532511618.013,53.223,33.691,25.391,72.754,-427.734
1532511618.017,44.434,34.180,20.020,-24.902,-232.422
1532511618.021,47.363,26.367,24.902,-1.953,799.805
1532511618.025,51.270,32.227,32.715,110.352,354.980
1532511618.029,23.926,35.156,35.645,55.176,-457.031
1532511618.033,42.969,29.785,32.227,44.434,-556.152
1532511618.037,76.172,38.086,19.531,36.621,-369.629
1532511618.041,80.078,41.016,22.949,59.082,98.145
1532511618.044,63.477,39.551,22.949,86.914,-232.910
1532511618.048,9.277,44.922,15.137,18.066,-114.746
1532511618.052,53.711,35.645,25.391,37.598,-10.254
1532511618.056,105.469,36.133,27.832,88.867,-393.555
1532511618.060,57.617,46.387,28.809,67.383,520.020
1532511618.064,60.059,43.457,28.320,54.199,528.809
1532511618.068,91.797,39.551,26.855,75.684,-377.441
1532511618.072,82.520,37.598,30.273,44.434,-365.723
1532511618.076,77.148,40.039,34.668,67.383,-446.289
1532511618.080,43.457,36.133,30.273,57.617,-157.227
1532511618.083,38.086,38.086,19.531,8.301,-236.816
1532511618.087,93.750,41.504,23.926,30.762,-495.117
1532511618.091,65.430,40.527,29.785,68.848,-337.402
1532511618.095,49.805,32.715,31.738,93.750,-222.656
1532511618.099,66.406,36.133,32.715,72.754,491.211
1532511618.103,56.641,42.969,25.879,47.852,678.711
1532511618.107,87.891,40.039,22.949,40.527,-253.418
1532511618.111,83.496,38.574,32.715,75.684,-493.652
1532511618.115,38.086,38.574,29.297,56.641,-596.191
1532511618.119,8.789,29.785,22.949,29.297,-200.195
1532511618.123,48.828,24.902,24.414,5.371,-28.320
1532511618.126,77.148,34.180,19.531,3.906,-409.180
1532511618.130,84.473,44.922,15.137,86.426,-422.852
1532511618.134,76.660,41.016,17.578,53.223,-557.129
1532511618.138,46.387,37.598,16.113,21.973,-46.387
1532511618.142,20.508,27.344,17.578,21.973,487.305
1532511618.146,48.828,21.973,11.230,2.441,232.422
1532511618.150,80.078,38.574,5.859,49.805,-114.746
1532511618.154,18.066,41.992,18.066,81.055,-517.578
1532511618.158,-0.977,27.344,24.902,71.777,62.500
1532511618.162,69.824,30.762,15.137,48.340,897.949
1532511618.166,84.961,47.852,-1.465,-13.672,40.039
1532511618.169,45.898,37.598,15.625,29.785,-521.973
1532511618.173,13.184,27.344,24.414,71.289,-506.836
1532511618.177,37.598,33.203,19.531,50.781,-138.672
1532511618.181,51.758,32.715,22.461,43.457,158.691
1532511618.185,8.301,26.855,20.996,-2.441,-433.594
1532511618.189,-4.883,24.414,17.090,2.930,-50.293
1532511618.193,35.645,27.832,13.672,48.828,261.719
1532511618.197,39.062,41.992,13.184,70.312,-107.422
1532511618.201,35.156,40.039,7.812,38.574,645.508
1532511618.205,48.828,29.297,10.254,25.391,403.320
1532511618.208,26.367,29.297,8.789,11.230,-491.211
1532511618.212,9.766,28.809,8.789,29.297,-544.434
1532511618.216,57.129,32.715,13.184,86.426,-535.645
1532511618.220,61.523,34.668,16.602,81.543,-116.211
1532511618.224,48.828,37.598,19.043,30.762,-213.867
1532511618.228,29.297,35.156,20.020,13.672,-458.008
1532511618.232,-19.531,24.902,16.602,39.062,-473.145
1532511618.236,20.020,25.391,14.160,40.527,-200.195
1532511618.240,57.617,32.715,18.066,26.367,683.594
1532511618.244,-32.227,14.648,21.484,50.781,572.266
1532511618.248,-45.410,19.531,17.090,47.363,-426.758
1532511618.251,41.504,35.156,12.695,27.832,-592.285
1532511618.255,14.648,26.367,13.184,24.414,-533.203
1532511618.259,28.809,36.133,4.395,31.738,-141.602
1532511618.263,62.012,33.691,5.371,36.133,-172.363
1532511618.267,24.414,20.508,4.883,37.109,-540.039
1532511618.271,23.438,28.320,1.953,42.480,-436.523
1532511618.275,35.156,28.320,8.789,54.199,-416.504
1532511618.279,51.758,24.414,5.371,32.227,-36.133
1532511618.283,15.137,19.531,4.395,13.672,312.988
1532511618.287,-9.277,17.090,6.836,11.230,-3.418
1532511618.291,37.598,22.461,11.230,65.430,-208.496
1532511618.294,48.828,26.855,9.766,60.059,-455.566
1532511618.298,-2.441,36.133,-2.930,57.129,162.598
1532511618.302,-46.875,26.855,-7.812,15.137,818.848
1532511618.306,47.363,40.039,-11.230,1.465,-34.180
1532511618.310,64.941,35.645,9.766,63.477,-396.973
1532511618.314,-0.488,25.391,3.906,66.895,-559.570
1532511618.318,-5.859,26.367,-6.836,52.246,-96.191
1532511618.322,59.082,35.645,-1.465,55.176,235.352
1532511618.326,83.008,35.645,-3.418,57.617,-334.473
1532511618.330,30.273,24.414,-1.465,20.508,-1.465
1532511618.333,12.695,30.762,-7.812,13.672,-123.047
1532511618.337,27.832,24.902,-8.789,48.340,3.418
1532511618.341,48.340,27.832,-5.859,41.992,526.367
1532511618.345,55.664,32.715,-2.930,46.875,-193.359
1532511618.349,4.395,30.762,-0.977,36.621,-440.430
1532511618.353,-20.508,30.762,-1.953,17.578,-444.336
1532511618.357,0.977,23.438,-0.977,35.645,-187.988
1532511618.361,47.363,34.180,-0.977,25.879,787.598
1532511618.365,51.758,45.410,-1.953,22.461,328.125
1532511618.369,-1.953,32.715,4.883,66.406,-516.602
1532511618.373,29.785,31.738,4.883,56.152,-439.941
1532511618.376,63.477,37.109,-3.906,31.250,-92.773
1532511618.380,23.926,34.180,6.836,51.270,791.992
1532511618.384,10.254,30.762,8.789,21.973,391.113
1532511618.388,40.039,27.832,3.906,36.621,-526.855
1532511618.392,54.688,35.156,4.883,81.055,-523.438
1532511618.396,41.504,30.273,8.301,45.410,-534.180
1532511618.400,22.949,23.926,10.742,43.457,-224.121
1532511618.404,33.691,31.738,8.301,29.785,-295.410
1532511618.408,28.320,24.414,6.836,7.324,-468.750
1532511618.412,37.109,32.227,6.348,59.082,-416.992
1532511618.415,35.156,39.062,6.836,55.176,-541.016
1532511618.419,23.438,40.527,2.930,10.254,-186.035
1532511618.423,22.461,39.551,10.254,35.156,266.113
1532511618.427,33.691,31.738,12.207,60.059,200.684
1532511618.431,9.766,29.297,10.742,47.852,-158.203
1532511618.435,28.320,36.133,6.348,20.996,-595.215
1532511618.439,43.457,35.645,5.859,24.414,227.051
1532511618.443,-2.441,17.090,15.137,66.895,748.047
1532511618.447,24.902,29.785,16.113,68.359,-269.531
1532511618.451,54.199,43.457,9.277,41.992,-579.102
1532511618.455,46.875,32.715,13.184,43.457,-559.082
1532511618.458,39.551,46.387,11.719,10.254,-54.199
1532511618.462,5.859,37.598,17.578,22.461,17.578
1532511618.466,8.789,11.719,21.484,51.270,-513.672
1532511618.470,36.621,26.367,1.465,-15.137,-46.875
1532511618.474,42.480,37.109,8.789,-1.953,-42.969
1532511618.478,40.039,39.062,19.043,60.059,173.828
1532511618.482,30.762,34.180,16.113,9.277,834.961
1532511618.486,40.527,30.762,15.137,32.715,-73.242
1532511618.490,48.340,37.598,16.113,70.801,-394.531
1532511618.494,55.176,45.410,17.578,37.109,-415.039
1532511618.498,5.371,37.109,20.020,71.289,-185.547
1532511618.501,6.348,27.344,27.344,70.801,102.539
1532511618.505,66.406,39.551,19.043,16.602,-407.715
1532511618.509,50.293,36.133,22.461,30.273,-400.391
1532511618.513,48.828,29.785,30.273,55.664,-483.398
1532511618.517,28.809,34.668,24.414,38.574,-82.520
1532511618.521,38.086,36.621,24.902,21.484,855.469
1532511618.525,38.574,34.180,25.391,3.906,302.246
1532511618.529,20.996,33.203,24.414,11.719,-500.488
1532511618.533,15.137,31.250,23.926,44.922,-610.352
1532511618.537,29.785,36.133,23.926,47.852,-464.355
1532511618.540,9.766,26.855,24.902,45.410,10.254
1532511618.544,13.184,33.203,18.066,45.898,-254.395
1532511618.548,50.781,54.688,21.484,55.176,-512.207
1532511618.552,30.762,45.410,22.949,33.691,-487.305
1532511618.556,0.000,32.715,17.090,-0.977,-370.117
1532511618.560,-0.488,22.949,29.785,49.805,55.664
1532511618.564,58.105,34.668,26.367,60.059,189.453
1532511618.568,57.617,46.875,14.648,34.180,57.617
1532511618.572,13.672,40.527,20.508,58.105,-142.090
1532511618.576,57.617,34.180,23.926,51.758,-437.988
1532511618.580,55.176,36.621,20.020,8.301,363.770
1532511618.583,36.621,38.574,19.531,16.113,629.395
1532511618.587,40.039,32.227,25.879,52.246,-365.723
1532511618.591,35.156,28.809,25.391,57.129,-452.637
1532511618.595,-10.742,29.785,24.902,24.414,-486.816
1532511618.599,-44.434,29.297,24.902,24.902,-176.270
1532511618.603,41.016,38.086,14.160,24.902,-116.699
1532511618.607,67.871,50.293,9.766,12.695,-408.203
1532511618.611,47.852,41.016,20.996,55.664,-46.875
1532511618.615,3.418,29.785,11.230,54.199,3.418
1532511618.619,29.297,35.645,2.930,24.902,406.250
1532511618.623,92.773,36.133,12.207,32.715,760.254
1532511618.626,44.922,40.527,8.301,39.062,-151.855
1532511618.630,33.691,39.551,11.719,41.504,-547.363
1532511618.634,44.922,27.832,20.020,28.320,-642.090
1532511618.638,58.594,21.484,26.367,28.320,-129.883
1532511618.642,105.957,40.527,18.555,34.180,112.305
1532511618.646,83.008,44.434,13.672,13.184,-450.195
1532511618.650,41.016,30.762,13.184,31.738,-476.074
1532511618.654,73.242,34.668,20.996,78.613,-524.902
1532511618.658,66.895,40.527,23.438,51.758,166.016
1532511618.662,-7.324,30.762,18.066,28.809,922.852
1532511618.665,14.160,25.391,16.113,20.996,17.578
1532511618.669,41.992,36.621,20.508,29.785,-555.176
1532511618.673,-14.648,33.203,23.438,44.922,-543.457
1532511618.677,23.926,27.344,23.438,61.035,-174.805
1532511618.681,41.504,37.109,24.902,59.082,125.977
1532511618.685,21.484,38.086,25.879,46.875,-431.152
1532511618.689,38.574,35.645,14.160,30.273,-433.594
1532511618.693,26.855,34.668,17.578,38.574,-408.691
1532511618.697,21.973,33.203,26.855,52.246,-299.805
1532511618.701,15.625,34.180,27.832,41.992,147.461
1532511618.705,23.438,40.039,28.320,61.523,186.035
1532511618.708,57.129,41.016,21.484,61.523,64.453
1532511618.712,54.688,34.180,29.785,67.383,-273.438
1532511618.716,23.926,25.391,28.320,28.320,-496.094
1532511618.720,32.227,35.645,21.973,20.020,487.793
1532511618.724,87.891,51.270,23.926,55.664,589.844
1532511618.728,63.965,51.758,21.484,37.109,-396.973
1532511618.732,-1.953,45.410,20.996,34.668,-527.832
1532511618.736,31.738,40.039,25.391,49.316,-519.043
1532511618.740,73.242,39.551,39.551,80.566,-87.402
1532511618.744,70.801,42.969,38.574,73.730,-122.070
1532511618.747,41.992,38.086,30.762,31.738,-459.961
1532511618.751,53.711,43.945,25.879,6.348,-137.695
1532511618.755,58.105,45.898,31.250,87.402,111.328
1532511618.759,43.945,27.832,38.086,111.328,671.387
1532511618.763,27.344,32.227,33.691,52.734,635.742
1532511618.767,5.859,41.016,31.250,25.391,-376.465
1532511618.771,7.812,39.062,34.180,10.254,-548.340
1532511618.775,24.902,38.086,33.203,0.488,-500.000
1532511618.779,50.293,45.410,29.785,22.949,-125.977
1532511618.783,1.465,39.551,33.691,54.199,-125.000
1532511618.787,-25.879,36.133,35.156,18.555,-505.371
1532511618.790,16.602,50.293,31.250,-0.488,-351.074
1532511618.794,24.414,50.293,45.410,30.273,-478.027
1532511618.798,61.523,43.945,36.621,-2.930,230.469
1532511618.802,35.645,41.016,29.785,5.859,835.449
1532511618.806,-31.738,31.250,38.086,52.246,-76.660
1532511618.810,46.875,47.363,31.250,63.965,-445.801
1532511618.814,103.027,53.223,30.273,30.762,-600.098
1532511618.818,62.988,48.340,26.855,10.742,-171.875
1532511618.822,50.293,36.133,27.832,41.504,168.457
1532511618.826,22.461,19.531,37.109,24.902,-375.000
1532511618.830,16.113,39.551,28.809,35.645,-428.711
1532511618.833,24.902,44.434,26.855,60.059,-556.641
1532511618.837,45.410,38.086,41.016,50.293,-129.395
1532511618.841,79.102,46.875,32.227,59.570,281.738
1532511618.845,44.922,42.480,36.133,55.664,62.988
1532511618.849,62.012,44.434,34.180,40.039,9.277
1532511618.853,75.195,42.480,29.297,51.758,-367.188
1532511618.857,47.363,34.180,34.180,43.457,-224.609
1532511618.861,20.508,33.691,26.367,7.324,770.020
1532511618.865,38.086,39.551,36.621,60.059,329.102
1532511618.869,109.375,43.945,41.504,97.168,-529.785
1532511618.872,78.613,40.039,32.715,22.461,-468.750
1532511618.876,62.988,40.039,32.227,25.879,-345.703
1532511618.880,42.480,36.621,24.414,32.227,-11.230
1532511618.884,30.762,43.945,24.414,13.184,-284.180
1532511618.888,53.223,41.992,37.598,67.383,-447.266
1532511618.892,45.410,35.645,39.551,69.336,-5.859
1532511618.896,58.105,42.969,36.133,47.852,-106.445
1532511618.900,35.645,37.109,33.691,30.273,430.176
1532511618.904,9.766,36.621,31.250,47.852,611.816
1532511618.908,49.805,43.457,22.461,30.273,-362.793
1532511618.912,71.777,48.340,27.344,28.809,-388.184
1532511618.915,51.758,38.574,37.109,63.477,-449.219
1532511618.919,36.133,35.156,31.250,35.645,-228.516
1532511618.923,42.480,41.504,25.391,4.883,-127.441
1532511618.927,40.527,38.574,33.203,29.785,-426.270
1532511618.931,-23.926,18.555,37.598,32.227,-446.777
1532511618.935,3.418,34.668,26.367,13.672,-562.988
1532511618.939,29.785,44.922,28.320,46.875,337.402
1532511618.943,9.766,27.344,42.969,41.016,675.781
1532511618.947,80.078,37.109,36.133,60.547,-340.820
1532511618.951,82.031,41.016,28.320,57.129,-526.855
1532511618.955,47.363,42.480,23.926,9.277,-559.570
1532511618.958,16.113,34.668,33.203,29.297,115.234
1532511618.962,34.180,25.391,37.109,73.242,281.250
1532511618.966,48.828,39.551,28.809,59.570,-471.191
1532511618.970,49.805,45.410,22.949,26.855,-418.945
1532511618.974,32.227,36.621,29.785,47.852,-422.852
1532511618.978,21.973,31.250,32.715,68.359,40.527
1532511618.982,55.664,40.039,25.879,56.641,167.969
1532511618.986,37.109,41.992,29.785,26.855,-1.953
1532511618.990,21.484,36.621,31.738,48.828,180.176
1532511618.994,20.020,29.785,32.715,77.148,-356.934
1532511618.997,49.805,33.691,31.250,0.977,-53.223
1532511619.001,22.461,41.016,26.367,15.625,885.742
1532511619.005,32.227,40.039,32.227,92.773,211.914
1532511619.009,82.031,56.641,30.762,68.359,-407.715
1532511619.013,19.531,41.504,26.855,8.789,-523.438
1532511619.017,41.992,32.227,27.344,10.254,-290.039
1532511619.021,81.543,44.434,32.227,67.383,176.758
1532511619.025,64.453,35.645,36.621,82.520,-242.188
1532511619.029,43.457,33.203,32.715,50.781,-422.852
1532511619.033,18.066,36.133,32.227,24.902,-96.191
1532511619.037,25.391,36.133,30.762,23.438,210.938
1532511619.040,47.852,40.039,30.762,32.227,802.246
1532511619.044,18.066,35.645,27.832,27.832,422.852
1532511619.048,-7.812,38.574,27.344,24.902,-517.578
1532511619.052,25.879,29.785,34.668,43.945,-586.914
1532511619.056,56.641,27.344,37.109,50.781,-471.680
1532511619.060,56.152,68.848,42.480,64.941,-71.289
1532511619.064,31.250,61.035,44.922,49.316,-267.090
1532511619.068,22.949,34.180,34.668,9.277,-549.316
1532511619.072,46.387,43.457,44.922,18.555,-417.480
1532511619.076,73.242,61.035,42.480,50.781,-426.270
1532511619.079,27.832,54.688,37.598,52.246,196.777
1532511619.083,7.812,51.270,45.410,-6.348,325.684
1532511619.087,8.301,59.082,41.992,-22.461,-291.504
1532511619.091,-32.715,60.547,40.039,-5.859,-299.316
1532511619.095,-5.859,54.199,55.664,24.414,-416.504
1532511619.099,-9.766,53.223,63.477,4.883,141.602
1532511619.103,-67.383,49.805,56.641,-34.180,266.113
1532511619.107,-4.883,62.012,55.664,15.137,-303.223
1532511619.111,4.883,63.477,67.383,5.371,-260.742
1532511619.115,-29.785,62.500,66.895,-32.227,-481.445
1532511619.119,-83.008,65.430,58.594,-52.246,199.707
1532511619.122,-83.496,63.477,69.824,-37.109,712.891
1532511619.126,-34.180,54.199,79.590,-16.113,243.164
1532511619.130,-45.898,65.918,71.777,-37.109,100.098
1532511619.134,-33.203,77.148,61.035,-53.223,-452.637
1532511619.138,-41.504,62.012,64.941,-48.340,91.309
1532511619.142,-88.867,67.871,72.754,-88.867,871.582
1532511619.146,-86.426,72.754,68.848,-70.801,-58.594
1532511619.150,-24.902,56.152,67.383,-38.086,-559.570
1532511619.154,-26.367,51.758,59.082,-20.996,-587.891
1532511619.158,-44.434,50.781,60.547,18.555,-56.152
1532511619.162,-24.902,44.434,69.336,9.277,233.887
1532511619.165,-8.301,38.574,65.918,15.625,-463.379
1532511619.169,45.898,39.062,52.734,29.785,-479.004
1532511619.173,57.617,39.062,52.246,25.391,-88.867
1532511619.177,39.062,38.574,49.316,24.902,279.297
1532511619.181,-1.953,28.320,44.922,31.250,833.008
1532511619.185,-17.578,21.484,47.852,33.691,208.008
1532511619.189,57.129,35.156,39.551,48.828,-524.902
1532511619.193,68.359,32.227,41.992,55.664,-544.922
1532511619.197,40.039,27.344,43.945,41.504,-423.340
1532511619.201,49.805,30.762,39.551,39.062,-39.551
1532511619.204,58.105,16.113,39.062,52.246,-336.426
1532511619.208,48.828,15.625,39.062,67.871,-447.266
1532511619.212,45.410,21.484,38.574,64.941,-447.266
1532511619.216,61.035,17.090,40.039,74.219,-512.207
1532511619.220,91.797,29.785,36.133,77.148,108.398
1532511619.224,52.246,26.367,32.227,48.340,190.918
1532511619.228,52.734,26.367,35.156,80.078,-313.965
1532511619.232,111.328,30.762,37.598,92.285,-407.715
1532511619.236,85.449,25.391,29.785,40.039,-538.086
1532511619.240,47.852,25.391,28.320,36.133,353.516
1532511619.244,26.367,21.973,41.504,87.891,655.273
1532511619.247,58.105,24.414,41.992,98.633,-380.859
1532511619.251,94.727,29.785,34.180,81.055,-552.246
1532511619.255,86.914,26.855,33.691,66.406,-470.703
1532511619.259,68.359,28.320,31.250,72.266,-84.473
1532511619.263,48.828,29.297,33.691,72.266,-128.418
1532511619.267,17.578,17.578,32.227,33.203,-118.164
1532511619.271,50.293,11.719,30.762,62.500,98.633
1532511619.275,115.723,28.809,40.039,125.488,-410.645
1532511619.279,91.797,30.273,41.504,90.820,257.324
1532511619.283,61.035,25.391,39.551,70.312,601.562
1532511619.287,79.102,26.855,36.621,47.852,-369.629
1532511619.290,76.172,22.461,39.551,60.547,-396.484
1532511619.294,74.219,25.391,32.227,54.199,-534.668
1532511619.298,33.691,33.691,28.809,52.246,94.238
1532511619.302,28.809,21.973,48.340,94.727,479.492
1532511619.306,71.289,29.297,40.527,70.312,-345.703
1532511619.310,51.270,38.574,30.762,73.242,-376.953
1532511619.314,74.707,36.621,37.598,80.078,-171.387
1532511619.318,89.355,38.574,37.598,82.031,349.121
1532511619.322,68.359,41.016,38.086,62.012,868.164
1532511619.326,8.301,24.902,41.992,56.152,71.289
1532511619.329,61.523,29.785,40.039,77.637,-555.664
1532511619.333,124.512,44.434,34.180,76.172,-548.828
1532511619.337,62.012,35.645,38.086,84.473,-121.094
1532511619.341,47.363,34.668,36.133,64.941,176.758
1532511619.345,52.734,34.668,29.785,25.391,-390.137
1532511619.349,71.289,45.898,33.691,55.176,-528.809
1532511619.353,85.449,48.340,36.621,90.332,-536.133
1532511619.357,64.453,32.227,43.457,91.797,-250.488
1532511619.361,17.090,27.344,45.898,66.406,351.562
1532511619.365,27.344,31.250,41.016,32.227,239.258
1532511619.369,109.375,46.875,29.785,68.848,-179.688
1532511619.372,76.660,45.410,33.691,87.891,-368.164
1532511619.376,46.875,44.434,40.039,64.941,-380.859
1532511619.380,41.016,33.691,35.156,30.762,550.781
1532511619.384,34.180,28.320,37.109,29.297,495.117
1532511619.388,60.547,41.992,34.668,86.426,-460.938
1532511619.392,70.312,45.410,30.273,52.246,-452.637
1532511619.396,40.527,36.621,29.785,30.273,-461.426
1532511619.400,77.637,37.109,35.156,101.074,-150.391
1532511619.404,100.098,41.992,36.621,83.496,-212.891
1532511619.408,64.453,38.574,33.691,63.477,-82.031
1532511619.411,62.988,37.598,43.457,30.762,265.137
1532511619.415,24.414,36.621,38.086,28.809,-340.820
1532511619.419,53.711,44.922,26.855,25.391,214.355
1532511619.423,95.703,49.316,38.086,32.715,714.355
1532511619.427,75.195,54.199,41.992,77.637,-313.477
1532511619.431,89.355,49.805,34.180,20.020,-593.750
1532511619.435,65.918,36.133,38.574,45.410,-620.605
1532511619.439,34.668,32.227,41.992,101.074,-154.297
1532511619.443,33.203,32.715,33.203,69.336,-46.387
1532511619.447,56.641,35.645,33.203,80.566,-508.301
1532511619.451,54.199,34.180,32.715,77.148,-491.699
1532511619.454,47.852,30.762,30.762,87.891,-203.125
1532511619.458,25.879,31.250,21.973,14.160,555.176
1532511619.462,7.812,29.785,16.113,42.969,775.879
1532511619.466,43.457,26.855,33.203,102.051,-213.379
1532511619.470,30.762,31.250,38.086,67.871,-569.824
1532511619.474,39.062,36.621,28.320,67.871,-571.289
1532511619.478,52.246,34.668,28.320,42.969,-96.680
1532511619.482,3.906,35.156,34.180,28.809,73.242
1532511619.486,20.508,36.621,32.715,39.551,-518.066
1532511619.490,58.594,38.086,25.879,32.715,-397.461
1532511619.494,10.254,32.715,27.832,58.105,-485.840
1532511619.497,39.062,33.691,27.832,57.617,-145.996
1532511619.501,46.875,39.551,24.902,41.504,476.074
1532511619.505,-9.766,37.109,22.949,49.316,42.480
1532511619.509,53.223,43.945,30.273,54.199,-259.277
1532511619.513,33.203,35.156,32.227,71.289,-452.148
1532511619.517,5.371,24.902,31.250,60.059,-279.297
1532511619.521,80.078,40.527,25.391,41.992,773.926
1532511619.525,41.992,39.062,23.926,56.152,371.582
1532511619.529,30.762,38.086,28.320,45.410,-460.938
1532511619.533,61.035,38.574,31.250,31.738,-547.852
1532511619.536,31.738,28.809,22.461,29.297,-394.531
1532511619.540,15.625,28.320,18.066,37.109,48.340
1532511619.544,48.340,30.762,29.785,51.758,-106.934
1532511619.548,66.406,38.574,27.832,62.500,23.926
1532511619.552,46.387,32.715,27.832,70.312,31.738
1532511619.556,50.781,28.809,31.738,68.848,-394.531
1532511619.560,48.340,37.598,29.297,19.043,464.355
1532511619.564,29.297,38.086,24.902,25.879,571.289
1532511619.568,9.277,30.273,27.832,51.758,-490.234
1532511619.572,42.969,40.039,26.855,38.086,-515.137
1532511619.576,74.219,46.387,26.367,71.289,-464.844
1532511619.579,5.859,39.062,25.391,53.711,-174.805
1532511619.583,-28.320,23.926,28.809,55.664,-216.797
1532511619.587,80.078,34.180,32.227,65.918,-485.352
1532511619.591,93.262,48.340,30.762,30.273,-341.309
1532511619.595,-16.113,26.367,36.621,40.039,-160.156
1532511619.599,31.250,25.879,36.133,51.758,544.434
1532511619.603,80.566,38.574,36.133,43.457,689.453
1532511619.607,52.734,37.598,40.527,65.430,-232.422
1532511619.611,54.199,39.551,36.133,64.941,-504.395
1532511619.615,44.434,33.203,32.715,53.223,-618.164
1532511619.618,9.766,38.574,21.484,22.949,-199.219
1532511619.622,-2.441,34.180,30.273,33.691,-3.906
1532511619.626,41.992,30.762,38.574,33.691,-420.898
1532511619.630,44.434,33.203,31.250,36.621,-439.941
1532511619.634,31.250,29.297,37.598,43.457,-573.242
1532511619.638,37.109,33.691,36.621,31.250,-42.969
1532511619.642,36.621,41.016,32.715,48.828,545.410
1532511619.646,7.324,35.156,28.320,48.828,15.625
1532511619.650,7.812,27.832,31.250,40.039,-336.426
1532511619.654,32.227,38.086,33.203,44.434,-480.957
1532511619.658,50.781,32.715,28.320,33.203,32.715
1532511619.661,71.777,22.949,26.367,20.996,895.020
1532511619.665,47.852,21.973,25.879,10.742,83.008
1532511619.669,13.184,27.832,29.297,8.301,-514.648
1532511619.673,31.250,31.738,32.715,41.016,-489.746
1532511619.677,30.273,28.809,27.344,7.324,-153.320
1532511619.681,6.348,23.438,24.414,2.441,168.457
1532511619.685,35.645,27.344,32.227,61.523,-385.254
1532511619.689,10.742,32.715,31.738,57.129,-46.387
1532511619.693,4.395,26.855,28.320,34.180,76.172
1532511619.697,60.547,25.391,27.832,55.176,-299.316
1532511619.701,47.852,30.762,27.344,24.902,625.000
1532511619.704,56.152,34.668,21.973,-3.906,471.680
1532511619.708,46.387,26.367,23.926,39.062,-430.176
1532511619.712,16.602,23.926,30.762,63.965,-514.648
1532511619.716,28.809,34.668,28.320,52.246,-528.809
1532511619.720,42.969,25.879,24.414,16.602,-101.074
1532511619.724,69.336,21.484,31.738,58.105,-169.434
1532511619.728,16.602,31.738,34.668,42.969,-450.684
1532511619.732,-35.645,30.762,25.879,6.836,-458.496
1532511619.736,59.570,36.621,25.391,59.570,-147.461
1532511619.740,56.152,44.434,26.367,58.594,709.961
1532511619.743,14.648,30.273,26.367,45.898,593.262
1532511619.747,31.250,25.391,29.297,61.035,-404.297
1532511619.751,41.016,24.414,32.227,42.969,-605.469
1532511619.755,33.691,14.648,40.527,53.223,-415.039
1532511619.759,44.434,20.020,36.133,83.008,-18.066
1532511619.763,53.711,36.133,25.879,33.203,-171.875
1532511619.767,19.531,41.504,23.926,11.719,-537.598
1532511619.771,36.133,41.016,16.602,3.906,-428.711
1532511619.775,5.859,32.715,16.602,-11.719,-420.898
1532511619.779,14.160,36.133,19.531,34.180,-13.184
1532511619.783,62.012,40.527,19.043,45.410,348.633
1532511619.786,40.039,38.086,15.137,20.508,192.383
1532511619.790,3.906,36.133,13.672,-0.488,-17.578
1532511619.794,10.254,37.598,15.625,-9.766,-474.609
1532511619.798,34.668,41.504,26.855,41.016,128.418
1532511619.802,23.438,35.645,23.926,23.926,835.449
1532511619.806,2.930,34.668,20.020,13.672,-35.645
1532511619.810,6.836,34.180,24.902,38.574,-445.312
1532511619.814,62.988,35.645,23.926,34.668,-590.332
1532511619.818,7.812,23.926,21.973,30.273,-158.203
1532511619.822,-3.418,22.949,25.391,33.203,207.031
1532511619.826,64.453,41.992,20.508,15.137,-347.168
1532511619.829,59.082,38.086,19.043,29.297,-103.027
1532511619.833,26.367,33.203,25.879,75.195,18.555
1532511619.837,10.254,33.691,24.902,51.270,146.973
1532511619.841,62.012,39.062,20.508,35.156,455.566
1532511619.845,40.039,43.945,28.320,26.367,-230.957
1532511619.849,18.555,33.203,34.180,14.160,-500.977
1532511619.853,48.828,28.320,33.691,24.414,-482.422
1532511619.857,45.898,35.156,33.691,54.199,-262.695
1532511619.861,17.578,30.762,25.391,38.574,639.160
1532511619.865,61.035,36.133,27.832,35.156,188.477
1532511619.868,25.391,38.574,33.691,28.320,-542.480
1532511619.872,-20.508,28.809,31.738,16.602,-405.273
1532511619.876,64.453,31.738,35.645,43.457,-67.383
1532511619.880,59.570,37.109,36.133,61.523,781.738
1532511619.884,56.152,36.621,37.109,33.203,431.641
1532511619.888,3.906,33.691,21.484,-11.230,-488.281
1532511619.892,10.254,37.598,22.461,41.992,-490.234
1532511619.896,55.664,35.645,42.480,69.336,-529.297
1532511619.900,17.578,25.391,39.551,31.250,-231.445
1532511619.904,47.852,33.203,30.273,22.461,-246.582
1532511619.908,77.148,43.945,29.785,26.855,-444.824
1532511619.911,33.203,36.133,36.133,22.949,-417.480
1532511619.915,12.207,30.762,40.039,49.316,-528.809
1532511619.919,34.180,29.785,41.504,71.777,-147.949
1532511619.923,20.020,27.832,41.504,29.785,292.480
1532511619.927,45.898,40.527,26.855,-3.418,44.434
1532511619.931,56.641,46.387,32.227,27.344,-310.547
1532511619.935,19.531,39.551,50.781,65.430,-582.520
1532511619.939,14.160,31.738,40.527,65.918,230.957
1532511619.943,62.012,33.203,33.691,22.949,763.184
1532511619.947,55.664,40.527,36.133,14.648,-244.629
1532511619.950,42.480,41.016,36.621,50.781,-567.383
1532511619.954,8.301,31.738,40.527,33.691,-545.898
1532511619.958,8.789,33.203,43.457,12.695,-0.488
1532511619.962,63.965,52.734,37.598,53.711,49.805
1532511619.966,52.734,49.805,40.527,50.781,-400.391
1532511619.970,11.719,42.969,43.945,33.691,64.941
1532511619.974,-45.898,35.645,43.945,41.992,58.594
1532511619.978,15.137,36.621,41.992,19.531,270.508
1532511619.982,83.496,46.387,41.992,37.598,838.379
1532511619.986,72.754,45.898,44.434,67.871,-13.184
1532511619.990,75.684,44.434,40.527,54.688,-498.047
1532511619.993,59.570,46.387,38.086,43.457,-554.199
1532511619.997,15.625,44.922,32.715,22.949,-205.078
1532511620.001,10.742,38.086,28.320,8.789,136.719
1532511620.005,20.020,34.668,36.621,1.953,-369.141
1532511620.009,25.391,42.969,34.668,20.508,-380.859
1532511620.013,58.105,48.340,25.391,80.078,-463.867
1532511620.017,50.781,33.691,32.227,67.383,-86.426
1532511620.021,36.133,35.645,39.062,-5.371,854.980
1532511620.025,19.531,41.016,31.738,-16.113,333.008
1532511620.029,-1.465,22.461,35.645,45.410,-491.211
1532511620.033,25.391,19.043,42.480,51.270,-601.074
1532511620.036,49.316,28.809,35.645,35.156,-479.980
1532511620.040,49.805,25.391,37.598,43.945,-6.836
1532511620.044,13.672,23.926,45.898,51.758,-250.977
1532511620.048,6.836,5.371,50.781,27.344,-531.738
1532511620.052,22.949,2.441,41.992,14.160,-469.727
1532511620.056,46.387,24.902,37.109,78.613,-370.117
1532511620.060,42.480,26.855,34.668,27.832,2.441
1532511620.064,32.715,21.973,30.762,10.742,247.559
1532511620.068,36.621,22.949,43.457,60.547,199.707
1532511620.072,-0.488,20.508,38.574,37.109,-78.125
1532511620.075,-8.301,13.672,35.156,41.992,-453.125
1532511620.079,33.691,23.438,35.156,20.508,336.914
1532511620.083,53.223,24.902,35.645,49.316,647.461
1532511620.087,55.176,20.508,38.086,57.617,-354.004
1532511620.091,47.852,23.438,36.133,46.875,-473.633
1532511620.095,35.156,23.926,29.785,31.738,-516.602
1532511620.099,31.250,21.484,31.738,33.203,-190.918
1532511620.103,56.152,26.855,33.691,60.059,-118.652
1532511620.107,52.734,29.297,32.227,52.246,-416.016
1532511620.111,36.621,27.344,34.668,35.156,-45.410
1532511620.115,31.250,27.344,31.738,32.715,-4.395
1532511620.118,6.348,20.020,29.297,22.461,383.789
1532511620.122,44.434,20.508,35.645,55.664,775.879
1532511620.126,7.324,21.973,38.574,42.480,-133.789
1532511620.130,-7.324,20.996,32.227,14.160,-564.941
1532511620.134,59.570,24.414,34.180,46.875,-665.527
1532511620.138,41.504,22.949,32.715,51.758,-140.137
1532511620.142,47.852,25.391,24.902,39.062,138.672
1532511620.146,33.691,15.137,39.062,61.523,-453.613
1532511620.150,10.742,18.555,39.551,30.273,-498.535
1532511620.154,24.902,24.414,29.297,-0.977,-524.902
1532511620.158,55.664,21.973,20.020,44.922,143.555
1532511620.161,46.875,33.203,7.812,48.340,928.223
1532511620.165,57.129,36.621,3.906,64.453,55.176
1532511620.169,73.242,32.715,-5.859,41.504,-552.734
1532511620.173,34.668,28.320,-15.137,21.484,-512.695
1532511620.177,51.270,30.273,-19.043,13.672,-132.324
1532511620.181,46.875,28.809,-21.484,-8.301,145.020
1532511620.185,14.160,17.090,-14.160,45.898,-390.137
1532511620.189,56.152,23.438,-13.184,69.336,-400.391
1532511620.193,74.219,36.621,-29.297,14.648,-368.652
1532511620.197,22.949,25.391,-24.902,34.668,-280.273
1532511620.200,-29.297,16.602,-21.973,35.156,86.914
1532511620.204,50.293,16.113,-30.762,23.926,181.641
1532511620.208,57.129,19.531,-30.762,61.523,109.863
1532511620.212,30.762,32.227,-27.832,75.195,-246.582
1532511620.216,21.973,34.668,-26.367,67.383,-492.188
1532511620.220,-18.555,27.344,-25.879,25.391,462.402
1532511620.224,-18.555,22.949,-24.902,14.160,624.023
1532511620.228,46.387,32.227,-37.598,34.180,-362.793
1532511620.232,59.082,30.762,-38.574,41.016,-523.438
1532511620.236,25.391,27.344,-31.738,27.344,-524.414
1532511620.240,23.926,33.691,-30.762,33.691,-78.125
1532511620.243,15.137,30.273,-30.273,23.438,-84.473
1532511620.247,20.020,37.109,-35.156,26.367,-476.562
1532511620.251,51.758,35.645,-38.574,26.367,-35.645
1532511620.255,25.879,23.926,-31.738,33.203,173.828
1532511620.259,15.137,27.344,-28.320,42.969,547.852
1532511620.263,25.879,27.344,-30.273,14.648,651.367
1532511620.267,15.625,33.203,-25.879,31.250,-347.168
1532511620.271,19.043,42.480,-23.926,41.992,-552.734
1532511620.275,34.668,41.504,-25.391,40.527,-508.301
1532511620.279,32.227,34.180,-21.973,14.160,-105.469
1532511620.282,20.020,21.973,-16.602,24.902,-87.402
1532511620.286,78.613,35.156,-20.996,64.453,-498.535
1532511620.290,55.176,42.480,-19.043,59.082,-354.004
1532511620.294,32.227,47.852,-17.578,26.367,-473.633
1532511620.298,60.547,50.293,-35.156,21.973,232.422
1532511620.302,23.438,42.480,-27.344,26.855,854.980
1532511620.306,33.203,39.551,-18.066,35.645,-52.734
1532511620.310,60.059,50.781,-25.879,33.691,-455.566
1532511620.314,60.059,60.059,-30.273,4.395,-616.699
1532511620.318,23.926,54.199,-32.227,15.137,-182.617
1532511620.322,0.977,43.945,-26.855,27.832,192.871
1532511620.325,1.465,38.574,-21.484,26.367,-353.027
1532511620.329,9.277,38.086,-21.484,15.137,-420.410
1532511620.333,41.504,50.293,-25.879,5.371,-549.316
1532511620.337,59.570,50.781,-15.625,30.762,-146.484
1532511620.341,60.547,50.293,-19.043,-1.465,273.926
1532511620.345,34.180,37.109,-15.625,35.156,169.434
1532511620.349,-10.742,24.414,-2.441,66.406,143.066
1532511620.353,-3.418,36.621,-4.883,42.969,-322.266
1532511620.357,77.148,52.246,-10.742,42.480,-260.254
1532511620.361,65.430,50.293,-11.230,24.902,741.699
1532511620.365,43.457,43.457,-5.371,52.246,366.699
1532511620.368,64.453,43.945,-10.254,25.391,-535.645
1532511620.372,39.062,41.504,-16.602,3.418,-468.262
1532511620.376,41.016,39.551,-4.395,8.301,-367.676
1532511620.380,65.918,42.969,-1.953,25.391,-29.297
1532511620.384,31.250,38.086,-3.418,64.941,-288.574
1532511620.388,-5.859,25.879,-8.789,20.508,-345.215
1532511620.392,27.832,31.250,-11.719,29.785,195.801
1532511620.396,57.617,42.969,-2.441,43.457,-81.543
1532511620.400,60.059,41.016,1.953,24.902,377.441
1532511620.404,53.223,32.715,2.930,50.781,618.652
1532511620.407,6.836,37.109,-1.465,18.066,-367.676
1532511620.411,22.949,42.480,-1.465,31.738,-523.438
1532511620.415,64.453,37.598,7.812,65.430,-605.957
1532511620.419,-6.836,21.484,-0.488,9.277,-279.297
1532511620.423,33.691,36.133,-10.742,17.578,-142.090
1532511620.427,102.539,45.898,-3.418,71.289,-424.316
1532511620.431,72.754,32.227,-3.906,71.289,-465.820
1532511620.435,45.898,35.156,1.465,39.062,-605.469
1532511620.439,34.180,40.039,1.465,11.719,308.594
1532511620.443,50.781,32.227,8.301,27.832,642.578
1532511620.447,34.180,19.531,16.113,56.152,-371.582
1532511620.450,26.855,32.715,5.859,59.570,-520.996
1532511620.454,56.152,42.480,4.883,39.551,-597.168
1532511620.458,59.570,34.668,11.230,33.203,150.391
1532511620.462,21.973,26.855,9.766,64.941,452.637
1532511620.466,16.602,28.809,7.812,21.484,-459.961
1532511620.470,41.016,38.574,7.324,-4.883,-468.750
1532511620.474,61.523,32.227,9.277,60.547,-452.637
1532511620.478,61.035,19.531,15.137,65.430,-5.859
1532511620.482,42.969,26.855,8.789,43.457,151.855
1532511620.486,47.363,25.879,11.719,63.477,-19.531
1532511620.490,34.180,12.207,16.602,41.992,147.461
1532511620.493,23.438,20.508,11.719,20.508,-373.535
1532511620.497,10.742,22.461,13.672,35.156,-122.559
1532511620.501,15.625,24.414,17.090,44.922,862.793
1532511620.505,35.156,38.574,15.137,32.715,236.816
1532511620.509,65.430,35.156,16.113,32.715,-443.359
1532511620.513,81.543,24.414,13.184,61.035,-551.758
1532511620.517,7.324,19.531,16.113,23.438,-377.441
1532511620.521,-51.758,10.254,24.414,13.184,113.281
1532511620.525,25.391,28.320,15.625,55.664,-228.516
1532511620.529,84.961,38.086,13.184,58.594,-415.527
1532511620.532,59.570,29.785,16.602,48.340,-149.902
1532511620.536,-18.066,26.855,10.742,16.602,61.523
1532511620.540,13.184,25.879,13.672,32.715,735.352
1532511620.544,65.918,19.043,17.578,34.668,460.938
1532511620.548,29.297,13.672,12.695,25.879,-522.949
1532511620.552,50.781,28.809,14.160,65.918,-600.098
1532511620.556,50.293,30.762,18.555,57.129,-486.328
1532511620.560,4.395,24.414,18.555,39.551,-90.332
1532511620.564,25.879,28.809,22.461,47.852,-245.605
1532511620.568,65.430,30.273,17.090,17.578,-543.945
1532511620.572,8.301,22.949,23.926,18.066,-421.387
1532511620.575,-8.301,21.973,27.344,22.949,-378.906
1532511620.579,47.363,21.973,13.184,2.930,114.258
1532511620.583,46.387,26.367,14.648,51.758,141.113
1532511620.587,3.418,23.926,24.414,62.988,-341.797
1532511620.591,24.414,28.809,19.531,23.926,-247.559
1532511620.595,62.500,38.574,16.113,43.457,-436.523
1532511620.599,3.906,28.320,27.344,70.801,239.746
1532511620.603,-7.812,24.414,19.531,31.738,754.883
1532511620.607,52.246,36.621,20.508,31.738,-154.785
1532511620.611,60.547,41.504,23.438,31.738,-419.922
1532511620.614,59.570,34.668,16.602,48.828,-535.156
1532511620.618,37.109,15.625,33.691,56.152,-135.254
1532511620.622,10.742,21.973,31.738,45.410,44.434
1532511620.626,15.625,27.344,23.926,80.078,-28.320
1532511620.630,56.641,39.062,19.531,48.340,71.777
1532511620.634,52.246,34.668,21.973,17.578,-505.859
1532511620.638,-4.395,17.578,24.902,26.855,34.668
1532511620.642,42.480,21.973,15.625,-3.906,886.230
1532511620.646,40.527,33.203,20.508,49.805,-5.371
1532511620.650,36.133,35.156,23.438,76.660,-559.082
1532511620.654,68.359,40.039,19.531,54.199,-593.750
1532511620.657,41.504,35.645,23.926,30.273,-101.074
1532511620.661,11.719,28.320,20.996,9.766,221.191
1532511620.665,19.531,28.809,20.996,51.270,-421.875
1532511620.669,60.059,31.250,24.902,70.312,-465.332
1532511620.673,54.688,30.273,18.555,38.574,-66.895
1532511620.677,52.246,29.297,20.508,38.574,294.434
1532511620.681,39.551,24.902,21.484,47.852,831.055
1532511620.685,31.250,28.809,18.555,81.055,248.047
1532511620.689,48.340,26.855,19.531,55.176,-495.117
1532511620.693,35.645,16.602,26.855,22.461,-492.188
1532511620.697,4.883,21.973,31.738,72.266,-421.875
1532511620.700,9.277,28.809,23.438,65.430,-61.035
1532511620.704,53.223,28.809,23.438,12.207,-289.551
1532511620.708,20.508,14.160,33.203,41.992,-414.062
1532511620.712,28.320,25.391,26.367,43.457,-411.133
1532511620.716,49.805,40.039,14.648,-15.137,-520.508
1532511620.720,19.531,11.230,24.414,33.203,176.270
1532511620.724,38.086,13.672,25.879,80.078,323.242
1532511620.728,32.715,35.156,27.832,76.172,-284.180
1532511620.732,34.668,32.227,21.484,42.969,-395.996
1532511620.736,36.621,26.855,15.625,12.695,-536.133
1532511620.739,20.508,17.578,30.762,39.551,320.801
1532511620.743,46.875,23.926,32.227,70.801,558.594
1532511620.747,76.172,24.414,34.668,65.918,-402.832
1532511620.751,40.039,12.695,26.855,38.086,-507.324
1532511620.755,7.812,20.508,19.531,-8.789,-446.289
1532511620.759,35.156,37.109,20.020,26.367,-29.297
1532511620.763,39.062,23.438,26.367,62.012,-70.312
1532511620.767,18.066,23.438,27.832,55.664,-109.375
1532511620.771,38.574,43.457,17.090,32.227,124.023
1532511620.775,43.945,28.320,17.578,11.719,-364.258
1532511620.779,15.137,22.461,23.926,22.949,240.723
1532511620.782,20.508,17.578,26.367,13.184,773.438
1532511620.786,19.531,16.113,26.855,8.789,-201.172
1532511620.790,2.930,31.738,23.926,44.922,-453.613
1532511620.794,26.855,25.391,25.879,44.922,-495.605
1532511620.798,31.250,19.043,25.879,16.113,-103.027
1532511620.802,18.555,7.324,22.461,43.945,78.613
1532511620.806,67.871,21.484,25.391,59.570,-420.898
1532511620.810,39.551,47.852,19.043,46.875,-220.215
1532511620.814,16.602,40.527,14.160,37.109,-53.711
1532511620.818,21.484,27.344,8.301,10.742,296.875
1532511620.822,40.527,22.949,18.066,28.320,880.859
1532511620.825,66.895,25.391,26.367,54.199,125.000
1532511620.829,49.805,38.574,14.160,17.090,-513.672
1532511620.833,37.109,45.410,11.230,17.578,-638.672
1532511620.837,25.879,28.320,18.066,46.387,-277.344
1532511620.841,41.992,28.320,17.578,47.363,174.805
1532511620.845,37.598,31.250,15.137,45.898,-344.238
1532511620.849,44.922,23.926,17.578,58.594,-500.000
1532511620.853,68.359,20.508,22.949,40.039,-511.719
1532511620.857,73.242,35.156,22.461,53.711,-275.879
1532511620.861,58.105,32.227,17.578,70.312,366.211
1532511620.864,57.129,30.762,15.625,64.941,97.168
1532511620.868,-19.531,23.438,20.996,24.902,-369.141
1532511620.872,-24.414,20.996,20.020,13.672,-315.430
1532511620.876,77.637,34.180,18.555,62.500,-334.961
1532511620.880,6.348,27.344,17.090,49.316,532.227
1532511620.884,34.180,30.762,18.066,60.059,542.480
1532511620.888,109.863,37.109,25.879,41.016,-408.203
1532511620.892,52.246,31.738,18.066,16.113,-408.691
1532511620.896,14.160,19.043,24.902,37.109,-431.152
1532511620.900,22.949,14.648,32.227,45.410,-163.574
1532511620.904,30.273,31.250,20.996,77.148,-173.828
1532511620.907,30.273,40.527,17.578,53.223,-104.004
1532511620.911,43.945,26.855,21.484,39.551,231.934
1532511620.915,32.227,22.949,18.555,33.691,-278.320
1532511620.919,36.133,36.133,19.531,25.879,216.797
1532511620.923,66.406,39.062,21.484,22.949,732.910
1532511620.927,37.109,31.250,22.949,45.898,-251.465
1532511620.931,0.977,23.926,28.809,69.824,-545.410
1532511620.935,-23.438,20.508,22.461,52.734,-593.750
1532511620.939,-6.836,25.879,19.531,31.738,-121.582
1532511620.943,71.777,31.250,26.855,31.250,17.578
1532511620.946,71.777,36.621,24.902,30.273,-454.590
1532511620.950,34.180,44.922,25.391,38.574,-451.660
1532511620.954,26.367,32.715,26.855,44.922,-182.129
1532511620.958,46.387,28.809,18.066,28.809,523.438
1532511620.962,57.129,31.738,26.367,61.523,791.992
1532511620.966,23.926,31.738,30.273,37.598,-162.598
1532511620.970,16.602,31.250,25.391,23.926,-551.758
1532511620.974,28.320,37.598,21.484,15.137,-534.668
1532511620.978,-13.184,23.926,29.785,29.785,-73.730
1532511620.982,47.852,27.832,35.645,77.148,124.512
1532511620.986,61.035,43.945,35.156,56.152,-475.586
1532511620.989,7.812,31.250,35.156,39.062,-383.789
1532511620.993,64.941,32.715,30.762,52.734,-435.547
1532511620.997,22.949,28.809,25.879,28.320,-150.879
1532511621.001,28.320,25.879,20.996,-7.812,479.004
1532511621.005,81.055,38.574,20.996,21.973,118.652
1532511621.009,74.219,35.645,24.902,41.992,-213.379
1532511621.013,71.289,35.645,30.762,36.133,-426.270
1532511621.017,54.688,41.016,26.855,36.133,-262.207
1532511621.021,52.246,38.574,19.531,3.418,462.891
1532511621.025,51.270,39.062,19.043,-4.883,68.848
1532511621.029,14.648,35.156,31.738,55.176,-374.023
1532511621.032,4.395,39.551,28.809,54.688,-429.199
1532511621.036,47.852,39.062,27.832,25.879,-400.391
1532511621.040,26.855,34.180,35.156,35.645,421.875
1532511621.044,-24.902,28.320,33.691,45.410,228.027
1532511621.048,49.805,42.480,25.879,46.387,-133.789
1532511621.052,70.801,39.551,31.250,30.762,1.465
1532511621.056,49.316,35.645,30.762,34.668,-395.020
1532511621.060,38.574,47.363,24.414,39.062,427.734
1532511621.064,26.367,46.387,31.250,21.484,592.285
1532511621.068,51.270,48.340,26.367,38.574,-463.379
1532511621.071,-12.207,42.480,27.344,35.156,-515.625
1532511621.075,-1.953,33.203,31.738,32.715,-445.801
1532511621.079,80.078,50.781,24.414,45.898,-144.043
1532511621.083,86.914,48.340,23.438,34.668,-193.848
1532511621.087,77.148,37.109,38.574,32.715,-484.863
1532511621.091,4.883,34.668,43.945,8.789,-339.844
1532511621.095,25.391,42.969,34.180,16.602,-127.441
1532511621.099,19.043,41.504,36.621,27.832,584.961
1532511621.103,-8.789,40.527,43.945,-27.832,715.820
1532511621.107,23.926,39.062,40.527,-14.160,-189.941
1532511621.111,-6.836,29.297,43.945,34.668,-460.449
1532511621.114,-7.324,41.016,41.016,20.508,-588.867
1532511621.118,-17.578,28.320,40.527,-16.113,-165.527
1532511621.122,12.207,29.785,39.062,-17.090,50.293
1532511621.126,40.527,43.945,39.062,19.043,-387.695
1532511621.130,-3.418,26.855,45.410,33.203,-406.738
1532511621.134,2.441,25.391,41.992,9.766,-579.102
1532511621.138,19.043,43.945,31.738,-3.418,-32.227
1532511621.142,8.301,39.551,41.504,22.949,634.766
1532511621.146,58.594,39.062,43.945,42.480,198.730
1532511621.150,54.199,41.016,30.273,45.898,-221.680
1532511621.154,7.812,25.879,41.016,26.855,-516.113
1532511621.157,3.418,26.855,42.480,9.766,-23.926
1532511621.161,41.504,41.992,31.250,28.809,889.648
1532511621.165,62.012,44.434,33.203,33.691,114.746
1532511621.169,46.387,42.480,34.668,37.598,-547.363
1532511621.173,24.902,44.922,28.809,22.461,-512.207
1532511621.177,11.719,32.227,30.273,-22.461,-203.125
1532511621.181,56.152,38.086,30.762,15.625,125.000
1532511621.185,74.219,41.504,34.668,70.801,-390.625
1532511621.189,44.434,39.551,35.156,39.551,-87.891
1532511621.193,34.668,43.945,34.180,11.719,56.641
1532511621.196,5.371,35.645,31.250,17.578,-265.625
1532511621.200,20.508,29.785,31.250,34.180,184.082
1532511621.204,63.477,37.109,38.574,40.039,-76.172
1532511621.208,61.035,47.363,34.180,42.969,-388.672
1532511621.212,53.711,46.387,33.691,7.812,-347.168
1532511621.216,27.344,38.574,39.062,8.301,-513.184
1532511621.220,39.062,45.410,30.762,36.133,381.348
1532511621.224,64.941,47.363,36.621,38.086,492.188
1532511621.228,60.059,37.598,50.293,65.430,-423.340
1532511621.232,76.660,30.273,41.992,58.594,-368.164
1532511621.236,66.895,34.668,39.551,44.434,-69.824
1532511621.239,25.879,41.992,47.363,-4.883,649.414
1532511621.243,43.945,48.828,43.945,8.301,615.723
1532511621.247,80.078,52.246,33.691,33.691,-401.855
1532511621.251,46.387,48.828,41.016,56.641,-625.977
1532511621.255,63.477,40.527,43.457,64.453,-567.383
1532511621.259,65.918,39.062,35.156,43.945,-146.484
1532511621.263,-4.395,33.203,44.922,59.570,-141.602
1532511621.267,37.109,34.668,40.527,54.199,-547.363
1532511621.271,62.012,41.016,30.273,53.711,-456.543
1532511621.275,56.641,45.898,31.250,49.805,-443.359
1532511621.278,62.988,41.016,38.086,55.176,-34.180
1532511621.282,41.016,39.551,42.480,68.359,341.309
1532511621.286,52.734,41.992,40.039,61.035,-50.293
1532511621.290,57.617,41.504,36.621,24.414,-256.836
1532511621.294,47.363,32.715,48.340,37.109,-476.562
1532511621.298,53.223,41.504,49.805,69.824,121.582
1532511621.302,40.527,45.898,39.062,38.574,566.895
1532511621.306,11.719,30.762,41.016,-2.441,-249.512
1532511621.310,22.461,33.203,41.992,36.133,-307.617
1532511621.314,52.734,44.434,36.133,50.293,-506.836
1532511621.318,76.660,40.039,33.691,41.992,-55.664
1532511621.321,2.441,35.645,42.480,51.758,764.160
1532511621.325,-2.441,31.738,41.992,29.785,6.836
1532511621.329,66.895,35.645,31.250,2.441,-73.730
1532511621.333,48.340,38.086,34.668,14.648,-139.160
1532511621.337,8.789,32.715,44.434,32.227,-238.281
1532511621.341,20.508,31.250,45.410,18.066,804.199
1532511621.345,72.266,38.086,51.758,13.672,263.184
1532511621.349,41.992,38.086,49.805,49.805,-606.934
1532511621.353,25.391,44.434,39.551,48.828,-627.930
1532511621.357,31.738,37.598,39.551,-9.277,-373.047
1532511621.361,26.367,29.785,37.109,-16.113,56.152
1532511621.364,45.410,44.434,43.945,35.645,-342.773
1532511621.368,75.684,44.434,40.527,51.270,-553.223
1532511621.372,50.781,40.527,33.691,28.809,-416.504
1532511621.376,32.227,42.480,35.645,10.254,-100.098
1532511621.380,62.012,38.574,41.016,18.066,757.324
1532511621.384,48.340,42.480,43.457,42.969,467.285
1532511621.388,60.547,38.574,45.410,39.062,-474.609
1532511621.392,33.691,34.180,39.551,1.465,-483.887
1532511621.396,13.184,39.551,29.785,16.602,-527.344
1532511621.400,41.016,44.434,31.250,35.645,-241.699
1532511621.403,48.828,47.363,40.527,50.293,-236.328
1532511621.407,68.359,45.410,33.691,58.105,-444.824
1532511621.411,70.801,41.504,31.250,54.688,-402.344
1532511621.415,5.371,25.879,48.828,37.598,-534.180
1532511621.419,26.367,33.691,42.969,17.090,-151.367
1532511621.423,32.715,38.574,38.574,39.551,309.082
1532511621.427,-19.043,26.855,44.434,31.738,176.270
1532511621.431,70.312,44.434,40.527,48.340,-166.016
1532511621.435,104.004,42.969,41.992,33.691,-575.684
1532511621.439,52.734,31.250,45.898,39.062,208.984
1532511621.443,33.691,34.180,45.898,63.965,807.617
1532511621.446,14.160,30.273,43.945,52.246,-180.664
1532511621.450,38.574,36.621,40.527,31.738,-560.547
1532511621.454,60.547,44.434,38.574,29.297,-561.035
1532511621.458,55.176,33.691,44.434,66.895,-29.785
1532511621.462,33.203,28.809,45.898,63.477,90.820
1532511621.466,19.531,26.855,43.457,60.547,-509.766
1532511621.470,6.836,23.438,46.875,43.457,-58.594
1532511621.474,30.762,32.227,43.945,41.016,121.094
1532511621.478,43.457,38.574,42.969,50.781,248.535
1532511621.482,29.297,39.551,42.969,45.898,842.773
1532511621.485,57.129,42.969,39.062,28.320,18.555
1532511621.489,98.145,43.457,37.598,54.199,-513.184
1532511621.493,58.594,52.246,35.156,55.664,-544.434
1532511621.497,47.852,48.340,33.203,42.969,-245.117
1532511621.501,51.270,34.668,29.785,35.645,86.914
1532511621.505,39.062,44.922,39.551,35.156,-384.766
1532511621.509,66.406,49.805,48.340,83.496,-397.949
1532511621.513,69.824,41.504,48.340,98.633,-451.172
1532511621.517,36.133,33.203,41.504,60.059,-114.258
1532511621.521,36.133,32.227,38.086,23.438,822.266
1532511621.525,69.336,44.434,40.527,37.109,367.188
1532511621.528,41.504,47.363,35.645,22.461,-500.488
1532511621.532,-2.441,40.527,36.133,1.953,-603.516
1532511621.536,17.090,41.016,31.738,43.457,-489.258
1532511621.540,49.805,41.504,41.016,47.852,-32.227
1532511621.544,68.359,45.898,50.293,54.688,-225.586
1532511621.548,70.801,44.434,41.016,35.156,-511.230
1532511621.552,58.594,35.645,26.367,26.367,-480.957
1532511621.556,53.711,31.738,38.086,59.570,-402.832
1532511621.560,29.297,41.504,42.969,44.922,-19.043
1532511621.564,8.789,34.668,40.039,36.133,181.641
1532511621.568,37.109,31.250,45.898,27.832,166.504
1532511621.571,40.527,41.504,40.039,38.574,-55.664
1532511621.575,61.035,44.434,36.133,57.617,-458.008
1532511621.579,64.453,45.410,43.457,26.367,321.777
1532511621.583,19.531,39.551,37.109,9.766,666.992
1532511621.587,15.625,46.875,35.156,37.109,-325.195
1532511621.591,44.434,45.898,44.434,62.988,-456.055
1532511621.595,52.246,45.898,41.016,44.434,-493.652
1532511621.599,51.270,42.969,35.645,20.020,-160.645
1532511621.603,46.875,40.527,26.855,-4.395,-90.820
1532511621.607,41.992,36.133,36.133,26.367,-433.105
1532511621.610,41.016,40.039,42.480,27.344,1.465
1532511621.614,52.734,37.598,39.551,20.020,47.852
1532511621.618,22.461,16.602,42.969,64.453,335.938
1532511621.622,3.418,28.809,41.504,21.973,789.551
1532511621.626,40.527,53.711,28.809,-15.137,-84.961
1532511621.630,45.898,51.270,27.832,21.484,-552.734
1532511621.634,16.602,39.062,42.969,58.105,-677.246
1532511621.638,0.488,46.387,32.227,29.297,-151.367
1532511621.642,60.059,46.875,23.438,15.625,178.223
1532511621.646,86.914,48.828,26.367,35.156,-412.598
1532511621.650,62.012,48.828,29.297,27.344,-504.883
1532511621.653,53.223,30.762,37.598,20.020,-414.062
1532511621.657,15.137,34.180,35.645,17.578,253.418
1532511621.661,21.484,40.039,31.738,37.109,934.082
1532511621.665,70.801,42.969,31.250,54.688,87.402
1532511621.669,69.824,54.199,23.438,29.785,-583.496
1532511621.673,44.434,46.387,29.785,16.113,-557.617
1532511621.677,48.828,38.086,38.086,19.043,-261.230
1532511621.681,40.039,41.016,33.203,37.598,66.895
1532511621.685,6.836,36.621,30.273,42.480,-418.457
1532511621.689,51.758,41.992,32.715,34.180,-465.820
1532511621.693,72.754,56.152,31.738,9.277,-393.555
1532511621.696,10.742,35.645,35.645,27.832,-343.750
1532511621.700,68.359,30.762,36.621,50.293,0.488
1532511621.704,90.332,52.734,34.180,30.762,196.289
1532511621.708,36.621,50.781,26.855,23.926,222.656
1532511621.712,43.457,41.504,29.297,28.320,-169.434
1532511621.716,53.711,47.363,34.180,41.016,-534.180
1532511621.720,39.551,40.039,38.086,39.062,401.367
1532511621.724,43.945,41.504,39.551,29.785,635.742
1532511621.728,36.621,38.574,40.039,36.133,-365.723
1532511621.732,36.621,42.969,31.250,26.367,-549.316
1532511621.735,44.434,42.480,35.645,37.598,-567.383
1532511621.739,49.805,36.621,42.969,51.758,-130.859
1532511621.743,66.895,49.316,32.227,31.250,-93.750
1532511621.747,51.758,50.293,37.109,42.969,-466.797
1532511621.751,33.691,38.574,40.039,63.477,-129.395
1532511621.755,34.180,41.992,32.715,42.969,-91.797
1532511621.759,54.199,49.805,36.133,51.270,400.391
1532511621.763,61.523,46.875,38.086,47.852,695.801
1532511621.767,36.133,38.574,37.109,20.508,-312.988
1532511621.771,31.738,41.504,37.598,36.621,-542.480
1532511621.775,61.523,52.734,34.668,42.480,-491.699
1532511621.778,62.988,51.758,36.621,25.391,-90.820
1532511621.782,49.805,41.992,41.992,15.625,-65.430
1532511621.786,4.883,32.715,41.992,6.836,-496.582
1532511621.790,45.898,44.434,31.738,36.133,-346.191
1532511621.794,48.340,36.133,28.809,56.152,-460.938
1532511621.798,59.082,28.809,35.645,33.203,190.430
1532511621.802,93.262,45.898,30.762,18.555,864.746
1532511621.806,43.457,50.781,28.809,9.277,-14.160
1532511621.810,57.617,41.016,36.621,26.367,-434.082
1532511621.814,53.711,36.133,39.062,61.035,-587.402
1532511621.817,58.594,43.945,30.762,35.156,-212.402
1532511621.821,88.867,35.645,32.227,22.949,178.223
1532511621.825,68.848,35.156,34.668,41.016,-333.008
1532511621.829,72.266,30.762,32.715,89.355,-411.133
1532511621.833,49.316,24.902,33.203,68.359,-541.992
1532511621.837,20.996,28.809,34.180,67.871,-199.707
1532511621.841,4.395,25.879,36.621,92.285,246.094
1532511621.845,7.812,25.879,37.598,55.176,165.527
1532511621.849,32.227,31.250,36.621,93.262,45.410
1532511621.853,53.223,24.902,37.598,92.773,-367.188
1532511621.857,27.832,18.555,37.598,67.383,-302.246
1532511621.860,17.090,31.738,37.109,35.156,662.109
1532511621.864,43.945,42.480,35.156,29.785,578.125
1532511621.868,62.988,33.691,35.645,58.105,-323.730
1532511621.872,41.016,33.691,44.922,76.660,-469.727
1532511621.876,42.480,42.480,37.598,86.426,-378.418
1532511621.880,54.688,26.855,36.133,71.777,-59.082
1532511621.884,52.246,30.762,38.574,74.707,-272.461
1532511621.888,26.367,38.574,37.109,69.824,-479.492
1532511621.892,34.180,32.227,33.691,35.156,35.156
1532511621.896,30.273,41.016,33.691,56.641,-120.605
1532511621.900,21.973,33.203,39.551,84.473,323.730
1532511621.903,-9.766,10.254,36.133,53.711,646.484
1532511621.907,21.973,25.391,37.598,81.055,-303.223
1532511621.911,92.285,39.551,35.645,63.477,-479.004
1532511621.915,60.059,35.156,27.832,42.480,-577.637
1532511621.919,33.691,21.484,23.926,61.523,-234.863
1532511621.923,31.738,15.625,35.156,50.781,-103.516
1532511621.927,59.570,31.738,37.109,55.664,-398.926
1532511621.931,45.410,41.504,33.203,52.734,-412.598
1532511621.935,12.695,26.367,44.922,53.223,-565.918
1532511621.939,42.480,21.973,37.109,18.066,309.082
1532511621.942,48.828,35.156,32.227,50.293,708.008
1532511621.946,27.832,36.133,42.969,76.172,-301.270
1532511621.950,30.273,27.832,39.551,40.039,-518.066
1532511621.954,50.781,29.785,34.668,47.363,-564.453
1532511621.958,44.922,36.133,34.180,58.594,93.750
1532511621.962,37.109,31.250,35.156,62.012,319.824
1532511621.966,63.477,34.668,29.785,40.039,-444.824
1532511621.970,59.570,42.969,36.133,41.504,-417.969
1532511621.974,39.551,40.527,47.852,45.410,-414.551
1532511621.978,42.480,39.551,38.574,13.184,44.922
1532511621.982,20.508,29.297,39.551,42.480,232.422
1532511621.985,19.043,29.785,41.016,77.637,-26.367
1532511621.989,56.641,32.715,41.992,70.801,317.383
1532511621.993,43.457,31.738,42.480,65.430,-120.117
1532511621.997,48.828,41.992,32.227,42.969,-132.324
1532511622.001,53.223,40.527,39.062,51.270,847.168
1532511622.005,-4.883,43.457,41.016,56.641,285.645
1532511622.009,6.836,30.273,37.598,35.156,-415.039
1532511622.013,88.867,28.320,47.852,44.434,-499.023
1532511622.017,118.164,47.852,47.363,67.871,-377.441
1532511622.021,65.430,50.293,39.551,81.055,85.449
1532511622.025,26.855,35.156,40.039,41.992,-213.867
1532511622.028,23.438,34.668,40.527,21.484,-420.410
1532511622.032,4.395,38.086,40.527,43.457,-96.191
1532511622.036,44.922,42.480,33.203,19.531,152.344
1532511622.040,63.965,52.246,29.297,11.230,762.695
1532511622.044,55.664,48.828,38.574,34.180,613.281
1532511622.048,15.625,39.551,44.922,8.301,-435.547
1532511622.052,-6.348,27.832,46.387,11.719,-615.234
1532511622.056,50.781,44.434,47.852,45.898,-527.344
1532511622.060,74.219,51.270,51.270,59.570,-40.039
1532511622.064,52.246,34.180,59.570,74.219,-141.602
1532511622.067,34.180,28.320,66.406,59.082,-578.125
1532511622.071,36.133,30.762,61.523,44.434,-484.863
1532511622.075,50.293,38.574,58.594,50.293,-340.820
1532511622.079,65.918,36.133,62.012,37.598,287.598
1532511622.083,13.672,27.832,67.871,17.090,343.262
1532511622.087,4.883,18.555,64.453,11.230,-269.043
1532511622.091,62.500,27.832,60.547,41.504,-328.613
1532511622.095,52.246,36.621,72.266,68.848,-520.508
1532511622.099,23.926,28.320,64.941,27.832,208.008
1532511622.103,51.270,23.438,71.777,66.895,659.668
1532511622.107,95.215,30.762,82.520,106.445,-271.484
1532511622.110,56.152,19.531,77.637,72.266,-427.246
1532511622.114,33.203,20.508,72.266,55.664,-537.598
1532511622.118,48.340,25.391,72.754,22.461,-130.371
1532511622.122,38.086,24.414,70.801,39.551,69.336
1532511622.126,34.668,24.902,70.312,55.664,29.785
1532511622.130,37.598,9.766,72.754,67.383,154.785
1532511622.134,26.367,25.391,69.824,62.012,-479.004
1532511622.138,47.363,39.551,66.406,18.066,-6.836
1532511622.142,83.984,35.645,69.824,31.250,896.973
1532511622.146,-24.414,20.508,69.336,48.340,27.344
1532511622.149,-9.766,26.367,65.430,51.270,-557.129
1532511622.153,89.355,41.504,64.453,64.453,-593.750
1532511622.157,64.941,31.738,64.941,48.340,-136.230
1532511622.161,52.734,23.438,67.871,29.297,230.957
1532511622.165,44.922,21.484,71.777,52.246,-400.391
1532511622.169,43.457,20.020,78.613,71.777,-473.145
1532511622.173,46.875,24.414,68.359,41.992,-45.898
1532511622.177,56.641,23.438,64.453,30.273,215.332
1532511622.181,46.387,28.320,63.477,6.348,779.785
1532511622.185,-18.555,31.738,62.988,45.898,295.898
1532511622.189,12.695,26.855,74.707,88.379,-492.188
1532511622.192,74.219,42.969,63.965,43.945,-473.633
1532511622.196,51.270,36.621,62.012,48.828,-432.129
1532511622.200,74.707,27.344,62.988,54.688,-82.031
1532511622.204,39.551,17.578,59.082,51.758,-286.621
1532511622.208,-16.113,22.461,58.105,56.152,-415.039
1532511622.212,32.715,38.574,54.199,55.664,-389.648
1532511622.216,79.590,35.645,59.082,54.688,-479.004
1532511622.220,64.453,32.227,60.059,47.852,53.223
1532511622.224,48.340,16.113,59.570,50.781,304.688
1532511622.228,41.016,12.695,58.594,37.109,-128.418
1532511622.232,17.578,29.297,50.781,53.711,-399.902
1532511622.235,11.719,23.438,59.570,72.754,-472.656
1532511622.239,20.020,20.996,62.988,41.992,160.645
1532511622.243,20.020,21.484,60.547,28.320,224.609
1532511622.247,33.203,17.090,64.941,53.711,-384.277
1532511622.251,22.949,20.508,62.988,54.688,-375.488
1532511622.255,27.832,16.602,61.035,42.969,-443.359
1532511622.259,53.223,16.113,64.941,57.129,333.984
1532511622.263,25.391,23.926,62.500,64.453,626.465
1532511622.267,21.484,17.578,60.059,41.504,89.844
1532511622.271,51.270,24.414,46.875,18.066,71.777
1532511622.274,21.973,16.602,46.875,28.809,-436.523
1532511622.278,47.852,15.137,57.617,49.805,194.824
1532511622.282,51.270,15.137,63.477,69.336,752.930
1532511622.286,15.625,12.695,63.477,66.895,-55.664
1532511622.290,19.531,21.484,61.523,51.758,-308.594
1532511622.294,28.320,20.996,58.594,17.578,-562.500
1532511622.298,58.594,27.344,61.035,14.160,-142.090
1532511622.302,60.059,34.180,62.988,75.684,89.355
1532511622.306,57.129,29.785,61.035,90.820,-447.266
1532511622.310,27.344,17.578,69.336,56.641,-383.301
1532511622.314,17.090,19.531,62.012,39.551,-201.660
1532511622.317,66.406,21.973,62.012,75.195,319.336
1532511622.321,72.754,27.344,62.988,64.453,470.215
1532511622.325,44.434,43.457,51.270,28.809,-251.465
1532511622.329,29.785,42.480,50.781,12.695,-400.879
1532511622.333,39.062,34.668,48.828,34.668,-542.480
1532511622.337,33.203,27.832,51.758,46.875,-265.625
1532511622.341,31.250,34.668,48.828,47.363,694.336
1532511622.345,6.836,34.668,47.363,37.109,149.414
1532511622.349,-28.320,39.551,47.852,8.301,-525.391
1532511622.353,20.020,26.367,54.688,32.227,-506.836
1532511622.357,60.547,25.879,47.363,7.812,-334.961
1532511622.360,33.691,48.828,41.992,1.953,313.477
1532511622.364,25.879,34.668,55.176,57.129,222.168
1532511622.368,44.434,35.645,46.875,39.062,-271.973
1532511622.372,47.852,36.133,41.016,31.250,-365.723
1532511622.376,29.785,29.785,51.270,18.066,-419.922
1532511622.380,41.504,33.203,55.664,39.062,475.586
1532511622.384,46.387,41.504,48.340,43.457,550.293
1532511622.388,56.152,40.039,49.316,39.062,-436.035
1532511622.392,13.672,27.832,57.617,71.289,-453.125
1532511622.396,-21.973,31.250,52.246,37.598,-470.703
1532511622.399,32.715,40.527,43.457,-1.953,-182.617
1532511622.403,80.566,39.062,51.270,31.250,-193.359
1532511622.407,55.664,32.715,54.688,57.129,-86.914
1532511622.411,53.223,33.203,48.828,72.754,21.973
1532511622.415,39.062,36.621,51.270,69.336,-583.984
1532511622.419,35.645,38.574,56.152,52.734,180.176
1532511622.423,60.547,37.109,49.805,25.391,744.629
1532511622.427,59.082,29.785,50.781,68.359,-260.254
1532511622.431,53.711,33.203,56.152,68.359,-573.242
1532511622.435,51.758,41.016,58.594,40.527,-634.277
1532511622.439,40.039,25.391,61.523,66.406,-155.273
1532511622.442,40.039,29.297,53.223,56.152,5.859
1532511622.446,42.480,51.270,50.293,42.480,-476.074
1532511622.450,37.598,43.457,54.688,46.387,-468.750
1532511622.454,64.941,40.039,46.875,72.754,-248.535
1532511622.458,47.852,38.574,51.270,49.316,458.008
1532511622.462,-4.395,31.250,53.711,17.090,819.824
1532511622.466,0.488,20.020,61.523,61.523,-139.160
1532511622.470,59.570,33.691,55.176,73.730,-571.289
1532511622.474,84.961,56.152,43.945,32.715,-567.871
1532511622.478,62.988,48.828,50.781,27.344,-110.352
1532511622.481,28.320,28.809,49.316,43.457,113.281
1532511622.485,28.809,34.668,45.898,15.137,-492.676
1532511622.489,35.645,48.828,49.805,36.621,-421.387
1532511622.493,22.461,33.203,55.664,67.871,-448.242
1532511622.497,75.684,36.621,53.711,55.176,-153.809
1532511622.501,59.082,45.410,53.711,41.504,431.152
1532511622.505,7.812,40.039,47.852,19.043,108.398
1532511622.509,18.066,38.086,55.176,66.406,-221.191
1532511622.513,39.062,41.504,57.129,91.309,-401.367
1532511622.517,59.082,46.875,52.734,63.477,-373.047
1532511622.521,40.527,40.527,51.270,18.555,658.203
1532511622.524,-11.230,33.691,51.758,37.598,468.262
1532511622.528,25.391,36.621,48.340,32.227,-432.129
1532511622.532,70.312,40.527,50.293,31.738,-547.363
1532511622.536,40.527,37.598,62.500,92.285,-473.145
1532511622.540,44.922,33.203,56.152,58.105,-4.883
1532511622.544,39.062,26.855,60.547,24.414,-190.918
1532511622.548,37.598,36.133,54.199,20.508,-142.578
1532511622.552,79.102,51.758,41.016,26.855,188.965
1532511622.556,66.895,33.203,55.176,71.289,-158.203
1532511622.560,27.344,32.227,53.223,46.387,135.254
1532511622.564,22.461,38.086,48.340,0.488,47.852
1532511622.567,82.520,45.410,42.969,31.250,-501.465
1532511622.571,58.594,47.852,40.039,37.109,-359.863
1532511622.575,59.082,49.805,50.293,28.809,-463.379
1532511622.579,74.707,44.434,52.734,59.082,300.293
1532511622.583,19.531,39.551,56.641,83.984,572.754
1532511622.587,36.621,39.062,60.059,89.355,-386.230
1532511622.591,54.688,39.551,51.270,80.566,-382.812
1532511622.595,34.180,44.434,46.875,50.781,-229.492
1532511622.599,24.414,25.879,53.711,29.785,460.938
1532511622.603,8.789,27.344,48.828,36.133,720.703
1532511622.606,7.324,46.387,51.758,48.828,-228.516
1532511622.610,46.387,40.039,48.340,50.781,-526.855
1532511622.614,32.715,45.410,43.945,31.250,-665.527
1532511622.618,-9.277,41.992,47.852,41.016,-225.098
1532511622.622,32.715,39.062,47.363,61.523,21.484
1532511622.626,60.547,44.434,49.805,64.453,-441.406
1532511622.630,60.059,39.551,49.805,21.484,-456.543
1532511622.634,73.242,42.969,53.711,38.574,-617.676
1532511622.638,57.129,49.316,48.340,29.785,-95.215
1532511622.642,9.277,37.598,54.688,10.254,563.477
1532511622.646,23.926,31.250,70.312,64.453,12.207
1532511622.649,66.406,46.875,65.430,75.195,-372.070
1532511622.653,26.855,44.922,57.617,63.965,-503.418
1532511622.657,46.875,41.504,49.805,71.777,-76.660
1532511622.661,61.035,37.109,55.176,64.453,877.441
1532511622.665,41.016,39.551,56.641,35.156,187.988
1532511622.669,46.875,52.246,45.410,46.875,-534.180
1532511622.673,-4.395,29.785,52.246,60.547,-496.094
1532511622.677,5.371,20.996,54.199,35.156,-217.773
1532511622.681,51.758,49.316,50.293,30.273,101.074
1532511622.685,53.711,46.387,57.129,52.246,-365.234
1532511622.689,71.777,45.898,52.246,36.133,-136.719
1532511622.692,67.871,43.457,51.270,21.484,159.180
1532511622.696,41.504,35.156,55.176,50.293,-235.840
1532511622.700,31.250,41.016,50.293,41.504,516.602
1532511622.704,25.391,36.133,39.551,34.668,508.789
1532511622.708,51.270,39.551,36.133,33.203,-321.777
1532511622.712,78.613,50.293,41.016,17.578,-382.324
1532511622.716,44.434,37.598,50.781,33.691,-570.801
1532511622.720,42.480,31.738,49.805,40.527,-177.246
1532511622.724,23.438,21.973,42.480,31.738,-166.504
1532511622.728,-4.395,33.203,43.945,31.738,-456.543
1532511622.731,56.152,48.340,51.758,66.895,-440.430
1532511622.735,39.551,41.992,49.805,63.477,-270.020
1532511622.739,20.020,47.852,40.527,43.457,538.086
1532511622.743,79.590,37.109,55.664,36.621,641.602
1532511622.747,45.410,41.016,50.781,31.738,-377.930
1532511622.751,22.949,41.504,42.969,72.754,-610.840
1532511622.755,57.617,34.668,44.434,35.645,-552.246
1532511622.759,81.055,48.828,42.969,21.973,-121.582
1532511622.763,49.316,49.316,41.016,46.387,-109.375
1532511622.767,41.016,44.922,44.434,57.617,-545.898
1532511622.771,63.965,47.363,48.828,38.574,-450.195
1532511622.774,56.152,43.457,46.875,27.344,-440.430
1532511622.778,68.359,41.016,42.969,52.734,-14.648
1532511622.782,47.363,39.062,42.480,36.621,374.023
1532511622.786,29.297,41.016,42.480,31.738,-39.062
1532511622.790,9.766,34.668,40.039,22.949,-245.605
1532511622.794,26.855,37.598,41.992,38.574,-451.172
1532511622.798,75.195,44.434,44.434,51.270,69.336
1532511622.802,70.801,39.062,47.363,41.504,859.863
1532511622.806,8.301,31.738,51.270,49.316,48.828
1532511622.810,37.598,40.039,42.969,36.621,-422.852
1532511622.813,97.656,57.129,41.016,56.641,-562.500
1532511622.817,76.172,45.898,55.176,63.477,-186.523
1532511622.821,35.156,34.668,53.223,49.805,205.078
1532511622.825,9.277,44.922,38.574,25.391,-326.172
1532511622.829,47.363,41.504,39.551,3.418,-7.812
1532511622.833,34.668,23.926,49.805,34.668,-37.598
1532511622.837,-8.789,30.762,47.852,36.133,-193.848
1532511622.841,32.227,42.969,40.527,6.348,783.691
1532511622.845,47.363,41.504,47.363,38.574,330.078
1532511622.849,31.250,41.504,49.316,46.875,-550.293
1532511622.853,48.340,46.387,41.016,37.598,-583.984
1532511622.856,39.062,28.809,46.875,59.570,-374.023
1532511622.860,20.996,26.855,50.781,68.359,41.504
1532511622.864,47.363,50.781,42.969,36.621,-285.156
1532511622.868,1.465,32.227,54.688,17.090,-520.996
1532511622.872,14.160,25.879,52.734,41.504,-414.551
1532511622.876,63.477,42.969,40.039,37.598,0.000
1532511622.880,15.137,38.086,47.363,37.598,414.551
1532511622.884,-29.297,28.809,50.781,38.574,-88.867
1532511622.888,29.785,41.504,46.875,51.758,-418.945
1532511622.892,82.520,49.805,42.969,46.875,-274.902
1532511622.896,87.402,48.340,48.340,49.805,-478.027
1532511622.899,46.387,38.086,52.246,75.684,293.945
1532511622.903,-16.113,33.203,42.480,42.969,562.012
1532511622.907,23.926,37.109,35.645,4.395,-314.941
1532511622.911,43.457,45.410,41.016,31.250,-381.836
1532511622.915,51.270,43.945,48.828,74.219,-501.953
1532511622.919,31.250,39.551,44.922,48.828,-133.789
1532511622.923,2.930,37.109,41.504,29.785,346.191
1532511622.927,32.715,45.410,33.203,52.246,186.035
1532511622.931,45.410,49.316,22.949,13.672,-181.641
1532511622.935,53.711,28.320,40.527,31.250,-584.961
1532511622.938,28.320,29.785,57.129,70.801,186.523
1532511622.942,20.508,39.062,54.199,48.828,802.246
1532511622.946,41.504,42.969,53.711,48.340,-184.570
1532511622.950,29.785,44.434,49.805,63.965,-568.848
1532511622.954,26.855,38.086,44.434,63.965,-566.895
1532511622.958,9.277,34.180,55.664,46.387,-17.090
1532511622.962,12.207,28.809,61.523,67.383,140.625
1532511622.966,46.875,21.973,51.758,69.336,-477.051
1532511622.970,47.852,28.809,47.852,61.523,-105.957
1532511622.974,30.273,43.457,41.016,36.133,18.066
1532511622.978,28.320,25.879,48.828,29.297,179.199
1532511622.981,8.301,18.555,45.898,35.156,855.469
1532511622.985,22.949,32.715,38.086,38.574,67.383
1532511622.989,55.176,29.785,41.504,59.570,-502.930
1532511622.993,71.777,33.691,45.898,78.125,-523.438
1532511622.997,51.270,35.156,47.363,55.664,-246.582
1532511623.001,16.113,27.344,46.875,47.852,100.586
1532511623.005,47.852,28.320,46.387,62.988,-357.910
1532511623.009,44.922,37.109,51.758,39.551,-391.602
1532511623.013,-12.695,33.691,55.664,14.160,-427.246
1532511623.017,17.578,32.227,48.828,75.195,-110.352
1532511623.021,65.430,38.574,50.293,72.754,818.359
1532511623.024,65.918,36.133,38.086,45.410,412.109
1532511623.028,48.340,41.504,38.574,51.270,-460.938
1532511623.032,48.828,40.527,46.387,43.457,-587.402
1532511623.036,19.043,30.273,45.898,70.312,-532.227
1532511623.040,33.203,27.832,43.945,80.078,-50.293
1532511623.044,55.176,32.715,37.109,37.109,-192.871
1532511623.048,20.996,38.574,39.062,19.531,-516.602
1532511623.052,42.480,31.250,46.875,62.988,-483.398
1532511623.056,42.480,37.598,41.992,46.387,-416.992
1532511623.060,54.688,30.273,41.504,30.762,-26.367
1532511623.063,42.969,29.785,41.504,34.668,215.332
1532511623.067,22.949,43.457,47.852,46.875,-65.918
1532511623.071,44.434,39.062,42.480,49.805,-283.203
1532511623.075,26.855,26.855,35.156,27.344,-433.105
1532511623.079,16.602,24.414,46.387,53.223,319.336
1532511623.083,63.477,26.367,45.898,51.758,683.105
1532511623.087,58.105,24.902,37.598,43.457,-299.316
1532511623.091,42.969,21.973,41.016,59.570,-446.777
1532511623.095,43.945,26.855,44.434,63.477,-476.074
1532511623.099,29.297,30.273,45.898,41.504,-135.254
1532511623.103,54.199,33.691,42.480,28.320,-70.312
1532511623.106,55.176,27.832,49.316,65.430,-418.457
1532511623.110,38.574,20.020,46.387,44.434,44.922
1532511623.114,40.527,25.879,41.504,33.203,-157.227
1532511623.118,23.926,23.926,44.922,37.109,136.719
1532511623.122,19.531,19.043,46.387,51.758,684.082
1532511623.126,62.500,33.203,48.828,66.406,-216.309
1532511623.130,51.758,36.133,43.457,52.246,-336.914
1532511623.134,3.418,23.438,44.922,45.410,-491.211
1532511623.138,-9.277,26.855,50.781,39.062,-8.789
1532511623.142,39.551,37.109,41.016,47.363,571.289
1532511623.145,86.426,30.273,41.992,56.152,-274.902
1532511623.149,59.082,33.203,42.969,66.895,-508.301
1532511623.153,48.340,39.062,39.062,43.457,-503.906
1532511623.157,48.828,28.809,44.922,21.484,52.734
1532511623.161,53.711,31.250,41.016,17.090,914.551
1532511623.165,60.059,39.551,41.016,29.785,159.180
1532511623.169,68.359,26.855,43.457,72.266,-572.266
1532511623.173,27.344,21.973,45.410,78.613,-541.504
1532511623.177,11.230,26.367,41.016,65.918,-286.621
1532511623.181,6.836,37.598,37.598,53.711,44.434
1532511623.185,44.434,43.945,39.551,36.621,-389.160
1532511623.188,82.031,33.691,36.133,42.969,-469.727
1532511623.192,52.734,26.855,41.016,59.570,-383.789
1532511623.196,62.012,20.996,48.340,85.449,-359.863
1532511623.200,75.195,28.809,44.434,80.078,-30.273
1532511623.204,40.527,43.457,32.715,22.949,184.570
1532511623.208,20.996,41.992,29.297,4.395,96.191
1532511623.212,51.270,41.016,30.762,40.527,-254.395
1532511623.216,38.086,46.387,28.809,44.922,-532.715
1532511623.220,53.711,45.410,28.320,31.738,358.398
1532511623.224,74.707,50.293,27.344,40.527,658.203
1532511623.228,49.316,52.734,28.809,24.902,-330.566
1532511623.231,35.645,45.410,25.391,11.230,-522.949
1532511623.235,40.039,46.875,27.344,26.855,-544.922
1532511623.239,35.156,45.898,37.598,37.109,-120.605
1532511623.243,44.922,43.457,39.062,56.152,-65.918
1532511623.247,48.828,53.711,28.809,34.180,-465.820
1532511623.251,46.875,44.922,36.133,36.621,-59.570
1532511623.255,38.086,34.180,46.875,40.527,-65.918
1532511623.259,20.508,45.898,35.156,20.020,340.332
1532511623.263,30.762,41.016,38.086,31.738,723.145
1532511623.267,40.527,42.969,36.133,22.949,-290.039
1532511623.270,71.289,52.246,29.785,32.715,-553.711
1532511623.274,89.844,48.340,40.527,76.660,-505.371
1532511623.278,53.223,39.551,37.109,51.270,-66.895
1532511623.282,26.367,26.855,37.598,20.996,-24.902
1532511623.286,47.852,37.598,45.898,26.367,-501.953
1532511623.290,62.500,37.109,44.922,41.992,-354.980
1532511623.294,38.086,33.203,41.016,52.246,-444.336
1532511623.298,-19.531,34.668,31.738,8.301,194.824
1532511623.302,20.020,42.480,32.227,16.602,898.438
1532511623.306,87.402,45.898,51.758,65.918,29.297
1532511623.310,70.801,37.109,47.363,55.176,-448.242
1532511623.313,66.895,41.016,36.133,23.926,-605.957
1532511623.317,77.637,37.598,35.645,6.348,-230.957
1532511623.321,64.941,32.715,40.039,51.270,187.988
1532511623.325,65.430,38.574,43.457,50.781,-334.473
1532511623.329,87.891,35.645,42.480,26.367,-420.410
1532511623.333,61.523,29.297,39.551,28.320,-533.691
1532511623.337,19.531,27.344,45.410,64.941,-260.254
1532511623.341,52.246,27.832,41.016,88.867,339.844
1532511623.345,57.129,33.691,33.203,43.457,316.406
1532511623.349,-24.414,29.785,43.457,12.695,35.156
1532511623.352,16.602,31.250,45.410,58.594,-352.539
1532511623.356,37.109,37.598,36.133,53.223,-351.562
1532511623.360,5.859,37.109,40.527,-0.488,640.137
1532511623.364,49.805,40.039,44.922,59.082,455.566
1532511623.368,62.988,45.410,48.828,98.633,-525.879
1532511623.372,47.363,36.133,50.781,90.820,-489.258
1532511623.376,40.527,22.461,53.711,63.477,-404.785
1532511623.380,51.758,36.621,37.598,12.695,-80.078
1532511623.384,34.180,41.016,38.086,34.668,-243.652
1532511623.388,37.598,36.621,47.363,47.852,-476.562
1532511623.392,49.316,35.645,45.410,50.781,39.062
1532511623.395,36.621,35.645,46.875,69.336,125.977
1532511623.399,33.691,34.180,45.410,17.578,499.023
1532511623.403,40.527,40.527,32.227,1.953,634.277
1532511623.407,51.270,43.457,36.133,72.754,-288.086
1532511623.411,49.805,37.109,45.410,59.082,-501.953
1532511623.415,31.738,36.621,36.133,4.395,-602.051
1532511623.419,6.348,25.879,38.086,11.230,-238.281
1532511623.423,7.812,21.484,41.992,40.039,-81.543
1532511623.427,54.199,46.875,34.180,31.250,-403.320
1532511623.431,57.617,42.969,45.410,80.566,-438.477
1532511623.435,13.184,38.574,48.340,54.199,-587.402
1532511623.438,52.734,40.039,43.457,19.531,271.484
1532511623.442,35.156,30.273,46.875,44.434,817.383
1532511623.446,31.738,45.898,36.621,25.391,-191.895
1532511623.450,58.594,42.969,36.621,10.742,-579.102
1532511623.454,13.672,33.203,43.945,20.996,-599.121
1532511623.458,71.289,41.504,37.109,25.879,-57.129
1532511623.462,64.941,33.203,41.504,68.848,131.836
1532511623.466,36.621,39.551,43.457,52.734,-487.793
1532511623.470,42.969,45.898,37.598,31.738,-457.520
1532511623.474,39.062,31.738,40.039,42.969,-452.148
1532511623.477,40.039,28.320,41.504,38.086,12.207
1532511623.481,7.324,24.902,37.598,26.367,224.121
1532511623.485,7.812,26.367,36.133,41.016,40.039
1532511623.489,34.668,38.574,30.762,17.090,222.168
1532511623.493,28.809,40.527,33.691,30.273,-283.691
1532511623.497,47.852,42.480,40.039,77.148,-117.676
1532511623.501,59.082,38.574,38.086,33.203,511.230
1532511623.505,29.297,35.156,40.527,18.066,-69.824
1532511623.509,18.066,34.180,43.945,43.945,-345.703
1532511623.513,11.719,29.297,40.039,49.316,-392.578
1532511623.517,37.109,22.949,42.480,14.648,-359.375
1532511623.520,29.785,36.133,42.969,16.113,466.797
1532511623.524,21.973,37.109,47.852,83.984,183.105
1532511623.528,75.195,39.551,42.480,80.078,-413.574
1532511623.532,47.852,49.316,35.645,32.227,-140.137
1532511623.536,43.457,41.016,34.180,38.086,0.977
1532511623.540,62.988,30.273,28.809,33.203,674.316
1532511623.544,46.387,36.621,31.738,26.855,535.156
1532511623.548,28.809,39.551,36.133,14.160,-503.906
1532511623.552,-7.812,38.086,32.227,22.949,-490.234
1532511623.556,4.883,33.691,27.832,5.859,-370.605
1532511623.560,45.410,23.926,32.227,5.859,-106.934
1532511623.563,57.617,41.992,33.691,53.711,-202.637
1532511623.567,75.195,45.410,34.668,55.176,-537.598
1532511623.571,67.871,34.668,35.156,37.598,-424.805
1532511623.575,15.625,18.066,40.527,1.465,-463.379
1532511623.579,-8.301,32.715,40.527,-28.320,362.305
1532511623.583,10.254,43.457,36.133,10.254,565.430
1532511623.587,20.020,21.484,41.016,62.500,-381.348
1532511623.591,57.617,24.414,41.504,70.312,-389.160
1532511623.595,67.383,40.039,39.062,69.336,-513.184
1532511623.599,58.105,41.016,36.133,56.641,146.484
1532511623.602,31.250,31.738,37.598,39.062,379.395
1532511623.606,7.324,30.762,40.527,26.855,-389.160
1532511623.610,41.016,32.715,41.504,43.945,-365.234
1532511623.614,41.016,27.344,45.410,44.434,-511.230
1532511623.618,35.645,32.227,35.156,29.297,-89.844
1532511623.622,20.020,37.598,40.527,53.223,147.461
1532511623.626,-1.953,13.184,50.293,18.555,15.625
1532511623.630,40.039,17.578,40.527,28.320,65.918
1532511623.634,68.848,42.480,36.621,48.340,-486.816
1532511623.638,47.852,36.621,35.156,50.781,-8.301
1532511623.642,56.152,31.738,45.898,76.172,914.062
1532511623.645,61.523,31.250,45.898,69.824,95.215
1532511623.649,20.508,27.832,39.062,54.199,-538.574
1532511623.653,-4.395,31.250,38.086,45.410,-572.266
1532511623.657,60.059,32.227,41.992,47.852,-134.277
1532511623.661,75.684,31.738,43.945,53.223,231.445
1532511623.665,50.781,35.645,35.645,49.805,-384.766
1532511623.669,59.082,30.762,42.480,39.062,-474.609
1532511623.673,29.297,28.320,47.363,26.855,-92.773
1532511623.677,16.113,28.809,44.434,33.691,204.590
1532511623.681,47.363,28.320,49.316,45.410,808.594
1532511623.684,61.523,31.738,39.062,57.617,330.566
1532511623.688,57.617,33.691,37.598,60.547,-487.305
1532511623.692,45.410,29.785,43.457,17.578,-464.844
1532511623.696,56.152,31.250,38.086,27.832,-445.312
1532511623.700,42.969,32.227,40.527,62.988,-119.141
1532511623.704,29.785,33.203,41.992,57.617,-263.672
1532511623.708,51.270,21.973,36.621,44.434,-400.879
1532511623.712,32.227,27.832,38.574,22.949,-374.512
1532511623.716,17.578,32.715,41.016,22.949,-507.324
1532511623.720,41.504,24.902,41.992,48.828,101.074
1532511623.724,42.480,31.250,41.504,40.527,286.621
1532511623.727,19.531,24.414,39.551,18.555,-264.648
1532511623.731,-2.930,23.926,43.457,26.367,-365.723
1532511623.735,22.949,29.785,44.434,25.391,-524.902
1532511623.739,67.871,35.156,35.156,35.645,291.992
1532511623.743,62.012,43.945,34.668,27.832,618.164
1532511623.747,26.367,27.832,40.527,13.672,-345.215
1532511623.751,42.969,27.344,44.434,36.621,-490.234
1532511623.755,15.137,29.297,42.480,56.152,-440.918
1532511623.759,4.883,27.344,42.969,30.762,-14.160
1532511623.763,37.598,24.414,36.133,2.930,177.734
1532511623.767,35.156,18.555,38.574,47.852,83.008
1532511623.770,52.734,29.785,47.852,83.496,53.711
1532511623.774,48.340,29.785,46.387,58.594,-384.766
1532511623.778,50.293,31.250,47.852,34.180,215.332
1532511623.782,36.133,31.250,36.621,35.156,806.641
1532511623.786,6.836,30.762,36.133,24.902,-147.461
1532511623.790,-0.488,34.668,39.062,29.297,-460.938
1532511623.794,7.812,35.645,34.180,16.602,-500.977
1532511623.798,41.016,28.320,33.691,9.277,-101.562
1532511623.802,39.551,26.855,40.527,13.184,138.672
1532511623.806,41.504,30.273,44.922,30.273,-386.719
1532511623.809,18.555,15.625,41.016,57.617,-327.148
1532511623.813,-25.879,10.254,42.480,48.340,-123.535
1532511623.817,32.227,35.156,35.156,40.527,299.316
1532511623.821,71.289,31.250,41.992,57.129,814.453
1532511623.825,43.457,23.926,46.387,14.160,132.812
1532511623.829,42.969,35.645,43.945,11.230,-457.520
1532511623.833,43.945,34.668,41.504,55.664,-597.168
1532511623.837,18.066,28.809,41.992,44.922,-330.078
1532511623.841,31.250,31.738,43.945,40.039,390.137
1532511623.845,37.109,31.738,39.062,49.805,-129.883
1532511623.849,38.574,13.672,46.387,66.406,-553.711
1532511623.852,30.762,17.578,45.898,59.570,-516.602
1532511623.856,33.203,42.480,31.250,16.602,-387.207
1532511623.860,34.668,40.039,32.227,9.766,270.508
1532511623.864,31.250,36.621,45.410,33.691,110.840
1532511623.868,37.598,39.062,38.086,15.625,-432.617
1532511623.872,53.711,41.016,22.949,9.277,-360.352
1532511623.876,24.414,44.434,27.832,28.320,-414.551
1532511623.880,-2.930,30.762,35.156,21.484,437.988
1532511623.884,41.992,35.156,31.250,8.301,579.102
1532511623.888,37.598,49.316,24.414,4.395,-394.043
1532511623.892,-9.277,37.598,24.414,7.812,-414.062
1532511623.895,-13.672,32.715,25.879,12.695,-442.383
1532511623.899,-3.906,33.203,27.832,28.320,-180.664
1532511623.903,45.410,45.898,23.926,23.438,-160.645
1532511623.907,46.875,44.434,26.855,14.648,-104.004
1532511623.911,33.203,41.016,28.320,7.324,164.062
1532511623.915,29.785,41.016,27.344,34.668,-390.137
1532511623.919,41.016,41.016,28.320,62.012,189.453
1532511623.923,65.430,44.434,21.484,28.809,770.996
1532511623.927,59.570,43.457,19.043,23.926,-200.195
1532511623.931,16.602,37.109,27.344,26.855,-529.785
1532511623.934,17.090,35.156,30.762,13.184,-602.051
1532511623.938,24.414,38.086,25.391,20.996,-120.605
1532511623.942,20.508,36.621,23.926,46.875,62.012
1532511623.946,44.922,46.387,28.320,20.996,-437.500
1532511623.950,24.902,38.086,36.621,26.367,-452.148
1532511623.954,41.504,34.180,34.668,60.547,-190.430
1532511623.958,63.965,54.199,19.531,43.945,479.492
1532511623.962,71.777,52.246,18.066,32.227,838.379
1532511623.966,45.410,37.109,21.973,25.391,-88.379
1532511623.970,-8.789,26.367,27.344,15.625,-587.402
1532511623.974,55.176,42.969,20.020,30.273,-434.082
1532511623.977,74.707,47.363,28.809,71.289,15.137
1532511623.981,45.410,27.344,45.410,89.355,104.004
1532511623.985,46.387,27.832,37.109,67.871,-487.793
1532511623.989,35.645,48.828,27.344,25.879,-424.805
1532511623.993,16.113,52.246,28.320,4.883,-435.547
1532511623.997,6.836,45.898,20.996,-35.645,-218.750
1532511624.001,27.832,51.270,21.484,-5.371,441.406
1532511624.005,16.602,49.805,32.227,42.480,112.793
1532511624.009,17.090,55.176,28.809,18.555,-270.996
1532511624.013,-3.906,56.641,27.344,-13.672,-383.301
1532511624.016,-14.648,59.570,26.367,-57.617,-399.902
1532511624.020,-19.043,61.523,22.461,-70.801,622.070
1532511624.024,-46.387,51.758,31.250,-30.273,519.043
1532511624.028,0.488,55.176,40.527,2.441,-385.742
1532511624.032,1.953,54.199,39.062,-10.742,-500.488
1532511624.036,-12.695,45.898,38.574,-23.926,-452.148
1532511624.040,-46.875,49.316,31.250,-52.734,7.812
1532511624.044,-40.527,56.641,32.227,-42.969,-116.211
1532511624.048,-12.695,51.270,39.551,-15.625,-118.164
1532511624.052,-21.484,47.852,38.086,-10.254,22.461
1532511624.056,-34.668,52.246,34.668,-18.555,-384.766
1532511624.059,-26.855,48.340,33.203,-25.879,385.254
1532511624.063,-6.348,44.434,36.621,-12.207,650.391
1532511624.067,-29.297,44.434,37.598,-32.715,-400.879
1532511624.071,-22.949,49.316,38.574,-11.230,-513.184
1532511624.075,0.488,44.922,38.086,7.324,-453.613
1532511624.079,35.645,37.598,28.320,-17.578,-138.672
1532511624.083,28.809,42.480,28.809,-15.625,-160.645
1532511624.087,15.625,44.434,31.250,-21.484,-497.070
1532511624.091,33.691,36.133,31.738,-7.812,-340.820
1532511624.095,54.688,38.574,34.668,0.977,-135.742
1532511624.099,0.488,34.668,36.133,0.000,526.367
1532511624.102,-5.859,34.180,37.109,13.672,740.723
1532511624.106,51.270,36.133,39.062,30.762,-163.574
1532511624.110,36.133,34.668,38.574,20.020,-484.863
1532511624.114,32.715,37.598,43.457,35.645,-629.395
1532511624.118,9.277,27.832,43.457,22.461,-208.496
1532511624.122,-20.508,29.785,37.109,4.883,62.012
1532511624.126,4.883,37.109,44.922,28.320,-394.531
1532511624.130,28.320,43.457,39.062,27.344,-422.852
1532511624.134,9.277,46.387,37.598,8.301,-596.680
1532511624.138,13.672,46.387,39.062,19.043,-92.773
1532511624.141,19.531,49.805,37.109,10.742,572.754
1532511624.145,9.766,42.969,44.922,24.414,51.270
1532511624.149,14.648,41.016,48.340,31.250,-346.680
1532511624.153,12.207,39.551,49.316,5.371,-498.047
1532511624.157,-5.371,40.527,55.176,11.719,-119.141
1532511624.161,-9.766,42.480,41.992,-7.812,856.445
1532511624.165,22.949,41.992,34.668,-8.301,245.605
1532511624.169,0.488,41.504,33.691,9.277,-517.578
1532511624.173,-22.461,31.738,36.133,7.324,-474.121
1532511624.177,17.578,29.785,36.621,20.020,-230.469
1532511624.181,9.277,26.855,31.738,-1.953,60.547
1532511624.184,7.324,24.414,30.762,-10.742,-209.473
1532511624.188,36.133,30.762,32.715,36.133,81.543
1532511624.192,35.645,29.297,31.250,51.270,111.328
1532511624.196,26.367,22.949,31.250,46.875,-395.508
1532511624.200,27.832,19.043,30.762,20.996,472.656
1532511624.204,49.316,26.367,24.414,21.973,559.570
1532511624.208,42.969,26.367,24.902,35.645,-415.527
1532511624.212,20.996,4.395,37.109,27.344,-504.883
1532511624.216,41.016,15.137,25.879,42.480,-575.195
1532511624.220,29.297,29.785,18.555,46.875,-211.426
1532511624.224,20.020,23.438,20.508,39.551,-155.762
1532511624.227,61.035,24.414,13.672,58.594,-439.941
1532511624.231,42.480,19.531,20.508,52.734,-442.871
1532511624.235,43.945,17.090,24.414,52.734,-289.062
1532511624.239,41.504,17.578,21.973,51.758,515.625
1532511624.243,26.855,12.695,25.879,39.551,671.387
1532511624.247,12.207,7.812,20.020,45.410,-324.707
1532511624.251,30.762,11.230,18.066,51.758,-590.332
1532511624.255,104.004,16.602,22.949,69.336,-558.594
1532511624.259,89.355,24.902,18.066,61.035,-94.727
1532511624.263,74.219,19.043,20.020,62.500,-70.801
1532511624.266,62.500,14.648,21.973,63.965,-540.039
1532511624.270,40.527,4.883,25.879,61.523,-445.312
1532511624.274,82.031,11.719,25.391,82.520,-441.406
1532511624.278,81.055,29.785,21.973,80.078,7.812
1532511624.282,57.129,14.648,24.414,83.008,418.457
1532511624.286,68.848,14.160,26.367,74.707,125.000
1532511624.290,67.383,20.508,22.949,29.297,-94.727
1532511624.294,49.316,14.648,25.391,60.547,-452.637
1532511624.298,52.246,19.531,29.785,70.312,33.691
1532511624.302,41.016,25.879,18.555,19.531,872.070
1532511624.306,39.062,20.996,18.066,53.711,82.520
1532511624.309,56.641,11.719,31.738,83.008,-420.410
1532511624.313,67.383,18.066,32.715,50.293,-548.828
1532511624.317,68.359,22.949,25.879,50.293,-206.543
1532511624.321,54.688,20.996,25.391,54.688,208.008
1532511624.325,77.148,14.648,32.227,57.617,-312.500
1532511624.329,42.480,6.348,38.574,60.059,-36.621
1532511624.333,42.480,18.066,34.668,67.871,-34.668
1532511624.337,86.426,27.344,26.367,70.312,-247.559
1532511624.341,68.359,30.273,26.855,60.059,731.445
1532511624.345,6.348,19.531,30.762,22.949,363.770
1532511624.348,35.645,14.160,31.250,29.785,-560.059
1532511624.352,88.867,29.785,28.320,65.430,-581.543
1532511624.356,77.637,31.250,32.715,81.055,-407.227
1532511624.360,79.102,23.438,38.086,61.523,4.395
1532511624.364,60.547,19.531,29.297,57.617,-283.691
1532511624.368,29.297,17.578,27.344,43.945,-536.621
1532511624.372,56.152,20.020,34.180,36.621,-401.367
1532511624.376,89.844,33.691,35.156,72.754,-46.387
1532511624.380,74.707,28.809,38.086,62.500,769.531
1532511624.384,25.879,21.484,27.832,2.930,523.926
1532511624.388,22.461,22.461,23.926,13.672,-417.480
1532511624.391,76.660,27.832,38.574,83.984,-487.305
1532511624.395,78.125,29.297,45.410,76.172,-386.719
1532511624.399,83.008,24.414,41.016,70.312,-100.586
1532511624.403,78.125,26.367,38.086,79.102,-216.309
1532511624.407,59.082,17.090,36.621,80.078,-433.105
1532511624.411,39.062,20.996,34.668,54.199,-381.348
1532511624.415,41.504,35.645,30.762,52.734,-526.367
1532511624.419,27.832,28.320,30.273,49.316,-153.320
1532511624.423,39.551,23.438,33.203,38.574,316.406
1532511624.427,76.660,31.738,32.715,54.199,106.934
1532511624.431,65.430,35.156,30.273,69.824,-223.633
1532511624.434,35.645,21.973,33.691,60.547,-580.078
1532511624.438,26.855,4.883,39.062,35.645,157.227
1532511624.442,40.039,15.625,37.598,39.551,822.754
1532511624.446,36.621,29.785,36.133,71.777,-142.090
1532511624.450,53.711,26.855,36.621,68.848,-558.594
1532511624.454,59.082,27.344,39.062,41.016,-575.195
1532511624.458,42.969,32.227,39.062,59.082,-35.645
1532511624.462,57.129,38.086,35.645,68.848,160.156
1532511624.466,39.551,30.273,35.156,38.574,-483.398
1532511624.470,20.020,21.973,37.598,41.016,-66.895
1532511624.473,56.641,31.250,35.645,71.777,-29.297
1532511624.477,55.176,30.273,30.273,41.016,43.457
1532511624.481,34.180,26.855,25.391,30.273,867.188
1532511624.485,36.621,27.832,33.203,61.523,106.934
1532511624.489,55.664,23.438,38.574,62.988,-516.602
1532511624.493,39.551,23.926,37.109,49.316,-518.066
1532511624.497,21.484,28.320,35.645,49.805,-297.852
1532511624.501,16.113,27.344,31.738,52.246,54.688
1532511624.505,38.086,36.621,26.367,37.598,-344.238
1532511624.509,64.941,27.344,34.668,26.855,-401.855
1532511624.513,45.410,25.879,37.598,42.969,-418.945
1532511624.516,44.922,39.062,41.016,64.453,-159.668
1532511624.520,38.086,35.156,46.875,35.645,770.996
1532511624.524,0.977,30.762,39.551,41.992,454.102
1532511624.528,23.926,33.203,28.320,40.039,-448.730
1532511624.532,53.223,33.203,29.785,18.066,-574.707
1532511624.536,64.453,32.715,37.109,63.477,-546.387
1532511624.540,54.688,36.133,38.086,71.777,-98.633
1532511624.544,30.762,26.855,36.133,74.219,-189.941
1532511624.548,33.691,24.414,32.227,58.105,-503.906
1532511624.552,25.391,34.668,30.273,35.156,-484.863
1532511624.556,31.250,37.109,36.133,47.852,-438.477
1532511624.559,53.223,30.762,36.621,62.012,-33.691
1532511624.563,36.621,41.016,23.438,38.574,247.559
1532511624.567,11.719,19.043,24.902,23.926,86.426
1532511624.571,1.465,3.906,40.039,51.758,-128.418
1532511624.575,52.246,34.668,33.203,37.598,-426.270
1532511624.579,43.945,35.645,25.391,8.789,307.617
1532511624.583,-13.184,29.785,34.180,29.785,703.125
1532511624.587,8.789,22.949,41.016,55.176,-269.531
1532511624.591,61.523,23.438,35.156,48.340,-430.664
1532511624.595,51.758,31.250,28.320,19.531,-472.168
1532511624.598,47.852,36.621,24.414,21.973,-118.164
1532511624.602,49.316,43.457,28.320,31.250,-55.664
1532511624.606,53.711,42.969,31.738,24.902,-309.570
1532511624.610,31.250,39.551,24.902,46.875,146.973
1532511624.614,15.137,35.645,28.320,49.316,40.527
1532511624.618,9.277,37.598,28.809,19.043,289.062
1532511624.622,58.105,44.922,30.273,7.324,826.660
1532511624.626,52.246,35.645,34.668,44.922,-10.254
1532511624.630,0.977,26.367,31.250,31.738,-535.645
1532511624.634,30.273,26.367,26.855,14.160,-669.922
1532511624.638,69.336,24.414,28.809,63.965,-178.711
1532511624.641,42.969,40.527,31.250,53.711,197.266
1532511624.645,-20.020,54.199,28.320,8.789,-393.555
1532511624.649,36.621,54.688,11.230,-28.809,-478.027
1532511624.653,91.797,58.105,8.301,16.602,-497.070
1532511624.657,58.594,56.641,19.043,39.551,50.781
1532511624.661,25.391,52.246,22.949,30.762,915.527
1532511624.665,46.875,47.852,23.926,40.527,191.895
1532511624.669,3.906,41.992,20.996,17.578,-564.453
1532511624.673,-0.977,43.457,12.695,20.508,-518.066
1532511624.677,44.922,46.875,18.555,39.062,-306.641
1532511624.680,38.574,35.156,33.691,38.086,14.160
1532511624.684,42.969,24.902,30.762,9.277,-371.094
1532511624.688,32.227,46.875,20.508,34.668,-473.145
1532511624.692,36.133,56.152,27.832,67.871,-369.141
1532511624.696,54.688,62.012,25.391,35.156,-360.840
1532511624.700,23.926,49.805,24.414,10.254,-47.852
1532511624.704,3.418,50.293,25.391,14.648,207.031
1532511624.708,24.414,59.570,14.160,9.277,208.496
1532511624.712,48.828,52.246,22.461,51.270,-142.578
1532511624.716,81.055,50.293,24.902,59.570,-533.691
1532511624.720,40.527,39.551,23.438,18.555,322.266
1532511624.723,37.109,49.316,21.484,24.902,677.246
1532511624.727,36.621,55.664,21.973,50.781,-303.711
1532511624.731,15.625,51.270,29.297,36.133,-522.949
1532511624.735,44.434,43.457,25.879,24.902,-559.570
1532511624.739,41.016,42.969,15.625,28.320,-136.230
1532511624.743,56.152,49.316,27.344,45.410,-63.477
1532511624.747,54.199,51.758,30.273,42.969,-452.637
1532511624.751,13.184,37.109,30.762,30.273,-133.789
1532511624.755,-7.324,36.133,32.227,42.969,24.902
1532511624.759,18.066,45.898,29.297,26.855,487.305
1532511624.763,47.363,42.480,35.156,-11.230,716.797
1532511624.766,13.672,45.898,24.414,17.090,-265.625
1532511624.770,65.430,46.387,22.461,55.664,-541.992
1532511624.774,83.496,50.293,29.297,52.734,-506.836
1532511624.778,22.461,34.668,33.203,-6.348,-84.473
1532511624.782,-4.395,32.227,31.738,10.254,-3.906
1532511624.786,44.922,47.363,36.621,76.660,-483.398
1532511624.790,60.059,48.828,22.949,38.574,-363.770
1532511624.794,-26.367,39.062,32.715,25.391,-453.125
1532511624.798,19.531,50.781,42.969,40.039,220.703
1532511624.802,54.199,57.129,26.367,14.648,611.328
1532511624.805,24.902,38.574,37.598,35.156,-254.395
1532511624.809,48.828,21.484,46.387,64.941,-354.004
1532511624.813,52.246,31.250,38.574,56.152,-513.184
1532511624.817,41.016,48.340,34.668,53.223,-138.184
1532511624.821,25.391,42.969,35.156,17.578,601.562
1532511624.825,60.547,40.039,38.086,47.852,-49.805
1532511624.829,36.133,35.645,36.621,65.430,-449.707
1532511624.833,5.859,41.992,36.621,31.738,-528.320
1532511624.837,33.203,42.969,33.203,42.969,-295.898
1532511624.841,-7.324,25.391,36.133,54.199,173.340
1532511624.845,3.418,36.133,40.527,56.641,86.914
1532511624.848,65.430,45.410,38.086,62.988,-59.082
1532511624.852,73.730,56.152,41.016,56.641,-347.168
1532511624.856,40.527,51.270,39.062,38.086,-398.926
1532511624.860,24.414,39.062,35.156,13.672,590.332
1532511624.864,36.621,45.410,40.527,41.992,491.211
1532511624.868,1.953,20.996,50.293,62.988,-509.766
1532511624.872,26.367,29.297,43.457,38.574,-480.957
1532511624.876,62.500,54.199,35.156,34.180,-395.996
1532511624.880,20.020,47.363,37.598,48.828,-96.191
1532511624.884,50.781,44.922,41.016,68.359,-252.930
1532511624.888,58.105,38.574,41.504,69.336,-481.445
1532511624.891,42.969,39.551,31.738,20.020,-9.766
1532511624.895,16.602,39.062,31.738,22.949,-10.254
1532511624.899,22.949,32.715,39.062,45.898,425.293
1532511624.903,79.102,41.992,35.645,21.484,650.391
1532511624.907,25.879,34.180,40.039,22.949,-284.180
1532511624.911,28.809,28.320,38.086,9.277,-492.676
1532511624.915,57.617,48.828,33.691,25.879,-598.145
1532511624.919,54.688,57.129,32.715,33.203,-230.469
1532511624.923,75.195,53.223,34.180,46.875,-73.730
1532511624.927,61.035,34.180,41.016,61.523,-409.668
1532511624.930,48.828,26.855,38.086,23.926,-425.293
1532511624.934,29.785,30.762,33.691,48.828,-582.520
1532511624.938,18.066,32.227,32.715,65.430,249.023
1532511624.942,30.762,39.551,38.086,53.711,838.379
1532511624.946,27.344,45.898,42.480,47.363,-139.648
1532511624.950,16.113,42.969,42.969,36.621,-551.758
1532511624.954,14.648,42.969,30.762,49.316,-592.773
1532511624.958,22.949,49.805,31.250,47.363,-45.410
1532511624.962,42.480,45.410,41.992,62.500,173.828
1532511624.966,44.922,32.227,34.180,49.316,-472.168
1532511624.970,62.500,33.691,34.668,45.898,-456.543
1532511624.973,49.805,40.527,40.527,60.059,-448.730
1532511624.977,19.043,26.367,41.992,40.527,-2.441
1532511624.981,9.766,30.273,45.410,25.879,235.352
1532511624.985,32.227,37.598,43.945,27.832,23.438
1532511624.989,26.855,36.621,34.668,41.016,123.535
1532511624.993,35.156,34.668,35.156,42.969,-322.266
1532511624.997,5.859,34.180,43.945,31.250,-148.926
1532511625.001,-21.484,33.203,44.922,16.113,391.602
1532511625.005,30.273,33.203,42.969,10.254,-117.676
1532511625.009,27.344,37.109,41.992,19.043,-319.336
1532511625.012,11.719,33.203,44.922,44.434,-322.266
1532511625.016,27.344,35.645,49.805,33.203,-406.738
1532511625.020,32.715,32.227,44.922,24.414,597.656
1532511625.024,20.508,23.926,26.855,32.715,533.691
1532511625.028,34.180,29.785,21.484,20.020,-267.090
1532511625.032,36.621,24.902,40.527,40.527,-28.809
1532511625.036,42.480,39.551,46.387,47.852,191.895
1532511625.040,24.902,41.992,41.992,43.457,419.922
1532511625.044,3.906,26.367,38.086,54.688,-40.039
1532511625.048,31.250,43.457,32.227,38.086,-506.348
1532511625.052,56.152,46.387,35.645,39.062,-471.191
1532511625.055,48.340,43.457,40.039,60.547,-557.129
1532511625.059,43.945,42.480,39.062,35.645,319.824
1532511625.063,30.273,32.227,38.086,46.875,513.672
1532511625.067,61.035,38.086,36.133,52.734,-487.305
1532511625.071,49.316,34.668,37.109,30.273,-491.211
1532511625.075,35.156,8.789,38.086,36.621,-512.695
1532511625.079,35.156,9.277,34.180,47.852,337.402
1532511625.083,19.043,39.551,26.855,31.250,589.355
1532511625.087,-9.766,51.758,27.344,27.832,-432.617
1532511625.091,-8.789,38.574,40.039,68.359,-461.914
1532511625.095,100.586,38.574,35.156,61.035,-543.457
1532511625.098,99.121,47.363,32.715,41.016,5.371
1532511625.102,63.477,45.898,40.039,50.781,179.688
1532511625.106,24.902,32.227,43.457,28.320,-437.988
1532511625.110,-4.395,18.066,39.551,23.926,-366.699
1532511625.114,41.504,33.691,31.250,24.902,-512.207
1532511625.118,62.988,59.082,36.133,29.297,-79.590
1532511625.122,43.945,48.340,42.969,74.219,181.152
1532511625.126,62.988,34.668,47.852,65.918,2.441
1532511625.130,50.293,45.898,43.945,16.602,198.730
1532511625.134,15.625,48.340,36.621,21.973,-335.938
1532511625.137,33.691,37.598,42.480,69.336,-51.758
1532511625.141,28.320,29.785,54.199,59.570,910.156
1532511625.145,56.152,35.156,45.410,62.500,125.977
1532511625.149,22.949,46.875,30.762,45.410,-558.105
1532511625.153,14.648,44.434,48.340,32.715,-594.238
1532511625.157,86.426,37.598,55.664,62.012,-193.848
1532511625.161,95.703,39.062,45.898,59.082,191.895
1532511625.165,54.199,48.340,40.039,40.527,-389.160
1532511625.169,12.695,31.250,43.945,61.035,-498.535
1532511625.173,35.645,23.926,49.805,61.523,-61.035
1532511625.177,49.805,49.316,45.410,45.410,90.332
1532511625.180,54.199,57.617,37.598,43.945,694.336
1532511625.184,67.383,50.293,28.809,45.898,382.812
1532511625.188,57.617,41.016,31.250,33.691,-500.000
1532511625.192,68.359,41.016,48.828,57.617,-475.098
1532511625.196,41.016,35.645,52.246,92.773,-469.238
1532511625.200,42.969,47.363,42.969,60.059,-145.020
1532511625.204,73.730,55.664,38.574,41.504,-266.602
1532511625.208,18.066,35.156,52.246,59.570,-429.199
1532511625.212,27.344,32.715,43.457,18.555,-381.348
1532511625.216,72.266,51.270,29.785,24.902,-492.676
1532511625.219,55.664,41.016,54.199,57.617,120.605
1532511625.223,57.617,41.992,48.340,48.340,310.059
1532511625.227,33.691,45.410,43.945,61.035,-265.625
1532511625.231,25.391,38.574,49.805,66.406,-372.070
1532511625.235,75.684,39.062,47.363,69.336,-536.133
1532511625.239,70.801,40.039,44.922,57.617,274.902
1532511625.243,83.984,46.387,45.898,51.270,638.184
1532511625.247,80.078,44.922,34.668,59.082,-321.777
1532511625.251,40.039,37.109,34.180,56.152,-499.023
1532511625.255,55.176,41.016,52.246,45.898,-473.145
1532511625.259,19.043,48.828,50.293,53.711,1.953
1532511625.262,-9.277,33.691,41.504,49.316,28.320
1532511625.266,46.875,30.762,39.062,26.367,-84.961
1532511625.270,67.871,29.785,48.340,46.875,74.707
1532511625.274,-0.977,30.762,48.828,62.012,-393.066
1532511625.278,-40.527,36.621,32.715,18.066,185.059
1532511625.282,13.184,31.250,35.645,39.551,831.543
1532511625.286,63.477,33.203,42.969,69.336,-96.191
1532511625.290,72.754,35.156,38.086,53.711,-449.219
1532511625.294,39.551,39.062,44.434,65.918,-498.535
1532511625.298,51.758,42.480,43.945,55.664,-103.027
1532511625.302,41.504,34.180,36.621,28.809,163.574
1532511625.305,49.316,35.156,36.621,29.297,-383.301
1532511625.309,68.359,40.039,34.180,62.012,-339.355
1532511625.313,55.176,36.133,34.180,65.918,-116.211
1532511625.317,-2.930,18.555,48.828,55.664,232.422
1532511625.321,30.762,24.414,46.387,46.875,850.586
1532511625.325,61.035,29.297,36.133,33.691,263.672
1532511625.329,49.805,24.902,40.039,20.020,-493.164
1532511625.333,50.781,35.156,33.203,49.805,-614.746
1532511625.337,13.672,42.480,27.832,41.504,-390.625
1532511625.341,38.574,39.551,27.344,35.645,89.844
1532511625.344,55.664,30.762,34.180,63.965,-278.320
1532511625.348,52.734,30.273,33.203,63.477,-510.742
1532511625.352,42.969,37.598,21.484,46.387,-482.910
1532511625.356,51.758,34.668,22.461,52.246,-377.930
1532511625.360,50.781,35.156,31.250,63.965,278.809
1532511625.364,33.203,28.320,27.344,41.016,170.898
1532511625.368,54.688,32.715,27.344,66.406,-389.160
1532511625.372,29.297,40.527,22.949,28.320,-324.707
1532511625.376,-37.109,6.348,24.902,21.484,-380.859
1532511625.380,51.270,6.836,27.832,56.152,436.035
1532511625.384,125.977,47.852,20.996,50.293,610.352
1532511625.387,33.203,32.227,31.250,68.848,-358.887
1532511625.391,-18.066,17.578,37.598,33.203,-399.902
1532511625.395,60.059,41.016,20.508,27.344,-425.781
1532511625.399,67.871,27.344,28.809,54.688,-174.316
1532511625.403,41.992,20.996,35.645,58.105,-145.996
1532511625.407,48.340,40.527,14.648,58.594,-85.449
1532511625.411,44.434,36.133,20.020,62.988,83.008
1532511625.415,35.645,40.039,27.344,45.410,-478.516
1532511625.419,28.809,37.109,24.902,19.043,186.523
1532511625.423,8.789,27.344,31.738,42.969,784.668
1532511625.427,8.789,35.645,35.156,74.707,-173.828
1532511625.430,59.570,35.156,36.133,62.012,-510.742
1532511625.434,62.012,33.691,33.203,37.598,-596.680
1532511625.438,20.020,29.785,37.109,36.133,-112.305
1532511625.442,56.641,31.738,42.480,71.777,96.680
1532511625.446,55.176,34.668,32.715,59.570,-451.172
1532511625.450,10.742,18.555,34.180,55.176,-337.402
1532511625.454,46.387,33.203,43.945,51.270,-54.199
1532511625.458,67.871,47.363,34.180,32.227,452.148
1532511625.462,38.574,37.109,31.738,59.570,858.398
1532511625.466,42.969,38.086,39.062,79.102,-51.270
1532511625.469,40.039,34.668,30.273,58.105,-564.941
1532511625.473,17.578,28.320,28.809,48.340,-556.152
1532511625.477,36.621,30.273,33.203,55.176,-139.160
1532511625.481,34.668,29.297,33.203,55.664,131.836
1532511625.485,58.105,39.551,31.738,48.340,-453.613
1532511625.489,55.664,41.992,29.785,47.852,-416.016
1532511625.493,17.090,34.180,33.691,48.828,-413.086
1532511625.497,31.738,29.297,38.574,20.508,-213.379
1532511625.501,28.320,36.621,31.250,32.715,338.379
