timestamps,TP9,AF7,AF8,TP10,Right AUX
1532392082.369,11.719,20.020,23.438,44.922,-10.742
1532392082.373,24.902,20.508,24.902,45.898,-18.555
1532392082.377,19.531,22.461,23.926,66.406,-44.922
1532392082.381,13.184,23.438,22.949,49.316,-39.551
1532392082.385,30.762,24.902,19.531,27.344,-24.414
1532392082.389,34.668,25.391,18.066,40.039,-55.176
1532392082.393,24.902,25.879,19.043,45.410,-46.875
1532392082.397,17.090,21.484,20.996,49.316,-23.926
1532392082.401,22.949,20.508,21.973,63.477,-18.066
1532392082.405,11.230,24.414,21.973,43.457,-8.789
1532392082.408,21.484,22.949,23.438,62.012,-34.180
1532392082.412,20.996,19.531,23.926,62.500,-39.551
1532392082.416,26.367,24.414,19.531,0.977,-21.484
1532392082.420,28.320,28.809,15.625,0.977,-1.465
1532392082.424,9.277,28.809,13.184,21.484,-37.109
1532392082.428,8.301,25.879,17.090,40.039,-48.828
1532392082.432,23.926,22.949,21.484,37.598,-23.926
1532392082.436,29.297,24.902,22.461,40.527,-0.977
1532392082.440,23.438,23.438,23.438,34.180,-19.043
1532392082.444,29.785,22.949,22.949,31.738,-39.551
1532392082.448,21.973,26.367,20.020,35.645,-23.438
1532392082.451,10.742,29.297,20.508,40.039,8.789
1532392082.455,12.695,27.344,23.926,47.363,21.973
1532392082.459,20.508,20.996,23.926,46.875,-22.949
1532392082.463,20.996,21.973,20.996,50.781,-23.438
1532392082.467,32.227,27.344,20.996,86.914,11.719
1532392082.471,21.973,29.785,17.090,41.504,23.438
1532392082.475,8.301,26.855,16.113,0.488,2.930
1532392082.479,7.812,22.949,23.438,42.480,-16.113
1532392082.483,10.254,27.832,20.508,36.621,-8.789
1532392082.487,20.508,31.738,17.578,20.996,18.555
1532392082.490,28.320,28.320,18.066,30.762,-8.789
1532392082.494,20.996,28.320,15.625,32.715,-16.602
1532392082.498,4.395,29.785,17.090,29.785,-14.648
1532392082.502,13.672,29.297,15.625,22.461,-20.996
1532392082.506,18.066,26.367,14.160,18.555,-8.301
1532392082.510,13.672,23.438,17.090,9.766,-18.555
1532392082.514,12.695,23.926,19.531,33.203,-0.488
1532392082.518,17.578,25.879,20.020,52.246,5.859
1532392082.522,17.578,26.367,19.043,35.156,-11.719
1532392082.526,20.508,26.367,16.602,25.879,0.000
1532392082.530,24.414,26.367,16.113,38.086,-30.762
1532392082.533,13.672,25.879,17.090,43.457,-5.371
1532392082.537,18.066,29.297,13.184,29.785,41.992
1532392082.541,19.531,26.367,13.184,20.020,-11.719
1532392082.545,28.320,24.414,16.113,26.855,-33.203
1532392082.549,46.387,31.250,12.207,34.668,-2.441
1532392082.553,24.902,32.227,10.254,50.781,16.602
1532392082.557,3.418,29.297,13.672,61.523,-27.832
1532392082.561,25.879,30.273,10.742,8.789,-39.062
1532392082.565,37.598,31.738,2.930,13.672,4.395
1532392082.569,46.387,32.227,1.465,48.828,-1.953
1532392082.573,37.109,22.461,20.508,57.617,-9.766
1532392082.576,10.742,15.625,31.738,62.500,-15.137
1532392082.580,-11.230,20.508,19.531,6.836,-37.109
1532392082.584,-17.578,21.973,16.113,9.766,2.930
1532392082.588,0.488,20.020,18.555,24.902,53.711
1532392082.592,13.672,21.973,15.625,-2.930,0.977
1532392082.596,6.348,22.461,13.184,22.461,-30.273
1532392082.600,2.930,19.531,14.648,31.738,-16.113
1532392082.604,-1.465,21.973,16.602,1.465,3.906
1532392082.608,8.789,24.414,12.695,8.789,7.812
1532392082.612,16.602,22.949,17.090,32.227,-8.789
1532392082.615,15.137,20.508,17.578,41.016,-23.438
1532392082.619,16.113,22.949,12.695,19.043,-19.043
1532392082.623,9.277,27.832,11.719,-8.301,-14.648
1532392082.627,-3.906,25.391,8.789,10.742,-23.438
1532392082.631,5.371,23.926,10.254,23.926,-22.461
1532392082.635,30.273,25.391,11.719,32.227,-10.254
1532392082.639,27.832,21.484,11.230,19.043,-6.836
1532392082.643,12.207,21.484,9.277,17.090,-43.945
1532392082.647,6.348,21.973,5.859,33.203,-38.086
1532392082.651,4.883,22.461,4.395,8.301,-0.488
1532392082.655,20.508,20.996,11.230,12.695,41.992
1532392082.658,20.996,17.578,15.625,29.785,10.742
1532392082.662,4.883,16.602,12.695,17.578,-22.461
1532392082.666,-2.930,16.113,15.625,23.926,2.441
1532392082.670,7.812,17.578,18.066,30.273,10.254
1532392082.674,22.461,19.531,17.578,60.547,-7.324
1532392082.678,28.320,24.414,16.602,46.387,-39.551
1532392082.682,36.133,28.809,14.160,2.930,-59.570
1532392082.686,21.973,26.855,18.066,32.227,-15.625
1532392082.690,13.672,21.973,19.043,42.480,3.418
1532392082.694,25.391,26.855,18.555,29.297,-29.785
1532392082.697,25.391,33.691,15.625,20.996,-14.160
1532392082.701,17.578,28.320,15.137,33.691,16.113
1532392082.705,27.832,21.973,18.555,48.340,24.414
1532392082.709,41.504,23.926,17.090,34.668,-13.672
1532392082.713,31.250,23.926,15.625,11.230,-31.738
1532392082.717,32.715,27.832,15.625,22.461,-30.762
1532392082.721,39.062,29.785,14.648,12.695,-39.551
1532392082.725,32.715,27.832,13.184,17.090,-41.992
1532392082.729,38.574,25.879,16.113,23.438,-28.320
1532392082.733,38.086,24.414,18.066,9.277,-21.484
1532392082.737,19.531,22.949,18.066,39.551,-21.484
1532392082.740,8.301,24.414,20.020,26.855,-48.828
1532392082.744,12.695,22.461,20.508,22.949,-58.594
1532392082.748,7.324,22.461,19.531,43.945,-25.879
1532392082.752,3.906,25.879,23.926,64.453,10.742
1532392082.756,-0.488,25.391,22.461,61.523,-2.441
1532392082.760,4.883,26.367,20.020,29.297,-45.410
1532392082.764,3.906,28.809,23.438,26.367,-43.457
1532392082.768,14.160,27.832,22.949,26.367,-20.020
1532392082.772,11.719,25.879,20.020,23.438,1.953
1532392082.776,0.977,26.855,18.066,39.551,-7.324
1532392082.780,12.207,25.391,18.066,22.949,-42.969
1532392082.783,16.602,26.367,17.090,6.836,-46.875
1532392082.787,28.809,27.344,18.555,33.203,-1.465
1532392082.791,16.113,27.832,21.484,31.250,-14.648
1532392082.795,3.906,27.832,22.949,31.738,-25.879
1532392082.799,9.766,26.367,20.508,25.879,-27.832
1532392082.803,12.207,26.855,20.020,34.180,-30.273
1532392082.807,16.113,29.785,20.508,35.156,-18.066
1532392082.811,13.672,29.297,20.020,23.438,-43.945
1532392082.815,14.160,29.297,19.531,26.855,-28.320
1532392082.819,12.695,31.738,19.043,29.785,-1.953
1532392082.822,0.000,28.320,16.113,30.762,-20.996
1532392082.826,14.648,25.879,12.695,24.414,-38.574
1532392082.830,28.809,28.320,12.207,16.602,-13.184
1532392082.834,19.531,31.250,14.160,22.949,24.414
1532392082.838,26.367,31.738,13.184,33.691,31.738
1532392082.842,36.621,35.156,9.277,26.367,12.207
1532392082.846,8.301,34.180,4.883,35.156,-7.812
1532392082.850,-10.254,25.879,9.277,36.621,16.113
1532392082.854,5.859,27.344,12.695,1.953,57.617
1532392082.858,17.578,28.320,15.137,2.930,3.418
1532392082.862,18.066,25.391,17.578,10.254,-40.039
1532392082.865,0.977,25.879,16.602,9.277,-28.320
1532392082.869,22.461,29.785,12.207,35.156,25.879
1532392082.873,48.828,31.250,9.766,62.988,51.758
1532392082.877,25.879,26.367,17.578,47.852,-4.395
1532392082.881,-5.371,22.461,24.414,11.719,12.207
1532392082.885,8.789,21.973,21.484,0.977,51.758
1532392082.889,18.066,23.438,17.090,9.277,45.410
1532392082.893,3.906,22.461,22.461,36.133,14.160
1532392082.897,9.766,23.438,21.973,42.969,3.906
1532392082.901,9.277,19.531,18.555,19.043,16.113
1532392082.905,5.859,19.043,18.555,20.508,28.809
1532392082.908,8.789,24.902,14.648,28.809,38.574
1532392082.912,18.066,28.809,14.160,18.555,40.039
1532392082.916,23.438,28.320,14.648,7.812,61.035
1532392082.920,13.184,25.391,15.137,24.902,52.734
1532392082.924,30.762,25.391,16.113,10.254,6.348
1532392082.928,28.809,25.391,16.602,8.301,39.551
1532392082.932,12.207,26.367,11.719,10.742,72.266
1532392082.936,17.578,22.461,9.277,11.719,72.754
1532392082.940,12.207,21.484,10.254,41.992,76.172
1532392082.944,1.465,22.461,9.766,23.438,46.387
1532392082.947,0.000,21.484,10.742,0.488,50.781
1532392082.951,8.789,24.902,10.742,21.484,67.383
1532392082.955,4.395,26.855,9.766,39.062,81.543
1532392082.959,13.184,26.367,10.742,39.551,24.902
1532392082.963,21.973,25.391,7.812,-0.977,-6.836
1532392082.967,10.742,22.949,8.789,-6.836,40.039
1532392082.971,16.602,20.996,12.207,32.715,58.105
1532392082.975,1.953,20.508,7.812,49.316,46.387
1532392082.979,-5.371,20.996,6.836,21.973,26.367
1532392082.983,6.836,23.926,8.789,10.742,46.387
1532392082.987,12.695,23.438,8.789,42.969,77.148
1532392082.990,9.277,20.020,11.719,42.480,40.039
1532392082.994,12.695,22.949,7.812,3.418,31.738
1532392082.998,10.254,24.902,5.371,22.461,21.973
1532392083.002,13.184,28.320,10.254,31.250,8.789
1532392083.006,26.367,28.320,11.719,28.809,47.852
1532392083.010,8.789,27.344,8.301,35.645,37.109
1532392083.014,13.184,29.297,3.906,36.133,35.645
1532392083.018,25.879,25.391,7.324,22.949,46.387
1532392083.022,8.301,22.461,9.277,20.508,48.340
1532392083.026,2.930,24.414,5.859,27.832,42.969
1532392083.029,24.902,31.738,5.859,37.598,21.973
1532392083.033,12.207,31.250,12.207,62.012,34.180
1532392083.037,13.184,28.320,11.230,39.551,43.457
1532392083.041,27.832,24.902,10.742,29.297,9.277
1532392083.045,10.742,21.484,14.648,39.062,6.348
1532392083.049,-0.488,21.973,18.066,39.062,1.465
1532392083.053,11.230,20.508,17.578,42.480,4.395
1532392083.057,21.973,22.461,14.648,43.945,5.859
1532392083.061,48.828,25.879,14.648,40.039,-29.785
1532392083.065,35.645,26.367,15.137,41.992,-19.043
1532392083.069,1.465,24.902,18.555,45.410,27.832
1532392083.072,6.836,22.949,19.043,18.555,12.207
1532392083.076,6.348,21.484,13.672,23.438,3.906
1532392083.080,10.742,23.926,18.555,53.223,8.789
1532392083.084,18.066,23.926,20.996,22.949,36.133
1532392083.088,14.648,22.461,18.066,8.301,15.137
1532392083.092,6.348,22.949,20.996,49.316,-22.461
1532392083.096,13.672,24.414,17.090,64.453,-11.230
1532392083.100,11.719,25.879,12.695,15.625,-11.230
1532392083.104,26.855,25.879,15.137,-10.254,10.254
1532392083.108,20.996,25.391,14.648,19.043,0.488
1532392083.112,7.812,20.996,18.555,26.367,-21.973
1532392083.115,14.648,16.113,24.902,26.367,14.648
1532392083.119,9.277,20.996,20.020,17.578,19.531
1532392083.123,8.301,25.879,19.043,23.926,5.371
1532392083.127,11.230,22.949,23.438,36.621,0.977
1532392083.131,23.438,24.902,21.484,25.879,-3.906
1532392083.135,21.484,26.855,21.973,22.949,19.043
1532392083.139,15.625,23.926,20.996,16.113,-13.184
1532392083.143,17.578,25.879,18.066,16.113,-36.133
1532392083.147,21.484,28.320,19.531,26.855,-13.184
1532392083.151,11.230,31.738,13.184,3.906,-40.527
1532392083.154,3.418,31.738,9.766,5.859,-40.527
1532392083.158,-4.395,23.438,20.508,21.484,-27.344
1532392083.162,0.000,20.020,22.949,9.766,-33.691
1532392083.166,7.812,22.461,20.996,7.812,6.836
1532392083.170,3.906,22.949,21.973,35.156,32.715
1532392083.174,13.672,22.949,22.461,39.062,2.930
1532392083.178,-1.953,20.508,23.926,23.438,-10.742
1532392083.182,-19.531,17.578,23.438,22.461,-9.277
1532392083.186,-15.137,18.555,26.855,53.711,2.930
1532392083.190,-5.371,26.367,19.043,45.898,16.602
1532392083.194,9.766,26.367,15.625,-4.883,-12.695
1532392083.197,-9.277,22.949,23.438,10.742,-35.645
1532392083.201,-10.742,23.926,22.461,18.066,-11.719
1532392083.205,9.766,15.137,24.902,42.480,0.000
1532392083.209,1.953,15.625,23.926,24.414,-29.785
1532392083.213,2.441,22.949,16.113,-5.859,-13.672
1532392083.217,12.695,20.508,17.090,20.996,2.441
1532392083.221,5.371,21.484,19.043,9.277,-19.043
1532392083.225,0.977,20.996,17.578,10.254,-36.621
1532392083.229,-0.488,19.531,20.996,25.391,-40.527
1532392083.233,-1.953,21.484,23.438,17.090,-52.246
1532392083.237,0.977,20.020,23.926,37.109,-5.371
1532392083.240,-1.465,20.996,19.043,31.738,3.418
1532392083.244,7.324,21.484,13.184,2.441,-13.672
1532392083.248,9.766,17.578,20.508,10.742,-13.672
1532392083.252,5.371,19.531,26.367,25.879,-7.812
1532392083.256,0.488,21.973,23.926,29.785,-5.859
1532392083.260,-5.371,26.367,19.531,11.230,-14.160
1532392083.264,0.000,28.809,13.184,2.441,27.344
1532392083.268,4.883,26.855,10.742,21.973,25.391
1532392083.272,4.395,33.203,6.348,20.996,10.254
1532392083.276,-0.488,33.691,6.836,6.836,-4.395
1532392083.279,7.324,27.832,11.719,-8.301,-32.715
1532392083.283,-0.488,27.832,15.625,7.324,2.441
1532392083.287,-12.695,28.320,15.137,20.508,36.133
1532392083.291,6.348,28.809,10.742,0.977,15.625
1532392083.295,15.625,29.297,6.836,-0.977,6.348
1532392083.299,1.465,30.762,11.230,27.832,11.230
1532392083.303,1.953,28.320,11.230,14.648,34.180
1532392083.307,1.953,29.297,5.859,-4.883,30.273
1532392083.311,9.277,28.320,7.324,7.324,16.602
1532392083.315,10.742,27.832,11.719,17.578,27.344
1532392083.319,-2.930,21.484,16.602,5.371,27.344
1532392083.322,20.508,22.461,12.695,18.066,52.734
1532392083.326,21.973,26.855,14.160,58.105,37.109
1532392083.330,8.789,25.879,13.184,9.766,9.277
1532392083.334,12.695,29.297,10.742,-16.602,48.828
1532392083.338,16.113,28.320,15.625,20.996,49.805
1532392083.342,9.766,26.855,18.555,12.207,5.859
1532392083.346,7.324,26.367,16.602,20.508,20.508
1532392083.350,21.484,26.367,14.160,15.625,32.715
1532392083.354,17.090,24.902,12.695,2.930,26.855
1532392083.358,12.695,25.391,11.230,36.133,14.648
1532392083.361,17.578,24.414,13.672,24.902,10.742
1532392083.365,22.461,23.926,18.066,29.785,51.270
1532392083.369,33.691,25.879,16.113,20.020,69.824
1532392083.373,32.715,25.391,12.207,-6.348,29.297
1532392083.377,34.668,28.809,13.672,4.883,26.367
1532392083.381,38.574,29.785,17.090,40.039,26.855
1532392083.385,16.113,25.879,15.625,40.039,46.387
1532392083.389,13.184,27.344,13.672,25.879,32.227
1532392083.393,14.648,26.367,16.113,37.598,16.113
1532392083.397,27.344,23.926,15.625,26.855,15.137
1532392083.401,29.297,29.785,13.184,43.457,0.488
1532392083.404,15.137,31.738,13.184,45.898,40.039
1532392083.408,22.949,27.344,16.602,29.785,39.551
1532392083.412,10.254,26.367,14.648,31.738,20.508
1532392083.416,5.371,23.438,18.066,33.691,43.457
1532392083.420,16.113,23.438,19.043,33.691,68.848
1532392083.424,0.977,21.484,14.648,35.156,30.273
1532392083.428,-2.930,16.602,20.508,51.270,6.348
1532392083.432,27.344,20.508,19.531,30.762,41.504
1532392083.436,16.602,24.414,11.719,9.766,60.059
1532392083.440,-6.348,21.973,11.230,21.973,35.645
1532392083.444,-5.859,20.020,16.602,31.738,-9.766
1532392083.447,1.953,20.508,17.090,37.598,9.277
1532392083.451,10.742,22.949,16.602,34.668,67.383
1532392083.455,3.906,27.832,12.695,31.738,65.918
1532392083.459,-1.465,23.926,13.672,25.879,29.785
1532392083.463,5.371,22.461,17.578,34.668,31.738
1532392083.467,18.066,26.855,13.184,27.344,41.504
1532392083.471,2.441,26.367,12.207,3.418,66.895
1532392083.475,-2.930,26.855,12.695,44.434,59.570
1532392083.479,15.137,24.414,7.324,28.809,32.715
1532392083.483,9.766,20.508,9.277,1.465,37.598
1532392083.486,-3.418,20.020,17.090,23.438,70.801
1532392083.490,-2.441,18.555,14.648,36.133,80.078
1532392083.494,9.277,20.020,9.277,30.762,64.453
1532392083.498,7.324,23.438,12.207,15.137,61.523
1532392083.502,1.953,22.949,19.043,13.184,58.594
1532392083.506,0.488,22.461,19.531,20.020,32.227
1532392083.510,3.906,21.484,16.602,28.320,20.508
1532392083.514,13.672,22.949,19.531,34.180,44.922
1532392083.518,26.367,26.367,18.555,38.086,58.594
1532392083.522,34.668,25.879,15.137,41.504,31.250
1532392083.526,26.367,21.484,15.137,33.691,13.184
1532392083.529,11.230,21.484,12.207,15.625,27.344
1532392083.533,18.066,20.996,14.648,15.137,50.293
1532392083.537,24.902,21.973,15.625,39.062,81.055
1532392083.541,22.461,22.461,18.066,40.527,77.148
1532392083.545,20.996,22.461,18.555,30.273,46.387
1532392083.549,6.836,20.020,16.602,25.879,40.039
1532392083.553,7.812,18.066,18.555,45.898,35.156
1532392083.557,20.996,22.949,20.020,38.574,37.109
1532392083.561,25.879,24.902,20.020,20.020,33.691
1532392083.565,22.461,25.879,18.066,20.020,41.992
1532392083.568,33.203,29.785,12.695,21.973,63.477
1532392083.572,22.461,27.832,12.207,13.672,55.664
1532392083.576,27.344,22.461,15.137,24.414,41.016
1532392083.580,17.578,22.461,18.066,32.715,33.203
1532392083.584,-0.977,21.484,17.090,16.602,31.738
1532392083.588,28.809,25.879,12.207,21.484,45.898
1532392083.592,25.391,24.414,18.555,16.113,27.344
1532392083.596,-2.930,17.090,18.555,11.719,27.344
1532392083.600,14.648,20.996,15.137,32.227,70.312
1532392083.604,29.785,28.320,17.578,60.547,71.289
1532392083.608,32.715,25.879,15.137,45.898,29.785
1532392083.611,18.066,21.484,17.578,8.789,39.551
1532392083.615,17.090,25.879,15.625,23.926,51.758
1532392083.619,25.391,22.461,19.531,30.273,56.152
1532392083.623,17.578,23.926,21.973,21.484,43.945
1532392083.627,31.738,28.320,18.066,26.367,28.320
1532392083.631,24.902,28.809,18.555,12.695,51.270
1532392083.635,7.812,28.809,20.020,42.969,70.801
1532392083.639,8.301,28.320,15.137,54.688,60.059
1532392083.643,9.766,25.391,9.766,-7.812,36.621
1532392083.647,9.766,22.949,13.672,-4.883,66.895
1532392083.651,0.488,21.484,16.602,28.809,91.309
1532392083.654,10.742,22.949,18.555,33.691,80.078
1532392083.658,9.766,24.414,12.207,14.648,43.945
1532392083.662,-3.906,23.926,7.324,6.348,30.273
1532392083.666,-6.348,23.438,10.254,20.508,74.707
1532392083.670,6.348,23.438,12.207,34.668,93.750
1532392083.674,5.859,23.438,15.137,20.996,83.496
1532392083.678,6.348,21.973,12.695,8.789,52.246
1532392083.682,23.926,19.043,14.648,23.926,39.551
1532392083.686,23.926,21.973,16.602,27.344,48.340
1532392083.690,7.324,24.902,12.207,22.461,59.570
1532392083.693,6.348,21.484,11.230,20.508,54.688
1532392083.697,8.789,20.996,12.695,20.020,48.828
1532392083.701,12.695,22.461,9.766,24.414,65.918
1532392083.705,17.090,27.344,0.000,26.855,72.266
1532392083.709,24.902,22.949,8.789,41.992,25.391
1532392083.713,11.230,12.207,23.438,34.180,9.277
1532392083.717,-7.812,8.789,22.461,19.043,52.734
1532392083.721,8.301,9.277,20.508,33.203,46.875
1532392083.725,8.301,8.789,26.855,32.227,13.184
1532392083.729,3.418,11.719,26.367,15.137,23.438
1532392083.733,15.137,11.719,26.367,23.438,39.551
1532392083.736,3.418,7.324,30.762,28.809,66.895
1532392083.740,1.465,9.277,29.297,28.809,44.434
1532392083.744,13.672,13.672,26.367,37.598,5.859
1532392083.748,9.277,17.090,24.902,22.461,8.301
1532392083.752,18.555,20.508,21.973,8.301,41.992
1532392083.756,38.086,16.602,24.902,15.625,65.430
1532392083.760,24.414,16.113,27.344,34.668,0.977
1532392083.764,20.020,22.461,20.996,27.832,-28.320
1532392083.768,41.992,27.832,16.113,19.043,22.461
1532392083.772,29.297,20.508,24.414,41.992,12.207
1532392083.776,7.812,13.184,29.785,55.176,-5.371
1532392083.779,14.160,16.602,22.949,52.246,19.043
1532392083.783,22.949,16.602,21.484,44.922,16.113
1532392083.787,11.230,18.066,20.996,20.996,51.758
1532392083.791,20.996,16.113,21.973,39.551,39.062
1532392083.795,31.738,13.184,29.297,54.688,13.184
1532392083.799,19.043,16.113,25.879,13.672,22.949
1532392083.803,6.348,24.414,17.090,14.160,9.277
1532392083.807,16.113,22.949,20.020,30.762,8.789
1532392083.811,15.625,17.578,21.484,22.461,-5.371
1532392083.815,-3.906,20.996,12.695,22.461,5.859
1532392083.818,20.508,24.902,11.230,21.484,29.297
1532392083.822,33.691,22.461,16.602,37.598,24.902
1532392083.826,16.602,19.531,17.090,28.809,21.484
1532392083.830,15.137,17.578,18.555,4.395,14.648
1532392083.834,24.902,18.555,17.578,20.996,28.320
1532392083.838,29.297,23.926,8.789,23.926,28.320
1532392083.842,12.207,26.367,7.812,13.184,-6.836
1532392083.846,5.859,24.414,15.137,33.203,-17.578
1532392083.850,24.414,22.461,17.578,46.387,4.883
1532392083.854,37.598,20.996,16.113,24.902,28.809
1532392083.858,28.320,19.043,17.578,13.672,11.719
1532392083.861,15.137,19.043,19.043,41.504,-27.832
1532392083.865,24.414,19.043,14.648,31.738,-13.184
1532392083.869,25.879,20.996,14.160,-4.883,8.789
1532392083.873,20.020,24.414,18.555,32.715,-0.488
1532392083.877,16.113,25.391,17.578,42.480,-14.160
1532392083.881,23.926,26.855,11.230,1.465,-16.113
1532392083.885,29.785,25.391,13.184,19.531,-5.371
1532392083.889,18.066,22.461,18.066,27.344,-2.930
1532392083.893,24.414,22.949,17.090,36.621,-28.809
1532392083.897,20.508,20.508,19.043,47.363,-27.344
1532392083.900,21.973,21.973,17.578,6.836,-2.441
1532392083.904,36.133,28.320,12.695,17.578,-0.977
1532392083.908,30.273,28.809,16.602,33.203,-21.484
1532392083.912,31.738,22.461,20.996,38.086,-58.105
1532392083.916,25.391,20.020,18.555,36.133,-38.574
1532392083.920,25.391,21.484,14.160,16.113,-20.508
1532392083.924,15.625,24.902,13.184,14.648,-49.805
1532392083.928,4.395,23.926,14.160,28.809,-47.363
1532392083.932,6.836,20.020,14.648,35.645,-22.461
1532392083.936,16.113,20.996,17.578,16.113,-8.301
1532392083.940,44.922,23.438,18.066,43.457,-41.016
1532392083.943,45.410,25.391,13.672,62.500,-71.289
1532392083.947,24.414,33.691,1.953,24.414,-46.387
1532392083.951,19.531,38.574,-2.930,1.465,-19.531
1532392083.955,13.184,31.738,3.418,20.996,-5.371
1532392083.959,10.254,27.344,6.836,19.043,-33.203
1532392083.963,3.418,26.855,10.254,37.598,-30.273
1532392083.967,-12.695,22.949,7.324,21.484,-25.879
1532392083.971,-0.488,20.020,4.395,3.418,-27.344
1532392083.975,5.371,20.508,3.906,15.625,-21.973
1532392083.979,-2.930,19.043,6.836,9.766,-42.480
1532392083.983,4.883,22.461,7.812,20.996,-16.113
1532392083.986,4.395,28.809,-2.441,9.277,28.320
1532392083.990,2.441,31.250,-4.395,3.418,25.391
1532392083.994,7.324,28.320,3.418,15.625,14.160
1532392083.998,8.301,21.484,6.836,10.742,16.113
1532392084.002,27.832,23.926,7.324,13.184,2.441
1532392084.006,15.625,29.297,4.395,13.184,-11.230
1532392084.010,0.977,24.414,6.836,10.742,-1.465
1532392084.014,19.531,24.902,8.789,30.762,-1.465
1532392084.018,13.672,27.832,3.906,10.742,15.137
1532392084.022,29.297,31.250,2.930,-8.789,40.527
1532392084.025,48.828,31.738,6.348,14.648,16.113
1532392084.029,20.020,27.832,6.836,17.090,9.766
1532392084.033,-0.488,25.879,5.371,13.672,10.742
1532392084.037,23.926,23.438,12.207,49.316,5.859
1532392084.041,17.578,19.043,11.719,28.809,-23.926
1532392084.045,-7.324,20.020,7.812,-7.324,-29.297
1532392084.049,11.230,24.902,8.301,28.809,23.438
1532392084.053,19.531,24.414,9.766,59.570,47.852
1532392084.057,10.742,25.879,7.812,20.020,27.344
1532392084.061,10.742,24.902,7.324,2.441,-18.555
1532392084.065,7.324,22.461,9.766,35.156,-17.578
1532392084.068,2.441,22.949,8.301,30.762,7.812
1532392084.072,21.484,25.879,8.789,21.973,18.555
1532392084.076,23.926,27.344,11.230,59.082,-9.277
1532392084.080,6.836,25.391,12.207,26.855,-49.316
1532392084.084,4.395,25.879,9.766,-28.809,-25.391
1532392084.088,3.906,23.438,14.160,10.742,36.133
1532392084.092,-11.230,25.391,13.184,21.484,20.020
1532392084.096,-4.883,23.438,13.672,25.391,-12.207
1532392084.100,25.879,21.973,16.602,22.461,-16.602
1532392084.104,17.090,25.879,11.719,3.906,13.184
1532392084.108,-0.488,21.484,15.625,9.766,8.301
1532392084.111,5.371,22.461,17.578,21.973,-22.949
1532392084.115,17.578,26.855,13.184,34.668,6.348
1532392084.119,5.859,27.832,12.207,0.488,13.672
1532392084.123,10.742,27.832,11.230,4.883,-3.418
1532392084.127,24.902,26.367,12.695,25.391,-35.645
1532392084.131,11.230,25.879,14.160,15.625,-33.691
1532392084.135,5.371,25.391,13.184,21.973,42.480
1532392084.139,0.488,27.344,10.742,13.672,32.715
1532392084.143,5.859,25.391,13.184,20.508,-23.926
1532392084.147,5.859,22.461,13.672,4.883,-16.113
1532392084.150,3.418,24.902,12.207,-2.441,6.836
1532392084.154,10.742,21.973,17.578,27.344,30.762
1532392084.158,-3.418,19.043,18.555,20.508,10.254
1532392084.162,-2.930,18.555,13.184,6.348,-9.277
1532392084.166,3.906,20.996,10.254,4.395,15.625
1532392084.170,8.789,23.438,13.672,8.301,32.715
1532392084.174,16.113,20.996,16.602,6.836,19.531
1532392084.178,16.113,20.508,15.137,13.672,3.906
1532392084.182,13.184,24.414,16.113,19.531,-31.250
1532392084.186,21.973,24.902,15.137,2.930,5.371
1532392084.190,26.855,21.484,17.578,19.531,60.059
1532392084.193,19.531,21.484,16.602,17.090,20.020
1532392084.197,25.391,27.344,12.207,-3.418,15.625
1532392084.201,20.508,25.391,14.648,-3.906,32.715
1532392084.205,12.695,21.973,14.648,5.371,49.805
1532392084.209,11.719,25.391,12.695,18.555,37.598
1532392084.213,34.180,28.809,11.719,7.324,22.461
1532392084.217,52.734,31.738,13.184,30.762,22.949
1532392084.221,25.391,32.227,14.160,20.996,13.184
1532392084.225,11.719,31.738,11.230,-7.324,4.883
1532392084.229,21.973,28.809,14.648,0.977,38.086
1532392084.232,36.133,29.297,17.578,11.719,51.758
1532392084.236,39.062,29.785,18.555,20.996,66.895
1532392084.240,21.484,26.367,19.531,-1.953,53.223
1532392084.244,14.160,24.902,17.090,-3.906,16.113
1532392084.248,19.531,24.902,19.531,15.625,32.715
1532392084.252,27.344,26.855,20.508,36.133,78.613
1532392084.256,21.973,28.809,21.973,7.812,60.059
1532392084.260,8.301,30.762,23.438,5.371,22.461
1532392084.264,8.789,29.297,21.484,11.719,20.508
1532392084.268,14.648,26.855,20.996,-4.395,49.805
1532392084.272,18.555,27.344,17.578,6.348,59.082
1532392084.275,30.273,27.344,18.555,38.086,20.020
1532392084.279,14.160,25.391,20.020,42.480,-3.418
1532392084.283,15.625,21.484,20.020,24.414,-4.883
1532392084.287,33.691,29.297,16.602,-13.184,42.480
1532392084.291,3.906,34.180,17.090,-8.301,33.691
1532392084.295,6.836,33.203,12.695,12.207,11.230
1532392084.299,43.945,32.715,10.742,13.672,12.207
1532392084.303,41.504,26.367,20.020,28.320,43.945
1532392084.307,27.344,22.461,19.531,28.320,38.086
1532392084.311,6.836,24.414,16.113,11.230,-3.418
1532392084.315,19.043,25.879,14.160,6.348,13.672
1532392084.318,26.855,27.344,14.648,12.207,39.062
1532392084.322,5.371,29.785,13.184,7.812,27.344
1532392084.326,3.906,26.367,14.160,17.578,36.133
1532392084.330,20.020,22.461,18.066,52.246,38.086
1532392084.334,28.320,25.879,14.160,29.297,39.062
1532392084.338,23.926,28.809,14.160,-2.930,44.922
1532392084.342,39.551,30.762,13.672,23.438,-6.348
1532392084.346,35.645,25.879,14.160,17.578,-18.066
1532392084.350,33.203,24.414,16.113,41.504,43.457
1532392084.354,42.969,21.973,20.020,44.922,64.941
1532392084.357,21.484,21.484,17.578,2.930,26.367
1532392084.361,8.789,26.855,11.230,-4.883,-7.812
1532392084.365,26.367,28.320,18.066,13.184,24.902
1532392084.369,43.457,35.156,19.531,33.691,28.809
1532392084.373,32.715,36.621,19.531,62.012,4.395
1532392084.377,19.043,31.250,21.973,23.926,14.648
1532392084.381,37.109,29.297,24.902,7.812,8.301
1532392084.385,38.086,28.809,22.949,44.922,11.719
1532392084.389,36.621,27.344,20.508,36.133,40.039
1532392084.393,30.762,28.320,20.508,31.250,7.324
1532392084.397,25.879,27.832,19.043,15.137,3.906
1532392084.400,24.902,25.391,19.531,15.137,11.230
1532392084.404,25.391,26.367,20.996,27.832,-5.371
1532392084.408,27.344,28.320,22.461,32.715,-3.906
1532392084.412,25.391,27.344,21.973,28.320,0.977
1532392084.416,17.578,25.391,20.508,34.668,2.441
1532392084.420,16.602,23.926,20.508,18.555,-10.254
1532392084.424,12.695,22.949,21.973,4.395,-10.254
1532392084.428,12.695,22.461,20.996,26.367,22.461
1532392084.432,25.879,25.879,19.531,20.020,40.039
1532392084.436,15.625,25.879,17.578,36.621,51.758
1532392084.439,33.203,23.438,18.066,24.902,34.668
1532392084.443,32.227,22.461,19.531,-8.789,0.488
1532392084.447,14.648,21.973,19.531,20.996,21.973
1532392084.451,18.555,23.926,19.043,61.035,38.574
1532392084.455,15.137,26.855,16.602,41.992,40.039
1532392084.459,22.949,27.832,14.160,-2.930,20.508
1532392084.463,20.996,26.855,16.113,13.184,-14.648
1532392084.467,15.625,22.461,18.066,20.996,4.883
1532392084.471,19.043,21.973,17.578,15.625,29.297
1532392084.475,10.742,24.414,14.648,20.508,19.043
1532392084.479,6.348,25.391,15.625,31.250,-7.324
1532392084.482,18.555,26.855,15.625,20.996,-3.418
1532392084.486,26.855,29.297,15.625,13.672,36.621
1532392084.490,33.203,34.180,13.672,43.945,23.438
1532392084.494,31.250,35.645,13.672,58.105,5.859
1532392084.498,17.578,27.344,18.066,10.254,25.391
1532392084.502,16.113,24.414,20.020,15.137,24.902
1532392084.506,25.879,27.832,16.602,22.461,25.879
1532392084.510,27.832,27.344,17.578,32.715,17.578
1532392084.514,31.250,24.902,20.508,42.480,21.484
1532392084.518,30.273,29.297,18.555,17.090,31.250
1532392084.522,12.207,27.832,21.484,24.414,33.203
1532392084.525,17.578,24.902,20.996,37.109,32.715
1532392084.529,11.719,26.855,18.555,37.109,2.930
1532392084.533,30.762,29.297,17.578,35.156,24.414
1532392084.537,31.250,27.344,15.137,24.902,63.965
1532392084.541,5.371,25.391,16.602,24.414,27.832
1532392084.545,11.719,27.832,16.113,34.180,23.438
1532392084.549,18.066,26.367,17.578,38.086,16.113
1532392084.553,23.926,22.949,17.578,32.715,40.039
1532392084.557,32.227,20.508,18.066,31.738,95.215
1532392084.561,13.672,21.973,17.578,15.137,44.922
1532392084.564,3.906,26.367,14.160,20.996,13.184
1532392084.568,16.113,28.809,14.648,25.879,41.016
1532392084.572,7.812,28.809,12.695,6.836,50.781
1532392084.576,5.371,24.902,13.184,6.348,23.438
1532392084.580,27.832,23.438,14.648,10.254,8.789
1532392084.584,16.113,23.926,17.578,28.809,28.809
1532392084.588,-11.719,24.902,19.531,17.090,44.434
1532392084.592,8.789,24.902,17.090,20.508,13.672
1532392084.596,19.531,22.949,19.043,20.020,34.668
1532392084.600,10.742,24.414,21.484,6.836,23.926
1532392084.604,12.695,24.902,20.020,38.086,-9.277
1532392084.607,17.578,26.855,12.695,34.668,35.645
1532392084.611,20.996,24.414,14.648,16.602,41.016
1532392084.615,15.137,21.484,20.996,26.367,48.340
1532392084.619,10.742,21.973,17.090,18.555,67.383
1532392084.623,15.137,23.438,14.648,14.160,82.520
1532392084.627,25.879,26.367,15.625,17.578,46.387
1532392084.631,15.625,25.879,19.043,38.086,25.879
1532392084.635,18.066,24.902,20.020,42.480,66.895
1532392084.639,16.113,27.344,17.090,-20.996,60.547
1532392084.643,0.488,23.926,18.066,-17.090,-7.324
1532392084.647,-3.418,20.508,18.066,34.668,-17.578
1532392084.650,1.953,22.461,15.137,21.484,33.203
1532392084.654,19.043,23.438,16.113,12.695,80.078
1532392084.658,40.527,27.832,17.578,21.973,79.102
1532392084.662,35.645,31.250,12.695,21.484,39.551
1532392084.666,16.602,28.809,11.719,6.348,44.922
1532392084.670,22.949,22.461,14.160,7.324,58.594
1532392084.674,30.273,24.902,11.230,31.250,54.199
1532392084.678,19.531,28.320,9.277,12.695,20.020
1532392084.682,2.441,22.949,13.672,11.719,35.645
1532392084.686,6.836,21.973,17.090,34.180,42.480
1532392084.689,6.836,25.391,10.742,30.762,40.039
1532392084.693,3.418,24.902,10.742,22.461,21.484
1532392084.697,7.812,26.367,15.137,33.691,17.578
1532392084.701,-6.348,25.391,19.043,18.066,16.113
1532392084.705,-14.160,20.996,19.531,15.137,19.531
1532392084.709,-14.160,22.949,12.695,33.691,47.363
1532392084.713,-0.488,23.926,9.277,0.977,32.227
1532392084.717,5.371,20.508,13.672,-1.953,45.410
1532392084.721,-6.836,19.531,18.555,30.273,28.809
1532392084.725,1.953,16.602,17.578,30.273,18.066
1532392084.729,11.719,19.043,14.648,2.441,28.320
1532392084.732,8.301,24.902,15.137,21.484,-5.371
1532392084.736,9.766,27.344,13.184,55.176,21.973
1532392084.740,5.859,26.855,14.648,22.949,34.180
1532392084.744,4.395,23.438,16.113,-1.465,-17.578
1532392084.748,7.324,20.996,17.578,35.156,4.883
1532392084.752,8.789,25.879,16.602,29.785,22.949
1532392084.756,4.883,25.879,12.695,13.184,21.973
1532392084.760,14.648,24.414,15.137,6.836,10.742
1532392084.764,14.160,25.391,14.648,34.180,7.812
1532392084.768,0.488,26.855,12.695,45.410,29.297
1532392084.771,3.418,25.879,14.160,-17.090,43.945
1532392084.775,10.254,20.508,15.625,-1.953,44.434
1532392084.779,31.250,24.902,14.160,23.438,7.812
1532392084.783,21.973,21.973,16.602,33.691,19.043
1532392084.787,13.184,21.484,17.090,34.180,48.828
1532392084.791,12.695,27.832,13.184,24.414,39.062
1532392084.795,12.207,26.367,16.113,36.133,21.973
1532392084.799,22.461,20.996,21.484,26.367,11.719
1532392084.803,29.785,24.414,22.461,35.156,41.016
1532392084.807,14.160,27.832,17.090,20.020,48.828
1532392084.811,-5.371,26.367,16.602,8.301,20.996
1532392084.814,3.418,22.461,21.973,52.246,27.832
1532392084.818,10.254,26.855,16.113,3.418,44.434
1532392084.822,14.160,30.762,11.719,-25.879,19.531
1532392084.826,24.902,24.414,16.602,23.438,-11.719
1532392084.830,20.996,24.902,14.648,38.574,-5.371
1532392084.834,16.602,25.879,15.137,30.273,13.184
1532392084.838,19.531,26.367,13.184,6.348,45.410
1532392084.842,17.578,27.832,15.137,15.625,21.973
1532392084.846,26.367,26.855,20.996,33.203,-1.953
1532392084.850,29.785,25.391,22.461,40.527,16.113
1532392084.854,29.297,23.438,21.973,35.645,36.621
1532392084.857,35.156,22.461,22.461,26.855,47.363
1532392084.861,29.785,30.762,13.672,14.648,-8.301
1532392084.865,33.203,33.203,11.230,13.184,-14.160
1532392084.869,38.086,26.367,18.555,36.621,26.855
1532392084.873,18.555,26.855,16.602,18.555,12.695
1532392084.877,9.277,26.855,19.531,27.832,-27.832
1532392084.881,19.531,25.391,20.020,49.805,-18.555
1532392084.885,12.695,23.926,17.090,6.348,22.949
1532392084.889,16.602,25.391,18.555,14.160,38.574
1532392084.893,24.414,32.715,15.137,30.273,30.273
1532392084.896,3.418,31.250,15.625,29.785,5.859
1532392084.900,0.000,26.855,19.531,21.973,-5.371
1532392084.904,16.602,25.879,18.555,16.602,6.836
1532392084.908,28.320,22.949,16.602,33.203,9.277
1532392084.912,32.715,24.902,16.113,33.691,-13.672
1532392084.916,28.809,28.320,14.648,21.973,3.418
1532392084.920,21.484,21.973,16.602,23.438,40.039
1532392084.924,11.230,25.879,15.625,21.973,69.336
1532392084.928,10.254,27.832,17.090,17.578,25.391
1532392084.932,3.418,22.949,21.973,16.113,6.348
1532392084.936,-1.465,21.484,23.926,35.156,41.016
1532392084.939,13.184,24.414,22.461,29.785,67.383
1532392084.943,13.672,33.203,12.695,-1.465,20.508
1532392084.947,23.926,32.715,9.277,8.301,-9.277
1532392084.951,32.227,36.133,9.766,21.973,25.391
1532392084.955,6.836,35.645,12.207,20.508,47.363
1532392084.959,9.766,33.203,8.789,23.438,49.805
1532392084.963,12.695,34.668,7.812,13.672,60.547
1532392084.967,-6.348,29.785,15.137,1.953,70.312
1532392084.971,0.977,26.855,11.230,12.695,73.242
1532392084.975,8.301,27.832,11.719,21.973,89.355
1532392084.979,0.000,30.273,15.625,12.695,50.293
1532392084.982,5.371,29.297,17.090,19.531,9.766
1532392084.986,3.906,29.785,18.066,27.832,30.762
1532392084.990,10.742,32.227,14.648,26.367,57.617
1532392084.994,9.277,33.203,8.789,31.250,31.738
1532392084.998,13.672,32.227,12.695,19.043,-1.465
1532392085.002,33.691,31.250,17.578,6.348,8.301
1532392085.006,14.160,27.344,22.461,30.762,21.484
1532392085.010,9.766,22.949,26.367,38.086,0.977
1532392085.014,21.484,27.832,19.043,32.227,13.184
1532392085.018,28.809,32.227,16.602,30.762,36.621
1532392085.021,28.320,31.738,21.973,17.578,37.109
1532392085.025,10.254,29.785,23.438,30.762,20.508
1532392085.029,22.949,29.297,20.996,54.688,0.977
1532392085.033,36.133,30.273,20.508,40.527,20.508
1532392085.037,27.344,33.203,17.578,19.043,35.645
1532392085.041,25.879,33.203,18.066,12.207,18.555
1532392085.045,27.344,27.832,21.973,42.969,22.949
1532392085.049,23.926,33.203,21.973,62.988,35.645
1532392085.053,27.344,33.691,18.066,20.508,62.012
1532392085.057,39.062,28.320,20.020,24.414,75.684
1532392085.061,28.809,27.832,21.484,39.551,0.977
1532392085.064,31.738,26.855,19.043,36.133,-19.043
1532392085.068,33.203,27.344,19.043,49.805,43.457
1532392085.072,19.043,25.879,19.531,43.945,65.430
1532392085.076,21.484,26.367,17.090,20.996,40.527
1532392085.080,15.625,20.996,20.508,16.602,2.441
1532392085.084,19.043,21.484,21.973,23.926,-2.930
1532392085.088,33.203,29.297,17.578,22.949,42.480
1532392085.092,7.812,29.297,19.043,9.277,41.992
1532392085.096,-3.418,29.785,18.066,16.602,17.578
1532392085.100,14.160,28.320,15.625,29.297,16.113
1532392085.103,25.391,22.949,18.066,21.973,49.316
1532392085.107,25.879,22.461,17.578,19.043,75.684
1532392085.111,19.531,26.367,15.137,25.391,44.434
1532392085.115,15.625,24.414,17.090,14.160,31.250
1532392085.119,20.020,20.020,24.902,31.250,38.086
1532392085.123,33.203,21.484,24.902,34.180,75.684
1532392085.127,24.414,23.438,22.461,37.109,62.988
1532392085.131,13.184,23.926,21.484,19.531,38.086
1532392085.135,14.648,25.879,18.555,14.160,64.453
1532392085.139,18.066,23.926,23.926,34.668,68.848
1532392085.143,31.738,20.020,30.273,18.555,5.371
1532392085.146,21.484,23.926,25.391,21.973,-13.184
1532392085.150,12.695,28.320,18.066,15.625,21.484
1532392085.154,20.020,25.391,19.531,25.879,55.176
1532392085.158,32.227,23.926,20.020,23.438,61.523
1532392085.162,39.062,23.438,20.996,38.574,9.277
1532392085.166,32.715,22.949,20.020,40.527,27.344
1532392085.170,20.996,25.879,18.555,8.301,53.711
1532392085.174,6.348,21.973,22.949,34.180,64.453
1532392085.178,8.301,19.043,25.391,24.902,41.992
1532392085.182,15.625,24.414,23.926,13.672,-16.602
1532392085.186,25.879,26.855,21.484,48.828,10.742
1532392085.189,40.527,26.855,19.531,27.832,53.223
1532392085.193,21.484,23.926,17.578,2.930,31.738
1532392085.197,0.000,19.531,21.973,27.832,38.574
1532392085.201,12.207,16.113,28.320,38.574,29.297
1532392085.205,19.531,17.090,27.344,18.066,56.152
1532392085.209,19.531,22.949,21.973,25.879,60.547
1532392085.213,21.484,29.297,20.508,31.250,-3.418
1532392085.217,21.973,28.809,19.043,31.250,21.973
1532392085.221,23.438,25.391,18.555,30.762,41.992
1532392085.225,18.555,23.438,21.484,32.715,20.508
1532392085.228,21.973,23.926,22.461,42.969,8.789
1532392085.232,13.184,27.344,18.066,26.855,26.367
1532392085.236,7.324,25.391,19.531,22.461,58.594
1532392085.240,20.996,23.926,22.949,23.926,33.203
1532392085.244,32.227,25.391,18.555,14.648,-24.902
1532392085.248,13.184,24.414,18.555,24.414,-24.902
1532392085.252,8.789,26.367,20.020,42.969,11.230
1532392085.256,26.367,26.855,16.602,24.414,38.574
1532392085.260,24.414,25.879,14.160,-1.953,-19.531
1532392085.264,7.324,27.344,15.625,21.973,-42.480
1532392085.268,25.879,30.273,14.648,28.320,24.414
1532392085.271,46.875,25.879,16.113,24.902,19.531
1532392085.275,23.438,27.832,13.672,34.180,33.691
1532392085.279,18.066,29.785,15.137,11.719,21.973
1532392085.283,13.672,21.484,21.973,21.973,-5.371
1532392085.287,12.207,20.020,21.973,45.410,12.695
1532392085.291,26.367,25.391,17.578,38.574,21.973
1532392085.295,31.250,33.203,9.277,15.625,11.719
1532392085.299,34.668,31.250,11.230,27.344,-18.555
1532392085.303,36.133,21.973,24.414,37.598,-14.160
1532392085.307,25.879,17.578,27.344,19.043,20.020
1532392085.310,7.812,16.113,29.297,47.852,-2.441
1532392085.314,9.766,17.578,29.785,52.246,15.625
1532392085.318,26.855,23.438,22.461,-5.371,13.672
1532392085.322,29.297,23.438,21.484,8.301,10.742
1532392085.326,38.574,23.438,19.531,31.738,16.602
1532392085.330,41.504,24.902,19.531,26.367,22.461
1532392085.334,22.949,21.973,21.484,19.043,24.414
1532392085.338,20.020,21.973,23.926,43.945,17.578
1532392085.342,33.691,21.484,25.879,48.828,20.508
1532392085.346,12.207,16.602,26.367,27.344,21.484
1532392085.350,-0.977,17.578,24.902,39.062,34.180
1532392085.353,21.484,18.555,24.414,44.434,72.754
1532392085.357,20.020,19.531,24.414,44.434,46.875
1532392085.361,-5.859,19.531,25.391,56.152,-31.250
1532392085.365,-3.418,20.508,21.484,38.086,11.230
1532392085.369,9.277,23.438,20.020,17.578,53.223
1532392085.373,15.625,20.996,24.414,31.738,46.387
1532392085.377,14.648,22.461,22.461,35.156,20.996
1532392085.381,20.020,25.391,19.531,40.527,22.461
1532392085.385,34.180,23.926,20.508,50.781,34.668
1532392085.389,11.719,26.855,14.160,20.996,35.645
1532392085.393,1.953,30.273,13.672,23.926,15.625
1532392085.396,30.762,30.273,15.625,36.621,-21.484
1532392085.400,23.926,26.855,13.672,6.348,-3.418
1532392085.404,14.160,27.832,16.113,16.602,10.254
1532392085.408,22.949,28.809,17.578,34.668,11.719
1532392085.412,9.277,23.926,17.578,21.484,22.949
1532392085.416,10.254,23.438,16.602,18.066,37.109
1532392085.420,23.926,28.320,19.043,31.250,17.090
1532392085.424,20.508,31.250,19.531,54.199,-2.441
1532392085.428,24.414,27.344,19.531,30.273,-27.344
1532392085.432,25.391,26.855,19.043,25.391,-18.066
1532392085.435,20.508,30.273,19.531,49.805,24.414
1532392085.439,26.367,31.738,17.578,38.574,38.086
1532392085.443,28.809,31.738,14.648,14.648,-12.207
1532392085.447,37.598,28.320,16.602,30.273,2.930
1532392085.451,23.926,20.996,23.926,48.828,28.320
1532392085.455,0.000,20.996,24.902,42.969,38.574
1532392085.459,6.836,24.414,17.090,37.109,26.367
1532392085.463,37.598,26.855,14.160,20.508,-0.488
1532392085.467,37.598,28.809,15.625,19.043,34.668
1532392085.471,19.531,23.438,19.531,38.574,68.359
1532392085.475,28.320,22.949,21.484,35.645,60.547
1532392085.478,31.738,25.879,18.555,30.273,-3.418
1532392085.482,34.668,31.738,12.695,39.062,13.184
1532392085.486,26.367,31.250,15.625,37.109,74.707
1532392085.490,22.949,28.320,17.578,32.715,57.129
1532392085.494,20.996,30.273,15.137,49.805,27.344
1532392085.498,24.414,24.902,23.926,41.504,17.090
1532392085.502,30.273,22.461,22.949,47.852,-1.465
1532392085.506,20.508,27.344,13.184,49.805,34.180
1532392085.510,14.160,29.297,12.695,16.113,50.781
1532392085.514,0.977,27.832,15.625,34.180,11.230
1532392085.518,14.648,31.250,13.672,14.648,-9.277
1532392085.521,28.320,29.297,15.625,23.926,22.949
1532392085.525,39.551,26.855,17.578,40.039,51.758
1532392085.529,35.645,29.297,10.254,19.043,16.113
1532392085.533,8.789,27.832,11.719,21.973,31.738
1532392085.537,24.414,25.391,14.160,31.250,42.480
1532392085.541,19.043,23.438,12.207,42.480,10.742
1532392085.545,-4.395,24.414,10.742,37.598,7.812
1532392085.549,12.695,26.367,11.719,14.160,42.969
1532392085.553,27.832,27.344,13.184,20.996,64.453
1532392085.557,12.207,25.391,16.113,56.641,53.223
1532392085.560,-4.395,23.438,16.602,15.137,34.668
1532392085.564,16.113,22.949,14.648,11.719,44.434
1532392085.568,27.832,17.578,21.973,52.246,60.547
1532392085.572,9.766,22.461,19.043,31.738,64.941
1532392085.576,13.184,25.391,15.625,38.574,37.598
1532392085.580,15.137,23.438,20.020,43.457,-7.324
1532392085.584,16.113,25.879,19.043,23.438,7.812
1532392085.588,18.555,26.855,17.090,28.320,66.406
1532392085.592,16.602,23.926,18.066,28.320,71.777
1532392085.596,22.461,23.438,18.066,10.254,41.992
1532392085.600,13.672,24.414,22.461,43.457,32.715
1532392085.603,13.672,26.367,19.043,38.574,44.922
1532392085.607,-0.977,26.367,14.648,27.832,63.477
1532392085.611,3.906,22.949,17.090,38.086,50.293
1532392085.615,24.902,23.926,13.672,22.949,47.852
1532392085.619,12.695,22.461,19.043,36.133,65.430
1532392085.623,5.859,18.066,20.020,51.758,61.523
1532392085.627,5.371,22.949,16.113,56.641,12.207
1532392085.631,22.461,29.785,16.113,34.180,21.484
1532392085.635,29.297,31.250,15.625,24.902,55.664
1532392085.639,10.742,28.320,20.508,40.527,39.551
1532392085.642,11.230,26.855,23.438,32.715,12.207
1532392085.646,10.742,29.785,21.973,48.828,24.902
1532392085.650,0.977,27.832,19.531,38.574,56.641
1532392085.654,14.160,23.926,24.902,40.039,64.453
1532392085.658,40.039,25.391,22.461,49.316,42.969
1532392085.662,19.531,32.227,15.625,26.855,32.715
1532392085.666,7.812,35.645,18.066,46.387,54.199
1532392085.670,26.855,33.691,16.602,38.086,55.664
1532392085.674,10.742,32.715,18.555,32.227,71.289
1532392085.678,10.742,29.297,18.066,41.016,45.410
1532392085.682,28.320,31.738,14.648,41.016,21.973
1532392085.685,17.090,30.762,18.066,41.504,54.688
1532392085.689,11.230,24.902,19.043,27.832,84.473
1532392085.693,19.531,30.273,15.137,20.508,66.406
1532392085.697,19.531,34.180,14.160,22.461,35.156
1532392085.701,19.043,32.227,15.137,20.508,24.414
1532392085.705,27.832,32.715,14.648,20.020,66.406
1532392085.709,15.137,32.227,12.695,41.504,90.332
1532392085.713,-1.465,29.297,15.625,73.730,30.273
1532392085.717,3.418,27.344,16.602,20.020,25.391
1532392085.721,19.531,26.367,17.090,-3.906,63.477
1532392085.725,38.086,32.227,18.066,44.434,63.477
1532392085.728,23.438,33.203,16.602,52.246,16.602
1532392085.732,25.879,23.926,23.438,46.387,19.043
1532392085.736,26.367,23.926,19.531,44.434,26.367
1532392085.740,20.996,25.391,15.625,41.992,11.719
1532392085.744,20.996,26.855,19.531,23.438,-9.766
1532392085.748,33.203,32.715,16.113,33.691,-2.930
1532392085.752,14.648,30.762,15.625,61.523,21.973
1532392085.756,6.348,26.367,14.160,33.691,36.133
1532392085.760,26.855,25.391,17.578,0.977,19.531
1532392085.764,12.695,22.461,23.438,24.902,6.836
1532392085.767,30.273,19.043,26.367,54.199,24.414
1532392085.771,37.598,24.902,24.414,47.363,53.223
1532392085.775,6.348,24.414,21.973,41.504,44.922
1532392085.779,-9.766,20.508,24.414,28.809,-2.441
1532392085.783,-1.953,24.414,20.996,27.832,27.344
1532392085.787,25.879,24.414,18.066,44.922,75.195
1532392085.791,27.344,25.391,18.555,43.457,62.500
1532392085.795,-3.418,25.391,16.602,12.695,43.457
1532392085.799,1.465,18.555,21.484,20.996,39.062
1532392085.803,9.277,18.066,25.391,52.734,38.086
1532392085.807,20.508,25.391,19.531,33.203,45.898
1532392085.810,21.484,20.996,23.438,51.270,10.254
1532392085.814,20.508,17.578,25.879,54.688,9.277
1532392085.818,21.973,19.043,21.973,28.809,10.742
1532392085.822,14.648,25.391,17.578,16.113,-9.766
1532392085.826,12.695,31.250,14.648,10.254,28.809
1532392085.830,6.348,29.785,15.625,21.973,49.316
1532392085.834,21.973,28.320,18.066,33.203,38.086
1532392085.838,32.715,29.297,17.578,27.344,53.711
1532392085.842,25.391,28.320,18.555,33.691,61.035
1532392085.846,21.973,25.879,20.508,58.105,46.387
1532392085.850,16.602,27.344,17.090,30.273,41.504
1532392085.853,21.973,27.832,15.137,7.812,55.664
1532392085.857,15.625,26.367,20.020,41.504,38.086
1532392085.861,23.438,29.297,18.066,30.762,2.441
1532392085.865,24.414,29.297,13.184,5.371,23.926
1532392085.869,2.930,23.926,18.555,24.902,56.641
1532392085.873,3.906,24.902,17.578,16.602,42.969
1532392085.877,17.578,22.949,17.090,33.691,32.715
1532392085.881,14.648,24.902,18.066,40.527,35.156
1532392085.885,0.977,26.855,17.090,54.199,52.246
1532392085.889,13.672,27.344,16.113,41.992,65.918
1532392085.892,14.648,27.344,16.113,8.301,41.992
1532392085.896,-0.488,19.531,20.508,34.668,22.461
1532392085.900,-1.953,18.066,18.066,29.785,36.621
1532392085.904,7.812,21.973,16.113,22.461,37.598
1532392085.908,9.766,24.902,12.695,20.996,40.039
1532392085.912,6.348,26.855,12.207,46.875,15.137
1532392085.916,16.602,27.344,18.066,45.410,22.949
1532392085.920,20.020,24.414,20.508,7.324,12.207
1532392085.924,19.531,20.996,22.949,33.691,11.230
1532392085.928,29.785,20.508,22.461,40.527,30.762
1532392085.932,33.691,24.414,20.020,47.852,22.949
1532392085.935,23.926,28.320,19.531,29.297,42.969
1532392085.939,15.137,28.809,20.020,39.551,29.785
1532392085.943,0.977,21.484,21.973,49.805,12.207
1532392085.947,15.625,16.602,21.973,15.625,12.207
1532392085.951,16.113,18.066,22.949,42.480,10.742
1532392085.955,0.000,19.531,20.508,49.805,37.598
1532392085.959,16.113,22.461,14.160,22.949,39.551
1532392085.963,10.742,22.461,17.090,32.715,13.184
1532392085.967,-2.930,21.973,21.484,43.945,37.598
1532392085.971,17.578,27.344,20.020,40.527,68.359
1532392085.974,12.695,25.879,25.391,40.039,55.176
1532392085.978,-7.324,19.531,23.926,19.043,6.836
1532392085.982,2.930,19.043,23.438,32.227,1.953
1532392085.986,-1.953,18.555,23.926,48.340,45.898
1532392085.990,-11.719,22.949,20.508,15.625,57.617
1532392085.994,5.371,24.414,20.996,20.996,32.715
1532392085.998,20.020,20.996,21.973,27.344,7.324
1532392086.002,28.809,22.949,19.531,14.648,-9.766
1532392086.006,44.922,28.320,19.043,29.785,32.227
1532392086.010,31.250,29.297,17.578,13.672,34.180
1532392086.014,23.438,28.320,18.555,38.086,2.441
1532392086.017,28.809,27.832,22.949,35.645,26.367
1532392086.021,15.137,26.855,24.414,32.227,45.898
1532392086.025,6.836,24.902,24.414,83.008,43.945
1532392086.029,14.160,27.344,18.066,38.086,43.945
1532392086.033,31.250,26.855,20.508,23.438,38.086
1532392086.037,16.602,24.902,22.461,49.805,43.945
1532392086.041,8.301,29.297,20.020,39.551,51.270
1532392086.045,6.836,31.250,20.020,34.180,25.391
1532392086.049,-1.953,28.809,20.020,38.574,16.113
1532392086.053,1.953,24.414,25.391,52.246,18.555
1532392086.057,12.207,25.879,26.855,45.410,43.457
1532392086.060,24.414,24.902,25.391,0.488,40.527
1532392086.064,20.996,24.902,24.414,7.812,18.066
1532392086.068,0.488,28.320,23.438,30.273,24.414
1532392086.072,-1.465,27.832,24.414,29.297,60.059
1532392086.076,0.000,23.438,22.461,48.340,58.105
1532392086.080,-3.418,20.996,20.996,42.969,45.898
1532392086.084,1.953,23.926,23.926,15.625,49.805
1532392086.088,9.766,25.879,23.926,28.320,40.039
1532392086.092,4.395,23.438,21.973,19.043,28.809
1532392086.096,3.418,20.020,20.508,11.719,36.133
1532392086.099,17.578,20.996,24.414,46.387,25.879
1532392086.103,11.719,26.367,22.461,20.508,31.738
1532392086.107,5.859,27.832,17.090,11.719,52.734
1532392086.111,14.160,23.438,20.508,15.137,39.062
1532392086.115,5.859,21.973,22.461,6.348,41.992
1532392086.119,17.578,23.438,20.996,50.293,40.527
1532392086.123,30.273,20.508,23.438,30.762,52.246
1532392086.127,33.691,21.973,21.484,5.371,42.480
1532392086.131,20.020,21.484,25.391,41.504,23.926
1532392086.135,17.090,21.484,27.832,23.926,58.105
1532392086.139,23.926,26.367,22.949,17.090,62.988
1532392086.142,18.066,22.949,26.855,47.852,18.066
1532392086.146,15.137,25.879,22.949,48.828,2.930
1532392086.150,17.090,29.297,20.020,-4.883,39.062
1532392086.154,14.648,24.414,23.926,13.184,71.289
1532392086.158,3.906,25.391,21.484,29.297,33.691
1532392086.162,-3.418,25.391,22.949,32.227,17.578
1532392086.166,8.789,24.414,21.973,36.621,41.992
1532392086.170,11.719,25.391,20.020,34.668,50.781
1532392086.174,22.461,26.367,23.438,29.297,61.035
1532392086.178,32.227,24.414,26.367,32.715,16.602
1532392086.181,20.508,21.484,24.414,32.715,-5.859
1532392086.185,11.719,25.391,21.973,54.688,39.062
1532392086.189,13.672,26.855,21.973,32.227,43.457
1532392086.193,18.555,22.949,21.973,15.137,15.625
1532392086.197,22.949,20.508,24.414,53.711,15.625
1532392086.201,24.902,19.531,22.949,33.203,16.113
1532392086.205,23.926,26.367,16.602,2.930,24.902
1532392086.209,25.879,26.855,20.508,40.039,37.598
1532392086.213,9.277,20.508,24.902,39.551,47.852
1532392086.217,8.301,22.949,21.973,10.254,47.363
1532392086.221,9.766,26.855,21.484,26.367,47.363
1532392086.224,15.625,25.879,21.973,70.312,46.387
1532392086.228,37.109,22.949,20.020,30.762,16.113
1532392086.232,22.461,21.973,21.973,4.395,14.160
1532392086.236,20.996,21.973,24.902,27.832,51.758
1532392086.240,28.809,20.996,24.414,53.223,52.734
1532392086.244,22.949,18.555,23.438,35.645,6.836
1532392086.248,22.949,22.461,21.484,12.207,-3.906
1532392086.252,21.973,29.297,24.414,51.270,4.883
1532392086.256,8.301,27.832,22.461,52.246,26.367
1532392086.260,17.090,25.879,21.484,27.832,31.738
1532392086.264,13.184,25.879,20.508,20.996,42.969
1532392086.267,25.879,26.367,20.020,38.574,73.242
1532392086.271,37.598,26.367,22.461,36.133,69.824
1532392086.275,6.348,28.320,20.996,23.926,64.453
1532392086.279,9.277,30.762,19.531,39.062,41.016
1532392086.283,19.531,27.832,21.484,36.133,24.902
1532392086.287,19.531,28.320,20.996,20.020,45.410
1532392086.291,12.207,26.855,22.461,28.809,59.570
1532392086.295,18.555,22.949,27.344,66.406,60.547
1532392086.299,20.508,26.855,23.438,61.523,40.039
1532392086.303,16.113,30.762,20.020,12.207,53.223
1532392086.306,16.113,29.785,27.344,34.668,77.148
1532392086.310,29.785,28.320,28.320,38.086,55.664
1532392086.314,27.344,26.367,28.320,47.363,59.570
1532392086.318,10.742,28.320,25.879,85.449,46.387
1532392086.322,0.977,25.879,24.414,40.527,11.719
1532392086.326,21.484,27.344,23.438,11.719,8.301
1532392086.330,30.762,26.855,20.508,37.598,14.160
1532392086.334,11.230,20.508,25.879,50.293,48.340
1532392086.338,9.766,24.414,26.855,50.293,63.477
1532392086.342,15.137,29.785,20.996,28.320,25.391
1532392086.346,22.461,30.273,25.879,39.551,6.348
1532392086.349,7.324,24.414,24.414,39.062,32.715
1532392086.353,10.742,25.391,20.996,31.250,56.641
1532392086.357,23.438,29.297,20.020,36.621,41.504
1532392086.361,20.996,27.832,20.020,27.344,16.602
1532392086.365,10.254,24.414,24.414,33.691,26.855
1532392086.369,2.441,19.531,30.273,62.500,50.781
1532392086.373,17.578,20.020,28.809,44.434,68.359
1532392086.377,12.207,16.602,22.949,10.254,44.434
1532392086.381,15.137,15.625,23.438,26.367,13.184
1532392086.385,12.695,19.043,25.879,35.156,24.414
1532392086.389,9.277,19.043,24.414,65.918,41.504
1532392086.392,33.203,17.578,19.531,22.949,20.020
1532392086.396,31.250,16.602,22.461,-5.859,24.902
1532392086.400,11.230,21.484,23.926,40.039,30.762
1532392086.404,11.719,23.438,20.508,41.016,17.578
1532392086.408,23.926,21.484,21.484,31.738,51.758
1532392086.412,17.090,21.973,21.973,71.289,22.461
1532392086.416,-1.465,20.020,22.949,46.387,7.324
1532392086.420,28.320,20.020,24.414,-6.348,15.137
1532392086.424,33.203,21.973,28.320,29.785,-16.113
1532392086.428,4.395,24.414,23.438,32.715,-9.277
1532392086.431,14.648,22.461,20.020,31.738,-27.832
1532392086.435,38.086,23.926,21.973,44.434,-4.883
1532392086.439,23.926,24.414,22.461,48.340,48.340
1532392086.443,-0.977,20.996,24.414,33.691,29.297
1532392086.447,14.160,18.555,24.902,22.461,-5.859
1532392086.451,27.344,20.508,20.996,17.090,-3.906
1532392086.455,20.996,24.414,19.531,32.227,14.160
1532392086.459,20.996,23.926,24.902,44.434,32.715
1532392086.463,16.113,25.879,25.391,39.551,27.832
1532392086.467,9.766,25.879,24.414,59.570,13.672
1532392086.471,21.973,21.484,22.461,31.738,23.438
1532392086.474,28.809,22.949,16.113,-2.441,30.273
1532392086.478,17.578,21.973,20.996,40.039,-2.930
1532392086.482,29.785,21.973,24.414,38.086,-9.766
1532392086.486,44.434,23.438,20.020,17.578,28.320
1532392086.490,31.250,22.949,16.602,28.809,47.852
1532392086.494,7.812,16.113,22.461,49.805,42.969
1532392086.498,-0.488,16.602,23.438,54.199,40.527
1532392086.502,27.344,24.902,19.043,7.812,6.348
1532392086.506,41.992,25.391,18.555,-3.906,13.672
1532392086.510,7.324,26.855,16.602,10.742,6.348
1532392086.513,-5.859,25.391,20.508,43.457,22.949
1532392086.517,6.348,18.066,26.855,70.801,42.969
1532392086.521,35.645,17.090,23.926,28.320,27.832
1532392086.525,38.086,21.973,23.438,24.902,1.953
1532392086.529,16.602,20.508,27.832,27.832,-15.625
1532392086.533,13.184,19.531,21.484,20.020,13.672
1532392086.537,9.277,26.855,17.090,46.387,32.227
1532392086.541,22.461,24.902,23.438,56.641,28.809
1532392086.545,46.387,24.414,25.879,26.367,37.598
1532392086.549,38.574,23.926,22.949,16.602,34.180
1532392086.553,16.602,20.508,23.438,43.945,37.109
1532392086.556,24.414,22.949,28.320,41.016,45.898
1532392086.560,17.578,21.973,26.367,29.785,29.297
1532392086.564,6.836,22.461,23.438,25.391,7.324
1532392086.568,13.672,24.414,22.949,41.992,28.809
1532392086.572,18.066,22.461,23.438,66.895,51.758
1532392086.576,22.949,23.438,21.484,29.297,47.363
1532392086.580,7.812,25.879,18.555,1.465,28.320
1532392086.584,14.648,23.438,20.508,38.574,35.156
1532392086.588,20.996,21.484,25.879,59.082,38.574
1532392086.592,26.367,25.391,22.461,31.738,37.598
1532392086.596,35.156,26.855,20.508,41.016,14.160
1532392086.599,32.227,27.344,26.367,43.945,10.254
1532392086.603,27.344,23.926,28.320,11.230,2.441
1532392086.607,17.090,19.043,25.391,28.320,2.930
1532392086.611,16.113,23.438,23.438,69.824,26.367
1532392086.615,16.602,28.809,21.973,55.664,48.340
1532392086.619,30.762,30.762,16.113,24.414,-1.953
1532392086.623,22.461,21.973,24.902,15.137,-2.930
1532392086.627,-6.348,16.602,31.250,60.547,35.645
1532392086.631,0.977,25.391,21.484,48.828,23.438
1532392086.635,17.090,25.879,12.207,-5.371,40.039
1532392086.638,21.484,17.578,19.043,19.043,45.410
1532392086.642,28.320,19.043,26.367,56.152,35.156
1532392086.646,18.066,20.020,22.461,36.621,37.598
1532392086.650,9.277,18.555,21.484,16.113,44.922
1532392086.654,26.855,16.113,24.902,37.598,53.711
1532392086.658,34.180,15.625,24.414,26.855,42.480
1532392086.662,23.926,17.578,25.391,20.996,-7.324
1532392086.666,21.484,14.160,28.809,21.484,3.418
1532392086.670,28.320,13.184,28.320,47.852,54.688
1532392086.674,23.438,16.602,24.902,46.387,60.547
1532392086.678,29.785,16.602,21.973,29.297,33.691
1532392086.681,45.410,18.555,20.508,31.738,33.691
1532392086.685,34.668,23.438,18.555,9.766,72.754
1532392086.689,32.227,23.438,19.043,40.527,85.449
1532392086.693,31.250,20.508,17.578,55.664,57.129
1532392086.697,47.852,20.508,18.555,5.859,47.363
1532392086.701,43.457,20.996,24.902,15.625,22.461
1532392086.705,28.320,15.625,27.832,15.625,36.133
1532392086.709,34.180,11.230,26.855,35.645,58.594
1532392086.713,29.297,15.625,26.855,49.316,57.617
1532392086.717,18.066,16.113,29.297,47.363,54.199
1532392086.721,22.949,22.461,23.438,53.711,62.500
1532392086.724,23.438,26.367,21.484,34.180,67.871
1532392086.728,20.996,18.066,25.879,40.039,54.688
1532392086.732,37.109,16.113,27.344,57.617,68.359
1532392086.736,28.809,20.996,22.949,37.598,72.754
1532392086.740,17.090,24.902,23.438,57.129,96.191
1532392086.744,27.344,26.855,23.926,44.922,72.266
1532392086.748,33.203,24.414,21.484,14.160,33.203
1532392086.752,29.785,20.020,27.832,26.367,68.359
1532392086.756,25.879,18.066,29.297,37.598,104.492
1532392086.760,22.461,20.996,23.438,38.086,61.035
1532392086.763,4.883,26.855,18.555,14.160,16.113
1532392086.767,17.578,22.461,24.902,35.645,18.066
1532392086.771,36.133,20.020,27.832,52.246,63.477
1532392086.775,32.227,20.996,22.949,30.273,76.660
1532392086.779,33.691,20.996,25.391,29.297,45.410
1532392086.783,35.645,24.414,26.367,40.039,50.781
1532392086.787,25.879,25.391,24.414,33.203,76.660
1532392086.791,27.344,20.996,27.832,44.434,51.270
1532392086.795,30.273,21.973,23.438,40.527,4.395
1532392086.799,33.203,20.508,19.531,21.973,-0.488
1532392086.803,30.273,20.508,24.414,20.508,3.906
1532392086.806,15.137,20.020,28.809,26.367,42.969
1532392086.810,17.578,20.996,24.902,28.320,48.340
1532392086.814,27.832,23.926,23.438,25.391,54.688
1532392086.818,26.855,22.461,29.297,49.316,72.754
1532392086.822,24.902,27.344,23.926,42.969,64.453
1532392086.826,45.410,27.832,19.043,15.137,56.641
1532392086.830,27.344,25.391,25.391,26.367,43.457
1532392086.834,9.277,20.508,26.367,20.508,58.594
1532392086.838,33.203,20.508,25.879,40.527,67.871
1532392086.842,27.832,24.902,22.461,22.461,44.922
1532392086.845,32.227,28.320,18.555,1.465,33.691
1532392086.849,33.203,25.391,24.414,29.785,22.949
1532392086.853,16.602,24.414,23.926,42.480,47.363
1532392086.857,22.949,23.926,23.926,50.293,64.453
1532392086.861,15.625,23.438,23.438,14.648,6.836
1532392086.865,1.465,23.438,19.531,0.000,5.859
1532392086.869,19.043,20.996,18.555,20.020,45.410
1532392086.873,27.344,23.438,17.090,29.785,59.570
1532392086.877,31.250,27.832,17.578,42.480,36.621
1532392086.881,37.109,22.461,24.414,63.477,21.484
1532392086.885,24.902,21.973,22.461,19.043,31.738
1532392086.888,15.625,24.414,18.555,20.508,31.250
1532392086.892,14.648,20.020,23.438,53.223,26.367
1532392086.896,20.508,20.020,20.996,18.555,27.832
1532392086.900,19.043,21.973,19.531,23.926,5.859
1532392086.904,0.977,19.043,24.414,53.223,-7.324
1532392086.908,6.348,20.020,21.484,20.508,24.414
1532392086.912,31.738,22.461,23.438,7.812,26.855
1532392086.916,35.156,18.555,26.367,38.086,43.457
1532392086.920,24.902,21.484,20.508,23.438,40.039
1532392086.924,23.926,24.414,22.949,46.387,52.734
1532392086.928,15.137,26.855,22.949,37.109,59.570
1532392086.931,10.254,28.809,20.020,-10.742,30.762
1532392086.935,8.789,26.367,21.484,28.320,58.105
1532392086.939,0.000,22.949,26.367,38.086,74.219
1532392086.943,19.531,22.949,25.879,43.457,34.180
1532392086.947,22.949,22.949,23.926,48.828,9.766
1532392086.951,18.555,21.484,22.949,27.832,27.344
1532392086.955,21.973,26.855,20.508,29.785,67.383
1532392086.959,14.160,29.297,23.438,39.551,51.758
1532392086.963,20.020,27.832,15.625,27.344,-9.766
1532392086.967,15.137,21.484,17.578,20.020,5.371
1532392086.970,5.859,16.113,30.762,42.480,62.500
1532392086.974,5.859,20.508,29.297,53.223,59.082
1532392086.978,13.184,24.902,28.320,29.785,24.902
1532392086.982,5.371,23.438,25.879,19.043,11.230
1532392086.986,-1.953,21.973,23.926,27.832,22.949
1532392086.990,3.418,25.391,21.484,9.766,45.898
1532392086.994,9.277,25.879,19.043,11.230,0.488
1532392086.998,7.324,20.996,23.438,49.316,-15.137
1532392087.002,9.766,19.531,23.926,24.902,-22.949
1532392087.006,28.320,25.391,16.113,-11.719,0.488
1532392087.010,4.883,21.973,19.531,28.809,51.758
1532392087.013,-10.742,17.090,29.297,24.414,34.180
1532392087.017,15.137,23.926,24.414,6.836,13.672
1532392087.021,16.113,25.391,19.531,50.293,25.391
1532392087.025,12.207,22.461,20.508,58.594,30.273
1532392087.029,24.902,21.973,22.949,36.621,20.020
1532392087.033,19.043,23.438,25.391,17.090,8.301
1532392087.037,12.695,23.438,25.391,43.457,34.180
1532392087.041,28.809,24.414,24.414,47.363,18.555
1532392087.045,12.695,27.344,17.578,2.441,-19.043
1532392087.049,3.418,22.461,18.555,36.133,27.832
1532392087.052,37.109,17.578,24.902,57.129,62.012
1532392087.056,36.133,22.461,23.438,32.227,66.895
1532392087.060,19.531,24.414,21.484,31.738,18.066
1532392087.064,16.602,26.367,19.531,30.762,1.953
1532392087.068,8.789,26.367,17.090,14.160,61.523
1532392087.072,21.484,24.414,16.113,46.387,101.562
1532392087.076,27.832,24.902,17.578,39.062,64.941
1532392087.080,-2.441,26.367,14.648,-14.160,11.230
1532392087.084,-3.906,25.391,13.184,36.621,0.000
1532392087.088,21.973,23.926,16.602,43.457,20.996
1532392087.092,23.438,22.949,19.043,34.180,1.465
1532392087.095,1.465,18.066,20.020,47.363,-4.395
1532392087.099,-0.977,18.555,17.578,12.207,4.395
1532392087.103,5.371,20.996,20.020,25.391,18.555
1532392087.107,9.277,24.902,19.043,29.785,25.879
1532392087.111,27.832,27.832,15.625,29.297,15.137
1532392087.115,39.062,23.438,17.578,59.570,8.789
1532392087.119,21.484,23.926,17.578,15.137,22.949
1532392087.123,10.254,26.855,18.066,37.598,25.879
1532392087.127,13.184,23.926,21.973,73.730,7.324
1532392087.131,22.949,25.879,18.066,13.184,18.066
1532392087.135,21.484,24.414,17.090,17.090,39.551
1532392087.138,10.254,20.996,20.020,39.062,31.250
1532392087.142,20.996,21.973,17.578,38.086,-20.996
1532392087.146,23.926,26.855,11.230,40.039,1.465
1532392087.150,2.930,27.344,12.695,27.832,54.688
1532392087.154,18.555,25.391,13.672,13.672,46.875
1532392087.158,26.855,26.367,17.090,25.879,29.297
1532392087.162,18.066,28.809,16.113,48.340,22.461
1532392087.166,12.695,27.832,11.719,53.711,22.461
1532392087.170,3.418,22.949,18.066,34.180,31.250
1532392087.174,6.836,20.996,18.555,40.039,40.527
1532392087.177,22.949,24.414,15.137,23.438,16.602
1532392087.181,32.715,26.855,17.578,2.930,-15.137
1532392087.185,25.879,29.297,16.602,18.066,22.461
1532392087.189,12.207,27.344,16.113,36.133,88.379
1532392087.193,3.906,24.414,20.020,61.035,76.660
1532392087.197,19.043,25.879,19.531,43.945,48.340
1532392087.201,13.672,28.320,15.137,5.859,38.574
1532392087.205,8.789,28.809,11.719,16.602,56.641
1532392087.209,18.555,26.855,16.602,35.156,56.152
1532392087.213,11.719,29.297,22.949,42.969,55.664
1532392087.217,20.020,30.273,16.113,22.949,70.312
1532392087.220,36.133,30.762,14.160,25.879,39.551
1532392087.224,19.531,28.809,21.484,28.320,21.484
1532392087.228,4.395,25.879,22.461,30.762,37.598
1532392087.232,10.742,23.438,22.461,37.598,52.246
1532392087.236,23.926,27.832,16.602,15.137,82.031
1532392087.240,27.832,29.297,20.020,21.484,56.641
1532392087.244,12.695,24.414,25.879,62.988,24.414
1532392087.248,13.184,26.855,21.973,43.945,35.645
1532392087.252,17.578,26.367,20.508,3.906,31.738
1532392087.256,6.836,25.879,18.066,11.719,59.570
1532392087.260,3.418,25.879,17.090,41.504,53.223
1532392087.263,3.906,25.391,22.949,36.621,23.926
1532392087.267,3.418,25.391,22.461,26.367,36.133
1532392087.271,12.207,25.391,20.020,37.109,60.059
1532392087.275,13.672,27.344,20.508,32.227,44.434
1532392087.279,22.949,29.297,20.020,10.742,-4.395
1532392087.283,20.508,25.391,24.902,23.438,-17.578
1532392087.287,7.812,20.020,27.344,41.016,35.156
1532392087.291,17.578,23.926,24.902,32.715,47.852
1532392087.295,4.883,31.250,19.043,47.363,18.066
1532392087.299,0.000,32.227,19.043,44.922,14.160
1532392087.302,16.113,28.320,22.949,8.789,28.809
1532392087.306,13.672,28.320,21.484,7.812,52.246
1532392087.310,13.184,30.273,21.484,17.578,37.109
1532392087.314,10.254,26.855,24.414,38.086,40.527
1532392087.318,16.113,24.902,24.414,41.992,29.785
1532392087.322,14.160,24.414,24.414,28.320,6.836
1532392087.326,-7.324,20.508,25.391,29.785,35.645
1532392087.330,6.836,22.949,24.902,25.879,40.039
1532392087.334,21.484,24.902,26.855,33.691,49.316
1532392087.338,11.719,24.902,26.367,41.992,47.363
1532392087.342,11.230,25.879,21.484,19.043,26.855
1532392087.345,22.461,23.926,23.438,6.836,51.270
1532392087.349,23.438,24.414,28.809,21.484,61.035
1532392087.353,24.414,23.438,26.367,21.484,60.547
1532392087.357,26.855,21.484,27.832,26.855,37.109
1532392087.361,4.395,25.879,27.344,7.324,0.000
1532392087.365,5.859,28.809,24.902,-2.930,15.137
1532392087.369,27.832,26.367,28.320,19.531,39.062
1532392087.373,26.367,23.438,28.320,26.855,45.898
1532392087.377,25.391,29.785,21.484,27.344,35.156
1532392087.381,12.207,29.297,21.973,24.902,19.043
1532392087.384,7.812,25.879,25.879,30.273,34.668
1532392087.388,16.113,31.738,24.414,37.598,44.922
1532392087.392,6.836,25.391,26.367,31.738,15.137
1532392087.396,4.395,24.414,25.879,49.805,-4.883
1532392087.400,9.277,24.902,33.203,46.875,12.207
1532392087.404,-11.719,22.461,33.203,6.348,20.996
1532392087.408,-5.371,27.832,26.855,43.457,9.766
1532392087.412,19.043,27.344,22.949,30.762,6.348
1532392087.416,22.461,26.855,21.484,17.578,14.648
1532392087.420,13.184,24.902,24.414,21.484,6.836
1532392087.424,16.602,20.020,29.297,37.598,13.672
1532392087.427,21.484,22.949,23.926,23.438,42.969
1532392087.431,0.000,25.879,19.531,13.184,62.500
1532392087.435,-0.977,26.855,24.902,41.016,58.594
1532392087.439,11.230,27.344,23.438,23.926,41.016
1532392087.443,6.836,24.902,24.902,30.762,34.180
1532392087.447,2.930,25.879,25.879,49.316,20.996
1532392087.451,18.066,28.320,22.949,23.438,20.020
1532392087.455,12.207,24.414,27.832,20.996,27.832
1532392087.459,3.906,25.879,27.344,20.508,-0.488
1532392087.463,6.348,26.367,26.367,12.207,-13.184
1532392087.467,18.555,26.855,26.367,32.715,9.766
1532392087.470,8.301,26.855,24.414,26.855,43.457
1532392087.474,-16.602,20.996,27.344,32.715,62.012
1532392087.478,6.836,27.832,25.879,44.434,22.949
1532392087.482,15.137,35.156,19.043,4.395,13.184
1532392087.486,7.324,29.785,22.461,2.930,44.922
1532392087.490,0.488,20.996,30.273,36.133,35.156
1532392087.494,2.441,24.414,22.461,39.062,19.531
1532392087.498,19.043,30.762,16.602,51.758,15.137
1532392087.502,-0.488,29.297,21.973,29.785,48.340
1532392087.506,-6.836,25.879,26.367,29.785,57.129
1532392087.509,17.578,24.414,27.344,33.691,17.090
1532392087.513,15.137,22.461,26.367,10.254,35.645
1532392087.517,5.859,23.438,28.809,41.504,41.992
1532392087.521,9.766,27.832,23.926,35.645,21.973
1532392087.525,18.555,29.297,19.531,17.578,11.719
1532392087.529,18.066,26.367,24.902,16.113,20.020
1532392087.533,-0.977,22.461,31.738,56.152,41.016
1532392087.537,2.930,22.949,27.832,31.738,34.180
1532392087.541,1.953,25.879,21.973,-9.277,2.930
1532392087.545,8.789,24.414,26.367,30.762,-1.953
1532392087.549,4.395,21.484,29.297,39.062,-4.883
1532392087.552,-7.812,28.809,24.902,23.438,12.207
1532392087.556,12.207,28.320,24.902,53.223,40.039
1532392087.560,18.066,22.949,28.320,47.852,-6.348
1532392087.564,4.883,23.926,28.320,-9.766,-5.371
1532392087.568,0.488,26.855,26.367,33.691,52.734
1532392087.572,20.996,25.879,24.414,37.109,53.223
1532392087.576,13.184,20.508,28.809,13.672,-3.418
1532392087.580,5.859,22.461,29.297,47.852,-18.555
1532392087.584,13.184,25.879,26.367,34.668,-2.930
1532392087.588,7.324,31.250,20.020,10.254,19.531
1532392087.592,23.438,31.738,21.973,28.320,8.301
1532392087.595,28.809,26.855,25.391,42.969,-5.371
1532392087.599,17.090,30.273,21.973,21.973,-11.719
1532392087.603,29.297,32.227,20.996,22.949,-20.020
1532392087.607,12.695,30.273,21.973,29.297,3.906
1532392087.611,-5.859,24.902,25.879,18.555,-9.277
1532392087.615,21.484,24.414,23.438,30.762,-7.812
1532392087.619,31.738,26.855,25.391,38.574,0.977
1532392087.623,4.883,28.809,22.949,6.348,-3.906
1532392087.627,6.836,32.227,17.090,0.488,-26.855
1532392087.631,9.277,24.902,23.926,27.832,-15.137
1532392087.634,-3.418,20.508,25.879,23.438,-11.230
1532392087.638,5.859,21.484,25.391,34.180,-21.484
1532392087.642,14.160,22.461,25.879,46.387,-31.738
1532392087.646,15.625,27.832,20.020,-4.883,-58.594
1532392087.650,13.672,23.926,19.043,-6.836,-33.203
1532392087.654,-1.465,17.578,27.832,21.973,30.762
1532392087.658,10.254,19.531,31.738,31.250,20.508
1532392087.662,17.090,23.926,26.855,21.973,-18.066
1532392087.666,0.000,26.367,20.508,29.785,10.742
1532392087.670,0.000,21.484,20.020,37.598,30.762
1532392087.674,6.836,14.160,25.879,11.230,28.809
1532392087.677,21.484,15.137,26.855,7.324,21.973
1532392087.681,13.184,17.578,21.484,-0.488,32.227
1532392087.685,3.906,19.531,25.879,12.695,20.508
1532392087.689,15.137,20.020,25.879,25.879,26.855
1532392087.693,21.973,25.879,20.996,27.344,36.621
1532392087.697,7.812,30.273,20.508,43.945,8.301
1532392087.701,10.254,31.250,16.602,-7.812,-9.277
1532392087.705,12.207,24.414,19.531,-7.812,-2.930
1532392087.709,0.000,20.020,23.438,20.508,-7.324
1532392087.713,-2.930,25.879,22.949,7.812,4.395
1532392087.716,-3.418,32.715,20.020,13.184,20.020
1532392087.720,9.766,25.879,24.414,22.949,35.645
1532392087.724,18.066,20.508,28.809,33.691,32.227
1532392087.728,8.301,24.414,24.902,19.531,17.090
1532392087.732,5.859,24.902,22.949,19.043,24.414
1532392087.736,16.113,28.320,22.949,33.203,40.527
1532392087.740,12.207,27.832,24.902,16.602,6.348
1532392087.744,4.883,24.414,24.902,6.836,-25.391
1532392087.748,9.766,25.879,28.320,47.852,13.672
1532392087.752,3.906,26.855,27.832,19.043,36.621
1532392087.756,8.789,23.926,22.461,6.836,46.387
1532392087.759,16.602,24.414,24.414,27.344,23.438
1532392087.763,14.648,25.391,27.344,22.949,-10.254
1532392087.767,14.648,25.391,28.320,38.086,25.879
1532392087.771,4.883,28.809,29.297,11.230,63.965
1532392087.775,3.906,29.785,23.926,12.695,25.391
1532392087.779,8.789,28.809,18.555,29.297,-5.859
1532392087.783,5.859,28.809,22.461,15.137,11.230
1532392087.787,19.531,27.832,27.832,23.438,42.480
1532392087.791,31.250,31.250,23.438,24.414,37.109
1532392087.795,10.254,30.273,22.461,36.133,16.113
1532392087.799,9.766,26.855,26.367,28.809,43.457
1532392087.802,20.996,26.855,23.438,10.254,77.148
1532392087.806,21.484,28.809,20.996,4.883,55.176
1532392087.810,22.461,30.762,22.949,27.344,9.277
1532392087.814,23.438,25.879,27.832,53.223,31.738
1532392087.818,13.672,23.926,24.902,16.602,37.598
1532392087.822,7.324,27.832,22.461,11.719,25.879
1532392087.826,18.555,29.297,24.414,33.691,12.695
1532392087.830,15.137,26.855,22.461,13.184,1.953
1532392087.834,5.371,25.391,24.902,11.719,40.039
1532392087.838,9.766,25.879,27.344,21.973,34.668
1532392087.841,25.391,25.391,22.949,19.531,-9.277
1532392087.845,35.156,29.297,16.602,24.902,-13.672
1532392087.849,24.414,24.414,20.020,58.594,20.508
1532392087.853,14.160,21.973,28.809,38.086,59.570
1532392087.857,-0.488,21.973,29.297,-25.391,53.223
1532392087.861,-2.930,11.230,34.180,15.625,18.555
1532392087.865,10.254,9.277,35.645,31.250,6.348
1532392087.869,22.949,15.137,27.832,24.414,43.457
1532392087.873,9.277,19.531,27.832,31.250,69.336
1532392087.877,-10.254,22.949,24.902,12.207,71.289
1532392087.881,-0.977,20.508,23.438,6.836,40.527
1532392087.884,27.832,20.508,27.344,18.555,36.133
1532392087.888,24.414,23.926,26.367,26.367,75.684
1532392087.892,7.324,23.438,24.414,-0.488,71.289
1532392087.896,24.414,20.996,26.367,26.855,87.402
1532392087.900,16.113,22.461,24.902,38.574,74.219
1532392087.904,8.789,23.438,22.461,1.953,58.594
1532392087.908,13.184,19.043,29.785,18.555,38.574
1532392087.912,25.391,16.602,31.250,32.715,17.578
1532392087.916,22.949,18.066,26.367,27.832,42.969
1532392087.920,17.578,19.531,29.785,30.762,46.875
1532392087.923,16.602,21.973,28.320,22.461,40.527
1532392087.927,13.184,25.879,21.484,13.184,35.156
1532392087.931,15.137,20.020,26.367,29.785,44.434
1532392087.935,19.531,16.113,31.738,41.016,62.012
1532392087.939,27.344,19.531,27.832,41.016,52.246
1532392087.943,18.066,19.043,29.785,32.715,17.090
1532392087.947,14.160,21.973,29.297,16.113,50.293
1532392087.951,13.184,20.508,26.855,31.250,60.059
1532392087.955,37.109,20.508,26.367,42.480,54.199
1532392087.959,37.598,25.879,23.926,25.391,31.738
1532392087.963,8.789,23.926,25.879,48.340,22.949
1532392087.966,19.043,22.949,27.832,35.645,47.852
1532392087.970,29.785,24.902,23.438,9.766,63.965
1532392087.974,5.859,23.926,21.973,27.832,61.035
1532392087.978,-8.301,21.484,28.320,22.461,20.020
1532392087.982,18.066,20.996,28.809,21.973,20.996
1532392087.986,34.180,22.461,23.438,29.785,66.895
1532392087.990,11.230,19.531,23.926,49.805,72.266
1532392087.994,5.859,15.137,29.785,41.992,46.875
1532392087.998,14.160,19.531,30.762,24.902,41.504
1532392088.002,12.695,25.391,24.902,22.949,18.066
1532392088.006,30.273,23.926,20.020,29.785,39.062
1532392088.009,27.344,17.090,25.879,52.246,33.691
1532392088.013,10.254,19.531,25.391,26.367,-1.953
1532392088.017,5.371,24.414,21.973,7.812,31.738
1532392088.021,18.555,21.973,24.414,26.855,63.965
1532392088.025,25.879,20.508,27.344,33.203,43.457
1532392088.029,9.766,24.414,23.926,18.066,54.199
1532392088.033,21.484,25.391,24.902,20.020,60.547
1532392088.037,41.016,23.926,27.832,24.414,60.059
1532392088.041,35.156,29.785,21.484,12.207,60.059
1532392088.045,28.809,28.809,19.531,39.062,24.902
1532392088.048,28.809,27.832,22.461,54.199,24.902
1532392088.052,22.949,29.297,22.949,3.418,40.527
1532392088.056,8.789,24.414,27.344,25.879,50.781
1532392088.060,1.465,23.926,29.785,43.457,19.531
1532392088.064,8.301,28.809,24.414,47.852,16.602
1532392088.068,14.648,26.367,21.973,35.645,48.828
1532392088.072,8.789,22.461,24.902,17.090,62.012
1532392088.076,6.836,24.902,27.344,35.645,58.105
1532392088.080,17.578,27.832,24.414,32.715,24.902
1532392088.084,19.531,32.715,19.043,29.297,17.090
1532392088.088,11.719,28.320,28.809,48.828,71.777
1532392088.091,20.508,26.855,29.785,35.645,51.758
1532392088.095,18.555,28.320,24.902,2.930,9.277
1532392088.099,9.766,26.367,26.367,14.160,38.086
1532392088.103,10.254,25.879,26.855,25.391,59.570
1532392088.107,9.766,26.855,21.484,14.648,44.434
1532392088.111,8.789,29.785,19.043,25.391,13.184
1532392088.115,-12.207,22.949,28.320,59.082,36.133
1532392088.119,-6.836,20.996,27.344,36.133,41.016
1532392088.123,19.531,25.391,18.555,-14.160,-0.488
1532392088.127,14.648,21.484,23.926,21.973,7.812
1532392088.131,7.324,18.555,29.785,33.203,31.250
1532392088.134,16.602,24.414,26.367,31.250,39.062
1532392088.138,9.766,24.414,28.320,26.367,44.922
1532392088.142,5.859,22.461,28.809,38.086,39.062
1532392088.146,12.695,23.926,27.344,41.992,56.152
1532392088.150,-11.230,24.414,24.902,-3.418,54.688
1532392088.154,-14.160,23.438,27.344,6.348,62.500
1532392088.158,23.926,17.090,30.273,34.668,43.457
1532392088.162,23.438,18.066,23.926,31.250,-3.418
1532392088.166,-0.977,22.461,20.996,13.184,11.230
1532392088.170,-4.395,21.484,25.391,13.184,34.180
1532392088.173,14.648,21.973,27.832,27.832,71.289
1532392088.177,26.367,20.996,24.902,45.898,33.691
1532392088.181,26.367,18.066,22.461,25.391,-7.812
1532392088.185,8.301,17.578,25.391,29.785,33.691
1532392088.189,-5.371,19.531,23.438,42.480,45.410
1532392088.193,3.418,23.438,23.926,39.062,29.297
1532392088.197,20.996,19.531,22.949,20.508,13.672
1532392088.201,24.902,14.160,19.531,8.789,0.977
1532392088.205,20.020,17.090,20.020,25.391,27.344
1532392088.209,21.973,18.066,17.090,28.320,33.691
1532392088.213,18.555,13.184,24.414,22.949,14.160
1532392088.216,15.137,7.324,31.250,41.504,37.598
1532392088.220,-0.488,16.602,19.531,18.066,58.105
1532392088.224,-0.488,22.949,13.672,-3.906,43.457
1532392088.228,27.832,18.066,18.555,41.504,46.387
1532392088.232,29.297,14.160,21.973,37.109,49.316
1532392088.236,14.648,12.695,21.484,29.297,67.383
1532392088.240,20.508,16.113,21.484,23.438,81.055
1532392088.244,16.113,14.160,26.367,10.742,43.457
1532392088.248,-0.488,18.555,22.949,50.781,47.852
1532392088.252,14.648,22.461,18.555,57.129,83.496
1532392088.255,16.602,18.555,19.531,-5.371,95.703
1532392088.259,3.418,17.578,17.090,-0.488,57.617
1532392088.263,5.859,18.066,19.043,15.625,39.062
1532392088.267,29.297,17.578,23.926,17.090,43.457
1532392088.271,28.809,20.020,25.391,24.902,24.414
1532392088.275,-1.465,21.484,21.484,21.484,27.344
1532392088.279,-9.277,20.508,16.602,27.344,10.254
1532392088.283,2.930,16.602,22.461,34.668,4.395
1532392088.287,4.395,16.602,26.367,19.043,32.227
1532392088.291,0.977,22.461,17.578,1.465,29.785
1532392088.295,12.207,23.438,13.184,23.438,-6.836
1532392088.298,31.738,21.973,20.020,40.527,10.254
1532392088.302,32.715,20.020,25.879,41.016,17.090
1532392088.306,22.461,22.461,22.949,32.227,9.766
1532392088.310,20.508,22.949,23.438,44.434,5.371
1532392088.314,20.020,22.949,25.879,41.504,-10.742
1532392088.318,11.230,25.879,21.484,16.602,1.465
1532392088.322,3.906,24.414,20.996,24.902,18.555
1532392088.326,22.949,20.020,23.926,48.340,11.719
1532392088.330,18.066,21.484,22.949,43.457,21.484
1532392088.334,11.719,25.879,23.438,30.762,33.691
1532392088.338,20.996,18.555,25.879,41.016,34.180
1532392088.341,21.973,12.695,27.832,56.152,0.977
1532392088.345,8.789,18.555,30.273,59.570,-19.531
1532392088.349,0.000,22.949,25.879,6.348,1.465
1532392088.353,21.484,25.391,24.414,34.668,13.184
1532392088.357,31.738,23.926,26.855,52.246,5.859
1532392088.361,35.645,20.508,26.367,22.949,-2.441
1532392088.365,26.855,23.926,23.926,44.922,10.742
1532392088.369,27.832,23.926,24.902,43.457,25.391
1532392088.373,18.066,20.020,25.879,53.711,37.598
1532392088.377,22.949,21.484,27.832,42.480,15.625
1532392088.380,28.320,19.531,28.809,25.391,-6.836
1532392088.384,16.602,22.461,23.926,31.738,-1.465
1532392088.388,18.555,26.367,24.414,45.410,36.621
1532392088.392,8.789,23.438,24.902,51.270,36.621
1532392088.396,11.719,18.066,26.855,41.016,-10.254
1532392088.400,27.344,15.625,28.809,41.016,-15.625
1532392088.404,28.809,18.555,28.809,33.691,-22.461
1532392088.408,21.484,19.531,24.902,20.996,-0.977
1532392088.412,2.441,17.090,26.367,67.383,27.344
1532392088.416,11.230,18.555,23.438,53.711,15.625
1532392088.420,22.949,20.508,19.531,6.836,9.766
1532392088.423,13.184,15.137,28.320,39.551,6.348
1532392088.427,12.207,14.648,31.738,50.293,-2.930
1532392088.431,14.648,20.508,27.832,44.434,4.883
1532392088.435,6.348,22.461,24.414,32.715,9.277
1532392088.439,13.672,27.832,20.508,33.691,4.883
1532392088.443,13.672,27.832,22.949,42.969,-20.996
1532392088.447,7.812,23.438,23.926,41.992,-4.395
1532392088.451,18.555,20.020,24.902,48.340,30.762
1532392088.455,25.391,14.648,32.227,53.223,62.012
1532392088.459,27.344,22.461,26.855,47.852,39.062
1532392088.463,7.324,28.320,24.414,44.922,18.066
1532392088.466,-2.930,27.344,19.531,26.367,20.508
1532392088.470,3.906,27.344,14.160,15.625,45.898
1532392088.474,12.695,26.367,16.113,7.812,41.016
1532392088.478,8.789,29.785,16.113,9.766,6.836
1532392088.482,7.324,27.344,15.625,21.484,19.043
1532392088.486,6.836,22.461,19.531,30.273,49.805
1532392088.490,-2.441,22.461,19.043,21.484,47.363
1532392088.494,6.348,21.484,18.555,42.480,10.254
1532392088.498,9.277,21.973,21.973,42.969,4.395
1532392088.502,18.066,23.926,19.043,4.883,9.766
1532392088.505,13.184,19.531,26.855,47.852,38.574
1532392088.509,0.977,18.066,32.715,66.406,40.527
1532392088.513,2.441,24.902,20.996,3.418,30.762
1532392088.517,10.254,26.855,24.902,21.484,29.297
1532392088.521,10.742,21.484,28.809,55.664,34.180
1532392088.525,18.066,20.508,22.949,36.621,33.691
1532392088.529,14.160,20.996,20.996,26.855,16.113
1532392088.533,6.348,17.578,20.508,44.434,10.742
1532392088.537,6.836,19.043,19.531,34.668,30.273
1532392088.541,26.855,23.926,15.137,19.043,18.066
1532392088.545,25.879,23.926,19.531,50.781,-23.438
1532392088.548,-0.488,18.555,27.344,38.086,3.906
1532392088.552,9.766,18.555,22.461,9.277,34.180
1532392088.556,29.785,21.973,21.973,67.871,41.992
1532392088.560,38.086,23.438,22.949,70.312,15.137
1532392088.564,33.691,20.508,20.996,22.461,31.738
1532392088.568,24.414,20.996,22.949,29.297,52.246
1532392088.572,6.348,20.996,28.809,52.734,29.785
1532392088.576,5.859,20.508,28.320,39.551,2.930
1532392088.580,21.973,24.414,24.902,21.484,-29.297
1532392088.584,32.227,25.879,25.879,28.809,-27.344
1532392088.587,32.227,22.949,25.879,43.457,34.180
1532392088.591,24.414,25.391,20.020,39.062,20.020
1532392088.595,12.207,24.902,19.043,45.410,15.137
1532392088.599,6.348,19.531,24.414,51.270,1.953
1532392088.603,-3.418,19.531,23.438,21.973,-5.859
1532392088.607,8.789,23.926,20.996,25.879,28.320
1532392088.611,21.973,25.391,20.020,35.645,-13.184
1532392088.615,7.812,19.531,24.902,58.105,-10.254
1532392088.619,12.207,19.531,25.391,31.250,-11.719
1532392088.623,5.859,20.996,22.949,20.020,-18.066
1532392088.627,1.953,20.996,23.926,42.969,-5.371
1532392088.630,26.855,24.414,20.996,41.504,-1.953
1532392088.634,23.438,24.902,22.949,47.363,16.602
1532392088.638,1.953,22.949,24.414,23.438,31.250
1532392088.642,9.766,25.391,16.113,7.812,5.859
1532392088.646,14.160,27.344,16.113,30.762,15.137
1532392088.650,9.277,24.902,21.484,35.645,37.109
1532392088.654,12.695,21.484,24.414,41.992,29.785
1532392088.658,17.578,21.973,20.996,23.926,-1.465
1532392088.662,21.973,27.344,19.043,18.066,-12.695
1532392088.666,2.441,25.391,22.949,54.688,7.812
1532392088.670,-12.207,20.508,24.902,46.387,-2.441
1532392088.673,16.602,20.508,22.461,32.715,15.625
1532392088.677,22.461,22.461,19.531,24.902,0.000
1532392088.681,8.789,23.926,22.461,27.832,-24.414
1532392088.685,7.812,23.438,25.391,45.898,27.344
1532392088.689,12.695,23.926,20.020,20.996,45.410
1532392088.693,12.695,22.949,19.531,8.301,-9.277
1532392088.697,8.301,20.508,26.367,32.715,-18.066
1532392088.701,10.254,25.391,24.414,31.250,-9.766
1532392088.705,15.137,25.391,21.973,25.879,2.441
1532392088.709,26.855,22.461,18.066,27.344,-7.324
1532392088.712,28.320,25.879,14.160,6.836,-24.902
1532392088.716,41.992,29.785,14.160,10.742,14.160
1532392088.720,36.621,24.414,20.508,42.480,6.836
1532392088.724,17.090,21.973,22.461,51.758,-7.812
1532392088.728,20.508,24.414,19.043,42.969,-5.371
1532392088.732,17.578,23.926,21.484,45.898,18.555
1532392088.736,20.996,26.367,22.461,58.105,29.785
1532392088.740,21.973,26.855,20.020,30.762,26.855
1532392088.744,15.625,24.902,22.461,30.273,20.996
1532392088.748,15.625,26.367,20.508,40.527,0.488
1532392088.752,19.043,23.438,21.973,30.762,9.766
1532392088.755,4.883,21.484,21.484,42.480,37.598
1532392088.759,-8.301,20.020,20.508,67.871,-5.371
1532392088.763,-0.488,20.508,20.996,26.855,-35.645
1532392088.767,12.695,25.391,19.043,6.836,-12.695
1532392088.771,6.348,25.391,22.461,44.922,9.766
1532392088.775,-11.230,25.391,21.973,18.555,2.441
1532392088.779,-2.441,23.926,20.020,8.301,-18.066
1532392088.783,10.742,22.461,25.391,32.227,-27.344
1532392088.787,6.348,22.949,25.879,38.086,16.602
1532392088.791,-3.418,22.949,22.461,33.691,42.969
1532392088.794,-7.324,23.926,19.531,27.832,-6.348
1532392088.798,9.277,25.391,15.625,25.879,-18.066
1532392088.802,4.395,25.879,19.043,25.391,7.324
1532392088.806,-14.648,23.438,21.484,36.133,28.320
1532392088.810,-8.789,22.461,20.020,28.320,-10.254
1532392088.814,-0.977,25.391,17.578,20.508,-27.832
1532392088.818,14.648,25.391,18.555,23.438,16.602
1532392088.822,29.785,26.367,18.555,16.113,35.156
1532392088.826,29.297,30.273,17.578,18.555,-2.930
1532392088.830,41.016,26.855,19.043,33.691,-7.812
1532392088.834,30.762,24.414,21.484,30.762,34.668
1532392088.837,11.230,24.902,20.020,32.227,47.852
1532392088.841,16.602,24.902,18.555,23.438,24.414
1532392088.845,16.602,29.297,19.531,16.113,18.066
1532392088.849,23.926,27.832,20.020,7.324,37.598
1532392088.853,32.715,24.902,23.438,59.082,54.688
1532392088.857,20.508,26.855,21.484,38.574,35.645
1532392088.861,9.766,24.414,17.578,-22.461,-3.418
1532392088.865,26.855,22.461,21.973,17.578,28.809
1532392088.869,19.043,26.855,21.484,46.387,83.008
1532392088.873,6.836,27.344,20.996,34.180,80.566
1532392088.877,17.090,28.320,19.043,-11.719,36.133
1532392088.880,12.207,23.438,23.438,22.461,24.902
1532392088.884,11.230,20.508,26.855,36.621,56.641
1532392088.888,6.836,23.926,23.438,24.902,42.480
1532392088.892,3.418,24.902,22.949,20.508,53.223
1532392088.896,5.371,25.879,17.090,12.695,65.918
1532392088.900,12.695,23.926,18.066,19.531,42.480
1532392088.904,22.949,22.461,24.902,49.316,48.828
1532392088.908,14.160,21.973,25.879,60.059,28.320
1532392088.912,21.973,19.043,24.902,24.414,13.672
1532392088.916,23.926,17.578,24.902,14.160,36.133
1532392088.919,4.883,24.414,23.926,20.508,34.668
1532392088.923,8.789,29.297,19.043,21.973,1.465
1532392088.927,3.418,27.832,17.578,27.832,24.414
1532392088.931,30.762,25.879,20.508,20.508,50.293
1532392088.935,43.945,23.438,22.949,24.902,47.852
1532392088.939,34.180,21.973,23.438,42.480,52.734
1532392088.943,21.484,23.926,22.949,29.785,25.879
1532392088.947,12.207,24.414,23.438,23.926,2.441
1532392088.951,20.508,26.855,18.555,26.367,12.695
1532392088.955,32.715,33.203,6.836,31.738,21.973
1532392088.959,38.574,29.297,17.578,49.805,-12.695
1532392088.962,8.789,21.973,33.691,28.809,-30.273
1532392088.966,-3.418,20.508,31.250,15.137,-3.418
1532392088.970,16.113,18.066,32.715,28.809,30.273
1532392088.974,0.000,15.137,37.109,34.180,62.012
1532392088.978,-14.160,10.742,38.086,27.344,29.297
1532392088.982,-8.789,9.277,41.504,21.484,8.789
1532392088.986,-22.949,6.836,44.434,17.578,74.219
1532392088.990,-31.250,7.812,41.016,8.301,64.941
1532392088.994,-27.344,12.695,33.691,24.902,1.465
1532392088.998,-20.020,6.836,37.598,20.020,-15.137
1532392089.002,-28.320,-3.906,52.734,39.551,-1.465
1532392089.005,-24.414,3.418,43.945,39.551,18.555
1532392089.009,-4.395,12.207,31.738,16.602,5.371
1532392089.013,3.418,14.160,33.203,21.484,3.418
1532392089.017,10.742,15.137,33.203,24.414,21.973
1532392089.021,2.441,14.648,35.645,53.223,34.668
1532392089.025,0.488,14.160,32.715,31.738,41.016
1532392089.029,2.441,16.113,26.367,0.977,29.297
1532392089.033,14.160,16.113,30.762,51.270,34.180
1532392089.037,19.043,17.578,32.227,31.250,44.434
1532392089.041,10.254,20.020,25.391,5.859,42.480
1532392089.044,14.648,18.555,28.809,37.598,6.348
1532392089.048,24.902,20.020,30.762,32.227,-5.371
1532392089.052,17.090,21.973,29.785,31.250,15.625
1532392089.056,16.113,18.066,33.691,60.059,37.598
1532392089.060,19.043,20.020,28.320,48.340,-15.137
1532392089.064,29.785,23.438,25.879,13.672,-36.133
1532392089.068,31.250,22.949,23.926,33.203,11.719
1532392089.072,10.254,20.508,27.344,33.691,33.203
1532392089.076,3.906,17.578,35.156,24.902,31.250
1532392089.080,-4.883,19.531,30.762,14.648,11.719
1532392089.084,3.906,24.414,27.344,20.020,11.230
1532392089.087,8.301,24.902,25.879,50.293,55.664
1532392089.091,3.418,23.926,23.926,31.738,67.383
1532392089.095,8.301,22.949,24.414,13.184,41.992
1532392089.099,14.648,24.414,24.902,20.020,29.297
1532392089.103,3.906,21.484,28.809,3.418,25.391
1532392089.107,0.488,16.602,29.297,22.949,32.227
1532392089.111,20.996,18.555,26.855,47.363,16.113
1532392089.115,20.020,20.996,26.367,33.203,10.254
1532392089.119,19.531,23.926,24.414,24.414,29.297
1532392089.123,20.508,20.996,24.414,33.691,41.992
1532392089.126,6.836,21.484,26.855,33.203,8.301
1532392089.130,9.766,23.926,23.438,32.715,-13.672
1532392089.134,27.344,23.438,22.461,28.320,4.395
1532392089.138,20.996,24.902,23.926,16.113,20.508
1532392089.142,19.043,25.879,24.414,33.203,-7.812
1532392089.146,14.160,26.855,24.414,21.973,-22.461
1532392089.150,4.395,27.344,25.879,22.949,16.113
1532392089.154,19.043,29.297,24.414,42.480,41.992
1532392089.158,27.344,29.297,22.461,26.855,24.902
1532392089.162,13.672,22.949,28.320,22.461,-6.348
1532392089.166,3.418,21.484,26.855,34.668,9.277
1532392089.169,17.578,24.902,21.973,26.367,31.250
1532392089.173,22.461,23.438,21.973,16.113,34.668
1532392089.177,10.742,22.461,24.414,32.227,39.062
1532392089.181,7.812,22.949,26.855,44.434,-2.930
1532392089.185,25.391,26.367,22.949,31.250,-7.812
1532392089.189,13.184,29.297,19.531,26.367,42.969
1532392089.193,8.789,24.414,21.973,35.156,3.906
1532392089.197,26.367,25.879,25.391,39.551,-31.250
1532392089.201,14.648,30.273,27.344,33.691,-20.996
1532392089.205,16.113,30.273,26.855,19.531,-4.883
1532392089.209,10.254,27.832,23.438,5.859,24.414
1532392089.212,16.602,23.438,27.344,36.133,-5.371
1532392089.216,16.602,19.531,32.715,38.574,-7.324
1532392089.220,1.953,21.973,29.297,49.805,15.625
1532392089.224,6.348,23.438,30.762,58.594,11.230
1532392089.228,1.953,21.484,28.320,1.953,-1.465
1532392089.232,-0.488,26.855,25.879,20.996,-8.789
1532392089.236,15.625,32.227,29.785,33.203,54.199
1532392089.240,21.973,33.691,28.320,46.387,62.988
1532392089.244,25.879,43.457,15.625,29.297,-9.277
1532392089.248,27.344,46.387,9.277,0.000,6.348
1532392089.251,21.973,41.504,15.137,11.719,23.438
1532392089.255,38.574,44.434,12.207,33.203,35.156
1532392089.259,35.156,43.457,16.113,40.039,18.066
1532392089.263,13.184,47.363,14.160,20.996,-12.207
1532392089.267,14.648,58.594,3.418,23.438,22.949
1532392089.271,21.484,52.734,1.953,38.086,40.039
1532392089.275,38.574,45.898,6.836,41.504,7.324
1532392089.279,31.250,44.434,14.160,34.180,-19.531
1532392089.283,21.973,42.969,17.578,34.180,-11.230
1532392089.287,22.949,36.621,18.066,44.922,26.855
1532392089.291,3.906,35.156,18.066,41.016,31.738
1532392089.294,19.531,44.434,14.160,39.551,3.418
1532392089.298,20.508,48.828,8.789,29.297,-11.230
1532392089.302,10.742,45.898,9.766,24.414,11.719
1532392089.306,24.902,42.480,13.672,32.227,40.527
1532392089.310,21.973,35.645,16.602,47.363,4.395
1532392089.314,31.738,34.180,16.113,31.250,0.488
1532392089.318,16.113,38.574,8.789,2.930,22.461
1532392089.322,3.418,34.180,12.207,26.855,13.184
1532392089.326,18.066,30.762,15.137,44.434,11.719
1532392089.330,17.090,29.785,17.090,43.457,17.578
1532392089.334,14.648,27.344,21.484,32.227,1.465
1532392089.337,27.832,28.809,16.113,21.484,36.621
1532392089.341,28.320,31.738,16.113,31.250,31.250
1532392089.345,26.367,30.273,19.043,44.922,16.113
1532392089.349,23.926,29.297,20.020,36.621,54.688
1532392089.353,15.137,32.227,21.484,39.551,70.801
1532392089.357,20.508,34.180,16.602,19.531,70.801
1532392089.361,27.832,33.691,19.531,40.527,19.531
1532392089.365,30.762,31.738,23.926,30.273,22.461
1532392089.369,13.184,33.203,19.531,-8.789,45.898
1532392089.373,9.766,31.738,18.555,37.109,38.574
1532392089.376,37.109,32.227,19.531,39.551,35.156
1532392089.380,48.340,37.109,15.625,34.668,20.020
1532392089.384,17.090,30.273,17.090,40.039,21.973
1532392089.388,21.973,23.926,22.949,22.949,55.176
1532392089.392,40.527,26.855,22.949,18.555,59.082
1532392089.396,27.344,25.879,23.438,39.062,28.809
1532392089.400,28.809,29.297,19.043,32.715,0.977
1532392089.404,14.160,29.785,19.043,26.367,22.949
1532392089.408,-1.465,20.508,25.879,54.688,41.504
1532392089.412,5.859,19.531,22.461,58.105,6.836
1532392089.416,12.207,21.484,18.066,15.625,9.766
1532392089.419,10.254,22.461,19.531,15.137,49.805
1532392089.423,1.465,25.879,20.508,22.949,21.973
1532392089.427,11.719,25.879,19.531,33.203,17.090
1532392089.431,-0.977,25.391,20.020,44.922,38.574
1532392089.435,-4.883,24.414,19.043,24.414,58.594
1532392089.439,15.625,27.832,14.648,23.926,64.941
1532392089.443,13.672,29.785,17.090,24.902,14.160
1532392089.447,10.254,25.391,18.555,24.414,20.996
1532392089.451,3.906,25.391,18.066,44.922,59.082
1532392089.455,8.789,24.414,19.531,25.391,89.355
1532392089.458,10.742,21.484,17.578,1.953,66.406
1532392089.462,3.906,19.531,19.043,23.926,33.203
1532392089.466,9.766,23.438,18.066,62.012,53.223
1532392089.470,14.160,25.391,17.578,42.969,89.355
1532392089.474,24.902,25.391,18.555,4.395,104.492
1532392089.478,12.695,23.438,21.973,16.602,49.316
1532392089.482,-6.348,23.438,20.508,12.695,34.668
1532392089.486,11.719,25.879,16.113,10.742,59.570
1532392089.490,20.020,26.367,19.531,29.785,40.039
1532392089.494,3.906,27.344,18.555,17.578,18.066
1532392089.498,0.000,25.391,19.043,22.461,9.277
1532392089.501,9.766,28.320,23.926,28.320,26.367
1532392089.505,17.578,28.320,21.484,17.578,19.043
1532392089.509,11.230,24.414,19.043,30.762,-3.906
1532392089.513,3.418,19.531,21.484,24.414,8.301
1532392089.517,13.184,21.973,17.578,14.648,0.488
1532392089.521,9.277,28.320,15.137,25.391,-20.508
1532392089.525,-1.953,25.879,18.066,12.695,-11.230
1532392089.529,-2.930,23.926,19.043,-5.371,0.977
1532392089.533,18.555,25.391,20.508,21.973,27.832
1532392089.537,17.578,25.391,21.973,30.273,56.152
1532392089.541,9.766,23.926,24.902,33.203,27.832
1532392089.544,12.695,22.949,26.855,51.270,18.066
1532392089.548,13.672,22.949,21.973,20.020,32.715
1532392089.552,16.113,24.902,20.020,32.715,37.598
1532392089.556,18.066,23.438,24.902,46.875,44.922
1532392089.560,7.812,20.020,25.391,18.066,-8.789
1532392089.564,18.066,21.973,27.832,33.691,-20.996
1532392089.568,34.668,23.438,24.414,42.969,8.301
1532392089.572,15.137,19.531,23.926,35.156,23.926
1532392089.576,9.277,21.484,26.855,29.297,23.926
1532392089.580,22.949,27.344,23.926,21.973,-15.137
1532392089.583,24.902,27.832,20.508,40.527,-11.230
1532392089.587,24.902,25.391,22.461,50.293,28.320
1532392089.591,8.301,26.367,19.043,2.930,21.484
1532392089.595,0.000,23.438,20.996,19.531,16.602
1532392089.599,29.785,24.414,22.461,35.645,-16.602
1532392089.603,36.621,24.902,21.973,21.973,-15.137
1532392089.607,24.902,20.508,23.438,43.457,19.531
1532392089.611,29.785,27.344,20.020,66.406,7.812
1532392089.615,30.273,30.273,20.020,62.988,-22.949
1532392089.619,21.973,27.832,19.531,18.066,-41.992
1532392089.623,25.391,32.227,20.020,-6.348,-31.738
1532392089.626,16.602,29.785,22.461,24.414,-40.527
1532392089.630,4.395,20.996,25.391,45.898,-24.414
1532392089.634,10.742,21.484,24.414,27.832,32.227
1532392089.638,22.949,23.926,22.461,34.668,48.340
1532392089.642,29.297,21.484,25.391,52.246,27.832
1532392089.646,8.301,22.949,23.926,6.348,13.184
1532392089.650,0.000,22.461,26.367,8.789,25.391
1532392089.654,19.043,19.531,31.738,42.969,24.414
1532392089.658,29.297,20.508,30.762,39.062,-5.859
1532392089.662,5.371,21.973,27.344,16.113,-37.598
1532392089.665,-1.953,26.367,20.996,9.766,-23.438
1532392089.669,17.578,29.297,21.484,29.297,4.883
1532392089.673,19.531,25.391,23.926,34.668,29.785
1532392089.677,0.000,24.902,23.926,25.391,-0.977
1532392089.681,0.977,26.367,23.926,28.320,-23.438
1532392089.685,25.391,25.391,22.461,45.410,-7.324
1532392089.689,12.207,26.367,21.484,33.691,15.625
1532392089.693,6.348,21.973,23.438,18.066,28.320
1532392089.697,7.812,18.555,26.367,29.785,-7.812
1532392089.701,8.301,23.438,23.926,29.785,-17.090
1532392089.705,29.785,28.320,23.926,33.203,22.949
1532392089.708,20.508,29.297,21.484,36.621,-0.977
1532392089.712,-14.648,23.926,21.973,17.090,-26.367
1532392089.716,-12.207,22.461,22.949,7.324,-11.230
1532392089.720,3.418,25.879,21.973,47.852,3.906
1532392089.724,4.883,23.926,24.902,46.387,0.000
1532392089.728,9.277,20.020,24.902,-5.371,-17.090
1532392089.732,16.113,20.508,23.438,16.113,-14.648
1532392089.736,20.020,22.461,21.973,30.762,6.836
1532392089.740,18.555,22.949,24.902,32.227,7.324
1532392089.744,24.414,23.438,24.414,46.387,15.625
1532392089.748,11.230,21.484,23.926,47.363,23.438
1532392089.751,2.930,25.879,22.949,23.926,20.996
1532392089.755,15.625,25.391,22.461,30.273,46.875
1532392089.759,15.625,21.484,24.902,15.625,17.090
1532392089.763,24.414,23.926,25.879,12.207,-61.523
1532392089.767,22.461,20.020,28.320,41.016,-34.668
1532392089.771,11.719,23.926,21.973,31.250,40.527
1532392089.775,14.160,26.367,19.043,25.879,49.805
1532392089.779,25.879,25.879,18.555,24.414,3.906
1532392089.783,19.043,24.414,22.461,18.066,-22.949
1532392089.787,16.602,18.555,27.832,31.738,29.785
1532392089.790,10.254,18.555,25.391,26.367,58.105
1532392089.794,0.977,17.578,25.879,3.906,-7.324
1532392089.798,10.254,20.020,20.996,19.043,-31.250
1532392089.802,14.648,24.902,20.020,38.086,20.996
1532392089.806,10.254,24.414,18.555,-1.465,75.195
1532392089.810,11.230,22.461,15.625,-1.953,64.453
1532392089.814,12.695,20.020,19.043,32.227,40.527
1532392089.818,-3.906,17.090,21.484,20.996,32.227
1532392089.822,8.789,19.043,20.508,16.602,24.902
1532392089.826,20.020,23.926,18.066,19.531,46.387
1532392089.830,7.812,23.926,17.090,13.184,21.484
1532392089.833,17.578,23.926,22.949,24.414,11.719
1532392089.837,25.879,24.414,24.902,35.156,50.293
1532392089.841,20.020,24.414,22.949,25.391,19.531
1532392089.845,14.160,23.926,23.438,23.438,-2.930
1532392089.849,12.695,23.926,20.020,20.508,20.996
1532392089.853,20.508,24.902,18.066,21.484,68.359
1532392089.857,32.227,26.855,20.020,37.598,87.402
1532392089.861,11.719,21.973,23.926,57.617,27.344
1532392089.865,14.648,19.531,21.484,23.926,33.203
1532392089.869,29.297,25.391,14.648,5.371,59.570
1532392089.873,7.324,20.508,21.484,27.832,60.059
1532392089.876,14.648,18.555,23.438,20.508,62.500
1532392089.880,32.227,23.438,20.996,43.945,20.508
1532392089.884,26.855,25.879,21.973,67.383,-2.930
1532392089.888,26.855,29.785,20.996,35.156,43.457
1532392089.892,28.320,29.297,20.508,17.578,41.504
1532392089.896,21.973,24.414,20.508,37.598,13.184
1532392089.900,13.184,24.414,21.973,43.945,13.184
1532392089.904,19.531,29.785,15.625,9.277,25.391
1532392089.908,13.184,31.250,11.719,11.719,32.227
1532392089.912,11.719,28.809,14.160,21.973,18.066
1532392089.915,22.461,28.320,14.160,15.625,35.156
1532392089.919,12.207,27.344,19.043,45.898,54.199
1532392089.923,15.137,26.855,21.973,49.316,53.711
1532392089.927,17.090,30.762,17.578,3.418,45.410
1532392089.931,18.555,32.715,18.066,27.832,25.879
1532392089.935,-1.953,24.902,20.020,36.133,25.391
1532392089.939,-17.578,21.973,15.625,21.484,34.180
1532392089.943,13.184,28.320,12.695,18.066,11.719
1532392089.947,24.414,29.785,12.695,14.648,11.719
1532392089.951,12.207,32.227,13.672,8.789,6.348
1532392089.955,5.371,32.715,15.137,15.625,29.297
1532392089.958,8.789,30.762,16.602,21.973,26.855
1532392089.962,16.602,28.809,19.043,22.461,27.344
1532392089.966,-1.953,25.391,17.578,15.137,50.293
1532392089.970,-17.090,29.785,14.648,12.695,42.480
1532392089.974,-0.488,26.855,20.996,36.621,41.016
1532392089.978,-8.789,21.484,21.973,24.414,-6.348
1532392089.982,3.906,28.809,19.531,-0.977,5.859
1532392089.986,9.277,28.320,20.508,4.395,53.223
1532392089.990,-1.953,23.438,18.066,23.438,51.270
1532392089.994,6.836,23.926,18.066,20.996,36.621
1532392089.997,9.277,31.250,12.695,18.066,15.137
1532392090.001,24.902,34.180,10.254,29.297,18.066
1532392090.005,29.785,26.367,20.996,31.738,57.617
1532392090.009,-3.418,18.066,29.297,23.438,57.617
1532392090.013,-9.766,20.020,28.320,14.648,41.016
1532392090.017,-3.418,21.484,26.367,10.254,13.672
1532392090.021,-11.230,20.996,27.344,16.602,25.391
1532392090.025,0.977,21.484,26.367,10.742,56.641
1532392090.029,4.883,20.020,23.926,7.812,24.414
1532392090.033,-5.371,20.996,24.414,6.836,29.297
1532392090.037,-4.883,23.438,18.066,5.371,59.082
1532392090.040,20.996,29.297,13.184,7.324,31.738
1532392090.044,29.297,26.855,17.090,18.066,30.273
1532392090.048,16.602,20.996,17.578,10.254,44.922
1532392090.052,34.180,22.461,15.137,11.719,64.941
1532392090.056,35.156,20.508,13.672,24.902,87.402
1532392090.060,20.508,20.996,14.160,22.461,31.250
1532392090.064,9.277,23.438,15.625,15.137,1.953
1532392090.068,6.348,22.461,13.672,20.020,49.805
1532392090.072,11.230,20.020,17.578,39.062,74.707
1532392090.076,5.371,21.973,20.996,43.945,47.363
1532392090.080,-2.441,21.973,17.090,39.062,21.484
1532392090.083,-1.465,17.578,21.484,41.016,12.695
1532392090.087,14.160,22.949,20.508,25.391,19.531
1532392090.091,6.836,28.320,16.602,19.531,4.395
1532392090.095,10.254,26.367,20.020,30.273,-4.883
1532392090.099,17.578,27.832,17.090,35.156,1.953
1532392090.103,-2.930,21.484,20.020,42.480,9.277
1532392090.107,0.977,14.648,24.902,59.082,54.688
1532392090.111,17.090,20.996,16.602,33.691,46.875
1532392090.115,33.203,27.832,14.648,15.137,32.715
1532392090.119,38.086,27.344,18.555,34.668,36.621
1532392090.122,16.602,26.855,20.020,37.109,23.438
1532392090.126,20.996,30.273,15.625,14.648,8.789
1532392090.130,21.484,29.785,14.648,20.020,-3.906
1532392090.134,12.207,24.902,21.973,28.809,10.742
1532392090.138,18.066,25.879,21.973,31.250,22.949
1532392090.142,18.066,25.879,19.531,33.691,28.320
1532392090.146,12.207,26.855,20.508,17.090,48.828
1532392090.150,6.836,28.809,23.438,17.578,18.555
1532392090.154,13.184,26.855,22.461,57.129,12.207
1532392090.158,18.066,24.902,20.996,61.523,24.902
1532392090.162,21.973,24.902,20.020,21.484,-0.977
1532392090.165,14.160,22.461,23.438,23.438,20.020
1532392090.169,4.395,21.484,25.879,37.109,51.758
1532392090.173,16.113,25.879,18.555,22.949,58.594
1532392090.177,30.273,22.949,20.996,27.832,30.273
1532392090.181,29.297,21.973,24.414,37.598,-21.973
1532392090.185,15.625,22.949,25.391,35.156,13.672
1532392090.189,11.230,23.438,27.344,29.297,62.012
1532392090.193,18.066,27.344,25.391,27.344,37.598
1532392090.197,28.320,27.832,25.391,36.133,21.484
1532392090.201,15.625,29.785,25.879,35.645,30.273
1532392090.205,-1.953,28.809,24.414,19.531,50.781
1532392090.208,31.738,26.367,24.902,11.719,59.082
1532392090.212,33.691,27.832,20.508,26.855,10.742
1532392090.216,4.395,27.344,20.508,9.766,5.859
1532392090.220,21.973,26.367,24.414,7.324,38.086
1532392090.224,19.531,30.762,21.973,52.246,39.551
1532392090.228,13.184,29.785,21.973,26.855,14.648
1532392090.232,17.578,23.926,24.414,-6.348,-4.395
1532392090.236,9.766,24.902,26.367,23.926,1.953
1532392090.240,18.066,25.391,25.391,55.176,10.254
1532392090.244,26.367,24.414,22.949,24.414,3.906
1532392090.247,15.137,25.879,21.484,1.465,1.953
1532392090.251,20.020,29.785,20.508,20.508,3.906
1532392090.255,20.996,29.297,16.602,15.625,40.527
1532392090.259,8.789,24.414,20.020,9.277,16.602
1532392090.263,2.930,25.879,21.484,27.344,-13.184
1532392090.267,3.906,26.367,18.066,10.254,0.977
1532392090.271,11.719,24.414,19.531,-9.766,32.227
1532392090.275,20.508,25.391,19.043,-1.465,36.133
1532392090.279,27.832,25.879,20.020,19.043,-25.879
1532392090.283,7.324,22.461,22.949,20.996,-3.906
1532392090.287,1.953,21.484,18.066,-2.930,62.500
1532392090.290,17.578,21.484,16.602,14.160,57.129
1532392090.294,20.020,23.438,18.555,36.133,44.922
1532392090.298,18.555,27.344,17.090,19.043,6.836
1532392090.302,8.301,25.879,17.578,1.465,-13.184
1532392090.306,-2.441,26.367,19.531,34.668,48.340
1532392090.310,16.602,28.809,16.602,9.277,35.156
1532392090.314,4.883,25.391,17.578,7.812,26.367
1532392090.318,-8.789,20.996,20.508,26.367,59.082
1532392090.322,12.207,20.508,20.020,24.414,35.645
1532392090.326,8.789,23.926,16.113,28.320,55.664
1532392090.329,5.371,29.785,11.230,1.465,59.082
1532392090.333,4.883,26.855,15.625,1.953,40.527
1532392090.337,-2.441,21.973,23.438,10.742,71.777
1532392090.341,4.395,23.438,23.438,26.367,63.477
1532392090.345,11.230,24.902,19.531,39.551,24.902
1532392090.349,7.812,24.414,22.461,8.301,19.043
1532392090.353,15.625,22.461,24.414,-6.348,27.832
1532392090.357,19.043,24.902,21.484,3.906,74.707
1532392090.361,20.020,27.832,20.508,23.926,51.270
1532392090.365,4.883,21.973,26.367,29.785,-3.418
1532392090.369,-5.371,20.508,25.391,28.809,29.297
1532392090.372,22.461,27.832,18.066,35.156,51.270
1532392090.376,29.297,27.344,20.508,18.555,16.113
1532392090.380,6.836,24.414,23.438,12.207,13.672
1532392090.384,-10.254,23.926,25.391,13.184,38.574
1532392090.388,5.371,22.461,23.926,8.789,65.430
1532392090.392,5.371,21.973,22.949,24.414,71.289
1532392090.396,-12.207,22.949,21.484,17.578,38.086
1532392090.400,-5.371,22.461,19.043,20.508,20.996
1532392090.404,-7.324,21.484,20.996,23.926,15.625
1532392090.408,-8.301,21.973,20.020,8.789,20.996
1532392090.412,-15.137,24.902,20.996,19.531,21.484
1532392090.415,-11.719,23.926,24.414,26.367,2.930
1532392090.419,14.648,25.879,20.508,-5.859,14.648
1532392090.423,8.789,27.344,17.578,0.000,32.715
1532392090.427,-2.930,26.855,14.160,15.137,16.602
1532392090.431,6.348,29.785,12.695,-14.160,3.418
1532392090.435,7.324,27.832,17.578,25.879,31.250
1532392090.439,15.137,19.531,20.508,35.156,42.969
1532392090.443,30.762,21.973,15.625,-3.418,27.832
1532392090.447,30.273,26.367,14.160,14.648,20.508
1532392090.451,24.414,26.367,17.090,24.902,26.367
1532392090.454,10.254,24.902,18.555,25.879,39.551
1532392090.458,10.742,23.438,16.113,11.230,26.367
1532392090.462,16.602,24.414,13.672,10.742,-0.977
1532392090.466,9.766,23.438,14.648,3.906,3.906
1532392090.470,0.488,19.531,18.555,16.602,35.645
1532392090.474,3.418,18.555,19.531,38.574,60.059
1532392090.478,-13.184,23.926,13.672,14.160,22.949
1532392090.482,-5.371,25.391,12.695,0.977,-1.465
1532392090.486,17.578,21.973,17.090,25.879,25.391
1532392090.490,2.930,19.043,21.973,36.133,41.016
1532392090.494,-7.812,15.137,24.414,17.090,27.832
1532392090.497,-3.906,16.113,22.949,36.621,1.465
1532392090.501,1.465,24.414,17.090,42.969,4.395
1532392090.505,1.953,24.414,15.625,-20.020,28.320
1532392090.509,15.137,21.973,14.160,-8.301,32.715
1532392090.513,3.418,25.391,13.672,17.090,11.719
1532392090.517,-10.742,25.391,18.066,-1.465,39.551
1532392090.521,-1.953,22.949,19.531,9.277,78.613
1532392090.525,20.508,23.438,22.949,25.391,48.340
1532392090.529,35.156,25.879,22.949,19.043,36.621
1532392090.533,14.648,26.367,19.531,20.020,48.828
1532392090.536,22.949,22.461,22.461,30.762,45.410
1532392090.540,22.461,21.484,25.391,25.391,63.965
1532392090.544,4.883,22.949,21.973,38.574,60.059
1532392090.548,20.996,33.203,14.648,25.391,32.227
1532392090.552,20.996,35.645,12.207,-5.371,25.879
1532392090.556,11.719,33.203,13.672,10.254,72.754
1532392090.560,7.324,41.016,4.883,2.441,57.129
1532392090.564,4.883,35.645,4.883,0.000,1.465
1532392090.568,2.441,25.879,15.625,25.391,30.273
1532392090.572,2.930,27.832,16.113,31.250,81.055
1532392090.576,4.395,27.832,14.648,-5.859,74.219
1532392090.579,2.441,30.762,13.672,-15.625,25.879
1532392090.583,5.371,34.180,12.695,13.184,33.691
1532392090.587,5.859,29.297,12.695,11.230,53.711
1532392090.591,8.789,24.414,14.648,8.301,19.531
1532392090.595,-6.348,21.973,13.672,2.930,9.277
1532392090.599,-6.348,20.996,14.648,-2.441,4.395
1532392090.603,0.977,23.438,18.066,-4.883,11.719
1532392090.607,8.301,25.391,18.066,-0.977,65.430
1532392090.611,11.719,20.508,25.879,54.199,47.852
1532392090.615,-7.324,20.020,24.414,35.156,20.020
1532392090.619,9.766,23.926,17.578,-2.930,20.508
1532392090.622,30.762,26.367,17.578,23.926,42.480
1532392090.626,27.832,24.414,17.578,29.785,40.039
1532392090.630,29.297,27.344,18.066,25.391,14.160
1532392090.634,32.227,31.738,14.648,25.391,28.809
1532392090.638,41.016,25.879,14.648,30.762,45.898
1532392090.642,32.715,29.785,12.207,34.180,10.742
1532392090.646,6.836,26.855,18.555,32.715,-8.301
1532392090.650,0.977,19.043,22.461,0.977,10.254
1532392090.654,18.066,24.414,16.602,11.230,38.086
1532392090.658,17.578,25.391,17.578,39.551,43.457
1532392090.661,6.348,22.461,18.555,12.695,11.719
1532392090.665,18.555,21.973,18.555,2.930,13.672
1532392090.669,23.926,24.902,16.602,51.270,23.926
1532392090.673,-13.672,20.508,20.508,49.316,41.992
1532392090.677,-18.555,15.137,23.926,-13.184,33.203
1532392090.681,5.371,17.090,22.461,-1.953,-11.719
1532392090.685,1.953,16.602,20.996,42.969,-9.277
1532392090.689,19.043,19.531,18.066,44.922,47.363
1532392090.693,13.184,24.414,18.066,5.371,40.039
1532392090.697,-11.719,24.902,17.090,-1.953,30.273
1532392090.701,-5.859,23.926,17.578,-3.906,15.625
1532392090.704,-3.906,22.949,18.066,-9.277,20.020
1532392090.708,18.066,23.926,17.578,3.418,50.293
1532392090.712,32.227,28.809,15.625,22.949,24.902
1532392090.716,37.109,27.344,18.066,42.480,35.645
1532392090.720,41.504,29.297,10.742,-18.555,35.645
1532392090.724,19.043,26.855,11.230,-19.531,23.926
1532392090.728,16.113,20.020,24.414,26.367,16.113
1532392090.732,12.207,20.508,23.926,35.156,16.113
1532392090.736,-6.836,18.066,25.391,35.156,33.691
1532392090.740,-14.648,20.020,22.949,13.184,34.180
1532392090.744,-9.277,20.996,18.066,25.879,1.953
1532392090.747,-10.742,25.391,14.160,42.969,-5.859
1532392090.751,7.324,26.367,13.184,14.648,21.484
1532392090.755,16.113,23.926,19.531,13.672,49.316
1532392090.759,-8.301,26.367,15.625,22.461,19.531
1532392090.763,-16.602,23.438,16.602,32.715,9.766
1532392090.767,-0.488,23.438,17.090,17.578,45.410
1532392090.771,2.930,25.879,18.066,11.230,57.129
1532392090.775,-1.465,24.902,20.508,20.508,45.898
1532392090.779,0.977,25.391,18.066,20.508,25.879
1532392090.783,3.418,26.855,15.625,11.230,25.879
1532392090.786,9.766,25.391,14.160,11.230,16.602
1532392090.790,13.184,26.367,20.020,28.320,25.879
1532392090.794,5.371,28.320,20.508,22.949,26.367
1532392090.798,-1.953,25.391,16.602,-7.812,-9.277
1532392090.802,-0.488,20.996,20.508,0.977,8.789
1532392090.806,-10.254,20.996,22.461,24.902,47.852
1532392090.810,-5.859,22.949,17.090,19.531,33.691
1532392090.814,14.160,25.879,15.137,28.809,13.184
1532392090.818,2.930,27.832,16.113,18.066,16.602
1532392090.822,-0.977,27.344,16.113,11.719,44.434
1532392090.826,0.000,22.949,18.555,23.926,40.527
1532392090.829,-0.488,25.391,18.555,22.461,2.441
1532392090.833,10.742,30.273,15.625,34.180,17.090
1532392090.837,8.789,22.461,17.578,27.344,19.531
1532392090.841,8.301,21.973,16.113,47.363,-15.137
1532392090.845,10.742,30.762,9.277,31.250,-12.695
1532392090.849,26.367,28.809,9.766,-2.930,-12.695
1532392090.853,26.367,22.949,14.160,19.043,34.180
1532392090.857,14.648,23.438,14.160,30.273,51.270
1532392090.861,20.020,27.344,13.672,23.926,-20.508
1532392090.865,11.719,24.902,11.230,6.348,-6.836
1532392090.868,17.578,20.996,14.648,15.137,25.391
1532392090.872,22.949,23.438,17.578,25.391,5.371
1532392090.876,4.883,23.438,18.555,30.762,-1.953
1532392090.880,11.719,23.438,19.531,23.438,-5.371
1532392090.884,15.625,27.832,20.996,-1.465,2.930
1532392090.888,12.695,25.879,21.973,-5.371,32.715
1532392090.892,32.227,25.879,22.461,18.555,19.531
1532392090.896,32.715,26.855,21.973,42.480,19.043
1532392090.900,13.672,23.926,23.438,44.434,16.113
1532392090.904,13.672,23.926,27.344,39.551,33.691
1532392090.908,20.020,25.879,24.414,19.531,29.297
1532392090.911,20.508,29.297,19.043,43.945,6.836
1532392090.915,12.207,28.320,17.578,46.875,23.926
1532392090.919,12.695,27.344,18.066,-16.113,36.133
1532392090.923,8.789,26.855,20.508,-15.137,15.625
1532392090.927,7.324,20.996,24.414,25.879,18.066
1532392090.931,17.090,22.949,20.508,22.949,43.457
1532392090.935,34.668,26.367,17.090,3.906,35.645
1532392090.939,24.902,29.297,18.066,17.578,36.133
1532392090.943,5.371,31.250,15.625,8.789,18.555
1532392090.947,20.020,24.414,20.020,31.250,-5.371
1532392090.951,17.090,21.484,25.391,50.781,5.859
1532392090.954,15.625,24.902,20.508,2.930,41.016
1532392090.958,21.973,29.297,17.578,3.418,-4.395
1532392090.962,18.555,27.344,18.066,31.738,-30.762
1532392090.966,13.184,21.973,19.043,34.668,5.859
1532392090.970,14.160,21.973,23.926,57.129,16.113
1532392090.974,8.789,23.438,24.902,41.504,26.855
1532392090.978,12.695,26.855,13.672,-2.441,2.930
1532392090.982,12.695,31.738,13.184,2.930,-15.625
1532392090.986,12.695,32.715,15.625,22.461,27.832
1532392090.990,12.207,30.273,17.090,34.668,74.707
1532392090.993,16.602,26.367,21.973,39.062,35.156
1532392090.997,28.809,27.344,20.996,26.367,16.602
1532392091.001,33.203,27.344,17.578,20.508,41.504
1532392091.005,26.855,21.484,21.973,40.039,33.691
1532392091.009,2.930,21.973,20.020,10.254,23.926
1532392091.013,9.277,28.809,15.625,-19.043,21.973
1532392091.017,27.344,30.273,18.066,9.766,13.184
1532392091.021,23.438,27.832,20.508,15.137,6.836
1532392091.025,19.531,28.809,19.531,2.930,5.371
1532392091.029,23.926,28.320,17.578,13.184,2.441
1532392091.033,23.438,24.902,20.508,36.621,-9.277
1532392091.036,33.203,26.855,22.461,38.574,2.930
1532392091.040,26.855,31.738,16.602,17.090,26.367
1532392091.044,23.438,29.297,19.043,61.035,-2.930
1532392091.048,29.785,30.762,18.555,51.758,2.930
1532392091.052,4.883,30.273,12.207,-4.395,41.016
1532392091.056,4.395,26.855,18.555,26.855,54.199
1532392091.060,19.531,25.391,22.949,47.363,6.348
1532392091.064,28.320,22.949,21.484,36.621,-30.762
1532392091.068,40.039,26.367,23.926,33.203,6.836
1532392091.072,27.832,28.809,24.902,39.551,41.016
1532392091.076,18.555,27.832,16.113,25.391,8.789
1532392091.079,28.320,30.762,9.766,-6.348,-29.297
1532392091.083,26.855,32.715,17.090,6.348,-1.953
1532392091.087,17.578,29.297,23.438,41.016,68.848
1532392091.091,14.160,30.762,21.484,29.297,79.102
1532392091.095,19.043,30.762,16.113,7.812,26.855
1532392091.099,25.391,29.785,12.207,16.602,12.207
1532392091.103,16.602,33.203,20.020,34.668,28.809
1532392091.107,10.254,26.367,26.855,8.301,20.508
1532392091.111,4.883,23.926,19.531,1.953,-0.977
1532392091.115,11.719,28.809,12.695,24.414,-12.695
1532392091.118,33.203,28.809,13.672,20.020,-3.418
1532392091.122,29.297,30.762,18.555,17.578,8.789
1532392091.126,24.414,31.250,18.066,27.344,-3.906
1532392091.130,18.066,30.762,17.090,31.250,35.645
1532392091.134,3.418,28.809,18.066,33.691,36.133
1532392091.138,16.113,25.879,18.066,23.926,31.250
1532392091.142,18.555,30.273,17.090,9.766,25.391
1532392091.146,28.320,34.180,12.695,0.488,-5.859
1532392091.150,24.902,26.855,15.625,5.859,9.277
1532392091.154,13.184,23.926,21.973,40.527,27.832
1532392091.158,1.953,24.902,24.414,43.945,11.230
1532392091.161,4.883,21.484,23.438,11.230,-49.316
1532392091.165,27.344,23.926,19.043,9.766,-56.152
1532392091.169,33.691,33.691,17.090,22.949,3.906
1532392091.173,27.832,35.156,13.672,12.695,40.527
1532392091.177,20.996,28.320,12.695,27.832,5.859
1532392091.181,25.879,30.273,16.113,29.297,-6.348
1532392091.185,35.645,30.762,19.531,12.207,16.113
1532392091.189,17.090,25.391,21.484,20.020,22.461
1532392091.193,-0.488,25.879,22.461,28.809,26.367
1532392091.197,6.348,26.367,23.438,27.344,3.906
1532392091.200,8.301,25.879,23.438,26.855,18.555
1532392091.204,21.484,30.273,20.020,12.695,65.430
1532392091.208,19.043,27.832,24.902,62.988,48.340
1532392091.212,3.906,24.414,26.367,45.410,0.000
1532392091.216,10.254,23.926,20.020,-0.488,2.930
1532392091.220,-3.418,22.461,21.973,12.695,17.578
1532392091.224,0.488,26.367,20.020,1.953,4.395
1532392091.228,15.137,25.879,19.043,14.648,-18.555
1532392091.232,17.578,23.926,20.020,16.602,-1.465
1532392091.236,23.926,26.855,14.648,19.531,59.570
1532392091.240,20.020,26.855,13.672,2.441,39.551
1532392091.243,10.742,23.438,19.043,-4.883,-8.789
1532392091.247,9.277,24.414,18.066,6.836,-0.977
1532392091.251,16.113,26.367,19.531,10.742,20.508
1532392091.255,30.273,25.879,17.090,21.973,33.691
1532392091.259,21.484,23.438,18.555,15.137,8.301
1532392091.263,-4.395,24.902,17.090,3.418,-12.207
1532392091.267,15.137,26.367,13.672,8.789,-8.301
1532392091.271,42.480,26.855,14.160,16.602,42.969
1532392091.275,34.180,27.344,13.672,32.715,63.965
1532392091.279,13.672,27.832,8.789,24.414,6.348
1532392091.283,5.859,20.996,8.301,7.324,22.949
1532392091.286,12.207,14.648,18.066,9.766,25.391
1532392091.290,25.879,19.531,17.578,23.926,14.648
1532392091.294,32.227,24.414,12.207,30.762,0.977
1532392091.298,26.367,24.902,13.184,48.828,-40.527
1532392091.302,20.020,24.902,16.113,39.062,0.000
1532392091.306,27.344,28.320,16.602,21.484,55.176
1532392091.310,37.109,28.320,15.137,15.625,30.762
1532392091.314,22.949,27.344,13.184,13.672,25.879
1532392091.318,19.043,25.391,16.113,21.973,28.809
1532392091.322,24.414,24.414,21.484,18.555,13.184
1532392091.325,10.742,20.996,19.531,49.316,57.617
1532392091.329,18.066,22.461,13.672,16.602,54.199
1532392091.333,25.879,28.320,14.648,-22.949,8.789
1532392091.337,21.484,20.996,24.414,18.066,23.926
1532392091.341,27.344,20.020,20.508,32.227,14.160
1532392091.345,10.254,24.902,12.695,14.648,-11.230
1532392091.349,-6.836,24.902,13.672,14.160,18.555
1532392091.353,7.324,24.902,16.602,19.531,28.320
1532392091.357,23.926,25.879,14.648,5.859,31.250
1532392091.361,20.996,24.414,16.602,24.902,-5.371
1532392091.365,21.484,23.926,17.578,16.113,-14.648
1532392091.368,22.949,28.320,12.695,21.484,41.504
1532392091.372,12.695,26.855,11.719,21.484,60.059
1532392091.376,19.531,26.367,11.230,13.672,28.809
1532392091.380,15.137,29.785,10.742,18.555,0.000
1532392091.384,20.996,27.832,10.254,23.438,18.555
1532392091.388,38.574,25.391,10.742,15.625,63.965
1532392091.392,30.273,25.879,13.672,31.250,28.809
1532392091.396,11.230,26.367,14.160,19.043,-30.762
1532392091.400,11.719,23.438,13.672,5.859,-20.508
1532392091.404,19.531,21.973,11.719,5.859,1.465
1532392091.407,16.113,24.414,8.301,-2.930,24.902
1532392091.411,27.344,24.902,11.230,-3.906,18.555
1532392091.415,36.621,27.832,15.137,4.395,16.602
1532392091.419,31.250,29.785,15.137,6.348,22.461
1532392091.423,30.762,25.879,18.066,13.184,13.672
1532392091.427,32.227,23.926,21.484,34.668,12.207
1532392091.431,29.297,22.949,21.484,36.621,6.836
1532392091.435,37.598,26.855,20.996,34.180,20.020
1532392091.439,25.391,27.344,21.973,37.598,51.758
1532392091.443,5.371,22.461,23.926,31.738,6.348
1532392091.447,10.254,21.484,18.555,60.547,13.672
1532392091.450,-2.930,21.484,16.602,53.223,46.387
1532392091.454,8.789,17.090,19.531,26.367,22.461
1532392091.458,25.391,16.602,16.602,36.133,15.625
1532392091.462,-2.441,24.414,12.695,23.438,13.672
1532392091.466,-4.883,27.344,12.207,7.812,15.137
1532392091.470,11.230,26.367,13.672,8.301,29.297
1532392091.474,9.766,25.879,14.648,16.113,48.828
1532392091.478,13.672,24.414,17.578,13.672,22.949
1532392091.482,15.137,23.926,16.113,16.113,6.836
1532392091.486,14.160,26.367,16.113,38.574,24.902
1532392091.490,30.762,28.320,19.043,45.410,41.504
1532392091.493,29.297,28.320,16.113,18.555,17.090
1532392091.497,-2.930,30.273,14.648,-5.371,-3.418
1532392091.501,-0.488,29.297,10.742,-20.996,-1.465
1532392091.505,15.625,22.949,14.648,13.672,42.480
1532392091.509,13.184,22.949,17.578,49.316,41.504
1532392091.513,5.859,26.367,12.695,9.766,8.789
1532392091.517,18.555,25.879,11.230,-7.324,15.137
1532392091.521,23.438,23.438,17.090,25.391,38.574
1532392091.525,19.043,24.414,15.137,37.598,37.598
1532392091.529,13.672,24.414,18.066,26.367,0.977
1532392091.532,12.695,26.367,20.020,18.555,9.766
1532392091.536,16.113,32.227,10.742,21.484,26.367
1532392091.540,20.996,28.809,15.137,23.926,1.953
1532392091.544,22.949,25.879,19.043,16.602,-25.391
1532392091.548,16.602,26.367,16.113,30.762,-6.836
1532392091.552,2.930,24.902,18.555,46.387,-1.465
1532392091.556,15.137,25.391,19.531,-0.977,16.602
1532392091.560,29.785,28.809,15.137,-2.930,10.742
1532392091.564,20.996,31.250,13.672,17.578,4.883
1532392091.568,24.414,25.879,20.020,52.734,32.715
1532392091.572,8.301,23.926,20.020,21.484,50.293
1532392091.575,-0.488,28.809,9.277,-41.016,18.555
1532392091.579,7.812,28.809,10.742,7.812,-12.207
1532392091.583,11.230,28.320,13.184,21.484,-5.859
1532392091.587,15.137,28.320,13.672,13.672,40.527
1532392091.591,4.395,26.855,16.602,12.695,29.785
1532392091.595,-2.930,24.902,18.555,14.160,-16.113
1532392091.599,2.441,25.391,19.043,27.344,2.930
1532392091.603,14.648,28.320,18.066,48.340,23.926
1532392091.607,15.137,24.902,20.020,31.250,41.016
1532392091.611,4.883,24.414,18.066,0.488,11.719
1532392091.615,21.484,33.203,13.184,17.090,0.977
