timestamps,TP9,AF7,AF8,TP10,Right AUX
1532402136.997,-44.434,30.273,37.109,-28.809,42.480
1532402137.001,-41.504,31.250,37.598,-18.555,37.109
1532402137.005,-31.250,33.691,38.086,13.672,20.508
1532402137.009,-39.551,31.738,37.109,-7.812,16.113
1532402137.012,-35.156,33.203,38.086,-55.664,24.902
1532402137.016,-18.555,30.762,43.457,-21.973,-2.441
1532402137.020,4.883,28.809,43.945,-16.113,-6.836
1532402137.024,-18.066,28.809,40.039,-59.082,10.254
1532402137.028,-46.875,29.785,42.969,21.484,14.648
1532402137.032,-22.461,34.180,40.527,16.602,13.184
1532402137.036,-32.715,33.203,41.504,-30.273,6.348
1532402137.040,-65.918,32.227,39.551,-27.832,11.719
1532402137.044,-66.406,33.203,35.156,-53.223,38.086
1532402137.048,-53.223,33.691,42.480,-25.391,55.664
1532402137.051,-51.270,36.133,41.992,-18.066,19.043
1532402137.055,-63.477,36.621,40.039,-33.691,9.277
1532402137.059,-60.059,35.645,40.039,-26.367,17.578
1532402137.063,-36.133,35.156,36.621,24.414,34.180
1532402137.067,-62.500,33.203,37.598,-9.277,39.551
1532402137.071,-69.824,32.715,42.480,-55.664,8.789
1532402137.075,-47.852,32.227,41.992,-16.113,15.625
1532402137.079,-62.988,30.273,37.109,4.883,30.762
1532402137.083,-64.941,33.691,32.227,-13.672,17.578
1532402137.087,-58.105,40.039,31.250,-20.996,-5.371
1532402137.091,-42.969,38.086,35.645,-33.203,1.953
1532402137.094,-16.602,39.551,37.109,-4.395,39.551
1532402137.098,-58.105,40.039,39.551,29.785,34.180
1532402137.102,-80.566,35.156,38.574,-11.230,0.000
1532402137.106,-67.383,37.109,35.156,-17.578,-17.090
1532402137.110,-21.973,41.504,34.668,-40.527,-14.160
1532402137.114,-11.719,38.574,35.645,-34.668,-17.090
1532402137.118,-48.828,40.527,35.156,-30.273,3.906
1532402137.122,-37.598,41.016,38.086,-18.555,12.695
1532402137.126,-41.992,39.062,40.039,50.781,48.340
1532402137.130,-54.688,38.574,37.109,-0.977,49.316
1532402137.134,-44.922,37.109,35.156,-56.641,24.902
1532402137.137,-40.039,40.527,40.527,-13.672,42.969
1532402137.141,-28.809,37.598,48.340,-3.906,48.340
1532402137.145,-34.668,37.598,45.410,-12.207,56.641
1532402137.149,-42.969,41.992,35.645,-4.883,15.625
1532402137.153,-22.949,41.504,35.645,-10.254,-4.883
1532402137.157,-16.113,40.527,37.109,-30.762,-2.441
1532402137.161,-48.340,40.527,38.086,-18.555,7.324
1532402137.165,-50.781,37.598,47.363,39.551,30.762
1532402137.169,-16.113,38.574,45.410,-8.789,23.926
1532402137.173,-30.762,38.086,39.062,-89.355,-11.719
1532402137.176,-49.316,37.109,41.504,-59.082,18.066
1532402137.180,-17.578,42.969,39.062,-24.902,51.758
1532402137.184,-15.625,39.551,38.086,-0.977,-3.906
1532402137.188,-49.805,36.621,38.086,-25.391,9.766
1532402137.192,-38.574,41.992,34.180,-40.527,51.758
1532402137.196,-38.086,42.480,34.668,-12.207,48.828
1532402137.200,-22.461,42.969,33.691,-7.812,30.273
1532402137.204,-19.531,40.527,37.109,-41.016,23.438
1532402137.208,-28.809,36.621,43.945,16.602,16.113
1532402137.212,-17.578,39.551,41.504,44.434,3.906
1532402137.216,-28.320,41.504,33.203,-71.289,11.719
1532402137.219,-39.062,39.551,33.203,-32.715,0.977
1532402137.223,-31.250,39.551,35.156,8.789,16.113
1532402137.227,-24.902,38.574,36.133,-41.992,52.246
1532402137.231,-9.277,39.551,35.645,-44.434,24.414
1532402137.235,-15.625,41.016,34.668,-31.250,-4.883
1532402137.239,-27.832,41.016,35.156,-5.859,7.812
1532402137.243,10.742,41.504,34.668,-37.598,30.762
1532402137.247,38.086,39.551,39.062,-16.602,48.828
1532402137.251,24.414,39.062,36.621,-17.090,40.527
1532402137.255,19.043,39.062,35.645,-39.062,21.484
1532402137.258,59.082,40.039,33.691,-38.574,-1.465
1532402137.262,69.336,40.039,27.832,-36.133,40.527
1532402137.266,24.414,32.227,35.645,18.066,31.738
1532402137.270,38.574,28.809,32.715,-32.227,-15.137
1532402137.274,53.711,37.109,29.785,-64.941,-11.719
1532402137.278,63.477,37.598,33.691,-17.090,38.086
1532402137.282,62.988,35.156,34.180,-10.254,32.715
1532402137.286,23.926,35.156,35.156,-1.465,13.184
1532402137.290,22.949,38.574,33.691,-17.578,30.273
1532402137.294,41.016,39.551,30.762,-14.648,4.883
1532402137.298,35.645,38.086,30.273,5.859,-4.883
1532402137.301,30.762,39.551,30.762,-11.230,15.625
1532402137.305,39.062,38.574,29.297,-39.551,25.879
1532402137.309,55.176,37.598,28.320,-51.270,13.672
1532402137.313,37.598,40.039,33.691,-32.227,7.812
1532402137.317,17.090,38.574,33.691,-24.414,9.277
1532402137.321,36.621,38.086,32.715,-1.953,11.230
1532402137.325,47.363,41.016,34.180,-0.977,57.617
1532402137.329,22.461,39.551,32.227,-33.691,49.805
1532402137.333,20.996,41.992,30.273,-38.574,-9.277
1532402137.337,29.297,42.969,30.273,-16.602,0.977
1532402137.341,13.672,42.480,29.785,-27.832,1.953
1532402137.344,26.367,46.387,26.367,-38.086,15.137
1532402137.348,43.945,41.016,30.762,10.742,-4.883
1532402137.352,39.062,39.062,39.551,-0.977,-50.781
1532402137.356,20.508,47.363,38.574,15.625,-23.926
1532402137.360,22.461,48.340,34.668,-20.996,37.109
1532402137.364,15.137,41.992,38.086,-41.992,42.969
1532402137.368,16.113,37.598,38.574,17.578,14.648
1532402137.372,46.875,42.480,34.180,19.043,17.578
1532402137.376,21.973,41.992,35.645,-16.602,34.668
1532402137.380,15.625,36.621,37.109,-12.207,31.738
1532402137.383,29.297,40.527,33.691,28.320,33.203
1532402137.387,22.949,43.457,29.297,-33.691,21.973
1532402137.391,37.109,42.480,30.762,-46.875,8.789
1532402137.395,4.395,39.551,36.133,-2.441,15.137
1532402137.399,6.348,38.574,34.180,31.738,15.625
1532402137.403,48.340,41.504,29.297,23.438,12.695
1532402137.407,16.602,39.062,25.391,-36.133,15.625
1532402137.411,-1.953,35.645,30.273,-61.523,21.484
1532402137.415,11.230,37.598,29.297,-26.855,10.254
1532402137.419,23.438,38.086,27.832,-4.395,2.441
1532402137.423,27.344,32.227,33.203,0.488,0.977
1532402137.426,32.715,31.250,32.715,-21.973,36.133
1532402137.430,8.789,37.598,30.273,3.418,31.250
1532402137.434,-0.977,36.133,30.762,-2.930,-21.973
1532402137.438,19.531,35.645,32.715,-34.668,9.277
1532402137.442,-0.488,36.133,33.691,-8.789,39.062
1532402137.446,13.672,39.062,30.762,-3.906,47.852
1532402137.450,28.320,38.574,30.273,-6.348,20.508
1532402137.454,15.137,36.621,28.320,-55.664,-8.789
1532402137.458,-4.883,38.086,23.926,-45.410,3.418
1532402137.462,5.371,39.551,21.973,-27.832,44.922
1532402137.466,6.836,37.598,23.926,9.277,59.570
1532402137.469,-0.977,36.621,24.902,29.297,12.207
1532402137.473,-6.348,37.109,24.902,-40.039,-2.930
1532402137.477,-4.883,31.250,33.203,-7.324,39.062
1532402137.481,10.742,29.785,31.738,6.836,51.758
1532402137.485,-23.438,34.180,26.367,-44.922,11.230
1532402137.489,-33.691,33.691,32.715,-37.109,-5.859
1532402137.493,-9.277,31.738,37.109,-23.438,12.695
1532402137.497,2.930,33.691,35.156,-6.836,40.527
1532402137.501,-9.766,31.250,34.668,-14.160,56.152
1532402137.505,-13.184,30.762,40.527,-27.344,65.430
1532402137.508,-20.508,36.621,37.598,-12.207,59.570
1532402137.512,-30.762,36.621,34.668,1.953,55.664
1532402137.516,20.508,35.645,37.109,-24.414,37.598
1532402137.520,13.184,31.738,41.016,2.441,36.621
1532402137.524,-25.879,24.902,44.922,1.465,61.523
1532402137.528,-3.418,33.203,36.621,-44.434,42.480
1532402137.532,-5.371,39.551,27.832,-15.625,15.625
1532402137.536,-0.977,36.133,29.297,36.621,10.254
1532402137.540,10.254,32.227,30.273,-14.160,27.344
1532402137.544,-1.953,26.367,32.227,-19.531,60.547
1532402137.548,-5.859,31.250,31.738,7.812,50.293
1532402137.551,2.930,39.551,24.414,-38.574,-9.277
1532402137.555,-1.953,39.062,22.949,-18.066,-34.668
1532402137.559,12.207,33.203,24.902,-1.465,1.953
1532402137.563,17.578,33.203,24.414,2.441,26.855
1532402137.567,23.438,39.062,29.297,24.902,13.184
1532402137.571,17.090,39.551,30.762,-3.418,1.465
1532402137.575,21.484,39.551,28.320,-5.859,4.883
1532402137.579,34.180,39.062,26.855,6.348,5.371
1532402137.583,10.742,35.645,27.832,9.766,11.719
1532402137.587,8.301,37.109,28.809,18.066,18.555
1532402137.591,35.156,41.992,24.414,-25.391,1.953
1532402137.594,30.762,38.086,27.344,-19.531,6.348
1532402137.598,58.594,36.133,33.691,14.648,48.828
1532402137.602,28.809,38.574,27.832,-13.672,44.434
1532402137.606,7.812,42.480,21.484,-20.508,37.598
1532402137.610,37.598,40.527,26.367,0.977,37.109
1532402137.614,21.973,38.086,28.809,8.789,81.543
1532402137.618,12.207,36.621,31.738,4.883,64.941
1532402137.622,17.578,36.621,30.762,3.418,42.480
1532402137.626,53.223,43.457,29.785,41.992,58.105
1532402137.630,40.039,42.480,28.320,-19.531,31.250
1532402137.633,11.230,31.738,28.809,-50.781,-3.906
1532402137.637,10.742,31.250,30.762,-18.555,-7.812
1532402137.641,19.531,35.645,29.785,-7.324,26.367
1532402137.645,29.297,33.691,34.668,12.695,77.148
1532402137.649,12.695,37.109,30.273,-20.508,55.176
1532402137.653,19.531,42.969,25.879,-12.695,19.531
1532402137.657,23.438,44.434,29.785,0.488,12.207
1532402137.661,23.926,36.133,38.574,-15.137,23.926
1532402137.665,38.086,35.645,38.574,0.000,71.777
1532402137.669,15.137,41.504,28.809,1.465,36.133
1532402137.673,-10.254,36.621,30.762,7.324,9.277
1532402137.676,5.859,35.156,31.250,-22.949,40.039
1532402137.680,44.922,36.133,30.762,0.977,44.922
1532402137.684,14.160,36.621,28.809,-7.812,35.156
1532402137.688,10.742,36.133,28.809,-32.715,26.367
1532402137.692,27.832,30.762,35.156,14.160,6.836
1532402137.696,-12.207,27.344,33.691,28.320,32.715
1532402137.700,6.348,33.691,25.879,-39.062,62.988
1532402137.704,16.602,33.691,31.250,-56.641,54.199
1532402137.708,34.668,33.691,31.250,-8.789,32.715
1532402137.712,68.359,39.062,23.926,34.668,51.758
1532402137.715,16.602,29.785,35.645,6.348,52.734
1532402137.719,-47.363,27.344,42.969,-59.570,13.184
1532402137.723,-38.086,33.203,39.551,-43.945,32.227
1532402137.727,-3.906,31.738,43.457,-34.180,69.824
1532402137.731,-21.973,33.691,41.992,-47.363,31.250
1532402137.735,-52.734,29.297,47.852,-27.832,9.277
1532402137.739,-44.922,25.391,51.270,-54.199,25.879
1532402137.743,-39.551,25.391,50.781,-74.707,33.203
1532402137.747,-47.363,25.879,53.223,-24.902,56.641
1532402137.751,-49.316,28.809,48.340,-42.480,57.129
1532402137.755,-43.457,27.344,46.387,-90.820,22.949
1532402137.758,-20.020,27.344,43.945,-24.414,41.504
1532402137.762,-17.090,30.762,42.480,-26.367,106.445
1532402137.766,-18.555,29.785,43.945,-36.621,100.098
1532402137.770,-18.555,24.414,44.434,-22.949,51.758
1532402137.774,-12.695,24.902,44.922,-61.523,46.875
1532402137.778,-7.812,29.297,45.898,-47.852,78.125
1532402137.782,-19.531,28.809,43.945,16.602,97.168
1532402137.786,5.859,29.297,38.086,-15.625,90.332
1532402137.790,-6.348,32.227,38.086,-62.500,51.758
1532402137.794,-30.762,31.250,39.551,-34.180,63.477
1532402137.798,-29.297,31.250,35.645,-18.066,69.336
1532402137.801,-10.742,32.715,36.133,0.977,59.082
1532402137.805,7.324,32.715,38.086,15.625,52.246
1532402137.809,14.648,33.203,36.621,-36.133,49.805
1532402137.813,35.645,33.203,36.621,-41.016,39.551
1532402137.817,6.348,29.297,44.434,-14.648,28.809
1532402137.821,-26.367,31.250,40.039,-29.297,46.875
1532402137.825,-29.297,35.156,35.645,-19.043,53.711
1532402137.829,16.113,37.109,35.645,-15.625,59.570
1532402137.833,16.602,36.621,36.133,-42.480,50.293
1532402137.837,8.301,32.715,39.062,-11.719,45.898
1532402137.840,8.301,35.156,37.598,-5.371,47.852
1532402137.844,23.438,39.551,33.203,-47.852,63.965
1532402137.848,11.719,34.668,36.621,-34.668,58.105
1532402137.852,-29.785,26.855,41.504,-2.441,53.711
1532402137.856,-1.953,31.250,39.551,4.395,49.805
1532402137.860,11.230,33.691,37.598,-9.766,36.133
1532402137.864,0.000,30.762,36.133,-41.016,24.414
1532402137.868,19.043,30.762,38.086,-21.484,16.113
1532402137.872,10.254,29.297,39.551,-46.387,14.648
1532402137.876,10.254,30.762,36.621,-52.734,31.738
1532402137.880,4.395,33.691,35.156,-1.465,62.988
1532402137.883,29.785,34.668,37.109,19.043,57.617
1532402137.887,29.785,32.227,38.086,-37.109,57.617
1532402137.891,-8.301,30.273,39.062,-31.250,56.152
1532402137.895,5.859,34.180,40.527,-3.418,47.852
1532402137.899,-2.930,35.156,38.086,-53.223,43.457
1532402137.903,3.418,35.156,32.227,-32.715,48.340
1532402137.907,16.113,34.180,30.762,-36.133,57.617
1532402137.911,20.508,34.180,34.180,-49.805,29.785
1532402137.915,34.180,37.598,34.180,8.789,11.719
1532402137.919,30.273,40.039,30.762,-15.137,10.254
1532402137.923,13.184,34.668,37.109,-15.625,8.789
1532402137.926,16.113,32.227,38.086,-23.926,36.133
1532402137.930,42.480,38.086,31.250,-41.016,30.762
1532402137.934,26.367,33.203,32.715,-11.230,18.066
1532402137.938,0.488,26.855,34.668,-20.508,27.832
1532402137.942,6.836,33.203,30.762,2.441,25.879
1532402137.946,17.090,34.668,30.273,14.160,28.809
1532402137.950,-5.859,25.879,36.621,-21.484,35.156
1532402137.954,-17.090,22.949,39.551,-28.320,13.672
1532402137.958,-15.625,25.391,37.598,-52.246,11.719
1532402137.962,-17.090,27.344,35.645,-38.574,31.738
1532402137.965,-0.977,30.762,38.086,0.000,43.457
1532402137.969,10.742,32.715,41.504,18.555,-0.977
1532402137.973,-0.977,26.367,41.016,2.441,-30.762
1532402137.977,-12.695,25.391,38.574,-39.062,22.949
1532402137.981,2.441,32.715,33.691,-46.387,30.762
1532402137.985,28.320,40.527,31.250,-12.695,30.762
1532402137.989,8.789,41.992,28.320,-24.902,25.879
1532402137.993,-2.441,37.109,36.133,-17.578,13.184
1532402137.997,20.508,33.691,39.551,20.020,33.691
1532402138.001,13.184,30.762,35.156,-33.203,10.742
1532402138.005,-0.977,31.738,32.715,-47.852,7.324
1532402138.008,6.348,33.691,29.785,-16.113,5.859
1532402138.012,-7.812,30.762,35.156,-9.277,8.789
1532402138.016,-24.414,31.250,34.668,-28.809,17.578
1532402138.020,23.926,33.691,31.250,-36.621,-5.859
1532402138.024,20.020,31.738,32.715,-29.785,-8.301
1532402138.028,-16.113,33.203,30.762,-33.691,-6.836
1532402138.032,5.859,35.156,33.691,-16.113,4.883
1532402138.036,43.945,35.645,36.133,-13.184,-1.465
1532402138.040,20.996,35.156,31.738,-51.270,13.184
1532402138.044,-29.785,33.203,37.598,-17.090,30.273
1532402138.047,1.465,32.227,39.062,31.738,8.301
1532402138.051,3.418,33.203,32.715,-36.133,-6.836
1532402138.055,-17.090,32.715,33.691,-71.289,-1.465
1532402138.059,9.766,31.738,32.715,-21.484,36.133
1532402138.063,4.883,33.691,28.320,-24.414,24.902
1532402138.067,-14.160,31.738,32.715,0.488,7.324
1532402138.071,-7.812,30.273,38.086,29.297,0.977
1532402138.075,2.441,36.133,33.691,-55.664,5.371
1532402138.079,-2.930,34.180,34.668,-63.477,41.992
1532402138.083,7.324,30.273,35.645,-21.484,27.344
1532402138.087,20.020,31.250,35.645,1.953,20.020
1532402138.090,15.137,33.203,34.668,-2.441,18.066
1532402138.094,1.953,35.645,33.203,-44.922,32.227
1532402138.098,-5.371,35.156,31.738,-14.160,59.082
1532402138.102,15.625,39.551,29.785,15.137,30.273
1532402138.106,8.301,36.621,38.086,-28.809,21.973
1532402138.110,-1.953,31.250,41.016,-32.227,7.812
1532402138.114,9.277,35.156,31.738,1.465,7.812
1532402138.118,4.883,36.133,30.762,-22.461,16.602
1532402138.122,-3.906,32.227,35.156,-25.879,5.859
1532402138.126,1.953,31.738,36.621,3.906,40.527
1532402138.130,5.371,32.227,36.133,-52.246,48.340
1532402138.133,9.277,31.250,31.250,-46.387,7.812
1532402138.137,-3.418,31.738,35.156,7.812,12.207
1532402138.141,4.883,36.621,38.574,-26.855,2.930
1532402138.145,23.926,37.598,33.203,-43.457,19.043
1532402138.149,29.785,37.598,30.273,-22.949,27.832
1532402138.153,30.762,35.156,31.250,-11.719,-17.578
1532402138.157,24.902,31.738,36.621,27.344,0.488
1532402138.161,16.602,33.203,34.180,9.766,34.180
1532402138.165,-0.977,31.738,30.762,-30.273,37.109
1532402138.169,0.977,30.273,31.738,-39.062,30.273
1532402138.172,6.836,33.203,34.180,-16.602,16.113
1532402138.176,11.719,36.133,35.645,-12.695,29.785
1532402138.180,32.715,34.668,38.086,14.648,39.062
1532402138.184,8.301,27.344,37.598,19.043,34.668
1532402138.188,-0.977,22.461,33.691,-49.805,25.879
1532402138.192,26.855,27.344,36.133,-35.645,26.855
1532402138.196,29.297,31.738,40.039,12.207,27.832
1532402138.200,11.719,30.273,35.645,1.465,20.996
1532402138.204,-9.277,27.832,35.156,-16.113,7.812
1532402138.208,-12.695,27.832,39.551,2.441,24.902
1532402138.212,3.906,30.273,35.645,-1.953,37.109
1532402138.215,16.113,32.715,33.203,-33.691,38.574
1532402138.219,6.348,31.738,37.109,-5.859,21.484
1532402138.223,2.441,29.785,38.086,21.484,18.555
1532402138.227,-7.812,36.133,32.227,-7.812,38.086
1532402138.231,-6.836,38.086,33.691,-32.227,17.578
1532402138.235,23.438,33.691,38.574,-13.672,0.488
1532402138.239,18.066,33.691,32.715,11.230,0.977
1532402138.243,-23.438,34.668,37.109,-18.555,25.879
1532402138.247,0.977,36.133,37.598,-47.363,40.527
1532402138.251,14.648,31.738,38.574,-28.320,-16.113
1532402138.255,-0.488,29.297,40.527,-10.254,-13.672
1532402138.258,-2.930,33.203,37.598,-3.906,33.203
1532402138.262,-1.465,37.598,35.156,-21.973,31.250
1532402138.266,-4.883,37.598,31.250,-24.902,40.039
1532402138.270,12.695,35.156,32.227,-41.016,23.926
1532402138.274,9.277,30.762,39.062,-4.883,16.113
1532402138.278,3.906,28.809,39.551,23.438,11.230
1532402138.282,23.438,35.156,33.203,-32.227,1.465
1532402138.286,2.930,35.645,34.180,-34.180,9.766
1532402138.290,-11.719,32.715,41.016,10.742,12.207
1532402138.294,5.371,31.738,43.457,-29.785,18.555
1532402138.297,-3.906,36.133,35.645,-62.012,25.879
1532402138.301,-20.020,38.086,30.762,-29.297,29.785
1532402138.305,-23.438,34.180,32.227,-9.766,23.926
1532402138.309,14.160,33.203,36.133,-15.137,50.293
1532402138.313,18.555,36.133,37.598,-44.434,94.727
1532402138.317,-5.859,31.738,38.574,-35.156,40.039
1532402138.321,-20.020,31.738,39.062,-28.320,15.137
1532402138.325,-34.668,33.691,36.621,-42.480,40.527
1532402138.329,-29.785,28.809,41.504,-9.766,27.344
1532402138.333,-15.137,31.250,41.992,-20.020,2.441
1532402138.337,1.465,31.250,44.434,6.836,8.301
1532402138.340,-5.859,32.715,37.598,25.391,-4.883
1532402138.344,-13.672,36.133,28.809,-50.781,11.719
1532402138.348,-0.977,33.691,37.109,-27.832,49.316
1532402138.352,-13.184,33.203,42.480,24.414,-13.672
1532402138.356,-3.906,32.715,40.039,-12.695,-18.066
1532402138.360,14.160,27.832,38.574,-71.777,35.156
1532402138.364,-5.859,26.367,38.086,-53.223,40.039
1532402138.368,5.371,33.203,34.180,-5.371,0.977
1532402138.372,7.812,35.156,34.668,-14.160,-2.930
1532402138.376,7.812,34.668,38.086,-44.434,33.203
1532402138.380,20.508,38.574,37.109,-27.344,29.785
1532402138.383,3.906,39.062,35.156,12.695,26.367
1532402138.387,-3.906,31.738,37.598,-12.207,19.043
1532402138.391,15.625,29.785,41.504,-54.688,-14.648
1532402138.395,8.789,39.062,39.062,-37.598,-19.043
1532402138.399,38.574,42.480,34.180,0.488,25.391
1532402138.403,23.438,45.410,33.691,-11.719,4.883
1532402138.407,-15.625,43.945,31.738,-30.273,-20.020
1532402138.411,5.859,39.062,32.715,-14.160,-3.418
1532402138.415,7.324,38.574,35.645,-37.109,5.859
1532402138.419,4.395,35.645,34.668,-39.062,10.742
1532402138.422,20.020,36.621,32.715,-0.977,-26.367
1532402138.426,25.879,36.133,28.809,-2.441,-17.090
1532402138.430,-1.953,36.133,29.785,-40.527,-0.488
1532402138.434,-9.766,35.156,35.156,-23.926,-9.277
1532402138.438,-10.742,32.227,36.621,-23.926,-12.207
1532402138.442,-0.977,33.203,40.039,-5.859,2.930
1532402138.446,20.996,34.668,38.086,-22.461,40.039
1532402138.450,12.207,37.109,33.691,-51.758,-2.930
1532402138.454,8.789,34.180,35.645,-35.645,-15.137
1532402138.458,6.348,29.785,37.109,0.977,-13.184
1532402138.462,-15.137,32.715,38.574,-0.977,-0.488
1532402138.465,2.930,33.691,41.992,-23.438,16.602
1532402138.469,19.043,34.180,38.086,32.227,-24.902
1532402138.473,8.789,40.039,29.785,-15.625,-49.805
1532402138.477,10.254,38.086,31.738,-77.637,-33.691
1532402138.481,20.996,31.250,35.645,-4.395,-8.789
1532402138.485,14.160,30.762,35.645,12.695,-18.066
1532402138.489,-0.977,30.762,33.203,-5.371,-18.555
1532402138.493,-2.930,32.227,34.668,-41.504,16.113
1532402138.497,-11.719,28.809,40.039,-50.293,26.855
1532402138.501,19.043,28.320,40.527,10.742,14.160
1532402138.504,31.250,32.715,39.062,-29.297,12.695
1532402138.508,0.000,27.832,43.457,-50.781,0.977
1532402138.512,14.160,32.227,40.039,-8.301,4.395
1532402138.516,24.414,37.598,34.668,-13.184,-12.695
1532402138.520,23.926,35.156,38.086,12.207,-44.434
1532402138.524,20.508,32.227,40.039,10.254,-26.855
1532402138.528,11.719,32.715,37.109,-24.414,16.113
1532402138.532,10.254,30.762,40.039,-1.953,-26.855
1532402138.536,11.230,29.297,39.551,-13.672,-49.316
1532402138.540,2.441,28.809,37.109,-18.555,-18.555
1532402138.544,-8.789,29.785,38.086,-7.324,-5.371
1532402138.547,28.809,31.250,38.574,-51.758,9.766
1532402138.551,50.781,28.809,41.016,-42.969,-16.113
1532402138.555,-12.207,30.762,38.086,0.488,-32.227
1532402138.559,-39.062,32.715,34.668,-16.113,-5.859
1532402138.563,1.953,30.273,35.645,-35.156,5.859
1532402138.567,8.789,29.785,37.598,-34.180,-8.301
1532402138.571,10.254,30.762,39.062,-23.926,-41.504
1532402138.575,0.488,33.691,36.621,-25.391,-23.926
1532402138.579,10.742,35.645,37.109,-13.672,26.367
1532402138.583,36.133,38.574,33.691,-19.531,22.461
1532402138.587,31.250,39.062,37.109,-44.922,21.973
1532402138.590,24.414,32.227,41.992,-10.254,11.230
1532402138.594,-0.977,32.715,39.551,-36.621,4.395
1532402138.598,14.648,35.645,41.016,28.320,5.859
1532402138.602,14.160,36.621,36.621,51.270,-3.906
1532402138.606,-19.531,34.180,36.133,-37.598,3.418
1532402138.610,-17.578,29.297,42.480,-9.277,12.695
1532402138.614,21.484,33.203,43.457,-0.488,33.203
1532402138.618,23.926,33.203,42.480,-27.344,23.926
1532402138.622,-12.207,27.832,44.922,-15.137,5.371
1532402138.626,-11.230,29.785,42.969,12.207,19.531
1532402138.629,3.418,37.109,32.227,-35.645,21.484
1532402138.633,2.930,35.156,36.621,-55.176,-4.395
1532402138.637,3.418,35.156,41.016,-16.602,6.348
1532402138.641,-2.930,36.133,35.645,-13.672,32.227
1532402138.645,-5.371,35.156,35.156,20.020,28.320
1532402138.649,24.414,33.691,35.645,-6.348,-6.836
1532402138.653,34.668,31.738,39.062,-21.484,-7.812
1532402138.657,15.137,33.203,40.039,-11.719,16.602
1532402138.661,8.301,34.180,38.086,-49.805,21.484
1532402138.665,1.953,31.738,38.086,-2.441,6.836
1532402138.669,1.465,32.715,38.086,22.461,-15.625
1532402138.672,24.414,36.621,38.574,5.371,-25.391
1532402138.676,11.230,32.227,42.480,-25.879,-7.324
1532402138.680,12.695,30.273,43.945,-24.902,9.766
1532402138.684,19.531,34.668,37.109,-7.324,-14.160
1532402138.688,17.578,34.180,35.156,-4.395,-19.043
1532402138.692,21.973,32.715,35.645,8.301,-8.301
1532402138.696,17.578,35.645,33.691,-20.996,-4.395
1532402138.700,20.020,34.180,37.109,-7.324,0.977
1532402138.704,21.973,38.086,35.645,-8.789,-8.301
1532402138.708,26.855,39.062,35.156,-17.578,8.301
1532402138.712,19.531,32.715,39.551,-29.785,23.926
1532402138.715,4.395,28.320,40.527,-27.344,12.695
1532402138.719,38.574,32.227,38.086,3.418,0.488
1532402138.723,52.246,37.598,34.668,40.527,-2.930
1532402138.727,26.855,31.250,32.715,-46.387,4.883
1532402138.731,0.977,28.809,36.133,-88.867,3.418
1532402138.735,11.230,30.762,37.109,-30.273,-43.457
1532402138.739,39.551,34.668,36.133,-5.859,-24.414
1532402138.743,26.855,34.668,37.109,-4.395,19.043
1532402138.747,17.578,30.762,36.621,-25.879,34.668
1532402138.751,16.602,28.809,37.109,-31.250,26.855
1532402138.754,11.230,33.203,36.621,15.137,2.441
1532402138.758,18.555,34.180,34.668,6.836,-2.441
1532402138.762,15.137,33.203,34.180,-25.391,9.277
1532402138.766,9.277,36.621,28.320,-31.738,21.484
1532402138.770,3.906,33.691,28.320,-65.918,-21.973
1532402138.774,-10.742,31.250,31.250,-59.570,-43.945
1532402138.778,-0.977,31.738,34.180,-27.832,3.906
1532402138.782,30.762,30.762,34.180,9.277,5.371
1532402138.786,29.785,32.227,30.273,-18.066,-19.043
1532402138.790,-5.371,30.762,30.273,-51.270,-5.859
1532402138.794,-0.977,30.273,32.715,-18.066,20.508
1532402138.797,-17.090,33.203,29.785,-12.207,10.254
1532402138.801,6.836,35.645,30.273,-11.719,-14.648
1532402138.805,19.531,35.645,32.227,-42.969,0.000
1532402138.809,-13.184,27.832,34.180,-54.688,21.973
1532402138.813,-7.324,25.391,38.086,-13.184,1.953
1532402138.817,-3.906,27.832,36.133,-22.461,-20.996
1532402138.821,14.160,30.762,35.645,-25.879,-6.836
1532402138.825,-1.953,29.785,36.133,0.000,15.625
1532402138.829,2.441,27.344,37.598,-22.949,11.230
1532402138.833,20.996,26.855,43.945,5.371,-12.695
1532402138.836,31.738,27.832,41.504,2.441,-9.277
1532402138.840,11.230,31.738,34.180,-51.270,0.000
1532402138.844,-3.906,29.297,39.551,-14.648,7.324
1532402138.848,24.902,30.762,39.551,-16.113,22.461
1532402138.852,12.207,34.668,31.738,-32.227,5.859
1532402138.856,19.043,33.203,29.785,-18.555,-7.324
1532402138.860,36.621,27.832,34.180,-12.695,18.066
1532402138.864,31.250,25.879,35.645,-24.414,47.363
1532402138.868,22.461,28.320,32.227,-29.785,3.906
1532402138.872,3.906,28.809,31.250,-22.949,-8.301
1532402138.876,-7.812,26.855,35.156,-9.766,40.039
1532402138.879,27.832,26.855,41.016,23.926,48.828
1532402138.883,30.762,32.227,36.621,5.859,30.273
1532402138.887,-4.883,30.762,35.156,-37.109,42.969
1532402138.891,12.207,27.832,41.016,-32.227,30.762
1532402138.895,22.461,29.297,38.574,-2.930,29.785
1532402138.899,35.156,29.297,36.133,-14.160,46.387
1532402138.903,62.500,31.738,36.621,-10.742,27.832
1532402138.907,-1.465,31.250,38.574,0.000,22.461
1532402138.911,-4.395,30.273,44.922,-20.508,15.625
1532402138.915,45.898,33.691,41.992,-5.859,26.367
1532402138.919,39.551,37.109,35.156,-27.344,18.066
1532402138.922,26.855,33.691,39.062,-13.672,-0.977
1532402138.926,14.648,32.715,36.621,-12.207,28.320
1532402138.930,27.832,34.668,33.203,-33.691,33.203
1532402138.934,16.602,33.691,32.715,-26.855,23.926
1532402138.938,2.441,28.320,36.133,2.930,31.250
1532402138.942,25.391,27.344,40.527,-7.324,38.574
1532402138.946,24.414,28.809,40.527,-30.762,61.035
1532402138.950,9.277,25.879,41.504,-20.020,26.855
1532402138.954,10.742,27.344,40.039,-29.785,-22.949
1532402138.958,24.902,27.832,40.527,-9.277,-4.395
1532402138.961,25.879,29.785,40.039,-0.977,18.555
1532402138.965,12.207,36.133,35.645,-39.062,17.090
1532402138.969,-0.977,30.273,35.156,-16.113,8.301
1532402138.973,12.207,23.926,36.621,14.648,17.578
1532402138.977,18.555,28.320,35.645,-12.207,37.598
1532402138.981,12.695,33.203,35.645,-37.598,40.527
1532402138.985,7.324,31.250,39.551,-16.113,31.738
1532402138.989,5.371,29.785,41.504,-6.836,15.625
1532402138.993,1.953,32.715,39.062,-22.949,12.695
1532402138.997,15.625,34.668,30.762,-35.156,14.160
1532402139.001,23.438,34.668,32.227,-22.461,13.184
1532402139.004,16.113,34.668,35.156,18.066,38.574
1532402139.008,25.391,34.180,32.715,-5.859,30.273
1532402139.012,23.926,34.180,30.762,-39.062,47.363
1532402139.016,5.859,33.203,32.715,-23.438,51.270
1532402139.020,-23.926,32.715,34.180,-25.879,23.926
1532402139.024,-11.230,33.203,32.227,-7.812,39.062
1532402139.028,-0.977,32.715,29.297,-52.734,62.012
1532402139.032,3.906,30.762,29.785,-70.801,58.594
1532402139.036,3.906,28.320,29.297,-0.488,20.508
1532402139.040,0.488,31.738,23.438,-5.371,7.324
1532402139.044,17.578,34.668,26.367,-14.160,26.855
1532402139.047,-2.930,28.809,30.762,-35.156,46.387
1532402139.051,-4.395,29.297,27.832,-12.207,-2.441
1532402139.055,4.883,30.762,29.785,-14.648,-3.418
1532402139.059,12.695,30.762,29.785,-76.660,73.242
1532402139.063,25.879,31.250,34.668,-0.488,69.824
1532402139.067,20.996,32.715,36.621,38.574,34.180
1532402139.071,10.742,34.180,33.691,-28.809,29.297
1532402139.075,8.789,30.273,36.621,-41.504,33.691
1532402139.079,7.812,29.785,36.621,-9.277,40.039
1532402139.083,0.000,33.203,33.203,-3.418,64.941
1532402139.086,0.488,35.156,33.203,-11.719,63.477
1532402139.090,4.883,35.156,35.645,-32.715,8.301
1532402139.094,7.812,36.621,36.621,-49.316,1.465
1532402139.098,22.949,35.156,34.668,-12.207,26.367
1532402139.102,36.621,32.715,36.133,27.832,41.016
1532402139.106,-0.977,36.133,33.691,7.812,35.156
1532402139.110,0.000,36.133,33.203,-16.602,12.207
1532402139.114,20.508,33.691,36.621,-41.992,41.016
1532402139.118,10.254,34.668,32.715,-22.461,42.480
1532402139.122,26.855,33.691,34.180,0.977,38.086
1532402139.126,10.254,34.668,33.203,-1.953,47.363
1532402139.129,7.324,38.086,28.320,2.441,50.781
1532402139.133,8.301,38.574,28.320,-46.387,41.992
1532402139.137,5.859,36.621,34.180,-20.020,37.109
1532402139.141,2.930,37.598,40.039,3.906,53.223
1532402139.145,-12.207,38.574,38.086,-32.715,79.590
1532402139.149,11.230,38.086,34.668,-32.227,54.688
1532402139.153,29.297,37.109,35.156,-23.926,46.875
1532402139.157,5.859,33.691,36.133,-17.090,62.500
1532402139.161,-16.602,33.691,36.133,-31.738,54.199
1532402139.165,8.789,34.180,37.109,22.461,46.875
1532402139.169,3.418,31.250,35.645,6.836,22.949
1532402139.172,-6.836,33.203,35.156,-49.316,11.230
1532402139.176,0.488,34.668,34.668,-24.902,31.738
1532402139.180,17.090,35.156,31.738,-31.250,54.199
1532402139.184,18.555,34.180,33.691,-17.578,41.016
1532402139.188,4.883,31.738,32.715,-30.762,41.504
1532402139.192,21.973,32.715,31.738,-43.457,30.273
1532402139.196,21.484,37.109,32.227,-25.879,43.457
1532402139.200,-10.254,36.133,34.668,14.160,73.730
1532402139.204,5.859,35.645,34.180,-31.250,34.180
1532402139.208,46.387,35.156,31.250,-22.949,37.109
1532402139.211,37.109,34.180,37.109,-33.203,69.824
1532402139.215,5.371,39.551,31.250,-48.340,83.984
1532402139.219,10.742,42.969,23.926,-9.766,47.852
1532402139.223,40.039,38.086,31.738,-42.480,10.742
1532402139.227,39.062,33.691,34.668,-26.855,26.367
1532402139.231,-7.812,33.691,35.156,-22.461,29.297
1532402139.235,9.766,35.645,35.645,-39.062,-1.953
1532402139.239,9.277,33.691,32.227,-17.578,21.484
1532402139.243,-10.742,34.180,36.621,-0.488,66.406
1532402139.247,7.324,35.156,39.551,-39.551,65.430
1532402139.251,2.930,33.691,40.039,0.488,16.113
1532402139.254,8.301,35.156,38.086,-0.977,1.953
1532402139.258,9.766,36.133,35.645,-35.645,48.828
1532402139.262,10.254,37.598,34.668,-18.555,85.938
1532402139.266,20.020,36.133,32.227,-0.488,91.797
1532402139.270,10.742,36.133,28.809,22.949,41.504
1532402139.274,-2.441,37.598,26.855,-28.320,30.762
1532402139.278,8.789,31.738,32.715,-41.992,72.754
1532402139.282,20.508,25.879,37.109,-14.648,103.027
1532402139.286,25.391,23.926,36.133,-13.184,74.219
1532402139.290,28.320,22.949,39.551,6.348,37.109
1532402139.293,-14.160,24.414,40.527,-8.789,66.895
1532402139.297,1.953,23.438,41.992,-26.367,66.895
1532402139.301,32.715,26.855,39.062,1.953,60.059
1532402139.305,3.418,29.785,32.227,5.371,69.336
1532402139.309,0.000,26.855,32.227,-35.156,61.523
1532402139.313,-4.883,21.973,34.668,-9.277,42.969
1532402139.317,12.695,23.926,31.250,9.766,17.578
1532402139.321,40.527,26.855,30.273,-49.805,27.344
1532402139.325,-19.043,20.508,36.133,-17.090,50.781
1532402139.329,-20.508,19.531,35.156,20.508,35.645
1532402139.333,-20.508,23.438,32.715,-34.180,34.668
1532402139.336,-11.719,24.902,31.738,-61.523,43.457
1532402139.340,11.230,22.461,32.715,0.977,41.016
1532402139.344,-5.371,19.043,34.668,12.695,87.891
1532402139.348,-6.836,23.438,35.645,-34.180,81.055
1532402139.352,-4.395,27.832,33.203,-36.133,34.180
1532402139.356,25.879,23.926,35.156,-8.301,20.508
1532402139.360,20.020,20.020,40.527,14.160,26.367
1532402139.364,-29.785,22.949,34.180,-33.691,54.199
1532402139.368,-6.836,21.484,33.203,-32.715,41.504
1532402139.372,2.930,19.531,34.668,-46.875,9.766
1532402139.376,1.465,23.926,33.203,-18.555,19.043
1532402139.379,4.395,23.438,34.180,8.789,56.641
1532402139.383,15.137,23.926,34.180,-43.457,59.082
1532402139.387,10.742,24.414,37.109,-20.508,22.461
1532402139.391,-16.113,21.484,38.574,-5.859,48.828
1532402139.395,4.883,24.902,34.180,-20.508,80.078
1532402139.399,25.391,30.762,27.832,-52.246,55.176
1532402139.403,23.926,30.762,29.297,-29.785,34.180
1532402139.407,-6.836,24.414,36.621,-2.930,27.832
1532402139.411,9.277,29.785,35.156,-20.996,20.996
1532402139.415,25.391,36.621,28.809,-22.461,10.254
1532402139.418,25.879,34.668,30.273,11.230,48.828
1532402139.422,18.555,33.203,32.715,22.949,56.152
1532402139.426,11.230,34.668,32.715,-25.391,47.852
1532402139.430,20.020,34.180,29.785,-40.039,53.223
1532402139.434,12.207,30.762,29.297,-20.508,46.875
1532402139.438,-13.184,31.738,28.809,-16.113,31.250
1532402139.442,-3.906,29.297,30.273,-9.766,37.109
1532402139.446,25.391,30.273,37.109,12.207,47.852
1532402139.450,10.742,35.156,28.809,-27.344,16.602
1532402139.454,36.621,32.227,29.297,-2.930,4.395
1532402139.458,35.645,29.297,38.574,25.391,28.320
1532402139.461,8.789,30.762,31.250,-41.504,28.809
1532402139.465,14.648,32.715,31.250,-24.414,36.133
1532402139.469,22.949,29.785,36.133,5.371,-13.184
1532402139.473,41.992,33.691,36.621,-8.789,-47.363
1532402139.477,5.859,33.203,35.156,-41.504,12.695
1532402139.481,-10.742,29.297,36.133,-23.438,30.273
1532402139.485,17.578,31.250,34.180,4.395,16.602
1532402139.489,10.254,30.762,33.691,-7.324,12.695
1532402139.493,7.324,33.691,38.574,-15.625,16.602
1532402139.497,-3.418,37.598,35.156,17.578,37.598
1532402139.501,10.254,39.551,31.738,-31.250,28.809
1532402139.504,6.348,32.227,38.086,-27.344,16.113
1532402139.508,-29.785,28.809,38.574,12.695,-7.812
1532402139.512,4.395,36.621,33.203,-38.086,-22.949
1532402139.516,17.578,35.156,36.621,-44.434,25.391
1532402139.520,-12.695,35.156,36.621,-2.930,13.672
1532402139.524,-10.254,38.574,28.320,-5.371,6.348
1532402139.528,6.348,35.156,30.273,-20.020,40.527
1532402139.532,-7.324,34.180,33.691,-41.992,22.949
1532402139.536,11.230,35.645,36.133,-18.066,-7.812
1532402139.540,11.719,36.133,35.645,-10.742,-9.766
1532402139.543,-23.926,35.156,32.715,-25.879,19.531
1532402139.547,-20.996,33.691,33.691,1.465,21.973
1532402139.551,-9.766,33.691,36.621,-15.137,-24.902
1532402139.555,5.859,34.180,35.156,-30.273,-18.555
1532402139.559,-5.371,37.598,29.785,-24.414,0.000
1532402139.563,-31.738,33.691,34.180,3.418,12.207
1532402139.567,-6.836,30.273,33.203,-8.789,27.344
1532402139.571,27.832,32.227,32.227,-18.555,10.742
1532402139.575,4.883,28.809,43.945,-2.930,16.113
1532402139.579,-17.578,29.785,39.551,-2.441,32.715
1532402139.583,5.859,35.156,31.250,-20.996,24.414
1532402139.586,4.883,35.645,33.203,-25.879,13.672
1532402139.590,-12.695,31.250,34.180,-9.766,15.137
1532402139.594,-16.602,28.809,26.855,-26.367,39.062
1532402139.598,22.949,29.297,27.832,-14.648,42.480
1532402139.602,11.719,26.367,35.156,8.301,0.488
1532402139.606,-18.066,28.809,31.738,15.625,8.789
1532402139.610,-3.906,30.762,30.273,-40.527,13.672
1532402139.614,7.812,31.738,36.133,-34.668,23.438
1532402139.618,18.066,33.203,34.180,13.184,25.391
1532402139.622,34.180,30.762,31.738,-20.020,-12.207
1532402139.625,17.578,31.250,32.715,-32.227,1.953
1532402139.629,5.371,30.273,35.156,9.277,21.484
1532402139.633,13.672,26.367,37.109,6.836,28.809
1532402139.637,-2.441,27.832,33.691,-6.348,15.137
1532402139.641,8.789,30.762,30.762,-9.277,1.953
1532402139.645,20.508,29.297,30.273,-65.430,33.691
1532402139.649,21.484,28.320,30.762,-37.109,15.625
1532402139.653,10.254,28.320,34.180,-8.789,-40.039
1532402139.657,-5.859,27.344,37.598,-36.133,0.488
1532402139.661,-7.324,25.879,36.621,-17.578,49.316
1532402139.665,-8.301,26.855,31.250,-19.531,49.805
1532402139.668,-9.277,28.320,31.250,-36.133,42.969
1532402139.672,0.488,26.367,35.645,-26.367,26.855
1532402139.676,5.371,27.344,35.156,-1.465,30.762
1532402139.680,1.465,27.832,32.715,1.953,34.180
1532402139.684,23.926,24.902,33.203,-35.645,21.484
1532402139.688,4.883,28.809,35.156,-20.996,-3.906
1532402139.692,-29.785,30.273,36.621,-46.387,-34.668
1532402139.696,-1.953,27.832,32.227,-58.105,19.043
1532402139.700,24.902,28.809,29.297,-6.348,25.879
1532402139.704,-7.324,31.250,29.297,-12.695,-4.395
1532402139.708,-18.555,26.855,31.738,-37.109,38.574
1532402139.711,13.184,25.879,31.738,20.020,47.852
1532402139.715,38.574,25.879,27.832,-0.488,51.758
1532402139.719,34.180,24.414,27.344,-75.684,56.641
1532402139.723,22.461,27.832,29.297,-41.504,45.898
1532402139.727,7.812,27.344,29.297,4.395,62.500
1532402139.731,-2.441,27.344,25.391,13.184,52.734
1532402139.735,6.348,25.879,29.297,-32.715,28.320
1532402139.739,10.254,22.949,36.133,-14.648,13.672
1532402139.743,20.996,25.879,32.715,-7.812,11.230
1532402139.747,18.066,29.297,33.203,-36.133,49.805
1532402139.750,16.113,32.715,32.227,-12.207,52.246
1532402139.754,16.602,30.273,28.809,-25.879,21.973
1532402139.758,14.648,32.227,28.320,-23.926,25.879
1532402139.762,15.137,35.645,29.785,7.812,40.039
1532402139.766,6.348,30.273,30.762,-48.340,36.133
1532402139.770,6.836,25.391,37.109,-42.480,-1.953
1532402139.774,6.836,26.855,33.691,-7.812,-13.184
1532402139.778,27.832,29.297,29.297,-6.348,13.184
1532402139.782,26.855,29.297,29.297,-59.082,21.484
1532402139.786,7.324,27.832,31.738,-26.855,24.902
1532402139.790,9.277,26.855,36.133,30.273,17.090
1532402139.793,1.465,27.832,35.156,-47.363,2.930
1532402139.797,21.484,29.297,36.621,-67.871,29.297
1532402139.801,25.879,28.809,37.598,9.277,1.465
1532402139.805,15.625,28.320,34.668,-15.625,-30.762
1532402139.809,15.137,25.391,36.133,-25.391,16.602
1532402139.813,13.672,22.949,38.086,15.625,44.922
1532402139.817,35.156,27.832,30.273,-21.973,-4.883
1532402139.821,16.113,26.855,32.715,-52.246,-13.184
1532402139.825,-10.254,25.879,38.086,6.348,16.602
1532402139.829,18.555,26.855,39.062,20.020,7.324
1532402139.833,16.113,26.367,39.062,-38.574,-36.133
1532402139.836,-4.395,25.391,40.039,2.441,-24.902
1532402139.840,19.531,27.832,37.109,-24.414,16.113
1532402139.844,-4.883,24.902,33.203,-54.688,32.715
1532402139.848,-0.488,27.344,33.203,-27.832,40.039
1532402139.852,17.578,33.203,35.156,-12.695,21.973
1532402139.856,-4.883,30.273,34.668,-31.250,31.738
1532402139.860,15.625,26.855,35.645,3.906,61.035
1532402139.864,19.531,29.785,35.645,14.160,77.637
1532402139.868,8.789,30.273,31.738,-61.523,67.383
1532402139.872,17.090,28.809,35.645,-56.152,26.367
1532402139.875,27.344,30.762,36.133,-42.480,39.551
1532402139.879,24.902,29.785,33.203,-22.461,47.852
1532402139.883,3.418,29.785,35.156,17.578,35.156
1532402139.887,7.324,29.297,39.551,8.789,34.180
1532402139.891,0.977,31.250,37.598,-26.367,20.020
1532402139.895,-14.648,31.738,33.203,-24.902,40.527
1532402139.899,-2.930,28.809,34.180,-0.488,58.105
1532402139.903,30.273,30.273,30.273,-5.371,52.246
1532402139.907,-11.230,27.832,27.832,-31.738,44.922
1532402139.911,-15.625,28.809,34.668,7.324,33.691
1532402139.915,-4.883,28.809,36.621,-22.461,32.227
1532402139.918,-30.762,21.973,38.086,-61.035,40.039
1532402139.922,2.930,26.367,36.133,-40.039,12.207
1532402139.926,21.484,29.297,34.668,-5.371,25.391
1532402139.930,40.039,27.832,37.109,0.488,49.805
1532402139.934,32.715,31.738,32.715,-21.484,19.531
1532402139.938,13.184,36.133,30.273,-32.227,13.672
1532402139.942,20.996,35.156,29.297,13.184,14.160
1532402139.946,-8.789,36.133,24.902,0.000,42.969
1532402139.950,-6.836,39.062,22.949,-86.914,46.387
1532402139.954,21.484,39.551,26.855,-47.852,17.090
1532402139.958,6.836,38.086,29.297,-3.906,27.832
1532402139.961,-26.855,32.227,27.832,-13.184,44.434
1532402139.965,-9.277,28.320,25.391,-9.277,63.965
1532402139.969,28.809,26.367,29.297,-45.410,18.066
1532402139.973,9.277,27.344,29.297,-58.105,-13.672
1532402139.977,3.418,30.762,28.320,-2.441,50.293
1532402139.981,16.602,32.227,22.461,0.000,71.289
1532402139.985,17.578,32.227,18.066,-40.527,38.574
1532402139.989,6.836,26.367,30.762,-24.902,29.297
1532402139.993,7.324,27.832,33.203,-28.809,14.648
1532402139.997,13.184,28.320,29.297,-22.461,51.758
1532402140.000,11.719,27.344,28.320,-0.488,54.199
1532402140.004,11.230,29.297,29.785,28.809,23.926
1532402140.008,11.719,30.273,27.832,0.000,22.949
1532402140.012,-18.555,30.273,29.297,-44.434,36.133
1532402140.016,-5.859,25.879,36.133,-25.391,45.898
1532402140.020,20.020,28.320,32.715,-46.875,34.180
1532402140.024,-3.906,32.227,27.832,-43.945,31.250
1532402140.028,25.879,32.715,31.250,54.199,29.785
1532402140.032,18.066,31.738,32.227,1.465,22.949
1532402140.036,-5.859,28.809,29.785,-88.379,-4.395
1532402140.040,20.020,27.832,30.273,-19.531,15.625
1532402140.043,-3.418,25.879,29.297,-10.254,39.062
1532402140.047,-2.930,31.738,25.391,-67.383,44.434
1532402140.051,20.508,29.785,29.297,-37.598,25.879
1532402140.055,-8.301,22.949,34.180,-5.371,15.137
1532402140.059,12.207,26.367,31.250,-29.297,10.254
1532402140.063,41.992,27.832,27.344,-30.762,31.250
1532402140.067,4.883,25.391,26.367,-27.832,77.148
1532402140.071,-7.324,26.367,24.414,-24.414,20.508
1532402140.075,0.488,27.832,28.320,-27.344,-21.973
1532402140.079,23.438,32.227,31.250,-24.902,30.762
1532402140.082,22.461,32.715,30.273,9.766,28.320
1532402140.086,19.531,28.809,30.762,-13.672,-9.766
1532402140.090,0.000,33.203,23.926,-52.246,0.977
1532402140.094,-2.441,33.203,24.902,-62.012,19.531
1532402140.098,25.391,30.273,32.715,0.977,47.363
1532402140.102,3.418,28.320,38.086,9.277,47.852
1532402140.106,-10.742,30.762,33.203,3.418,6.836
1532402140.110,21.973,31.738,30.273,-23.438,15.137
1532402140.114,47.852,28.320,34.668,-62.500,36.133
1532402140.118,30.762,25.391,33.203,-14.648,27.832
1532402140.122,18.066,30.273,29.785,5.371,14.160
1532402140.125,13.672,35.645,24.902,-21.973,26.367
1532402140.129,17.090,31.738,27.344,-19.531,52.734
1532402140.133,26.367,28.809,33.203,-13.184,39.062
1532402140.137,11.719,28.320,32.715,7.812,8.301
1532402140.141,1.465,33.203,27.832,-8.789,11.230
1532402140.145,26.855,31.738,30.273,-47.852,47.852
1532402140.149,13.184,21.973,37.109,0.000,44.922
1532402140.153,-27.832,27.344,31.738,-41.992,-2.930
1532402140.157,-38.086,29.785,30.762,-25.391,21.484
1532402140.161,-8.789,28.809,31.250,6.836,31.738
1532402140.165,-0.977,26.855,33.203,-28.320,33.691
1532402140.168,4.395,26.855,31.738,-35.156,21.973
1532402140.172,14.160,28.320,31.250,-18.066,-19.531
1532402140.176,-5.859,26.855,36.621,19.043,6.348
1532402140.180,-14.648,26.855,33.203,-23.438,32.715
1532402140.184,-25.391,26.855,30.762,-49.316,11.230
1532402140.188,-11.719,27.344,35.156,4.395,-7.324
1532402140.192,10.254,31.738,32.715,2.930,21.484
1532402140.196,30.762,30.762,26.855,-23.926,32.715
1532402140.200,22.461,28.809,25.879,-53.223,-10.254
1532402140.204,-28.809,28.320,30.762,-41.016,-4.395
1532402140.207,1.465,27.832,33.203,-0.488,32.227
1532402140.211,21.973,31.250,30.762,-8.789,3.906
1532402140.215,4.883,34.668,28.320,-26.367,10.254
1532402140.219,3.418,33.691,27.832,-15.625,57.129
1532402140.223,6.348,29.785,29.785,-27.832,52.734
1532402140.227,10.254,31.738,30.762,-6.836,61.523
1532402140.231,4.395,30.273,32.227,-9.766,70.801
1532402140.235,-0.977,26.367,32.227,-41.016,60.547
1532402140.239,-3.906,28.320,29.785,-19.531,35.645
1532402140.243,27.344,31.738,24.902,-11.719,16.602
1532402140.247,14.160,30.762,27.832,19.531,19.043
1532402140.250,3.906,30.273,26.855,-22.949,2.930
1532402140.254,8.789,29.785,30.273,-79.102,7.324
1532402140.258,29.297,28.809,29.297,-28.320,62.012
1532402140.262,5.371,29.297,25.879,20.020,71.289
1532402140.266,-28.809,24.902,30.273,-3.906,54.199
1532402140.270,5.371,26.367,26.855,-34.668,51.270
1532402140.274,20.996,27.832,24.902,-48.340,37.598
1532402140.278,20.996,30.273,27.344,-40.527,29.297
1532402140.282,26.367,29.297,32.227,0.977,39.551
1532402140.286,-12.207,25.391,31.250,-33.203,41.504
1532402140.290,-19.043,27.344,29.785,-12.695,42.969
1532402140.293,38.086,29.297,30.762,25.879,46.387
1532402140.297,27.344,27.344,25.391,-33.203,25.879
1532402140.301,-3.418,27.344,22.949,-10.742,20.020
1532402140.305,-3.906,26.855,24.414,25.391,29.297
1532402140.309,-14.160,28.320,21.484,-41.992,6.836
1532402140.313,10.254,30.273,21.973,-54.688,-4.395
1532402140.317,30.762,28.809,25.879,15.137,9.766
1532402140.321,22.461,26.367,24.902,-27.832,13.672
1532402140.325,1.465,24.902,25.391,-45.410,46.875
1532402140.329,-4.395,29.785,26.855,-4.883,64.941
1532402140.332,-13.672,26.855,28.809,-1.465,37.109
1532402140.336,-6.836,25.879,27.832,-36.621,34.180
1532402140.340,3.418,31.738,23.438,-55.664,6.836
1532402140.344,17.578,30.762,28.809,-0.977,9.277
1532402140.348,12.207,30.762,29.297,-14.648,37.598
1532402140.352,-12.695,27.832,24.414,-38.086,-8.789
1532402140.356,-4.883,24.902,25.879,4.395,-20.020
1532402140.360,11.230,24.902,29.785,-21.484,40.527
1532402140.364,0.977,25.879,29.297,-46.875,66.406
1532402140.368,26.855,29.785,27.344,-38.574,15.137
1532402140.372,38.574,30.762,30.762,-26.855,14.160
1532402140.375,14.648,27.832,33.691,18.555,49.805
1532402140.379,15.625,29.297,29.297,7.324,56.152
1532402140.383,10.254,29.785,27.344,-9.766,52.734
1532402140.387,17.090,26.367,28.809,5.859,50.781
1532402140.391,-6.836,24.902,25.391,-45.410,58.105
1532402140.395,-24.902,24.414,20.996,-35.645,65.918
1532402140.399,4.395,23.926,20.020,-14.160,62.988
1532402140.403,4.883,24.414,22.949,-20.020,32.715
1532402140.407,25.879,21.973,27.832,-12.207,38.086
1532402140.411,41.016,16.602,34.668,6.348,40.039
1532402140.414,-2.930,21.484,28.320,-33.203,20.020
1532402140.418,-28.320,26.855,19.043,-61.035,46.875
1532402140.422,5.371,22.461,23.926,-33.691,51.270
1532402140.426,25.391,19.043,25.879,-12.207,57.617
1532402140.430,-18.066,17.090,23.926,-29.785,76.660
1532402140.434,-20.508,16.602,23.438,-13.184,40.039
1532402140.438,-3.418,17.578,23.438,-7.324,22.461
1532402140.442,-18.066,21.973,23.438,-61.523,46.387
1532402140.446,-2.930,23.926,23.438,3.906,73.242
1532402140.450,16.113,22.461,25.391,13.184,43.457
1532402140.454,0.488,18.555,27.344,-52.246,7.324
1532402140.457,-1.465,21.484,26.855,-39.062,28.320
1532402140.461,25.391,26.855,26.855,0.977,45.898
1532402140.465,-5.859,23.438,29.297,17.090,49.316
1532402140.469,-11.719,22.461,28.320,-28.809,22.461
1532402140.473,44.922,26.855,29.785,-20.020,19.531
1532402140.477,32.227,27.344,34.180,-6.836,30.273
1532402140.481,-14.160,23.438,34.668,-12.207,46.875
1532402140.485,-14.160,24.902,32.227,6.348,45.410
1532402140.489,3.418,26.855,29.297,6.836,25.391
1532402140.493,13.672,26.367,24.414,-12.207,38.574
1532402140.497,48.340,27.832,22.949,-51.758,33.691
1532402140.500,18.066,24.902,30.762,-42.969,20.996
1532402140.504,-5.859,25.391,32.227,-14.160,6.836
1532402140.508,16.113,30.273,30.273,-13.672,-13.672
1532402140.512,59.082,32.715,24.902,-41.504,-7.812
1532402140.516,41.992,34.668,21.484,-8.301,16.602
1532402140.520,-20.508,34.668,24.902,-35.156,17.578
1532402140.524,7.324,29.297,29.785,-58.105,26.367
1532402140.528,23.438,25.391,36.133,23.438,1.465
1532402140.532,-2.441,27.832,31.250,-12.207,-11.230
1532402140.536,-10.254,28.320,26.855,-36.621,-1.953
1532402140.539,2.930,25.391,33.691,-8.789,-14.160
1532402140.543,36.621,26.367,33.691,24.902,9.277
1532402140.547,19.043,29.297,25.879,4.883,20.020
1532402140.551,-26.367,27.344,23.438,-41.016,-12.207
1532402140.555,-28.809,19.531,25.879,-58.594,-25.391
1532402140.559,-10.742,20.508,24.902,-59.570,-2.930
1532402140.563,-1.953,22.461,24.902,-27.344,31.250
1532402140.567,27.832,20.996,29.785,20.020,24.414
1532402140.571,10.254,21.973,28.809,8.789,-0.488
1532402140.575,-7.324,24.414,25.391,-44.922,-6.348
1532402140.579,13.672,25.879,26.367,-53.711,-0.488
1532402140.582,9.766,23.926,25.391,-43.945,10.254
1532402140.586,6.836,20.020,25.879,-12.695,-8.301
1532402140.590,52.734,21.973,27.344,5.859,-30.273
1532402140.594,45.898,21.973,30.762,44.922,-46.387
1532402140.598,15.625,23.926,24.902,-27.344,7.324
1532402140.602,15.137,20.020,26.367,-60.547,14.160
1532402140.606,12.695,16.113,33.203,-14.160,-32.227
1532402140.610,16.602,20.996,28.320,-26.855,-14.648
1532402140.614,14.648,21.973,24.414,14.160,21.973
1532402140.618,19.531,18.066,28.320,-8.789,3.418
1532402140.622,18.066,16.113,29.785,-45.410,2.930
1532402140.625,-7.812,17.578,26.855,-10.742,21.973
1532402140.629,-4.395,18.066,22.461,-28.320,7.812
1532402140.633,7.812,14.648,27.832,-39.062,-8.789
1532402140.637,5.859,10.742,39.551,-16.113,24.414
1532402140.641,24.902,14.160,34.668,-8.789,27.832
1532402140.645,2.441,19.531,28.809,-7.812,20.020
1532402140.649,-16.602,20.508,26.855,6.348,21.973
1532402140.653,14.648,19.531,30.273,0.000,8.789
1532402140.657,31.738,22.949,30.273,-51.270,8.789
1532402140.661,15.137,20.996,27.832,-41.016,0.977
1532402140.664,4.395,16.602,29.297,-10.742,33.203
1532402140.668,12.207,20.020,27.344,-23.438,19.531
1532402140.672,11.230,20.508,28.809,-19.043,-5.371
1532402140.676,21.484,17.578,26.855,-2.930,37.109
1532402140.680,12.207,16.602,23.926,-36.133,43.457
1532402140.684,21.484,20.020,25.879,-26.855,19.531
1532402140.688,62.500,20.508,28.320,31.250,7.324
1532402140.692,53.223,21.973,28.320,-11.719,-16.113
1532402140.696,26.367,25.391,25.879,-62.500,-8.789
1532402140.700,15.625,21.484,28.320,-42.969,23.926
1532402140.704,26.367,19.043,31.738,-23.926,32.715
1532402140.707,34.668,20.020,28.320,-18.066,20.020
1532402140.711,3.418,18.555,27.832,-13.184,18.555
1532402140.715,15.625,18.066,27.832,-20.996,39.551
1532402140.719,42.480,23.926,23.438,0.000,17.578
1532402140.723,16.113,28.809,21.973,-0.488,-7.324
1532402140.727,9.766,23.438,28.320,-35.156,3.418
1532402140.731,16.113,19.043,28.809,-50.781,0.000
1532402140.735,23.926,19.531,23.438,-35.156,-3.906
1532402140.739,30.762,24.414,22.949,-5.859,12.695
1532402140.743,28.809,28.320,26.855,-52.734,-4.395
1532402140.747,37.598,23.926,29.297,-22.461,11.230
1532402140.750,21.484,22.949,24.902,23.926,9.766
1532402140.754,21.484,22.461,27.344,-10.742,-21.484
1532402140.758,26.855,20.996,29.785,-28.320,-12.207
1532402140.762,25.391,23.438,27.832,6.836,-3.418
1532402140.766,27.832,24.902,29.297,3.906,-11.719
1532402140.770,30.273,22.461,32.715,-51.270,-51.758
1532402140.774,41.504,23.926,30.762,-42.969,-89.355
1532402140.778,28.320,24.414,32.715,-21.973,-28.809
1532402140.782,21.484,23.926,39.062,-13.184,-15.137
1532402140.786,27.832,27.832,30.762,-18.066,-46.875
1532402140.789,13.184,25.879,30.273,18.555,-20.508
1532402140.793,32.227,24.414,32.227,16.602,-19.531
1532402140.797,40.039,26.855,32.227,-41.016,-7.324
1532402140.801,51.758,28.320,32.715,-41.992,-24.414
1532402140.805,51.270,28.320,29.297,-29.785,-44.922
1532402140.809,2.930,24.902,32.227,5.371,-38.086
1532402140.813,6.836,23.438,32.227,-17.578,-50.293
1532402140.817,64.941,29.785,28.809,-11.719,-45.410
1532402140.821,48.340,32.227,29.297,23.438,-37.109
1532402140.825,21.973,27.344,27.832,-24.902,-31.738
1532402140.829,26.855,27.344,27.344,-39.551,-45.410
1532402140.832,27.344,26.855,30.762,-28.809,-80.078
1532402140.836,7.812,27.344,28.809,-40.039,-88.379
1532402140.840,20.508,29.785,29.297,-9.766,-54.688
1532402140.844,28.320,27.344,31.738,0.000,-59.082
1532402140.848,17.090,25.879,28.809,-34.668,-51.758
1532402140.852,33.691,26.855,29.297,-15.137,-82.520
1532402140.856,34.180,27.344,30.273,-20.020,-83.984
1532402140.860,17.090,25.391,28.809,-23.926,-47.852
1532402140.864,6.348,24.902,28.809,-10.254,-63.477
1532402140.868,35.156,24.902,33.691,-6.348,-72.754
1532402140.871,39.551,23.438,37.109,-8.789,-85.449
1532402140.875,8.789,22.949,34.180,-27.832,-34.668
1532402140.879,12.207,25.879,31.738,-34.180,-12.207
1532402140.883,20.508,30.762,26.855,-16.602,-42.969
1532402140.887,47.363,28.320,25.391,-20.996,-54.199
1532402140.891,36.133,26.367,30.273,-33.203,-31.250
1532402140.895,22.461,24.902,34.668,-18.555,-5.371
1532402140.899,41.504,25.879,36.621,19.531,0.000
1532402140.903,51.270,24.902,37.598,36.621,-13.672
1532402140.907,31.250,25.391,27.344,-33.203,-34.668
1532402140.911,9.277,25.391,24.414,-50.781,-49.316
1532402140.914,36.133,22.949,31.250,-14.160,-51.758
1532402140.918,20.020,26.855,25.391,-12.695,-33.203
1532402140.922,28.809,28.809,24.902,-25.391,-14.160
1532402140.926,26.855,24.902,27.832,-21.484,-9.277
1532402140.930,11.230,24.414,25.879,38.086,-7.324
1532402140.934,21.484,25.391,23.438,-10.742,0.977
1532402140.938,9.277,21.973,26.855,-57.129,-4.395
1532402140.942,1.465,17.090,32.715,-12.207,3.906
1532402140.946,23.438,18.066,30.273,-10.254,20.996
1532402140.950,32.715,23.926,30.273,-7.324,30.762
1532402140.954,27.832,22.461,31.250,-14.160,0.488
1532402140.957,36.133,22.461,27.344,-14.160,0.977
1532402140.961,29.785,25.391,21.484,-13.672,13.672
1532402140.965,30.762,28.809,20.996,-10.742,20.020
1532402140.969,20.020,24.414,29.785,-24.414,-4.395
1532402140.973,11.719,24.414,32.715,-12.695,-18.555
1532402140.977,12.207,26.367,27.344,-17.090,12.695
1532402140.981,13.184,22.461,29.785,-33.203,6.836
1532402140.985,23.438,21.484,33.691,15.137,22.461
1532402140.989,23.926,26.855,28.809,5.371,18.066
1532402140.993,24.414,32.715,23.926,-52.734,5.371
1532402140.996,28.320,29.785,25.391,-41.504,24.414
1532402141.000,36.133,25.391,26.367,-23.926,26.367
1532402141.004,49.805,26.855,24.414,-13.184,25.391
1532402141.008,38.086,27.344,24.902,11.230,28.809
1532402141.012,27.344,27.344,24.902,-27.344,3.906
1532402141.016,20.996,24.414,26.855,-13.672,24.902
1532402141.020,36.621,26.367,27.344,-12.207,36.621
1532402141.024,34.180,31.738,25.879,-49.805,46.387
1532402141.028,28.320,30.762,26.367,-44.922,54.199
1532402141.032,33.691,28.320,28.809,11.719,31.738
1532402141.036,14.648,28.809,27.832,-0.977,42.969
1532402141.039,20.508,27.344,31.738,-19.531,39.062
1532402141.043,46.875,29.297,35.645,-6.348,22.949
1532402141.047,42.480,28.320,31.738,-18.066,54.199
1532402141.051,24.902,23.926,26.367,-0.977,15.137
1532402141.055,23.926,22.949,22.461,-26.367,-12.207
1532402141.059,29.785,20.020,24.902,-12.695,49.316
1532402141.063,39.551,17.578,26.367,-1.953,66.895
1532402141.067,19.531,20.020,26.855,27.344,71.777
1532402141.071,0.000,22.461,28.809,-6.348,41.992
1532402141.075,19.531,20.996,23.926,-51.270,31.250
1532402141.079,35.645,21.484,26.855,-14.160,50.293
1532402141.082,35.645,25.391,27.344,-6.348,41.504
1532402141.086,2.441,20.996,23.926,5.859,24.902
1532402141.090,-15.137,17.578,24.414,-27.832,28.809
1532402141.094,23.926,19.531,30.273,-19.531,39.551
1532402141.098,52.734,23.926,28.320,0.977,45.410
1532402141.102,12.695,23.926,22.461,-40.527,50.781
1532402141.106,-4.395,22.949,23.438,-39.551,68.848
1532402141.110,7.324,24.902,22.949,-27.832,49.316
1532402141.114,5.859,27.344,21.973,-43.457,54.199
1532402141.118,27.832,27.344,25.391,-27.832,35.156
1532402141.121,49.316,30.273,25.391,-3.418,8.789
1532402141.125,37.598,29.297,25.879,-16.602,57.617
1532402141.129,18.555,23.438,32.227,-11.719,51.270
1532402141.133,14.160,28.320,24.902,-24.902,38.574
1532402141.137,21.484,31.250,20.020,-43.457,39.062
1532402141.141,46.387,29.297,23.438,-19.531,41.016
1532402141.145,48.828,28.809,26.367,-17.578,72.754
1532402141.149,45.898,32.715,28.320,-27.832,43.945
1532402141.153,58.105,34.668,22.949,-21.973,34.180
1532402141.157,43.945,28.320,20.508,-16.602,83.984
1532402141.161,30.273,19.043,23.926,-44.922,81.055
1532402141.164,19.043,17.090,30.762,-29.297,86.914
1532402141.168,14.160,24.902,32.227,0.977,46.387
1532402141.172,11.719,28.320,25.879,-20.020,8.789
1532402141.176,14.648,25.879,26.855,-34.668,49.316
1532402141.180,24.902,22.461,33.203,-32.715,70.312
1532402141.184,5.371,25.391,30.762,-1.953,60.059
1532402141.188,22.949,26.855,26.855,18.066,53.223
1532402141.192,18.555,26.855,26.367,-18.066,72.266
1532402141.196,20.020,25.391,21.484,-65.430,98.633
1532402141.200,44.434,26.367,26.855,-15.625,93.262
1532402141.203,2.930,30.762,31.738,25.391,58.105
1532402141.207,-15.137,28.320,24.414,-46.387,41.016
1532402141.211,13.672,22.949,29.785,-29.785,57.129
1532402141.215,25.391,22.461,31.250,3.418,79.102
1532402141.219,20.996,24.902,27.832,-4.883,64.453
1532402141.223,23.438,23.438,30.762,3.418,51.758
1532402141.227,33.203,25.391,28.320,-16.113,62.012
1532402141.231,38.574,25.391,25.391,-48.340,66.406
1532402141.235,20.996,24.414,26.855,-29.785,50.781
1532402141.239,-5.371,26.855,26.367,-41.992,41.016
1532402141.243,5.859,25.879,28.320,-23.926,56.152
1532402141.246,19.043,25.879,29.297,-11.719,77.637
1532402141.250,42.480,25.391,30.762,1.465,42.969
1532402141.254,13.672,23.926,33.203,-2.930,11.719
1532402141.258,-12.695,25.879,28.809,-56.152,62.012
1532402141.262,17.090,22.949,26.855,-32.715,83.496
1532402141.266,28.320,19.531,27.832,-7.324,81.055
1532402141.270,35.645,26.367,21.973,-43.457,47.852
1532402141.274,20.996,27.344,21.973,-54.199,37.598
1532402141.278,10.742,20.996,29.297,-5.371,60.547
1532402141.282,16.602,22.461,26.855,-7.812,67.383
1532402141.286,16.602,27.344,26.367,2.930,60.059
1532402141.289,3.906,24.414,33.691,28.320,41.016
1532402141.293,6.836,29.297,27.344,-66.406,77.148
1532402141.297,43.457,26.367,29.297,-62.012,106.934
1532402141.301,12.695,19.531,29.785,-25.879,87.891
1532402141.305,-4.883,24.902,22.949,-11.719,82.031
1532402141.309,10.254,30.273,26.367,-21.973,77.148
1532402141.313,31.738,28.809,24.902,-35.156,105.957
1532402141.317,27.344,25.879,23.438,-36.621,91.309
1532402141.321,2.441,26.367,24.902,-41.016,30.273
1532402141.325,23.438,21.484,28.320,12.207,30.273
1532402141.328,32.227,21.484,25.879,-21.484,45.898
1532402141.332,24.902,19.531,29.297,-22.949,64.941
1532402141.336,28.809,21.484,31.738,-0.488,53.711
1532402141.340,44.434,28.320,24.902,-29.297,38.574
1532402141.344,39.062,28.809,23.926,-32.715,62.988
1532402141.348,41.504,27.344,19.531,-31.250,63.965
1532402141.352,37.109,26.855,20.996,11.719,16.602
1532402141.356,48.340,24.902,27.344,-3.906,24.414
1532402141.360,19.531,21.484,30.762,-50.781,70.312
1532402141.364,12.695,23.926,25.879,-55.664,82.031
1532402141.368,46.387,23.926,22.461,-51.758,74.219
1532402141.371,48.340,20.020,29.785,9.766,43.457
1532402141.375,42.969,23.438,27.832,1.953,24.902
1532402141.379,58.105,26.367,22.949,-59.570,50.781
1532402141.383,35.645,22.461,34.180,-5.859,48.340
1532402141.387,20.020,20.996,36.133,4.883,40.039
1532402141.391,49.316,24.414,32.227,-17.578,24.902
1532402141.395,48.340,25.879,29.297,-10.742,54.688
1532402141.399,30.762,23.926,26.855,-24.414,76.660
1532402141.403,26.855,20.996,29.785,-0.977,40.039
1532402141.407,38.086,25.879,21.973,-16.113,33.203
1532402141.411,54.688,27.344,20.508,-41.992,30.762
1532402141.414,33.691,19.531,27.344,-10.742,66.406
1532402141.418,25.391,19.531,27.344,-10.742,58.594
1532402141.422,53.223,18.555,30.273,-4.883,16.602
1532402141.426,71.289,22.461,28.320,-15.625,33.203
1532402141.430,35.156,24.902,21.973,-7.812,43.457
1532402141.434,38.086,23.438,22.461,-36.621,51.270
1532402141.438,40.039,20.508,29.297,-61.035,46.387
1532402141.442,38.574,19.531,28.809,-29.785,26.367
1532402141.446,59.082,26.855,23.926,2.441,63.477
1532402141.450,35.156,28.809,26.855,15.625,79.102
1532402141.453,34.668,27.832,23.926,-16.602,62.012
1532402141.457,72.754,29.785,25.879,-35.645,44.922
1532402141.461,67.871,27.832,30.273,-25.879,33.691
1532402141.465,55.176,23.438,28.809,16.113,55.176
1532402141.469,53.223,21.484,27.344,-4.883,28.809
1532402141.473,56.641,23.926,25.879,-24.902,13.184
1532402141.477,62.012,25.391,25.879,-22.949,69.336
1532402141.481,53.711,20.508,25.391,-20.020,73.242
1532402141.485,74.707,19.531,20.996,3.906,49.805
1532402141.489,51.758,20.996,20.508,-12.695,48.340
1532402141.493,40.527,19.531,24.414,-63.477,64.941
1532402141.496,51.758,19.531,23.926,-21.973,76.172
1532402141.500,78.613,18.066,26.855,5.371,63.965
1532402141.504,82.031,19.531,28.320,5.859,57.129
1532402141.508,33.691,22.949,23.926,-8.789,57.129
1532402141.512,47.363,21.484,25.879,-18.066,65.918
1532402141.516,71.289,23.926,22.461,-40.039,69.824
1532402141.520,59.570,22.949,23.438,-42.480,53.711
1532402141.524,16.602,20.020,25.391,18.555,62.988
1532402141.528,38.086,23.438,22.461,-21.973,59.570
1532402141.532,65.430,24.414,21.973,-43.945,26.855
1532402141.536,41.992,20.996,23.438,-31.738,12.695
1532402141.539,68.359,20.996,23.926,-20.020,36.621
1532402141.543,54.688,25.391,21.973,-20.996,75.195
1532402141.547,22.461,24.414,22.949,-33.203,59.082
1532402141.551,63.477,25.879,21.973,-24.902,32.227
1532402141.555,72.266,23.926,24.902,-19.531,24.414
1532402141.559,41.504,21.484,29.785,15.137,40.527
1532402141.563,33.203,22.461,28.320,16.113,58.594
1532402141.567,35.645,21.484,27.344,-32.715,66.895
1532402141.571,30.273,24.902,24.902,-43.945,44.434
1532402141.575,64.453,26.367,22.461,-37.109,24.902
1532402141.578,59.082,24.902,31.250,-20.996,52.246
1532402141.582,10.742,23.926,33.691,5.859,53.711
1532402141.586,43.945,26.855,27.344,12.207,37.109
1532402141.590,54.688,29.297,21.484,-39.062,27.832
1532402141.594,36.133,25.879,20.020,3.418,36.621
1532402141.598,61.523,23.438,22.461,-6.348,45.898
1532402141.602,59.082,22.461,25.879,-42.480,24.414
1532402141.606,45.898,21.484,24.414,-0.488,25.391
1532402141.610,54.688,25.879,22.949,-23.926,19.531
1532402141.614,52.734,27.832,25.879,8.301,23.438
1532402141.618,35.645,21.973,24.902,-41.504,28.809
1532402141.621,45.898,17.578,25.391,-56.152,9.277
1532402141.625,59.082,20.996,27.344,-9.766,13.672
1532402141.629,38.086,24.414,22.461,-35.156,20.996
1532402141.633,35.645,22.461,21.973,7.812,28.320
1532402141.637,36.621,22.949,23.438,21.484,12.207
1532402141.641,60.547,28.809,21.484,-57.129,2.441
1532402141.645,58.594,29.785,19.531,-58.594,12.695
1532402141.649,50.781,26.367,17.578,-11.719,4.395
1532402141.653,71.777,28.320,18.066,-11.719,1.465
1532402141.657,70.801,25.879,21.484,-24.414,3.418
1532402141.660,60.059,24.902,22.461,-8.301,13.184
1532402141.664,39.551,29.297,18.555,-34.668,23.438
1532402141.668,52.246,29.297,20.996,34.668,-9.277
1532402141.672,58.594,30.273,18.066,2.441,-30.762
1532402141.676,50.781,28.320,18.555,-78.613,2.441
1532402141.680,40.039,26.367,24.902,2.930,40.039
1532402141.684,45.410,29.785,21.484,15.625,46.387
1532402141.688,69.824,35.645,17.090,-54.199,31.250
1532402141.692,65.918,29.785,24.414,-35.645,36.133
1532402141.696,58.594,23.926,26.855,-11.719,54.199
1532402141.700,54.688,23.926,21.484,-16.113,66.406
1532402141.703,54.688,23.438,22.461,-14.648,45.898
1532402141.707,76.172,24.414,22.461,13.672,63.965
1532402141.711,61.035,26.855,21.484,16.113,55.664
1532402141.715,32.715,24.902,20.020,-42.969,42.480
1532402141.719,39.062,17.578,20.508,-62.012,44.922
1532402141.723,45.898,17.090,21.484,-19.043,58.105
1532402141.727,39.062,18.066,22.949,-2.930,93.750
1532402141.731,56.152,20.020,25.391,-20.508,68.359
1532402141.735,111.328,27.344,24.414,-0.488,83.984
1532402141.739,83.008,23.438,23.438,46.387,83.984
1532402141.743,50.293,22.949,23.438,-10.742,67.871
1532402141.746,62.012,23.438,25.879,-50.293,96.191
1532402141.750,44.434,19.531,25.879,-29.785,56.641
1532402141.754,54.199,17.578,26.855,-20.508,6.836
1532402141.758,72.266,15.625,25.879,-24.902,43.945
1532402141.762,66.895,14.648,29.297,7.812,40.039
1532402141.766,58.105,15.625,34.180,54.688,30.762
1532402141.770,48.340,17.090,28.809,-29.785,18.066
1532402141.774,48.828,15.625,27.832,-61.035,-8.789
1532402141.778,56.152,13.672,29.785,-5.371,12.207
1532402141.782,67.871,15.625,28.320,-13.672,5.859
1532402141.785,54.688,16.602,27.344,-25.879,20.508
1532402141.789,84.473,19.531,29.785,1.953,16.113
1532402141.793,69.824,20.508,27.344,-18.066,20.508
1532402141.797,19.043,16.602,26.367,-24.902,38.086
1532402141.801,44.922,13.672,22.949,-17.578,21.973
1532402141.805,47.852,16.602,18.555,-45.410,29.785
1532402141.809,36.133,19.043,24.414,-5.859,36.621
1532402141.813,38.086,21.973,25.879,12.695,12.207
1532402141.817,55.176,20.996,26.367,-13.184,1.465
1532402141.821,56.152,18.555,33.691,40.039,12.207
1532402141.825,31.250,21.484,30.273,22.949,32.715
1532402141.828,9.277,19.531,28.809,-70.312,31.250
1532402141.832,11.230,18.555,31.738,-30.273,32.227
1532402141.836,35.645,21.973,32.715,40.527,16.602
1532402141.840,39.551,22.949,32.715,1.953,31.250
1532402141.844,29.297,22.949,28.320,-46.387,63.965
1532402141.848,47.363,21.973,24.902,-10.254,28.809
1532402141.852,66.406,20.508,27.832,8.301,-7.324
1532402141.856,13.672,17.578,29.785,-18.066,20.508
1532402141.860,9.766,15.137,29.785,-25.391,57.617
1532402141.864,18.555,14.160,36.133,22.949,58.105
1532402141.868,41.992,19.531,29.297,-1.953,35.156
1532402141.871,37.598,23.438,23.926,-13.672,10.254
1532402141.875,14.160,18.066,26.855,3.906,24.414
1532402141.879,41.504,17.578,25.879,-10.254,51.758
1532402141.883,12.207,19.531,27.832,-9.766,44.434
1532402141.887,-16.602,14.648,26.367,-33.203,11.230
1532402141.891,11.230,18.066,23.926,-18.066,-25.879
1532402141.895,7.324,20.020,26.367,-34.180,0.488
1532402141.899,-24.902,18.066,26.367,0.000,52.734
1532402141.903,11.230,18.066,24.414,19.043,27.832
1532402141.907,10.742,12.207,26.855,-35.156,21.484
1532402141.910,-9.277,12.207,30.273,-20.996,21.484
1532402141.914,-6.348,14.648,29.297,-8.789,46.387
1532402141.918,4.883,17.090,25.879,-30.762,47.363
1532402141.922,38.574,19.531,26.855,-29.297,36.133
1532402141.926,20.508,13.672,29.785,-16.602,56.641
1532402141.930,19.043,11.719,29.297,19.531,68.848
1532402141.934,14.648,15.625,25.391,8.789,66.406
1532402141.938,8.301,12.695,22.461,-54.199,35.645
1532402141.942,17.090,11.719,25.879,-4.395,14.160
1532402141.946,15.625,17.090,19.531,7.324,33.203
1532402141.950,19.043,16.113,18.555,-41.016,49.805
1532402141.953,35.645,13.672,25.391,1.953,9.766
1532402141.957,22.461,11.719,25.879,14.160,11.719
1532402141.961,-12.695,13.184,21.484,-46.387,66.895
1532402141.965,-18.555,11.230,20.996,-44.434,103.027
1532402141.969,14.648,13.672,20.996,7.324,45.410
1532402141.973,39.062,18.555,16.113,-0.488,36.133
1532402141.977,10.254,15.137,19.531,-38.086,82.520
1532402141.981,-3.418,10.742,22.949,-24.414,78.125
1532402141.985,12.695,11.230,20.508,-32.715,60.059
1532402141.989,15.625,18.555,19.531,-30.273,42.480
1532402141.992,27.344,22.461,18.555,-10.254,32.715
1532402141.996,41.016,18.555,24.902,25.391,64.941
1532402142.000,24.902,14.648,22.949,-21.973,63.965
1532402142.004,30.762,17.090,17.578,-56.152,33.691
1532402142.008,56.641,19.531,22.949,-7.324,26.855
1532402142.012,30.762,12.695,29.297,-6.348,54.199
1532402142.016,8.789,5.859,30.273,-8.789,79.102
1532402142.020,28.320,11.230,26.367,-0.488,94.727
1532402142.024,39.062,16.602,23.438,15.625,76.172
1532402142.028,55.664,16.602,23.438,-22.461,44.434
1532402142.032,68.359,19.043,21.973,-29.785,75.195
1532402142.035,47.363,15.137,25.879,-2.930,63.477
1532402142.039,35.645,10.742,25.391,-12.207,60.547
1532402142.043,39.062,12.207,20.996,2.441,87.891
1532402142.047,46.387,16.113,22.461,13.672,89.355
1532402142.051,55.664,18.555,21.484,-54.688,54.688
1532402142.055,41.504,19.043,25.391,-43.945,27.832
1532402142.059,56.641,20.508,27.344,1.465,58.105
1532402142.063,47.852,17.090,27.832,23.926,59.570
1532402142.067,36.621,17.090,24.902,7.812,38.086
1532402142.071,44.922,21.973,20.020,-49.805,38.574
1532402142.075,37.598,22.949,25.879,3.418,35.645
1532402142.078,35.156,19.043,31.738,38.574,55.176
1532402142.082,63.965,18.066,27.832,-8.789,59.082
1532402142.086,87.402,20.996,25.391,-44.434,65.918
1532402142.090,51.758,20.996,31.738,26.367,41.504
1532402142.094,22.949,18.066,32.715,3.906,20.020
1532402142.098,27.832,17.578,27.344,-62.988,78.125
1532402142.102,57.129,18.066,27.832,-31.250,56.152
1532402142.106,69.336,15.137,32.227,35.645,8.789
1532402142.110,64.941,20.020,25.391,5.859,39.062
1532402142.114,61.523,23.926,22.461,-42.969,59.082
1532402142.117,41.504,19.043,28.809,-3.418,52.246
1532402142.121,27.832,21.973,24.902,-21.973,47.363
1532402142.125,72.754,24.902,23.438,-27.344,34.180
1532402142.129,70.312,21.973,26.367,12.695,18.555
1532402142.133,17.578,18.066,25.879,18.066,-16.602
1532402142.137,39.551,18.066,22.461,-42.480,-26.855
1532402142.141,48.828,17.578,24.902,-37.109,-3.906
1532402142.145,74.707,17.578,26.855,-9.766,35.645
1532402142.149,84.961,16.113,30.762,0.488,28.809
1532402142.153,45.410,11.230,31.738,-33.691,-11.230
1532402142.157,43.457,11.230,28.809,-18.066,-0.488
1532402142.160,51.270,19.043,28.809,-4.395,39.551
1532402142.164,62.012,23.438,23.926,-15.625,36.133
1532402142.168,76.172,20.996,23.926,8.789,-18.066
1532402142.172,65.918,16.602,32.227,12.695,-21.973
1532402142.176,58.594,15.137,33.203,-40.039,8.301
1532402142.180,31.738,14.160,32.715,-52.246,43.457
1532402142.184,39.062,14.648,35.645,-27.832,9.766
1532402142.188,61.523,19.531,34.668,-34.668,-23.926
1532402142.192,41.992,15.625,31.250,17.578,-14.648
1532402142.196,38.086,14.160,36.133,22.461,-13.672
1532402142.200,51.758,20.508,33.203,-50.293,16.602
1532402142.203,55.664,18.066,30.762,-36.621,22.461
1532402142.207,31.250,15.137,35.645,-20.996,12.695
1532402142.211,20.508,19.043,38.574,22.949,23.438
1532402142.215,44.434,26.855,33.691,23.926,28.809
1532402142.219,33.203,26.855,32.715,-43.457,16.113
1532402142.223,33.691,22.461,38.086,-19.043,19.043
1532402142.227,52.246,24.414,34.180,-7.324,45.410
1532402142.231,74.707,27.832,31.250,-14.160,34.180
1532402142.235,125.488,27.344,33.691,0.488,8.301
1532402142.239,113.770,27.344,32.715,11.719,17.090
1532402142.242,90.332,27.832,30.762,-21.973,35.645
1532402142.246,98.633,25.391,31.250,11.230,37.109
1532402142.250,85.449,24.902,28.809,12.207,24.902
1532402142.254,77.637,19.531,31.250,-76.660,33.691
1532402142.258,71.289,20.508,31.250,-27.344,44.922
1532402142.262,91.797,28.809,27.344,6.836,71.777
1532402142.266,87.402,30.762,21.973,2.930,70.801
1532402142.270,78.613,30.273,21.973,19.531,25.391
1532402142.274,70.312,29.785,27.344,-12.695,27.344
1532402142.278,68.848,31.738,30.762,-22.461,67.383
1532402142.282,77.637,31.250,29.785,-18.066,60.059
1532402142.285,74.707,31.738,21.973,-45.898,11.719
1532402142.289,82.031,30.762,21.973,-24.414,4.395
1532402142.293,69.824,23.926,29.785,4.395,50.781
1532402142.297,66.895,23.926,29.785,-3.906,51.270
1532402142.301,95.703,29.785,26.367,7.324,29.785
1532402142.305,58.105,28.320,27.344,-31.738,32.227
1532402142.309,32.715,22.461,26.855,-80.078,19.043
1532402142.313,57.129,23.926,26.367,-20.020,44.434
1532402142.317,56.152,21.973,30.273,20.020,49.316
1532402142.321,55.664,24.902,29.297,-4.395,20.508
1532402142.325,66.895,28.809,27.344,-34.180,22.461
1532402142.328,68.359,27.832,28.320,19.043,31.738
1532402142.332,16.602,29.785,24.414,0.488,34.668
1532402142.336,23.926,33.691,21.973,-37.109,29.785
1532402142.340,45.898,31.250,28.320,-18.555,44.922
1532402142.344,32.227,25.879,28.809,-34.180,46.387
1532402142.348,41.992,27.344,24.902,0.977,33.691
1532402142.352,18.066,29.297,25.391,-10.742,32.227
1532402142.356,14.648,28.320,24.902,-56.641,15.137
1532402142.360,5.371,27.832,27.832,-33.691,-4.883
1532402142.364,-16.602,28.809,27.344,-20.020,32.227
1532402142.367,-23.438,27.832,25.391,-28.809,32.715
1532402142.371,13.184,28.320,27.832,-14.160,-18.066
1532402142.375,23.926,26.367,35.156,11.230,-2.930
1532402142.379,-23.438,24.902,35.645,-10.254,61.035
1532402142.383,-41.992,28.809,28.320,-23.438,51.270
1532402142.387,-16.602,28.809,32.227,-15.625,20.996
1532402142.391,14.648,21.484,33.691,-7.812,18.555
1532402142.395,22.949,22.949,30.273,-3.418,41.016
1532402142.399,17.090,24.414,30.273,-25.391,60.547
1532402142.403,-6.348,22.461,34.180,-20.020,-4.395
1532402142.407,6.348,27.832,32.227,13.184,-13.672
1532402142.410,3.418,27.344,28.809,-39.551,-3.906
1532402142.414,-5.371,24.902,30.762,-53.223,-23.438
1532402142.418,14.160,25.879,29.785,-1.465,-28.809
1532402142.422,2.441,26.367,30.273,1.465,-16.113
1532402142.426,0.977,28.320,29.297,-11.719,12.695
1532402142.430,29.297,29.297,25.879,-36.133,10.742
1532402142.434,-0.488,26.855,25.879,-42.480,-12.207
1532402142.438,-0.977,23.926,28.320,16.602,-12.695
1532402142.442,26.367,24.902,22.949,-20.996,12.695
1532402142.446,-8.301,27.832,17.090,-83.984,17.578
1532402142.449,-12.207,26.367,25.391,-41.016,-2.930
1532402142.453,10.742,22.949,32.227,-8.301,-48.340
1532402142.457,10.742,22.949,33.691,-1.465,-15.625
1532402142.461,24.902,22.949,32.227,-18.555,13.672
1532402142.465,-8.301,23.926,31.250,31.250,30.273
1532402142.469,-27.344,24.414,29.785,0.977,2.441
1532402142.473,19.531,29.297,27.344,-37.109,-2.930
1532402142.477,33.691,28.320,36.621,-3.418,28.320
1532402142.481,-12.695,20.508,39.062,-23.438,6.836
1532402142.485,-19.531,21.484,31.250,-16.602,20.508
1532402142.489,13.672,27.832,32.715,9.277,13.184
1532402142.492,10.742,28.809,30.762,8.301,10.742
1532402142.496,-18.555,23.926,29.297,-28.320,37.598
1532402142.500,8.789,23.926,31.250,-22.949,9.277
1532402142.504,16.602,30.273,28.320,-17.578,8.789
1532402142.508,9.766,31.738,32.227,-18.066,36.621
1532402142.512,17.578,27.832,35.156,-9.766,31.738
1532402142.516,9.766,23.926,32.715,-20.020,52.246
1532402142.520,9.277,24.902,30.762,-16.602,58.594
1532402142.524,24.902,27.344,30.762,-22.461,53.223
1532402142.528,39.551,28.320,31.738,-9.277,48.340
1532402142.532,0.488,26.855,31.738,42.969,42.969
1532402142.535,-6.836,25.879,28.320,-25.391,44.922
1532402142.539,10.742,24.414,23.438,-70.312,56.641
1532402142.543,18.555,23.926,26.367,-42.480,50.293
1532402142.547,7.812,24.902,25.879,-17.578,65.430
1532402142.551,-6.836,21.484,26.855,-7.324,37.598
1532402142.555,3.418,21.484,28.809,4.883,20.996
1532402142.559,-1.465,25.391,24.902,-0.977,52.246
1532402142.563,-7.812,26.855,25.879,-34.668,74.707
1532402142.567,-10.254,26.855,30.273,-12.207,72.754
1532402142.571,-14.160,26.855,29.785,-23.438,51.758
1532402142.574,-13.184,25.391,25.391,-41.016,45.410
1532402142.578,1.953,26.855,24.414,-8.789,30.762
1532402142.582,2.930,28.320,27.344,26.855,47.363
1532402142.586,6.836,26.367,26.367,14.648,49.805
1532402142.590,-13.184,20.996,29.785,-29.785,13.184
1532402142.594,-20.020,22.461,30.762,-32.715,7.324
1532402142.598,3.418,27.344,27.344,0.488,43.457
1532402142.602,-2.441,31.250,28.320,11.719,32.715
1532402142.606,6.348,35.156,26.367,-18.066,20.020
1532402142.610,6.348,31.250,29.297,-28.809,13.184
1532402142.614,-2.441,30.762,31.250,-24.902,21.973
1532402142.617,21.484,33.203,26.855,-0.488,39.551
1532402142.621,27.344,34.180,25.879,7.324,16.113
1532402142.625,19.043,31.738,27.344,16.113,12.695
1532402142.629,13.184,29.297,25.879,-3.906,12.695
1532402142.633,15.625,32.715,27.344,-42.480,-17.578
1532402142.637,17.578,34.668,25.879,-13.184,10.742
1532402142.641,22.461,31.738,25.879,-4.883,18.066
1532402142.645,8.789,25.391,35.156,17.090,18.555
1532402142.649,-3.418,28.320,32.715,15.137,10.742
1532402142.653,7.812,35.645,29.785,-61.523,-36.621
1532402142.657,22.949,34.180,30.273,41.992,-18.066
1532402142.660,25.879,32.227,24.902,35.156,-17.578
1532402142.664,17.578,33.203,28.809,-78.125,-25.879
1532402142.668,17.578,29.297,32.227,-41.992,-53.223
1532402142.672,5.371,27.344,29.297,-17.578,-56.641
1532402142.676,-3.906,28.320,30.273,12.695,-26.367
1532402142.680,9.766,31.250,30.762,23.926,-20.996
1532402142.684,18.066,33.203,31.738,-0.488,-20.020
1532402142.688,2.441,27.344,32.227,-11.230,-50.293
1532402142.692,18.066,23.438,34.668,1.953,-57.129
1532402142.696,27.832,28.320,32.715,2.930,-64.453
1532402142.699,2.441,28.809,23.926,-31.250,-66.895
1532402142.703,4.395,23.926,26.367,7.812,-62.988
1532402142.707,15.137,22.949,32.715,31.250,-49.805
1532402142.711,-10.742,23.438,32.227,-17.090,-21.484
1532402142.715,-4.395,22.461,34.180,-2.930,-43.457
1532402142.719,19.531,26.855,35.645,11.719,-59.082
1532402142.723,13.184,33.691,33.691,-0.977,-23.438
1532402142.727,3.418,31.738,34.668,-17.578,-25.391
1532402142.731,-7.324,30.273,31.250,-29.785,-13.672
1532402142.735,-8.301,32.227,27.832,15.137,-15.137
1532402142.739,15.625,30.762,32.715,19.531,-38.574
1532402142.742,7.324,32.715,33.691,0.488,-34.668
1532402142.746,0.000,34.180,31.250,-11.719,-7.812
1532402142.750,9.277,33.691,29.785,-41.504,-24.414
1532402142.754,-1.953,33.203,31.738,-38.086,-49.805
1532402142.758,-15.625,30.273,34.668,58.105,-18.555
1532402142.762,-38.086,29.785,29.785,9.766,1.465
1532402142.766,-17.090,28.320,29.297,-72.266,-1.953
1532402142.770,35.645,32.715,30.273,-34.668,-23.438
1532402142.774,-1.465,35.156,28.320,17.090,-36.133
1532402142.778,-21.484,31.738,31.250,16.113,-2.930
1532402142.781,0.488,29.297,28.809,-23.926,3.906
1532402142.785,11.230,27.344,26.367,-20.508,-28.809
1532402142.789,-7.812,27.832,29.297,-31.738,-32.715
1532402142.793,-16.113,28.320,31.250,-24.902,-48.340
1532402142.797,8.301,26.855,34.180,-0.977,-18.066
1532402142.801,1.465,28.809,31.250,10.254,4.395
1532402142.805,-2.441,35.645,24.414,-29.785,-31.738
1532402142.809,9.766,38.086,25.391,-39.551,-22.949
1532402142.813,-5.371,34.668,26.855,21.973,2.930
1532402142.817,3.906,33.691,24.414,4.883,12.695
1532402142.821,-4.395,33.203,22.461,-32.227,-2.930
1532402142.824,-9.277,28.809,27.344,-20.508,-24.414
1532402142.828,-8.789,30.273,26.367,4.395,3.906
1532402142.832,-18.066,31.738,20.996,-20.508,-19.043
1532402142.836,-10.254,31.738,24.902,-9.277,-49.805
1532402142.840,-16.602,32.227,25.391,-2.441,-18.555
1532402142.844,-8.789,32.715,22.461,-51.758,10.254
1532402142.848,-13.184,31.250,24.414,-9.766,0.977
1532402142.852,-19.531,31.738,22.461,27.344,-40.527
1532402142.856,-9.766,31.250,25.391,8.789,-21.973
1532402142.860,-14.160,27.344,28.809,-20.996,-10.742
1532402142.864,-27.344,25.391,29.297,-26.367,1.465
1532402142.867,-8.789,29.297,24.902,-18.555,13.184
1532402142.871,19.531,32.227,22.949,-2.930,-9.277
1532402142.875,-5.371,24.902,24.902,27.832,-13.184
1532402142.879,-20.020,22.461,25.879,10.254,15.137
1532402142.883,-21.973,26.855,25.391,-33.691,3.418
1532402142.887,-26.855,25.391,27.832,-9.766,-23.926
1532402142.891,16.602,28.809,26.855,-19.531,-49.805
1532402142.895,60.547,34.668,23.926,-25.879,-58.105
1532402142.899,15.137,33.691,25.391,31.738,-12.207
1532402142.903,-28.809,29.785,27.344,7.324,-11.230
1532402142.906,-21.484,29.297,31.250,-21.973,-15.137
1532402142.910,-10.742,33.203,29.785,-12.695,-33.691
1532402142.914,-1.465,31.738,27.344,-15.137,-14.160
1532402142.918,3.418,30.273,28.320,-18.555,-34.668
1532402142.922,23.926,30.762,30.762,-11.230,-56.152
1532402142.926,25.879,33.203,29.297,3.906,-41.504
1532402142.930,5.859,30.762,26.367,16.113,-55.664
1532402142.934,-12.207,27.832,32.227,12.207,-61.035
1532402142.938,-2.441,30.273,32.715,-23.926,-54.199
1532402142.942,3.418,28.809,28.809,-73.730,-28.320
1532402142.946,10.254,25.391,30.273,-13.672,5.371
1532402142.949,16.113,29.785,29.297,15.137,-41.992
1532402142.953,5.859,33.691,26.855,0.977,-48.340
1532402142.957,11.230,30.762,23.926,-10.742,-10.742
1532402142.961,-8.301,27.344,27.344,0.488,-20.996
1532402142.965,17.090,26.367,29.785,39.551,-31.250
1532402142.969,33.203,29.785,30.273,-3.418,-63.477
1532402142.973,26.855,32.227,29.785,-59.082,-81.543
1532402142.977,35.645,31.738,29.785,-12.207,-52.246
1532402142.981,5.859,28.809,31.738,-5.859,2.441
1532402142.985,-15.625,25.879,29.785,-26.367,10.254
1532402142.989,21.484,27.832,29.297,24.414,-9.766
1532402142.992,41.016,27.832,29.297,33.203,-2.441
1532402142.996,36.621,29.297,28.320,-3.906,16.602
1532402143.000,36.133,31.250,31.250,-24.414,5.371
1532402143.004,-0.977,27.344,32.227,19.043,-25.879
1532402143.008,22.461,30.762,26.367,28.809,-9.277
1532402143.012,31.738,34.180,24.902,-29.297,33.203
1532402143.016,13.672,32.227,30.762,0.000,14.648
1532402143.020,28.320,29.785,33.691,-23.438,1.465
1532402143.024,24.414,27.832,32.715,-45.410,31.250
1532402143.028,19.531,30.273,27.832,6.348,23.926
1532402143.031,25.391,30.273,28.320,-2.441,6.836
1532402143.035,39.062,30.273,30.762,-31.738,-9.766
1532402143.039,25.391,27.832,29.297,-27.832,12.695
1532402143.043,11.230,27.832,30.273,23.926,34.668
1532402143.047,13.184,28.320,28.320,46.387,37.109
1532402143.051,18.555,26.855,22.461,-23.438,24.902
1532402143.055,26.855,24.902,24.902,-18.066,17.578
1532402143.059,12.695,28.320,27.344,-3.418,23.438
1532402143.063,17.578,29.297,24.414,-35.645,24.902
1532402143.067,10.742,26.367,25.879,-23.926,17.090
1532402143.071,29.785,31.738,25.391,-11.230,7.812
1532402143.074,37.598,35.156,22.949,-18.555,19.531
1532402143.078,19.531,33.691,22.949,-25.879,25.879
1532402143.082,28.320,32.715,27.344,-21.973,16.602
1532402143.086,36.133,33.691,25.391,-22.949,27.344
1532402143.090,27.832,34.668,20.020,-45.898,0.977
1532402143.094,59.082,34.180,22.949,-9.277,-22.461
1532402143.098,61.523,34.180,27.344,0.488,25.391
1532402143.102,0.000,29.785,31.250,0.000,30.762
1532402143.106,-18.555,28.320,28.320,11.719,18.555
1532402143.110,16.602,31.250,25.391,-21.484,9.277
1532402143.114,27.344,31.250,27.344,-10.254,8.789
1532402143.117,5.371,30.762,27.344,-16.113,10.742
1532402143.121,7.324,28.320,28.320,-21.484,-5.371
1532402143.125,37.109,23.438,28.320,11.230,26.367
1532402143.129,18.555,25.879,25.391,-11.719,14.160
1532402143.133,10.254,28.809,23.926,-38.574,-40.039
1532402143.137,24.902,27.344,26.855,-12.207,-38.086
1532402143.141,14.648,26.855,28.320,-24.902,-9.277
1532402143.145,9.766,27.832,31.250,-27.832,4.395
1532402143.149,24.902,25.879,33.691,0.488,-36.133
1532402143.153,39.062,27.344,33.691,12.695,-49.805
1532402143.156,0.488,29.297,32.227,-9.277,-25.879
1532402143.160,-5.371,28.320,29.785,-7.812,-8.789
1532402143.164,31.250,28.809,29.297,-8.301,7.812
1532402143.168,16.602,26.855,32.715,-17.578,-16.113
1532402143.172,12.207,26.855,31.738,-25.879,-75.195
1532402143.176,16.113,28.809,29.785,-18.555,-46.387
1532402143.180,21.973,27.832,32.715,-26.367,-22.949
1532402143.184,20.996,28.320,31.250,-6.348,-45.410
1532402143.188,1.953,30.762,26.367,34.180,-47.852
1532402143.192,31.250,31.738,22.949,-24.902,-50.293
1532402143.196,26.855,27.832,26.367,-52.734,-16.602
1532402143.199,-20.020,26.367,28.320,5.859,-22.949
1532402143.203,-9.766,27.344,30.762,9.277,-41.016
1532402143.207,37.109,27.832,26.855,-36.621,-35.645
1532402143.211,14.160,27.344,23.438,-3.418,-64.453
1532402143.215,-1.953,28.320,26.367,23.438,-55.664
1532402143.219,-2.930,26.855,26.367,-48.340,-38.086
1532402143.223,5.859,25.879,28.320,-48.340,-47.852
1532402143.227,21.484,30.762,29.297,-18.066,-42.969
1532402143.231,20.020,31.250,29.297,-17.090,-26.855
1532402143.235,20.996,28.809,28.809,-24.902,-8.789
1532402143.238,10.254,29.785,25.879,7.324,-32.227
1532402143.242,26.367,35.645,26.855,23.438,-38.086
1532402143.246,7.324,31.250,28.809,-41.504,-15.137
1532402143.250,-3.418,25.879,27.832,-36.133,-37.598
1532402143.254,20.020,31.738,29.297,-9.766,-41.992
1532402143.258,10.254,31.250,30.762,-12.207,-41.504
1532402143.262,50.293,33.203,29.297,-18.555,-0.977
1532402143.266,19.043,31.738,33.691,-21.484,9.766
1532402143.270,1.465,25.879,36.621,0.000,-39.551
1532402143.274,36.621,26.855,36.133,-16.113,-17.090
1532402143.278,28.809,26.367,36.621,8.301,2.930
1532402143.281,26.855,26.367,30.762,17.090,6.836
1532402143.285,-0.488,26.855,26.367,-11.719,-17.578
1532402143.289,0.488,29.785,24.414,-22.949,-30.762
1532402143.293,28.809,26.367,26.855,-68.359,-12.207
1532402143.297,12.695,18.555,37.598,-32.715,0.488
1532402143.301,-7.812,19.043,38.086,1.465,-22.461
1532402143.305,40.039,20.508,33.203,-6.836,-31.738
1532402143.309,50.781,24.414,30.273,-24.902,-1.465
1532402143.313,0.977,26.855,30.762,-14.648,-18.555
1532402143.317,-14.160,28.320,30.273,12.695,-39.062
1532402143.321,21.484,28.809,25.879,-19.531,-5.371
1532402143.324,35.645,27.832,28.320,-14.160,24.902
1532402143.328,21.484,26.855,34.180,-0.977,-1.953
1532402143.332,-1.465,24.414,36.133,16.602,-27.832
1532402143.336,18.066,27.344,33.691,36.133,-30.762
1532402143.340,43.457,30.273,29.785,-28.320,-45.410
1532402143.344,15.137,23.438,34.180,-26.855,-22.949
1532402143.348,-9.766,19.043,38.574,14.160,-1.465
1532402143.352,14.648,20.996,37.598,-4.883,-16.113
1532402143.356,32.715,21.973,31.738,-23.926,-37.109
1532402143.360,9.277,20.020,30.273,13.184,-40.039
1532402143.363,21.484,20.020,32.227,13.672,-3.418
1532402143.367,14.160,18.555,29.785,-20.508,-16.602
1532402143.371,9.766,17.578,30.762,-31.738,-45.898
1532402143.375,4.883,18.066,25.391,-21.973,-20.020
1532402143.379,15.625,20.508,22.949,16.113,13.672
1532402143.383,29.297,24.902,25.391,3.418,14.648
1532402143.387,39.551,22.461,24.902,-33.691,-11.719
1532402143.391,29.785,18.555,27.832,7.812,-12.695
1532402143.395,56.152,17.578,33.203,29.297,1.465
1532402143.399,58.105,20.996,28.320,-13.184,0.488
1532402143.403,-12.695,20.508,28.320,-38.086,-2.441
1532402143.406,34.180,20.020,33.203,5.859,-6.348
1532402143.410,58.594,20.508,30.273,-36.133,-32.227
1532402143.414,22.949,18.555,29.297,-63.477,-16.113
1532402143.418,29.785,15.625,35.645,19.043,6.836
1532402143.422,28.320,15.137,35.645,12.695,-9.277
1532402143.426,25.391,18.066,28.320,-9.766,-13.672
1532402143.430,46.387,21.484,28.320,-15.625,-2.441
1532402143.434,57.129,19.043,31.738,-26.367,-8.301
1532402143.438,18.066,19.531,34.180,-17.090,-16.113
1532402143.442,21.484,20.508,31.738,-18.066,1.465
1532402143.446,50.781,19.531,30.762,-27.344,27.832
1532402143.449,38.086,19.531,36.133,20.508,-29.785
1532402143.453,34.180,20.020,37.109,0.488,-71.777
1532402143.457,21.973,20.996,35.645,-29.785,10.254
1532402143.461,19.043,21.484,34.180,-16.113,38.574
1532402143.465,19.043,20.508,36.133,-43.457,38.086
1532402143.469,23.926,21.484,40.527,-6.836,-7.324
1532402143.473,19.531,24.414,38.086,0.488,-27.832
1532402143.477,15.137,24.902,38.086,-17.090,-12.207
1532402143.481,19.043,24.414,38.086,-40.039,-4.883
1532402143.485,23.926,25.391,38.574,-37.109,-16.113
1532402143.488,13.672,25.879,41.016,-33.691,-36.133
1532402143.492,20.996,30.273,40.527,-44.922,-31.738
1532402143.496,33.691,30.273,46.387,3.418,-8.301
1532402143.500,2.441,23.438,50.781,-8.789,-1.465
1532402143.504,28.320,24.414,47.363,-4.883,-7.324
1532402143.508,57.617,34.180,40.039,-29.785,-16.113
1532402143.512,19.531,41.992,30.762,-93.262,-0.488
1532402143.516,16.113,38.574,37.109,-31.738,30.273
1532402143.520,3.418,30.762,43.945,0.977,-0.488
1532402143.524,10.254,32.715,39.062,-47.852,-26.855
1532402143.528,36.133,37.598,43.457,-66.895,-22.461
1532402143.531,3.906,38.086,49.805,-53.223,-7.812
1532402143.535,-12.695,40.039,45.410,-53.223,-9.766
1532402143.539,4.883,40.527,44.922,-55.664,-14.160
1532402143.543,10.742,42.480,49.316,-65.918,10.254
1532402143.547,25.879,46.387,43.945,-9.766,12.207
1532402143.551,19.531,47.852,34.180,-46.387,-6.836
1532402143.555,-4.883,48.828,36.621,-123.047,-11.230
1532402143.559,-18.555,46.387,50.293,-82.031,18.555
1532402143.563,-11.230,47.852,55.664,-62.988,34.180
1532402143.567,-14.160,47.363,52.734,-67.383,16.602
1532402143.570,-20.996,53.223,48.340,-50.781,-1.953
1532402143.574,-11.230,57.129,50.781,-43.457,-3.906
1532402143.578,-25.391,51.758,50.293,-83.496,9.277
1532402143.582,-52.246,54.688,44.922,-108.887,28.320
1532402143.586,-63.965,56.641,46.875,-67.383,41.504
1532402143.590,-7.324,61.035,55.664,-62.988,15.625
1532402143.594,-4.395,64.941,58.594,-93.750,20.020
1532402143.598,-50.293,62.500,54.199,-91.797,64.941
1532402143.602,-43.945,65.918,60.547,-119.629,26.367
1532402143.606,-39.062,67.871,67.383,-92.285,11.230
1532402143.610,-43.945,66.406,61.035,-111.328,7.812
1532402143.613,-41.016,69.336,54.199,-125.000,24.414
1532402143.617,-21.973,67.871,58.105,-95.703,48.340
1532402143.621,-34.180,65.918,62.988,-89.355,32.227
1532402143.625,-52.246,68.359,57.617,-100.586,54.688
1532402143.629,-52.734,68.848,59.082,-100.098,32.715
1532402143.633,-44.434,64.453,67.871,-99.121,9.277
1532402143.637,-47.852,58.594,64.941,-109.375,33.691
1532402143.641,-45.410,62.500,57.617,-90.820,35.645
1532402143.645,-18.066,63.965,54.199,-70.312,56.641
1532402143.649,-8.301,59.082,48.828,-54.199,79.102
1532402143.653,-12.695,49.805,48.828,-54.688,42.480
1532402143.656,-1.953,46.387,45.410,-79.102,13.184
1532402143.660,0.488,41.504,39.062,-62.500,31.250
1532402143.664,6.348,32.715,40.527,-26.855,39.551
1532402143.668,21.973,23.926,38.086,-11.230,3.906
1532402143.672,25.879,21.484,27.344,-66.406,-11.230
1532402143.676,17.578,18.066,25.391,-59.082,15.137
1532402143.680,14.160,12.207,28.320,-1.953,16.113
1532402143.684,33.691,10.254,24.414,-18.066,0.000
1532402143.688,57.129,5.371,24.902,7.812,-17.090
1532402143.692,43.945,8.301,19.043,26.855,-34.180
1532402143.695,40.039,10.254,13.184,-30.273,-25.391
1532402143.699,53.223,3.906,18.066,4.883,5.371
1532402143.703,41.992,0.488,17.090,4.395,-24.414
1532402143.707,39.062,1.953,16.113,-18.066,-36.621
1532402143.711,59.082,1.465,18.066,46.387,-13.672
1532402143.715,61.523,0.977,16.602,55.176,4.395
1532402143.719,59.570,2.930,12.207,10.742,-18.066
1532402143.723,43.945,-2.441,14.648,26.367,-40.039
1532402143.727,76.660,-4.883,17.578,20.020,-6.348
1532402143.731,90.820,-3.418,13.672,-14.160,-19.043
1532402143.735,38.086,-7.324,15.137,16.602,-54.199
1532402143.738,42.969,-7.324,17.090,72.754,-48.340
1532402143.742,62.988,-5.859,16.602,63.477,-32.227
1532402143.746,81.543,-5.371,13.672,26.367,7.324
1532402143.750,67.871,-5.371,15.137,80.566,-17.090
1532402143.754,33.691,-3.418,13.184,57.129,-24.902
1532402143.758,44.434,-3.418,14.648,13.672,22.461
1532402143.762,64.941,-6.836,23.438,45.410,20.508
1532402143.766,50.293,-2.930,20.020,41.016,30.762
1532402143.770,49.316,0.977,16.602,39.062,0.977
1532402143.774,59.570,-0.977,16.113,28.809,-24.414
1532402143.778,78.613,-1.465,13.672,48.340,34.668
1532402143.781,62.012,-1.953,13.184,75.684,46.875
1532402143.785,35.156,-1.953,15.137,30.762,14.648
1532402143.789,48.340,3.906,19.043,-6.348,2.441
1532402143.793,42.480,2.930,19.531,15.137,-10.254
1532402143.797,83.008,3.418,18.555,49.316,25.391
1532402143.801,81.543,9.277,15.625,46.875,34.180
1532402143.805,50.293,7.324,15.137,20.996,13.184
1532402143.809,75.684,2.441,19.531,52.734,17.090
1532402143.813,68.848,1.465,19.531,31.250,33.691
1532402143.817,81.055,4.395,18.555,9.277,43.945
1532402143.820,60.059,6.836,17.578,13.672,27.832
1532402143.824,31.250,6.836,15.625,17.090,-7.324
1532402143.828,64.453,8.789,16.602,20.020,-3.906
1532402143.832,72.266,11.719,20.508,28.809,4.395
1532402143.836,57.617,11.230,21.973,20.508,2.441
1532402143.840,37.598,7.812,21.973,-5.371,10.742
1532402143.844,50.293,9.277,24.414,44.434,-1.953
1532402143.848,78.613,14.648,24.902,51.758,10.742
1532402143.852,63.965,14.648,23.438,9.277,8.301
1532402143.856,57.617,15.137,21.484,-0.977,-12.207
1532402143.860,80.078,16.113,24.902,10.254,-14.160
1532402143.863,97.168,14.648,25.391,26.367,16.113
1532402143.867,69.336,8.789,25.879,19.043,7.812
1532402143.871,58.105,10.254,27.832,27.832,-27.832
1532402143.875,90.332,19.043,23.438,14.648,8.301
1532402143.879,63.477,17.578,20.508,26.855,30.762
1532402143.883,34.180,12.695,22.461,14.160,40.039
1532402143.887,72.754,13.672,25.391,-39.062,31.250
1532402143.891,79.590,12.695,26.855,-10.742,23.926
1532402143.895,59.082,13.672,25.391,33.691,31.250
1532402143.899,52.246,16.602,26.855,20.020,22.949
1532402143.902,82.031,15.137,27.344,79.590,26.855
1532402143.906,75.684,16.113,22.949,22.461,-5.859
1532402143.910,36.621,15.137,23.438,-63.965,12.695
1532402143.914,56.152,13.672,24.902,15.137,83.008
1532402143.918,75.195,16.113,21.973,8.301,56.641
1532402143.922,57.617,15.625,22.949,-17.578,18.555
1532402143.926,69.824,17.090,24.902,11.719,29.297
1532402143.930,66.406,19.043,23.926,-6.348,16.113
1532402143.934,61.523,21.973,21.484,-26.367,4.883
1532402143.938,89.844,22.949,21.973,-4.395,1.953
1532402143.942,83.984,23.438,21.973,-5.859,23.926
1532402143.945,66.895,20.020,22.461,12.695,25.879
1532402143.949,50.293,19.043,25.391,40.527,20.996
1532402143.953,52.734,20.020,16.113,-8.789,26.367
1532402143.957,94.238,18.555,16.602,-41.504,8.301
1532402143.961,92.285,17.578,26.367,-26.855,0.488
1532402143.965,64.453,19.043,23.926,6.836,34.180
1532402143.969,60.547,20.508,20.996,-20.508,17.578
1532402143.973,60.547,22.949,20.020,-28.809,-29.785
1532402143.977,55.176,22.949,23.438,15.625,6.348
1532402143.981,46.387,23.438,24.414,-11.719,7.324
1532402143.985,44.434,22.949,22.461,-1.953,5.859
1532402143.988,52.734,25.879,21.973,17.090,11.230
1532402143.992,46.387,28.320,22.949,-10.742,18.555
1532402143.996,56.152,27.344,20.996,16.113,54.199
1532402144.000,48.340,25.879,21.973,29.297,19.531
1532402144.004,21.484,23.438,23.438,4.395,8.301
1532402144.008,42.969,26.367,21.484,4.395,2.441
1532402144.012,54.199,27.344,21.484,-25.879,-20.508
1532402144.016,25.391,21.973,22.461,-4.395,21.973
1532402144.020,32.227,20.996,23.926,47.852,40.527
1532402144.024,38.086,22.949,24.414,-12.207,22.461
1532402144.027,10.742,21.973,24.414,-33.691,17.090
1532402144.031,19.531,19.531,23.926,3.906,23.438
1532402144.035,20.020,22.949,24.902,14.160,35.645
1532402144.039,9.277,22.949,24.414,3.906,25.879
1532402144.043,6.348,20.020,23.438,-13.672,36.133
1532402144.047,57.617,19.043,24.902,6.348,71.289
1532402144.051,20.508,16.602,21.973,-10.254,35.156
1532402144.055,-60.547,19.043,20.020,-28.320,6.348
1532402144.059,-7.812,20.996,20.996,-28.809,40.039
1532402144.063,16.113,20.508,24.414,-11.719,58.594
1532402144.067,28.320,21.973,26.367,21.973,47.852
1532402144.070,21.973,23.438,22.461,8.789,21.973
1532402144.074,-6.836,21.973,19.043,-7.812,10.254
1532402144.078,-13.672,17.578,29.297,-17.578,39.062
1532402144.082,-8.301,20.020,30.762,-39.551,81.543
1532402144.086,16.113,22.461,23.438,-34.180,55.664
1532402144.090,22.461,20.508,23.438,-37.598,17.578
1532402144.094,-10.742,20.020,27.344,35.645,31.738
1532402144.098,5.371,20.508,24.902,13.672,36.621
1532402144.102,9.766,19.043,24.414,-43.457,37.598
1532402144.106,-0.977,20.996,27.832,-6.836,51.270
1532402144.110,-5.371,25.879,24.902,-11.719,29.785
1532402144.113,-19.043,25.391,26.367,-24.414,14.160
1532402144.117,16.602,24.902,25.391,-12.207,24.414
1532402144.121,33.691,25.391,26.855,35.156,39.551
1532402144.125,19.043,22.461,32.715,14.160,69.336
1532402144.129,0.977,24.902,26.367,-58.105,67.871
1532402144.133,3.906,24.414,26.855,-24.414,50.293
1532402144.137,15.137,22.949,31.250,14.648,13.672
1532402144.141,12.695,25.879,25.879,-31.250,19.043
1532402144.145,8.789,26.367,29.297,8.789,49.316
1532402144.149,5.371,24.902,31.738,19.043,56.641
1532402144.152,25.879,25.879,26.855,-30.762,13.184
1532402144.156,-4.395,26.855,28.320,-14.648,-0.977
1532402144.160,-39.062,24.902,29.297,-9.277,41.992
1532402144.164,17.578,25.391,30.762,-5.859,81.543
1532402144.168,24.902,26.855,31.738,13.672,61.523
1532402144.172,39.062,28.809,28.320,13.672,9.766
1532402144.176,22.949,28.809,25.391,-29.297,28.320
1532402144.180,-2.441,23.926,27.832,-21.973,44.434
1532402144.184,3.906,22.461,25.879,-20.996,33.691
1532402144.188,-2.441,25.879,22.461,-16.602,24.414
1532402144.192,17.578,25.879,23.438,20.020,13.672
1532402144.195,21.973,25.879,23.926,0.000,41.504
1532402144.199,18.066,30.273,24.902,-27.832,34.668
1532402144.203,21.484,28.809,26.855,-46.387,10.254
1532402144.207,2.441,22.949,29.297,-26.367,23.438
1532402144.211,-33.691,21.973,28.809,10.742,54.199
1532402144.215,2.441,25.879,23.438,-21.484,58.594
1532402144.219,24.414,30.273,24.414,-26.855,25.879
1532402144.223,2.441,27.344,32.715,29.297,42.969
1532402144.227,11.719,27.344,29.297,10.254,57.129
1532402144.231,14.648,25.391,30.273,-29.297,65.918
1532402144.235,40.527,21.973,30.762,4.395,52.246
1532402144.238,48.828,28.320,23.438,-11.719,32.715
1532402144.242,-7.324,31.738,27.344,-19.531,12.695
1532402144.246,-1.953,30.273,27.832,-9.766,34.668
1532402144.250,21.973,32.227,24.902,-16.602,15.625
1532402144.254,10.742,33.203,26.855,21.973,-48.828
1532402144.258,24.414,32.227,31.250,13.184,-16.113
1532402144.262,35.156,30.273,33.691,-27.832,39.551
1532402144.266,-0.488,29.785,34.668,-6.836,28.809
1532402144.270,-11.719,33.691,33.203,-5.371,11.719
1532402144.274,-2.441,32.227,35.156,-13.672,42.480
1532402144.277,33.203,30.762,33.691,-15.625,48.340
1532402144.281,38.574,34.668,33.203,8.301,41.992
1532402144.285,-22.461,32.227,38.086,3.906,34.180
1532402144.289,-20.020,33.203,33.203,-45.410,18.555
1532402144.293,23.438,39.062,28.320,9.277,0.488
1532402144.297,15.137,40.039,30.273,31.738,19.043
1532402144.301,-24.414,38.086,31.250,-14.648,56.641
1532402144.305,-12.207,35.156,36.133,-43.457,57.129
1532402144.309,10.742,35.156,39.062,-35.156,26.855
1532402144.313,12.207,32.227,40.039,-5.859,41.504
1532402144.317,24.414,34.180,37.598,-11.719,45.898
1532402144.320,17.578,33.691,34.668,10.254,41.016
1532402144.324,-14.160,29.785,37.109,7.324,39.551
1532402144.328,-13.184,32.715,33.691,-21.484,47.363
1532402144.332,12.207,38.086,28.809,-16.602,13.672
1532402144.336,20.996,38.574,32.227,-33.203,-5.371
1532402144.340,32.715,36.133,32.227,-18.066,20.020
1532402144.344,24.414,34.668,33.691,-9.766,35.156
1532402144.348,0.977,33.203,35.645,23.926,65.430
1532402144.352,7.324,36.133,30.273,-7.812,60.059
1532402144.356,18.066,36.621,29.785,-50.293,37.598
1532402144.359,27.344,30.762,33.691,-16.113,18.066
1532402144.363,16.113,29.785,34.180,1.953,53.711
1532402144.367,16.113,31.250,32.227,-6.836,37.109
1532402144.371,34.180,33.691,33.691,35.156,-12.695
1532402144.375,10.742,33.691,32.715,5.371,5.371
1532402144.379,26.367,34.180,32.227,-57.129,44.434
1532402144.383,46.875,37.598,37.109,-40.527,29.297
1532402144.387,18.555,32.715,36.621,-25.391,18.555
1532402144.391,23.926,32.715,36.133,-8.301,8.789
1532402144.395,-3.418,34.668,36.621,-16.113,-7.324
1532402144.399,27.832,36.621,34.668,-13.184,34.180
1532402144.402,44.922,37.109,32.715,0.977,45.898
1532402144.406,5.859,37.598,34.668,35.156,19.531
1532402144.410,15.625,37.598,36.133,-12.207,1.465
1532402144.414,-6.348,31.738,38.086,-54.688,31.250
1532402144.418,10.254,33.691,33.203,-34.180,35.156
1532402144.422,18.555,32.715,33.203,-6.348,31.250
1532402144.426,-16.113,33.691,32.715,12.207,54.688
1532402144.430,-8.301,41.992,27.344,-15.625,32.715
1532402144.434,10.254,43.945,28.320,-45.898,-0.977
1532402144.438,31.738,39.551,32.715,26.367,30.273
1532402144.442,17.090,38.574,31.738,26.367,59.570
1532402144.445,7.324,41.504,29.297,-48.340,72.754
1532402144.449,46.387,41.016,30.762,-31.738,65.430
1532402144.453,16.113,36.621,32.715,-24.414,38.086
1532402144.457,6.836,34.668,33.691,-9.277,4.883
1532402144.461,24.414,38.574,27.344,19.531,9.277
1532402144.465,-0.488,41.504,25.879,5.859,56.152
1532402144.469,30.762,43.457,28.320,-26.367,31.250
1532402144.473,34.180,43.457,27.832,-44.434,-5.371
1532402144.477,6.348,41.016,25.879,-64.941,35.645
1532402144.481,1.953,39.062,28.809,-35.156,43.457
1532402144.484,0.488,34.668,36.621,3.418,41.992
1532402144.488,17.090,35.645,33.691,-18.066,61.035
1532402144.492,20.996,36.133,34.668,-0.488,25.879
1532402144.496,18.555,36.133,38.086,31.250,50.293
1532402144.500,17.578,35.156,36.621,-11.230,76.660
1532402144.504,23.926,31.738,37.109,-5.371,27.344
1532402144.508,6.348,37.109,32.715,-12.695,0.977
1532402144.512,-4.395,39.062,23.926,-75.195,9.277
1532402144.516,-7.324,34.668,29.785,-27.832,1.953
1532402144.520,23.926,33.691,36.133,-0.488,0.488
1532402144.524,54.688,36.621,34.668,-15.625,47.363
1532402144.527,8.789,40.527,32.715,-11.719,58.105
1532402144.531,-6.348,41.016,30.762,-21.484,19.043
1532402144.535,9.277,38.574,28.809,-35.156,35.156
1532402144.539,34.668,38.086,30.273,26.367,47.363
1532402144.543,41.504,35.645,36.133,10.254,38.574
1532402144.547,32.715,31.250,34.180,-65.918,48.828
1532402144.551,31.250,33.203,30.762,-41.016,13.184
1532402144.555,22.461,39.551,32.715,-11.719,8.789
1532402144.559,13.672,36.621,34.668,-13.184,38.574
1532402144.563,51.270,36.133,33.203,-9.766,54.199
1532402144.567,56.152,35.645,34.180,14.648,61.523
1532402144.570,28.320,31.250,39.062,12.207,9.766
1532402144.574,48.340,32.715,34.668,-21.484,11.230
1532402144.578,30.762,34.180,33.691,-74.219,44.434
1532402144.582,-19.043,35.645,37.109,-34.668,54.688
1532402144.586,0.977,38.574,33.203,-2.930,78.613
1532402144.590,13.672,41.992,31.738,-4.395,61.523
1532402144.594,-16.602,34.180,38.574,11.719,36.133
1532402144.598,-1.465,28.320,40.527,36.133,38.574
1532402144.602,10.254,31.738,37.598,-12.695,28.809
1532402144.606,4.395,37.109,33.691,-66.895,33.691
1532402144.609,21.484,36.133,33.691,-29.785,37.109
1532402144.613,23.438,34.668,38.574,-4.883,45.898
1532402144.617,10.254,38.086,40.039,24.414,34.668
1532402144.621,-13.672,36.133,37.109,-2.441,11.719
1532402144.625,-20.020,32.227,39.062,-2.930,47.852
1532402144.629,-18.555,33.691,36.621,-1.465,46.387
1532402144.633,-3.906,32.715,33.691,-47.852,8.301
1532402144.637,11.230,28.320,36.621,-22.949,18.066
1532402144.641,17.090,31.738,37.598,9.766,49.316
1532402144.645,-13.672,27.344,37.598,-14.648,54.688
1532402144.649,-5.371,26.855,37.598,-20.020,46.875
1532402144.652,14.160,34.180,36.133,-10.254,51.270
1532402144.656,-4.883,33.203,38.086,24.902,39.062
1532402144.660,14.160,31.738,40.039,10.742,39.062
1532402144.664,27.832,34.668,37.598,-45.410,82.520
1532402144.668,-9.766,37.598,35.156,-28.320,83.496
1532402144.672,-10.742,37.598,36.133,-24.414,35.156
1532402144.676,23.926,35.645,36.621,-20.508,21.484
1532402144.680,5.859,33.203,37.598,4.395,58.105
1532402144.684,-22.949,29.297,40.527,15.137,61.035
1532402144.688,-15.625,30.762,33.203,5.371,19.531
1532402144.691,-3.906,30.762,29.297,-14.160,16.602
1532402144.695,16.602,28.809,34.180,-13.672,45.410
1532402144.699,0.488,34.180,32.715,-5.371,53.223
1532402144.703,-15.625,32.715,34.180,-14.160,24.414
1532402144.707,2.441,29.785,35.645,-28.809,23.926
1532402144.711,-3.418,31.250,35.645,-24.414,34.668
1532402144.715,5.371,31.738,35.645,-11.230,47.852
1532402144.719,-0.977,28.320,30.762,-19.531,52.246
1532402144.723,1.465,30.762,31.738,13.672,20.020
1532402144.727,22.461,32.715,34.180,-5.371,34.180
1532402144.731,4.883,29.297,34.180,-39.062,36.621
1532402144.734,-20.020,28.809,37.598,-32.715,27.832
1532402144.738,-24.414,28.809,37.598,-20.508,39.062
1532402144.742,-2.441,28.809,34.180,9.277,50.781
1532402144.746,4.883,28.809,35.645,36.621,81.543
1532402144.750,5.371,27.832,36.133,-2.930,78.613
1532402144.754,10.742,30.762,32.715,-6.836,19.531
1532402144.758,6.348,35.645,30.273,-15.137,6.836
1532402144.762,7.324,32.227,34.180,3.906,34.668
1532402144.766,2.930,28.809,36.133,-0.977,31.250
1532402144.770,3.906,32.227,34.180,-30.762,7.812
1532402144.774,18.555,31.738,36.621,-7.324,-7.812
1532402144.777,14.160,29.297,37.109,6.348,12.207
1532402144.781,16.602,32.715,36.133,19.043,37.598
1532402144.785,1.953,32.715,35.156,-23.926,28.809
1532402144.789,-19.531,28.809,34.180,-21.484,9.277
1532402144.793,-4.395,28.320,32.227,-16.113,13.184
1532402144.797,28.809,31.250,31.738,-4.395,33.691
1532402144.801,22.461,31.250,33.203,1.953,36.621
1532402144.805,-12.207,28.320,34.668,-20.508,24.902
1532402144.809,6.348,28.809,38.086,-1.953,18.066
1532402144.813,23.926,27.832,41.016,8.301,22.461
1532402144.816,22.949,26.855,34.668,3.906,33.691
1532402144.820,25.879,30.273,30.762,-7.812,45.410
1532402144.824,30.273,33.691,32.715,-30.273,36.621
1532402144.828,25.391,30.762,33.691,-20.996,37.109
1532402144.832,16.113,27.832,34.180,-6.348,35.156
1532402144.836,14.648,26.367,32.715,-20.020,40.527
1532402144.840,20.508,30.762,31.738,-29.297,31.250
1532402144.844,27.832,33.691,33.203,33.203,33.203
1532402144.848,11.719,26.855,31.250,-25.391,56.152
1532402144.852,18.066,27.832,31.250,-49.805,27.344
1532402144.856,24.414,24.414,36.621,15.625,2.930
1532402144.859,24.414,21.484,37.598,-2.930,33.203
1532402144.863,39.551,23.926,35.156,17.578,43.945
1532402144.867,15.137,27.832,31.738,-9.277,39.551
1532402144.871,6.836,30.762,30.273,-21.973,20.508
1532402144.875,33.203,31.250,33.203,8.301,-3.906
1532402144.879,-10.254,30.273,32.715,-30.273,24.414
1532402144.883,18.066,28.809,29.297,-43.945,47.363
1532402144.887,47.852,30.762,34.668,30.273,45.410
1532402144.891,1.465,30.762,39.062,21.973,23.438
1532402144.895,-6.348,25.879,36.621,-41.992,34.180
1532402144.899,13.672,25.391,35.645,-35.156,75.684
1532402144.902,24.414,34.668,33.691,-10.254,32.227
1532402144.906,16.113,37.598,28.320,-39.551,2.441
1532402144.910,13.672,35.645,29.785,-22.461,0.977
1532402144.914,10.742,36.133,34.668,-3.418,-14.160
1532402144.918,33.691,33.691,33.691,-7.324,15.625
1532402144.922,20.996,30.273,35.156,-12.207,16.602
1532402144.926,-0.488,29.785,36.621,19.531,29.785
1532402144.930,15.137,32.227,35.645,21.484,77.148
1532402144.934,10.254,33.691,30.762,-66.895,58.594
1532402144.938,2.441,33.203,32.715,-33.691,20.508
1532402144.941,21.973,30.762,37.598,-0.977,15.625
1532402144.945,5.371,34.180,36.133,-12.695,41.992
1532402144.949,-5.371,33.691,34.180,-13.184,29.297
1532402144.953,32.715,33.691,33.203,-18.555,-14.160
1532402144.957,33.203,37.109,32.715,-0.488,24.414
1532402144.961,22.461,38.086,33.691,38.574,63.477
1532402144.965,0.000,35.156,30.273,-13.672,61.523
1532402144.969,-0.488,33.691,28.809,-53.711,34.668
1532402144.973,28.809,33.203,30.273,-7.812,4.395
1532402144.977,13.184,30.273,33.203,-13.184,36.621
1532402144.981,9.766,27.344,36.133,8.789,63.965
1532402144.984,9.277,26.855,32.715,-6.348,54.688
1532402144.988,-21.973,29.785,27.344,-25.391,27.344
1532402144.992,8.301,29.785,34.180,18.555,8.789
1532402144.996,41.504,27.344,36.133,-10.742,50.293
1532402145.000,11.230,25.879,32.715,-48.340,53.223
1532402145.004,4.395,26.367,37.109,1.465,28.809
1532402145.008,7.812,26.367,40.527,-2.441,14.160
1532402145.012,1.465,28.320,36.133,-32.715,16.113
1532402145.016,9.277,27.344,36.133,12.207,35.156
1532402145.020,22.461,29.297,35.156,9.277,36.133
1532402145.024,41.016,34.180,31.738,-30.762,37.109
1532402145.027,27.832,36.621,35.645,-56.152,37.598
1532402145.031,4.883,34.668,39.551,-29.785,22.949
1532402145.035,16.602,30.273,41.504,18.066,10.254
1532402145.039,13.672,30.273,37.598,17.090,7.324
1532402145.043,29.297,35.156,33.203,-30.762,32.227
1532402145.047,23.438,31.250,35.645,-12.695,39.551
1532402145.051,11.230,24.902,35.645,18.555,15.625
1532402145.055,-4.395,26.855,33.203,-4.395,1.953
1532402145.059,-15.137,29.785,31.738,-36.133,-0.977
1532402145.063,2.930,26.367,30.273,-24.902,42.969
1532402145.066,-1.953,24.902,32.715,16.602,59.570
1532402145.070,1.953,28.809,33.691,16.602,26.855
1532402145.074,12.207,31.250,33.203,-26.367,33.691
1532402145.078,17.578,28.809,35.156,-29.785,50.293
1532402145.082,9.766,25.391,31.738,-13.672,55.176
1532402145.086,2.930,29.785,29.297,-12.695,51.758
1532402145.090,24.414,31.250,31.250,-18.066,42.969
1532402145.094,27.832,31.738,33.203,-17.578,49.805
1532402145.098,20.508,31.250,35.156,-22.949,64.453
1532402145.102,14.160,30.762,33.691,-22.949,48.828
1532402145.106,5.371,30.762,33.691,-16.113,18.555
1532402145.109,16.602,27.344,36.621,-24.902,14.648
1532402145.113,20.996,24.414,40.039,-15.137,36.133
1532402145.117,9.277,25.879,37.598,4.395,52.734
1532402145.121,28.809,26.855,36.133,17.090,30.762
1532402145.125,30.273,25.879,35.156,-11.719,17.578
1532402145.129,-13.672,26.367,34.668,-56.641,31.738
1532402145.133,-2.930,27.832,34.668,-16.113,24.902
1532402145.137,-7.812,27.344,31.738,22.461,25.879
1532402145.141,-6.836,25.879,34.180,-6.836,34.668
1532402145.145,34.180,30.273,33.691,-28.320,69.824
1532402145.148,27.344,34.180,31.738,-31.250,68.848
1532402145.152,3.906,29.785,32.715,-28.809,42.969
1532402145.156,12.207,32.227,29.785,-12.695,28.809
1532402145.160,24.414,30.762,31.738,-10.742,15.137
1532402145.164,31.738,27.832,34.668,-11.230,40.039
1532402145.168,26.367,28.320,35.645,-22.461,40.039
1532402145.172,10.254,28.320,37.598,23.926,17.090
1532402145.176,25.879,31.738,33.203,6.836,47.363
1532402145.180,26.855,31.738,30.273,-58.105,70.312
1532402145.184,1.465,28.320,32.715,-19.043,43.945
1532402145.188,12.207,27.344,33.691,-5.371,30.273
1532402145.191,48.340,27.832,35.645,-7.812,20.996
1532402145.195,26.855,26.367,37.598,15.137,37.109
1532402145.199,8.789,23.438,36.621,-0.488,62.500
1532402145.203,9.277,23.926,35.156,-28.809,38.574
1532402145.207,7.812,28.320,29.785,-33.691,45.410
1532402145.211,19.043,31.250,29.297,-16.113,62.500
1532402145.215,8.301,31.738,36.621,-2.930,62.500
1532402145.219,-1.465,32.715,31.250,-42.969,34.668
1532402145.223,33.203,34.668,26.855,-7.324,29.297
1532402145.227,29.297,31.738,35.156,33.203,71.289
1532402145.231,5.859,28.320,35.156,-62.988,49.805
1532402145.234,2.930,28.809,32.715,-65.918,3.418
1532402145.238,13.184,30.762,35.645,-11.719,21.973
1532402145.242,23.438,35.156,34.180,32.227,34.668
1532402145.246,11.719,34.180,35.645,20.020,38.086
1532402145.250,26.855,32.715,35.156,-55.176,45.898
1532402145.254,20.996,34.180,29.297,-24.902,28.809
1532402145.258,-12.695,34.180,30.762,-9.766,8.789
1532402145.262,5.371,34.668,34.180,-4.395,20.996
1532402145.266,41.992,37.598,37.109,33.203,19.043
1532402145.270,15.137,32.227,39.551,-13.184,-25.391
1532402145.273,-15.137,28.809,38.574,-67.871,-51.270
1532402145.277,8.301,33.691,32.227,-19.043,-5.859
1532402145.281,-3.418,35.645,29.297,-14.160,21.484
1532402145.285,-13.672,37.109,27.344,3.906,7.324
1532402145.289,25.879,38.086,25.879,11.230,25.391
1532402145.293,27.344,35.645,27.832,-39.062,34.668
1532402145.297,-8.789,31.738,31.250,-41.504,32.227
1532402145.301,-7.324,28.320,35.645,-14.160,43.945
1532402145.305,18.066,32.227,35.645,-12.695,50.293
1532402145.309,5.859,34.668,38.574,-2.441,25.391
1532402145.313,0.977,33.203,39.062,22.949,41.016
1532402145.316,4.395,33.691,33.691,11.230,30.762
1532402145.320,5.859,33.691,36.133,57.617,2.441
1532402145.324,10.742,40.039,37.109,92.773,20.020
1532402145.328,15.137,42.480,28.809,-27.344,15.625
1532402145.332,18.555,41.016,26.855,-58.594,6.836
1532402145.336,-8.301,38.086,35.645,22.461,8.789
1532402145.340,0.000,32.715,37.598,46.387,26.367
1532402145.344,14.648,35.156,34.668,23.926,41.504
1532402145.348,12.207,34.180,36.133,-20.996,36.133
1532402145.352,15.625,31.250,33.691,-35.156,21.973
1532402145.356,-25.879,32.227,32.715,-9.766,43.945
1532402145.359,-9.277,36.133,32.715,-9.766,40.527
1532402145.363,19.531,39.551,32.715,-5.859,8.789
1532402145.367,-0.488,40.039,28.809,1.465,19.531
1532402145.371,20.020,36.621,28.320,-15.137,24.414
1532402145.375,13.672,33.691,41.992,18.066,21.484
1532402145.379,-0.977,34.180,38.574,-16.113,70.801
1532402145.383,-6.836,23.438,39.062,-39.551,77.148
1532402145.387,0.000,20.020,43.945,-5.371,33.203
1532402145.391,13.184,23.926,42.480,4.883,30.762
1532402145.395,4.395,22.461,41.016,6.836,53.223
1532402145.398,6.348,28.809,34.668,-17.578,60.547
1532402145.402,9.766,35.156,35.156,3.418,34.668
1532402145.406,12.695,37.598,32.227,1.953,34.668
1532402145.410,-4.883,39.551,31.738,-42.480,23.438
1532402145.414,3.418,37.598,36.621,-29.785,50.293
1532402145.418,12.207,32.715,39.062,18.066,63.477
1532402145.422,32.227,35.156,32.715,-4.883,17.578
1532402145.426,23.438,33.691,32.715,-28.320,13.672
1532402145.430,-8.301,28.320,39.551,-10.742,44.922
1532402145.434,1.465,31.738,35.156,-7.812,62.500
1532402145.438,16.113,33.203,33.691,6.348,28.320
1532402145.441,24.414,34.180,39.062,33.691,20.508
1532402145.445,15.625,35.156,37.598,4.883,46.387
1532402145.449,19.043,37.109,39.062,9.766,51.270
1532402145.453,19.531,39.551,38.086,6.836,14.160
1532402145.457,35.645,39.062,31.738,-38.574,-8.789
1532402145.461,7.324,34.180,34.668,3.906,15.137
1532402145.465,-7.324,32.715,37.109,16.113,44.434
1532402145.469,25.391,36.133,35.156,-28.320,14.160
1532402145.473,23.438,33.691,36.621,-24.414,-21.973
1532402145.477,3.906,35.156,39.551,-16.113,34.180
1532402145.480,14.160,38.574,39.062,39.551,91.797
1532402145.484,46.387,39.551,38.086,11.719,42.480
1532402145.488,33.203,37.109,35.645,-49.805,15.625
1532402145.492,6.836,31.250,38.086,-18.555,36.133
1532402145.496,11.230,29.785,41.504,29.785,36.621
1532402145.500,16.602,31.738,36.133,26.367,24.414
1532402145.504,23.926,34.180,30.762,-2.441,21.484
1532402145.508,29.297,31.738,32.715,-13.672,23.926
1532402145.512,3.418,29.297,36.133,6.836,19.043
1532402145.516,9.766,31.738,33.691,-11.230,30.762
1532402145.520,17.578,35.645,25.391,-45.410,43.945
1532402145.523,17.578,33.691,30.273,0.977,30.762
1532402145.527,19.531,29.785,35.645,-3.418,26.367
1532402145.531,10.254,29.785,32.227,2.930,48.340
1532402145.535,-4.883,25.879,33.691,10.742,31.250
1532402145.539,-22.949,24.414,34.668,-17.090,9.766
1532402145.543,6.836,29.785,30.762,0.000,33.691
1532402145.547,16.602,29.297,29.297,9.277,61.523
1532402145.551,16.602,26.367,35.156,-11.230,47.852
1532402145.555,12.695,26.367,36.621,-20.508,20.996
1532402145.559,3.906,23.926,34.668,14.648,41.992
1532402145.563,-17.090,20.996,36.133,-17.090,65.918
1532402145.566,-24.414,22.949,33.203,-70.312,51.758
1532402145.570,-5.859,21.973,36.133,-17.090,9.277
1532402145.574,7.812,23.438,35.645,-0.488,9.277
1532402145.578,5.859,25.879,35.645,10.254,48.340
1532402145.582,5.859,24.414,37.109,7.324,58.594
1532402145.586,9.766,24.414,37.598,28.809,40.039
1532402145.590,-2.441,26.367,35.156,0.977,9.766
1532402145.594,-15.625,28.320,31.250,-27.832,20.020
1532402145.598,-11.719,27.832,30.762,-20.020,69.824
1532402145.602,-12.695,26.367,31.738,-2.930,52.734
1532402145.605,10.742,26.367,35.156,24.902,19.531
1532402145.609,3.906,26.855,37.109,-26.855,41.504
1532402145.613,-16.113,27.832,36.133,-8.789,32.715
1532402145.617,-18.555,32.715,32.715,-15.625,27.344
1532402145.621,7.812,32.227,32.227,-45.898,41.016
1532402145.625,19.043,30.762,35.156,-10.742,31.250
1532402145.629,-30.762,28.809,36.133,-18.066,37.109
1532402145.633,-21.973,27.344,34.668,-37.109,24.414
1532402145.637,-8.301,27.344,30.762,-26.367,3.906
1532402145.641,-17.090,26.855,33.691,-1.953,7.324
1532402145.645,-2.930,26.855,35.645,-20.508,60.059
1532402145.648,-5.371,27.344,35.156,-20.020,36.133
1532402145.652,-11.719,29.297,34.180,-7.812,-10.742
1532402145.656,11.719,25.879,38.574,-14.160,35.645
1532402145.660,-14.160,22.949,43.457,3.418,52.246
1532402145.664,-26.367,28.809,37.109,-19.043,35.645
1532402145.668,16.113,33.203,29.785,-50.293,42.969
1532402145.672,33.203,30.273,30.762,-11.719,19.043
1532402145.676,20.508,31.250,32.227,3.906,8.789
1532402145.680,11.230,32.715,29.297,-19.043,77.148
1532402145.684,4.883,25.391,32.227,-21.484,73.730
1532402145.688,-0.488,23.438,38.086,-7.324,32.227
1532402145.691,0.977,25.879,38.086,14.160,-5.859
1532402145.695,-25.879,20.996,37.109,0.488,-0.977
1532402145.699,-21.973,20.508,35.156,-28.809,35.156
1532402145.703,-0.977,21.484,35.156,-17.090,25.879
1532402145.707,-18.555,18.066,40.527,38.574,27.832
1532402145.711,-4.883,23.926,36.133,15.625,37.598
1532402145.715,-8.789,30.273,30.762,-47.852,69.824
1532402145.719,-11.719,21.973,31.738,-32.715,67.871
1532402145.723,-24.902,18.555,35.156,-4.883,31.738
1532402145.727,-5.371,27.832,37.598,0.000,26.367
1532402145.730,11.230,30.762,33.691,7.324,48.828
1532402145.734,-9.766,25.391,31.738,-24.414,73.242
1532402145.738,-0.488,21.973,32.715,-1.953,38.574
1532402145.742,6.836,22.949,32.227,3.418,16.602
1532402145.746,21.484,29.297,23.438,-55.176,53.223
1532402145.750,9.766,26.367,29.785,-35.645,29.297
1532402145.754,-15.137,22.461,38.574,-6.836,-0.977
1532402145.758,-11.230,28.809,33.203,20.020,25.391
1532402145.762,-10.254,30.762,30.273,1.465,45.898
1532402145.766,1.953,29.297,30.762,-44.434,56.641
1532402145.770,11.230,22.949,34.180,-34.180,44.922
1532402145.773,4.883,14.648,39.062,-3.418,33.691
1532402145.777,16.602,18.066,37.109,-8.301,35.156
1532402145.781,11.719,29.297,27.832,-26.855,50.293
1532402145.785,3.906,34.180,24.414,-6.348,35.156
1532402145.789,8.789,36.133,24.902,-22.949,4.395
1532402145.793,-12.207,38.086,21.484,-82.031,17.578
1532402145.797,-13.184,36.621,20.020,-48.340,39.062
1532402145.801,14.160,36.133,20.020,-33.691,47.852
1532402145.805,14.160,35.645,20.020,-20.996,32.227
1532402145.809,5.371,35.156,22.461,-5.859,18.555
1532402145.813,6.348,34.668,24.902,-38.086,42.480
1532402145.816,19.043,33.691,22.461,-10.254,41.992
1532402145.820,19.043,32.227,24.414,-30.762,24.414
1532402145.824,-11.719,30.273,24.902,-54.688,40.039
1532402145.828,13.672,33.203,23.926,-17.090,58.594
1532402145.832,24.902,35.645,28.320,0.000,38.086
1532402145.836,5.859,33.691,26.367,8.301,42.969
1532402145.840,16.113,28.320,25.391,-5.859,52.246
1532402145.844,22.949,29.297,21.484,-22.461,37.598
1532402145.848,15.137,31.250,19.531,15.137,29.785
1532402145.852,11.719,28.809,26.367,-13.672,-4.883
1532402145.855,21.973,29.785,27.344,-16.602,9.277
1532402145.859,25.879,34.180,26.367,10.254,26.367
1532402145.863,12.207,37.109,22.461,-46.875,27.832
1532402145.867,39.551,36.621,23.926,-29.297,34.180
1532402145.871,48.340,36.621,28.320,-4.395,18.066
1532402145.875,-4.883,31.738,30.762,-4.883,30.273
1532402145.879,-3.906,29.297,28.809,-11.230,54.688
1532402145.883,15.625,31.250,26.367,14.648,43.945
1532402145.887,17.090,32.227,28.809,13.184,38.574
1532402145.891,28.320,32.227,29.785,-13.184,10.742
1532402145.895,29.785,33.203,30.273,2.930,-17.090
1532402145.898,9.277,31.738,29.297,-22.949,20.020
1532402145.902,-1.953,33.203,29.297,-33.203,42.480
1532402145.906,8.789,36.133,32.227,0.488,35.156
1532402145.910,12.207,34.180,30.273,-12.207,28.320
1532402145.914,16.602,35.156,27.832,-15.137,38.574
1532402145.918,31.250,35.156,34.180,68.848,40.039
1532402145.922,32.227,31.250,35.156,20.508,16.113
1532402145.926,14.648,32.227,29.785,-72.266,29.297
1532402145.930,3.906,31.738,34.668,-40.527,27.344
1532402145.934,34.180,28.320,33.691,-3.418,9.277
1532402145.937,24.902,28.320,32.715,36.621,35.645
1532402145.941,1.953,32.227,33.691,-10.254,28.320
1532402145.945,26.855,31.250,30.762,-55.176,50.293
1532402145.949,17.090,28.809,28.320,-13.184,39.551
1532402145.953,-8.301,31.738,30.762,13.184,3.418
1532402145.957,16.113,32.715,31.250,0.000,38.574
1532402145.961,15.137,34.180,30.762,-29.297,57.617
1532402145.965,-15.137,33.203,29.297,-33.203,64.453
1532402145.969,-4.395,30.762,30.273,0.488,57.617
1532402145.973,12.207,31.250,34.668,-4.395,22.949
1532402145.977,3.906,28.320,31.250,-44.434,19.043
1532402145.980,-10.742,27.344,27.344,-18.066,68.359
1532402145.984,-0.488,31.738,29.785,46.387,55.664
1532402145.988,2.441,28.320,28.320,-20.508,-4.883
1532402145.992,15.137,27.344,28.809,-37.109,-15.625
1532402145.996,14.648,27.344,25.391,-24.902,23.926
1532402146.000,2.441,21.484,30.273,17.090,42.480
1532402146.004,21.973,24.902,37.598,49.316,38.086
1532402146.008,20.996,31.738,32.227,-51.270,24.414
1532402146.012,13.184,31.250,38.086,-24.414,31.250
1532402146.016,28.809,32.227,39.551,-1.465,31.250
1532402146.020,34.180,32.715,35.645,-6.348,-6.836
1532402146.023,6.348,27.344,35.645,-18.066,38.574
1532402146.027,4.395,29.297,31.250,-25.391,50.293
1532402146.031,33.203,30.762,35.645,2.441,15.137
1532402146.035,35.156,22.949,44.434,-1.953,17.090
1532402146.039,26.367,22.461,44.922,7.812,34.180
1532402146.043,25.391,32.715,35.645,8.789,44.922
1532402146.047,-3.418,36.133,34.668,-60.547,75.195
1532402146.051,-6.348,32.715,45.898,-62.500,49.316
1532402146.055,-0.977,30.273,41.504,-14.160,20.996
1532402146.059,12.207,31.738,35.645,-32.227,38.574
1532402146.062,22.461,37.109,35.156,-41.992,55.176
1532402146.066,0.000,37.598,39.062,-21.484,66.895
1532402146.070,9.766,29.785,37.598,-4.395,-6.348
1532402146.074,14.648,28.320,32.715,6.348,-5.371
1532402146.078,20.996,33.203,30.273,-46.875,80.078
1532402146.082,20.020,29.785,37.109,-44.922,91.309
1532402146.086,27.832,27.344,41.504,-17.578,51.758
1532402146.090,43.945,27.832,40.527,36.621,25.879
1532402146.094,17.090,32.227,32.227,27.344,29.297
1532402146.098,34.668,32.715,27.344,-63.477,27.832
