timestamps,TP9,AF7,AF8,TP10,Right AUX
1532484333.585,8.789,19.531,27.832,-9.277,39.062
1532484333.589,14.160,27.344,27.344,-7.812,-59.082
1532484333.593,20.020,32.227,26.367,-5.371,-4.883
1532484333.597,16.602,32.227,25.879,-5.859,153.809
1532484333.601,14.648,31.250,27.832,-16.113,81.055
1532484333.605,20.996,31.250,23.438,-20.996,-74.707
1532484333.609,29.297,29.785,21.484,-7.812,-58.105
1532484333.613,25.879,20.020,26.855,2.930,-45.410
1532484333.616,17.090,21.973,26.367,-4.883,-38.574
1532484333.620,16.602,31.250,22.461,-7.324,-18.555
1532484333.624,24.902,26.855,21.484,12.207,-8.301
1532484333.628,27.344,14.648,22.461,16.113,127.930
1532484333.632,22.461,10.742,28.809,0.977,117.188
1532484333.636,21.484,25.391,28.809,-8.301,16.113
1532484333.640,29.297,37.109,25.879,-2.441,-12.695
1532484333.644,32.227,30.762,27.344,6.836,90.820
1532484333.648,27.344,15.137,27.832,2.930,160.645
1532484333.652,24.902,15.625,28.320,-4.883,-20.508
1532484333.656,31.250,29.785,26.367,-1.465,-165.039
1532484333.659,33.691,34.668,26.855,11.719,-9.277
1532484333.663,27.344,22.461,28.320,14.160,154.297
1532484333.667,21.484,14.648,28.320,0.488,136.719
1532484333.671,25.391,13.184,26.855,-7.324,-115.723
1532484333.675,32.227,23.926,24.414,-3.906,-179.199
1532484333.679,27.344,26.855,22.461,0.000,111.328
1532484333.683,17.578,16.113,21.973,1.465,118.164
1532484333.687,12.207,21.973,22.461,-7.324,-34.668
1532484333.691,13.672,26.855,20.508,-13.184,-78.613
1532484333.695,16.113,24.414,20.996,-4.883,43.945
1532484333.699,12.207,20.508,22.949,-7.812,70.801
1532484333.702,7.812,25.879,21.484,-20.020,-61.035
1532484333.706,13.184,26.855,16.602,-15.137,-38.574
1532484333.710,21.484,15.137,19.531,-2.930,25.391
1532484333.714,19.043,15.625,21.973,-8.789,16.113
1532484333.718,15.137,27.832,21.484,-22.949,10.254
1532484333.722,25.391,35.156,19.531,-17.578,-80.078
1532484333.726,38.574,39.062,16.113,3.418,23.438
1532484333.730,23.438,25.391,13.184,-8.789,136.719
1532484333.734,4.883,21.484,16.113,-24.902,46.875
1532484333.738,9.766,34.668,22.461,-18.066,-22.461
1532484333.741,16.113,34.180,20.996,-15.625,7.324
1532484333.745,17.578,25.391,19.043,-7.812,127.930
1532484333.749,14.160,14.648,20.508,-13.672,71.289
1532484333.753,15.137,26.367,20.508,-24.902,-145.996
1532484333.757,27.832,41.992,19.043,-5.859,-110.352
1532484333.761,29.297,27.344,18.555,5.371,96.680
1532484333.765,20.508,21.973,22.949,-0.488,176.270
1532484333.769,16.602,21.973,21.484,-7.324,42.969
1532484333.773,20.020,20.508,15.625,-13.184,-100.586
1532484333.777,24.414,25.879,13.184,-5.859,21.973
1532484333.781,19.043,20.508,14.648,-3.906,139.648
1532484333.784,13.672,18.555,19.531,-12.695,79.102
1532484333.788,16.113,23.438,22.461,-13.184,-55.664
1532484333.792,20.508,24.902,21.973,0.000,-55.664
1532484333.796,18.555,21.484,24.902,6.348,73.242
1532484333.800,13.184,20.020,25.879,-2.930,104.004
1532484333.804,11.230,26.855,22.949,-8.301,20.020
1532484333.808,19.043,30.762,21.973,-3.418,22.461
1532484333.812,20.020,18.066,23.438,-6.348,18.066
1532484333.816,11.719,10.254,24.414,-19.531,4.883
1532484333.820,9.766,20.020,24.414,-21.484,27.344
1532484333.824,11.719,29.785,20.996,-20.996,10.742
1532484333.827,13.184,27.344,22.949,-10.742,130.859
1532484333.831,12.207,20.020,25.391,-8.789,167.969
1532484333.835,9.277,18.066,22.949,-20.996,47.852
1532484333.839,9.766,19.043,21.973,-23.926,-79.102
1532484333.843,12.207,25.879,21.484,-15.137,-35.156
1532484333.847,8.789,20.508,22.949,-9.277,120.117
1532484333.851,3.906,8.789,25.879,-16.602,2.930
1532484333.855,7.324,20.996,22.949,-21.484,-153.809
1532484333.859,17.090,26.855,19.531,-5.371,-20.020
1532484333.863,20.020,14.160,20.020,7.812,152.344
1532484333.866,11.230,11.719,17.578,-3.906,138.184
1532484333.870,7.324,19.531,17.090,-15.137,-45.410
1532484333.874,12.695,24.902,16.602,-9.766,-85.938
1532484333.878,17.090,27.344,17.090,2.441,110.352
1532484333.882,17.090,24.902,20.020,-1.465,167.969
1532484333.886,14.648,21.484,19.531,-11.719,4.395
1532484333.890,22.461,18.555,15.625,-9.277,-107.910
1532484333.894,28.809,22.949,15.137,-5.371,-44.922
1532484333.898,19.531,24.414,13.672,-7.324,113.281
1532484333.902,11.230,17.578,11.230,-22.461,91.797
1532484333.906,13.184,25.879,12.695,-27.344,-5.371
1532484333.909,16.602,28.809,14.160,-12.207,-9.277
1532484333.913,12.695,21.973,19.043,-4.883,128.418
1532484333.917,12.695,15.137,20.996,-9.277,127.441
1532484333.921,18.555,27.344,20.508,-14.648,-13.184
1532484333.925,22.461,35.156,18.555,-3.906,26.855
1532484333.929,17.090,17.578,15.625,3.418,118.164
1532484333.933,10.742,4.395,17.090,-7.812,32.715
1532484333.937,16.113,22.461,20.020,-15.625,-98.633
1532484333.941,24.414,29.785,18.555,-11.719,-38.086
1532484333.945,23.926,16.602,17.090,-1.465,131.348
1532484333.948,19.043,10.742,20.996,-2.441,159.668
1532484333.952,10.742,13.672,22.949,-14.160,-95.215
1532484333.956,13.184,28.809,24.414,-9.277,-197.754
1532484333.960,20.996,30.762,23.438,1.953,36.621
1532484333.964,18.555,14.160,21.973,-5.859,156.250
1532484333.968,10.254,9.766,22.461,-15.625,29.785
1532484333.972,13.184,19.531,25.391,-10.254,-99.609
1532484333.976,24.414,22.949,27.344,6.836,17.090
1532484333.980,24.414,14.648,28.320,11.230,111.816
1532484333.984,17.578,14.160,29.785,-3.418,37.598
1532484333.988,20.508,31.250,29.785,-9.277,-6.836
1532484333.991,23.926,26.367,31.738,-3.418,-61.523
1532484333.995,19.043,20.020,31.250,4.395,11.230
1532484333.999,11.719,20.020,29.785,4.883,123.535
1532484334.003,10.254,19.043,25.879,-8.789,30.762
1532484334.007,21.484,25.391,23.926,-12.695,-24.902
1532484334.011,25.391,24.902,29.297,0.000,63.965
1532484334.015,21.484,15.625,27.832,1.465,133.301
1532484334.019,14.160,15.137,24.414,-11.719,73.242
1532484334.023,10.254,18.555,22.949,-11.230,12.207
1532484334.027,17.090,16.113,22.461,3.906,48.828
1532484334.031,18.066,11.230,20.996,-5.371,35.645
1532484334.034,10.254,14.648,20.020,-25.391,-83.496
1532484334.038,12.207,33.203,17.090,-24.902,-74.707
1532484334.042,16.602,32.227,15.625,-10.742,30.762
1532484334.046,15.625,21.484,20.508,-1.465,151.367
1532484334.050,13.184,14.648,23.438,-9.277,88.379
1532484334.054,11.230,22.949,19.043,-17.578,-56.152
1532484334.058,17.090,29.785,17.090,-13.672,12.207
1532484334.062,21.484,17.090,19.531,-0.488,154.297
1532484334.066,14.648,11.719,20.996,-5.859,147.461
1532484334.070,10.742,18.555,20.996,-16.602,-25.879
1532484334.073,17.090,31.250,18.555,-12.695,-105.957
1532484334.077,21.484,33.691,20.508,-1.953,20.996
1532484334.081,15.137,15.625,25.391,-3.418,100.098
1532484334.085,8.789,17.578,22.949,-8.789,-9.766
1532484334.089,18.555,30.273,20.996,-6.348,-92.773
1532484334.093,21.973,23.438,23.438,-3.418,-75.684
1532484334.097,12.207,17.578,25.391,-2.930,58.594
1532484334.101,7.812,14.160,26.367,-12.207,121.094
1532484334.105,11.719,22.949,27.832,-15.625,-4.883
1532484334.109,19.531,27.344,26.855,-6.348,4.883
1532484334.113,25.879,20.020,24.902,2.441,115.723
1532484334.116,22.949,13.672,24.902,-4.883,143.066
1532484334.120,20.508,15.625,24.902,-9.766,-11.719
1532484334.124,23.926,32.227,21.973,-5.371,-81.055
1532484334.128,23.438,26.855,21.484,1.953,108.398
1532484334.132,20.508,5.371,20.996,-3.418,48.828
1532484334.136,17.090,19.043,18.066,-12.695,-116.211
1532484334.140,20.508,36.133,20.020,-9.766,-29.297
1532484334.144,24.414,29.785,24.414,2.930,64.453
1532484334.148,18.066,14.160,25.391,0.977,149.902
1532484334.152,13.184,8.301,25.391,-10.254,52.246
1532484334.156,20.020,26.855,27.344,-7.812,-50.781
1532484334.159,25.391,37.109,25.879,2.441,76.172
1532484334.163,19.531,25.879,25.879,1.953,198.730
1532484334.167,18.066,17.090,27.344,-6.348,102.539
1532484334.171,20.996,25.879,28.320,-6.836,-138.184
1532484334.175,27.344,39.062,27.344,0.977,-126.465
1532484334.179,26.367,37.598,27.344,6.348,142.090
1532484334.183,24.414,24.414,28.320,0.488,171.387
1532484334.187,26.855,26.855,24.414,-6.348,5.859
1532484334.191,29.297,34.180,26.367,-1.465,-45.410
1532484334.195,28.320,34.668,29.297,10.254,84.961
1532484334.198,20.020,24.902,28.320,6.836,173.340
1532484334.202,14.648,20.508,27.832,-5.371,22.949
1532484334.206,15.137,26.367,29.297,-8.789,-75.195
1532484334.210,17.578,23.438,28.320,-3.418,50.293
1532484334.214,11.230,11.719,25.879,-11.719,115.234
1532484334.218,5.371,15.625,26.855,-29.297,14.160
1532484334.222,8.789,33.203,25.879,-24.414,-61.035
1532484334.226,15.625,41.016,27.344,-8.789,69.824
1532484334.230,13.672,12.207,28.320,-5.859,128.906
1532484334.234,14.160,7.812,19.531,-9.766,-14.160
1532484334.238,31.250,37.109,23.926,4.395,-49.316
1532484334.241,26.855,30.273,41.016,4.883,8.789
1532484334.245,-0.488,15.625,43.457,-6.836,135.742
1532484334.249,-9.766,3.418,42.480,-12.695,130.371
1532484334.253,-2.441,12.207,44.922,-12.207,-8.789
1532484334.257,9.277,24.902,46.387,2.441,3.906
1532484334.261,5.859,12.695,46.875,11.230,97.168
1532484334.265,-0.977,0.488,55.664,8.301,109.375
1532484334.269,2.441,0.000,60.059,2.441,-11.719
1532484334.273,10.254,6.836,55.176,0.000,-170.410
1532484334.277,19.531,15.625,50.781,4.883,-22.461
1532484334.281,16.113,7.324,49.316,13.184,182.129
1532484334.284,5.859,6.836,48.828,4.883,99.609
1532484334.288,6.836,11.230,42.480,-1.465,-32.227
1532484334.292,13.184,10.254,42.480,10.742,-20.020
1532484334.296,14.648,11.230,47.852,10.742,132.324
1532484334.300,10.254,6.348,46.387,-6.348,123.535
1532484334.304,7.812,16.113,42.480,-15.137,-4.883
1532484334.308,14.648,22.461,41.016,-5.859,-28.320
1532484334.312,17.578,19.043,36.621,1.953,53.223
1532484334.316,7.324,13.672,34.180,-3.418,131.348
1532484334.320,2.930,11.230,36.621,-8.789,26.367
1532484334.323,10.742,17.090,35.645,-3.906,-64.941
1532484334.327,16.602,19.531,32.227,6.836,115.234
1532484334.331,13.184,-2.441,35.645,-0.488,105.957
1532484334.335,6.836,0.000,34.668,-12.207,-60.059
1532484334.339,11.719,22.949,29.785,-4.883,-30.273
1532484334.343,22.461,22.949,28.809,11.719,73.730
1532484334.347,20.996,13.672,25.391,16.113,171.875
1532484334.351,13.672,9.766,32.227,7.812,86.914
1532484334.355,16.602,21.973,35.156,2.441,-50.293
1532484334.359,23.926,28.809,31.738,3.418,-16.113
1532484334.363,22.949,16.602,31.250,14.160,120.117
1532484334.366,19.043,8.789,31.250,13.184,146.484
1532484334.370,20.508,13.184,31.250,0.000,-41.992
1532484334.374,28.809,25.879,30.762,-3.418,-133.789
1532484334.378,28.320,21.484,28.809,8.301,78.125
1532484334.382,21.484,-1.953,29.297,7.324,127.930
1532484334.386,18.555,11.719,29.785,0.000,28.320
1532484334.390,21.484,20.996,25.391,0.000,-48.828
1532484334.394,23.926,20.996,23.926,4.395,50.781
1532484334.398,16.113,14.648,25.879,4.883,189.941
1532484334.402,13.184,8.789,28.809,-3.418,35.156
1532484334.406,20.996,23.926,31.250,-10.254,-77.148
1532484334.409,23.926,20.996,30.273,-4.883,3.906
1532484334.413,20.508,11.719,30.273,-1.953,25.391
1532484334.417,19.531,17.090,28.809,-11.230,35.156
1532484334.421,20.996,22.461,26.367,-19.043,9.766
1532484334.425,25.391,28.809,25.879,-8.789,46.875
1532484334.429,21.973,19.531,26.367,0.000,141.602
1532484334.433,14.160,10.742,25.391,-10.742,96.191
1532484334.437,11.230,18.555,21.973,-20.508,23.438
1532484334.441,9.766,17.578,18.555,-16.602,-14.160
1532484334.445,9.277,14.648,19.043,-7.812,103.027
1532484334.448,7.812,8.789,23.926,-10.742,131.348
1532484334.452,4.883,21.484,18.555,-28.809,-122.070
1532484334.456,9.766,37.598,13.184,-33.691,-128.906
1532484334.460,20.508,23.926,21.484,-20.508,106.934
1532484334.464,19.043,14.648,27.344,-13.184,183.594
1532484334.468,11.230,23.926,29.297,-15.625,96.191
1532484334.472,16.602,33.691,27.832,-14.160,-40.527
1532484334.476,24.902,35.156,26.367,-1.953,31.250
1532484334.480,22.461,27.832,26.367,1.465,165.527
1532484334.484,13.184,21.973,24.902,-7.812,122.559
1532484334.488,14.648,24.414,23.438,-13.184,-13.184
1532484334.491,23.438,28.320,25.879,-2.441,-49.316
1532484334.495,24.902,23.926,29.297,7.812,85.938
1532484334.499,24.902,14.160,32.715,7.324,68.359
1532484334.503,23.926,19.043,33.203,-2.441,-104.492
1532484334.507,22.461,33.203,27.344,-5.371,-47.363
1532484334.511,20.020,27.832,26.855,0.000,41.504
1532484334.515,13.672,21.484,30.762,-8.789,20.508
1532484334.519,8.789,30.762,31.250,-17.090,47.852
1532484334.523,12.207,36.133,27.344,-6.836,5.859
1532484334.527,16.602,33.203,31.738,6.348,67.383
1532484334.530,16.113,27.344,37.109,3.418,158.203
1532484334.534,14.648,22.949,34.668,-3.906,113.770
1532484334.538,15.625,21.973,34.668,-6.348,-8.301
1532484334.542,19.531,20.996,33.691,1.953,-38.086
1532484334.546,18.555,11.719,31.738,8.301,111.816
1532484334.550,11.719,2.441,30.762,-6.348,65.918
1532484334.554,8.789,15.625,29.785,-19.531,-145.020
1532484334.558,15.625,29.785,29.297,-10.254,-69.824
1532484334.562,18.066,19.043,30.273,-1.953,92.285
1532484334.566,8.789,7.812,33.203,-10.742,125.977
1532484334.570,8.301,15.137,32.715,-18.555,4.883
1532484334.573,19.531,27.344,27.344,-13.672,-55.176
1532484334.577,27.832,27.344,25.391,-4.883,111.328
1532484334.581,21.484,19.043,28.809,-3.418,188.965
1532484334.585,13.184,17.090,31.250,-10.742,81.055
1532484334.589,23.926,20.020,29.785,-12.207,-36.621
1532484334.593,33.203,27.344,31.250,-3.906,-59.570
1532484334.597,28.809,30.273,30.273,0.000,88.379
1532484334.601,24.414,24.414,28.320,-2.441,102.539
1532484334.605,23.438,29.785,26.855,-2.930,-23.926
1532484334.609,29.297,31.738,28.809,2.930,-25.391
1532484334.613,30.273,25.391,32.227,4.395,107.910
1532484334.616,23.926,20.020,27.832,-5.859,125.488
1532484334.620,25.391,27.344,26.855,-8.301,-32.715
1532484334.624,25.391,26.855,30.762,-2.930,-12.695
1532484334.628,25.391,10.254,34.180,4.883,145.020
1532484334.632,25.879,8.789,36.133,2.930,147.949
1532484334.636,25.879,22.949,32.715,-3.906,-13.184
1532484334.640,25.391,25.391,29.785,1.953,-112.305
1532484334.644,23.438,19.043,27.344,9.766,-9.277
1532484334.648,23.438,20.508,28.320,11.230,149.414
1532484334.652,19.043,20.020,30.273,-7.324,8.301
1532484334.655,23.438,28.809,28.809,-16.602,-164.551
1532484334.659,30.762,36.621,31.250,-0.977,24.414
1532484334.663,21.973,20.996,33.691,4.883,178.711
1532484334.667,17.578,12.695,32.715,-4.883,113.281
1532484334.671,19.531,29.297,31.250,-15.625,-25.879
1532484334.675,21.484,39.551,31.738,-2.930,-17.578
1532484334.679,19.531,28.809,32.715,6.348,113.281
1532484334.683,14.160,18.066,35.156,-3.418,97.656
1532484334.687,10.742,35.156,35.645,-10.254,-51.270
1532484334.691,17.578,46.387,35.645,-4.883,-113.281
1532484334.695,20.996,30.762,38.574,4.395,-34.668
1532484334.698,12.207,20.508,37.598,3.418,110.352
1532484334.702,6.348,25.879,33.691,-6.836,47.363
1532484334.706,9.277,30.273,30.273,-6.348,-35.645
1532484334.710,13.184,22.949,30.762,3.418,59.082
1532484334.714,11.719,18.555,33.203,2.441,149.414
1532484334.718,12.207,23.438,32.715,-3.906,101.562
1532484334.722,17.090,33.691,32.715,-5.859,-8.789
1532484334.726,24.902,34.668,33.203,-0.488,38.086
1532484334.730,23.926,19.043,31.738,2.441,82.520
1532484334.734,16.113,14.160,31.250,-7.324,-55.176
1532484334.738,19.531,35.156,29.297,-7.812,-113.770
1532484334.741,29.785,44.434,20.996,7.324,-19.043
1532484334.745,31.250,40.039,18.555,11.230,133.301
1532484334.749,23.926,17.578,27.832,0.000,139.160
1532484334.753,25.391,16.602,27.344,-8.301,-20.996
1532484334.757,31.250,37.109,21.484,-4.883,-54.688
1532484334.761,28.809,34.668,23.438,3.906,73.730
1532484334.765,19.043,27.832,24.414,-5.371,165.527
1532484334.769,13.184,22.949,23.438,-21.484,52.246
1532484334.773,15.625,23.926,21.484,-19.531,-55.664
1532484334.777,19.043,27.832,19.531,-11.230,20.996
1532484334.780,14.648,17.578,21.484,-5.371,95.215
1532484334.784,6.348,18.066,24.414,-8.301,59.082
1532484334.788,9.277,22.949,25.879,-10.254,8.789
1532484334.792,17.578,17.578,24.414,-7.812,-67.871
1532484334.796,12.207,20.020,25.879,-6.348,-14.160
1532484334.800,2.930,19.531,25.879,-16.113,98.633
1532484334.804,5.859,25.879,22.461,-19.043,26.367
1532484334.808,14.648,34.180,23.438,-5.371,22.949
1532484334.812,20.508,22.461,21.973,0.488,91.797
1532484334.816,18.066,20.996,21.973,-5.371,129.395
1532484334.820,14.648,25.391,25.391,-14.648,57.129
1532484334.823,17.578,23.926,24.414,-15.625,-75.684
1532484334.827,20.020,21.973,24.414,-3.906,22.949
1532484334.831,21.973,11.719,28.809,-1.953,56.152
1532484334.835,15.137,24.414,30.273,-13.184,-63.477
1532484334.839,11.230,41.016,29.297,-12.207,-41.992
1532484334.843,18.555,37.109,27.344,1.953,62.988
1532484334.847,17.578,25.879,28.320,7.324,173.340
1532484334.851,12.695,26.855,27.344,-3.906,104.980
1532484334.855,11.230,28.809,22.949,-9.277,-41.992
1532484334.859,20.020,24.414,17.090,0.000,-11.719
1532484334.863,25.391,22.949,16.113,7.324,151.367
1532484334.866,14.648,12.207,21.484,1.465,158.691
1532484334.870,12.695,8.301,20.020,-11.230,-47.852
1532484334.874,23.926,22.949,18.066,-5.371,-128.418
1532484334.878,21.484,25.391,21.484,4.395,71.777
1532484334.882,14.648,13.184,23.926,-2.441,126.953
1532484334.886,11.230,24.902,23.926,-10.742,47.363
1532484334.890,18.066,31.250,21.973,-10.254,-54.199
1532484334.894,26.367,30.273,21.484,-1.953,-27.832
1532484334.898,18.066,24.414,20.508,1.465,157.715
1532484334.902,14.160,15.137,21.484,-5.371,88.379
1532484334.905,26.855,31.250,23.438,-1.465,-43.457
1532484334.909,31.250,30.762,24.902,2.441,14.648
1532484334.913,21.484,16.113,26.367,-0.488,89.355
1532484334.917,13.184,22.949,26.367,1.465,46.387
1532484334.921,13.184,40.527,24.902,-3.418,-83.008
1532484334.925,19.531,43.457,24.414,-2.930,-31.738
1532484334.929,21.484,28.809,24.414,3.418,146.484
1532484334.933,18.066,19.531,25.879,-2.441,26.855
1532484334.937,14.160,36.133,22.461,-7.812,-101.074
1532484334.941,20.508,44.922,21.484,-6.836,-41.504
1532484334.945,27.832,40.527,23.438,-6.348,83.496
1532484334.948,24.414,28.320,24.414,-10.254,167.969
1532484334.952,20.508,19.531,24.902,-15.137,28.320
1532484334.956,22.461,29.297,21.484,-12.695,-37.598
1532484334.960,25.879,32.227,20.996,-1.465,76.660
1532484334.964,21.484,23.438,23.438,2.441,130.859
1532484334.968,14.648,24.902,21.484,-8.301,74.707
1532484334.972,15.137,31.250,14.160,-20.996,-119.141
1532484334.976,23.926,36.621,16.113,-11.230,-108.398
1532484334.980,24.414,29.785,19.531,-0.488,154.297
1532484334.984,19.043,18.555,20.508,-8.301,154.297
1532484334.987,24.414,29.785,20.996,-4.395,-23.438
1532484334.991,30.273,36.133,19.531,4.395,-83.008
1532484334.995,30.762,30.762,21.973,14.160,75.684
1532484334.999,23.926,21.973,21.973,11.230,155.762
1532484335.003,15.625,25.391,21.973,-4.883,10.254
1532484335.007,19.531,44.434,21.973,-6.836,-43.457
1532484335.011,21.484,49.316,23.438,-2.930,38.086
1532484335.015,12.207,31.738,23.926,-8.301,73.730
1532484335.019,9.766,25.879,23.438,-16.113,34.180
1532484335.023,17.578,40.527,23.926,-15.137,-37.109
1532484335.027,22.949,47.852,24.902,-4.395,62.012
1532484335.030,22.461,29.297,24.902,-3.418,111.816
1532484335.034,18.066,21.484,25.391,-11.230,-1.953
1532484335.038,19.531,40.039,26.367,-12.207,-48.340
1532484335.042,26.367,44.434,22.461,-6.348,-30.762
1532484335.046,23.926,36.133,16.602,2.930,126.953
1532484335.050,20.020,25.879,20.508,-4.395,105.957
1532484335.054,17.578,33.203,22.461,-18.066,-38.574
1532484335.058,18.555,39.062,23.438,-10.254,-44.922
1532484335.062,17.578,32.715,26.367,2.441,8.789
1532484335.066,10.742,29.297,24.414,-3.906,114.258
1532484335.070,10.254,27.832,23.438,-19.043,9.766
1532484335.073,18.066,31.738,22.461,-21.973,-174.316
1532484335.077,26.855,37.109,19.531,-4.883,-5.859
1532484335.081,26.367,28.809,19.531,-0.488,167.969
1532484335.085,19.043,30.762,18.066,-16.113,87.402
1532484335.089,17.090,42.969,15.625,-15.625,-44.434
1532484335.093,22.949,43.457,18.066,-4.395,-20.996
1532484335.097,20.508,32.715,19.043,-1.953,138.184
1532484335.101,15.625,23.926,18.555,-12.695,134.766
1532484335.105,22.461,29.785,15.625,-20.996,-48.340
1532484335.109,30.762,36.133,13.672,-8.789,-65.430
1532484335.112,28.320,25.391,19.531,-8.301,-4.883
1532484335.116,20.508,23.438,25.879,-18.066,31.250
1532484335.120,18.066,29.297,24.902,-16.602,23.438
1532484335.124,26.855,33.691,20.996,-7.324,-12.695
1532484335.128,31.738,32.227,22.461,2.930,102.051
1532484335.132,24.414,19.531,23.438,0.000,135.254
1532484335.136,15.625,21.484,23.926,-10.742,41.016
1532484335.140,17.578,31.250,23.438,-18.555,-30.762
1532484335.144,23.926,32.715,19.531,-6.348,69.336
1532484335.148,22.461,21.973,25.879,3.906,168.457
1532484335.152,19.531,14.160,28.809,-5.859,1.953
1532484335.155,20.996,31.250,28.809,-13.672,-113.770
1532484335.159,22.949,36.133,29.297,-5.371,-6.348
1532484335.163,18.066,25.391,26.367,0.000,118.652
1532484335.167,9.766,26.367,28.320,-9.277,131.348
1532484335.171,12.207,28.809,26.855,-12.207,-91.797
1532484335.175,16.602,35.645,23.438,-8.301,-185.059
1532484335.179,14.648,35.645,25.879,-4.395,67.871
1532484335.183,10.254,24.414,26.855,-9.277,156.250
1532484335.187,8.301,29.785,23.926,-20.020,17.090
1532484335.191,13.672,28.320,21.973,-16.602,-74.219
1532484335.195,16.113,21.973,21.484,-6.348,77.637
1532484335.198,15.625,9.766,21.973,-13.184,149.414
1532484335.202,15.625,12.695,23.438,-21.484,-33.691
1532484335.206,11.719,29.785,22.949,-18.066,-71.289
1532484335.210,11.719,23.438,21.973,-12.695,-25.879
1532484335.214,19.531,14.160,24.902,-1.953,18.555
1532484335.218,23.438,22.461,31.738,1.465,55.664
1532484335.222,14.160,34.180,29.785,-14.648,-2.930
1532484335.226,14.648,36.621,26.855,-11.230,51.270
1532484335.230,20.508,26.855,29.785,1.465,125.000
1532484335.234,18.066,21.484,30.273,-4.395,86.426
1532484335.237,18.555,30.273,26.367,-2.441,16.602
1532484335.241,26.367,29.785,22.461,3.418,-6.836
1532484335.245,34.180,20.508,22.461,6.836,91.797
1532484335.249,29.785,11.230,23.438,0.977,82.520
1532484335.253,21.973,26.855,23.438,-9.277,-116.211
1532484335.257,25.879,42.969,21.973,-2.441,-102.539
1532484335.261,32.227,27.344,21.973,10.254,97.168
1532484335.265,25.879,18.066,24.414,11.230,194.336
1532484335.269,17.578,20.996,23.926,-2.441,41.016
1532484335.273,21.973,33.691,24.414,-6.348,-89.355
1532484335.277,26.367,35.156,25.879,1.465,28.809
1532484335.280,17.090,22.461,26.855,3.906,155.762
1532484335.284,9.766,18.066,27.344,-1.465,125.977
1532484335.288,12.207,30.273,22.949,-11.230,-2.930
1532484335.292,18.066,32.715,25.879,-8.789,-61.523
1532484335.296,22.949,25.879,34.668,6.348,20.508
1532484335.300,24.902,24.902,36.133,4.883,85.449
1532484335.304,20.508,25.879,29.785,-6.836,11.719
1532484335.308,22.461,28.809,28.809,-2.930,-18.066
1532484335.312,29.297,24.902,31.250,3.418,8.789
1532484335.316,26.855,23.438,30.762,-2.441,29.297
1532484335.320,27.344,31.738,28.809,-3.906,25.879
1532484335.323,36.621,34.668,27.832,2.930,3.906
1532484335.327,35.156,28.809,26.367,12.695,51.270
1532484335.331,26.367,22.461,28.320,9.766,89.355
1532484335.335,21.973,28.320,31.250,0.488,45.898
1532484335.339,26.855,37.598,21.973,-0.977,-67.383
1532484335.343,33.691,42.480,23.438,8.789,-12.695
1532484335.347,29.785,30.762,34.668,16.602,167.969
1532484335.351,28.320,13.672,38.086,8.789,50.781
1532484335.355,27.832,26.367,33.691,0.977,-136.719
1532484335.359,31.738,43.457,25.879,7.324,-10.254
1532484335.362,33.691,29.785,24.414,13.184,145.020
1532484335.366,25.879,10.742,29.785,10.254,158.691
1532484335.370,24.414,21.973,33.203,-1.465,-12.207
1532484335.374,32.227,39.551,31.738,-7.324,-68.848
1532484335.378,38.086,35.156,34.180,4.883,102.051
1532484335.382,32.715,22.461,34.668,9.766,162.598
1532484335.386,23.926,22.949,27.344,-3.418,13.672
1532484335.390,26.367,30.762,24.902,-11.230,-146.484
1532484335.394,34.668,36.133,25.879,-2.930,-102.539
1532484335.398,31.250,31.250,28.809,4.395,106.445
1532484335.402,25.879,26.855,30.273,-5.859,138.672
1532484335.405,27.344,32.227,28.320,-13.672,0.488
1532484335.409,34.180,27.344,28.809,-3.418,-11.230
1532484335.413,33.203,24.414,30.273,6.836,83.496
1532484335.417,23.438,24.414,32.227,-0.977,127.930
1532484335.421,23.438,28.809,32.227,-8.301,6.348
1532484335.425,26.855,42.480,36.133,0.000,-1.953
1532484335.429,23.926,34.180,35.645,6.348,104.492
1532484335.433,19.043,20.020,35.645,-0.488,61.523
1532484335.437,15.137,30.273,37.598,-7.324,-48.340
1532484335.441,21.973,40.039,37.598,-2.441,-70.312
1532484335.445,24.902,34.668,36.133,8.301,40.527
1532484335.448,17.090,14.160,35.156,11.230,144.531
1532484335.452,18.555,9.277,34.668,-0.977,-40.039
1532484335.456,26.855,32.715,30.762,-9.766,-163.574
1532484335.460,25.391,37.598,30.273,1.465,51.270
1532484335.464,17.578,26.367,31.738,-0.488,178.711
1532484335.468,14.160,20.020,29.297,-13.184,110.352
1532484335.472,15.137,24.414,27.832,-7.812,-48.340
1532484335.476,21.484,34.180,25.879,3.418,7.812
1532484335.480,21.484,25.391,27.344,4.883,149.414
1532484335.484,14.160,16.602,29.297,-6.836,79.590
1532484335.487,12.695,28.809,26.855,-13.184,-6.836
1532484335.491,23.926,26.367,27.832,-5.371,-114.258
1532484335.495,28.320,25.879,31.250,1.465,-41.016
1532484335.499,20.020,27.832,34.180,-0.977,147.949
1532484335.503,17.578,24.414,32.715,-17.090,12.695
1532484335.507,19.043,33.203,27.344,-19.531,-101.562
1532484335.511,22.949,36.621,30.273,-4.883,0.000
1532484335.515,24.414,33.203,36.133,-0.977,112.793
1532484335.519,17.578,25.879,32.227,-4.883,66.895
1532484335.523,20.020,29.297,30.273,-11.230,-33.691
1532484335.527,23.926,34.180,29.785,-12.695,29.297
1532484335.530,19.043,17.578,32.715,-12.695,38.574
1532484335.534,9.277,17.090,32.715,-21.973,-68.848
1532484335.538,7.812,39.062,27.344,-25.879,-62.500
1532484335.542,18.066,40.039,28.809,-17.578,7.324
1532484335.546,20.020,33.203,35.645,-3.418,150.879
1532484335.550,18.066,22.949,36.133,3.418,113.281
1532484335.554,18.066,28.320,36.133,-1.465,-56.152
1532484335.558,29.297,39.551,40.527,-1.953,-39.062
1532484335.562,30.762,33.203,39.062,5.371,88.379
1532484335.566,15.625,22.949,37.598,0.977,119.141
1532484335.569,9.277,22.461,35.156,-14.648,-2.441
1532484335.573,14.648,28.320,30.273,-13.184,-110.352
1532484335.577,20.020,35.645,28.809,0.000,-23.438
1532484335.581,13.184,29.297,29.297,-1.953,111.816
1532484335.585,6.836,27.832,27.344,-8.301,86.426
1532484335.589,20.996,33.203,24.902,-10.742,-31.250
1532484335.593,30.762,31.250,26.855,-9.766,-109.375
1532484335.597,23.926,30.273,23.926,1.953,28.320
1532484335.601,17.578,22.949,21.484,-4.883,117.188
1532484335.605,14.648,27.344,23.926,-22.461,21.484
1532484335.609,25.391,35.645,24.414,-14.648,6.836
1532484335.612,29.785,28.809,24.414,3.418,78.613
1532484335.616,20.020,26.367,25.391,-0.488,125.488
1532484335.620,18.066,30.762,26.367,-8.301,-27.832
1532484335.624,25.879,40.039,28.320,-0.977,-137.695
1532484335.628,29.297,40.039,29.785,10.742,40.039
1532484335.632,25.391,24.902,34.180,-2.441,46.875
1532484335.636,21.973,32.227,31.250,-14.160,-74.219
1532484335.640,25.391,44.434,26.367,-10.254,-51.270
1532484335.644,29.297,44.922,27.832,-5.371,56.641
1532484335.648,27.832,29.297,28.809,1.465,187.988
1532484335.652,23.438,12.207,30.273,-6.348,97.656
1532484335.655,25.391,30.273,27.344,-9.277,-21.484
1532484335.659,35.156,44.434,27.832,5.371,49.805
1532484335.663,35.156,28.809,28.809,8.301,180.176
1532484335.667,32.227,15.137,24.902,3.906,130.859
1532484335.671,40.039,28.320,23.926,0.488,-104.492
1532484335.675,34.180,39.062,28.320,-5.859,-173.828
1532484335.679,20.996,34.668,27.832,-7.324,101.074
1532484335.683,24.414,18.555,33.203,-3.906,163.574
1532484335.687,33.691,23.926,39.551,-0.488,4.395
1532484335.691,38.574,38.086,39.062,4.883,-60.059
1532484335.694,41.016,35.156,38.574,16.602,29.785
1532484335.698,35.645,26.367,39.062,18.066,174.316
1532484335.702,26.367,21.484,40.039,8.789,87.891
1532484335.706,29.297,28.809,37.109,7.324,-55.176
1532484335.710,35.156,33.203,33.203,20.508,14.648
1532484335.714,32.227,16.113,31.250,23.438,84.473
1532484335.718,28.809,18.066,33.691,10.254,45.898
1532484335.722,29.297,30.762,36.133,0.977,-48.828
1532484335.726,33.203,35.645,32.715,13.672,35.645
1532484335.730,38.086,21.484,33.691,24.414,149.414
1532484335.734,32.227,11.719,35.156,17.090,-2.441
1532484335.737,31.738,32.715,31.250,7.812,-46.387
1532484335.741,40.527,39.062,29.297,9.766,-19.043
1532484335.745,36.621,33.203,28.809,19.531,83.496
1532484335.749,30.762,18.066,29.297,20.508,125.977
1532484335.753,29.297,21.973,29.297,10.254,-4.395
1532484335.757,36.621,36.621,32.715,11.230,-36.621
1532484335.761,43.945,32.227,32.227,22.461,26.855
1532484335.765,41.016,23.926,32.227,22.461,90.820
1532484335.769,34.668,20.508,39.551,10.254,53.711
1532484335.773,35.156,23.438,41.016,1.953,-144.043
1532484335.777,41.504,33.691,38.574,12.695,-81.543
1532484335.780,43.457,31.738,35.156,25.391,164.551
1532484335.784,37.598,17.090,34.180,19.043,119.629
1532484335.788,32.227,21.973,32.715,8.789,-19.043
1532484335.792,33.691,33.691,31.250,10.742,-30.273
1532484335.796,29.297,32.715,34.180,19.043,136.230
1532484335.800,16.113,19.531,35.156,12.695,150.879
1532484335.804,20.020,27.344,34.180,0.000,-17.090
1532484335.808,29.297,39.062,31.250,4.883,-49.805
1532484335.812,28.809,19.531,25.391,8.301,-28.320
1532484335.816,22.949,21.973,20.996,-0.488,32.227
1532484335.819,17.090,27.832,23.438,-9.277,66.406
1532484335.823,22.949,21.484,27.344,-7.812,-18.066
1532484335.827,26.855,29.297,29.297,4.395,62.012
1532484335.831,18.555,22.949,28.809,3.906,135.254
1532484335.835,12.207,20.020,25.879,-4.395,72.754
1532484335.839,14.648,29.785,20.508,-13.184,-4.883
1532484335.843,20.996,39.062,24.414,-10.742,14.648
1532484335.847,18.555,34.180,33.203,0.488,135.254
1532484335.851,11.719,17.578,29.297,-8.301,101.562
1532484335.855,15.625,23.926,27.344,-14.160,-47.852
1532484335.859,23.438,34.668,28.320,-6.348,-59.570
1532484335.862,23.926,26.367,28.320,-3.906,39.551
1532484335.866,13.184,18.555,28.320,-9.766,123.047
1532484335.870,7.812,26.367,27.832,-19.531,-13.672
1532484335.874,17.090,36.133,28.320,-20.996,-159.180
1532484335.878,25.391,33.203,26.367,-10.742,64.453
1532484335.882,25.879,20.020,25.391,-6.836,186.523
1532484335.886,20.996,20.508,24.902,-14.160,63.965
1532484335.890,28.320,29.785,24.902,-15.137,-59.082
1532484335.894,37.109,34.180,28.809,-3.418,16.113
1532484335.898,30.273,21.484,27.344,3.418,160.645
1532484335.902,22.949,5.859,24.414,-4.395,55.664
1532484335.905,20.508,22.461,26.855,-12.695,-74.219
1532484335.909,20.508,28.809,25.879,-3.906,-47.363
1532484335.913,21.484,24.902,27.344,0.000,13.672
1532484335.917,21.973,30.273,30.273,-6.348,48.340
1532484335.921,17.090,21.973,26.367,-13.184,-33.691
1532484335.925,20.020,25.391,27.344,-12.207,-2.441
1532484335.929,17.578,24.902,28.809,-1.953,140.625
1532484335.933,11.719,13.184,28.809,-4.883,163.574
1532484335.937,12.207,7.812,28.320,-14.648,36.133
1532484335.941,17.578,14.648,28.809,-13.672,-62.988
1532484335.944,24.414,20.508,28.320,0.000,62.012
1532484335.948,15.625,5.859,28.809,2.441,140.625
1532484335.952,5.371,0.488,32.227,-16.602,-80.566
1532484335.956,9.766,16.113,27.344,-21.484,-200.195
1532484335.960,6.836,30.762,27.344,-7.812,19.531
1532484335.964,8.789,19.043,33.691,0.488,180.664
1532484335.968,9.277,4.883,30.762,-2.930,123.535
1532484335.972,4.883,19.043,27.832,-18.066,-28.320
1532484335.976,12.207,28.320,26.855,-14.160,-12.695
1532484335.980,11.719,13.672,26.855,-1.465,92.285
1532484335.984,3.418,3.418,25.879,-5.371,109.863
1532484335.987,1.953,21.484,25.391,-17.090,45.410
1532484335.991,7.324,35.645,22.461,-21.973,-2.930
1532484335.995,12.207,30.273,19.043,-6.348,56.152
1532484335.999,10.742,19.043,20.508,-3.418,77.637
1532484336.003,8.301,19.043,20.020,-19.043,-17.578
1532484336.007,20.508,33.691,22.461,-14.160,-27.832
1532484336.011,30.273,20.996,25.391,0.488,-4.395
1532484336.015,20.020,2.441,24.902,-0.488,10.742
1532484336.019,11.719,16.113,21.484,-4.883,30.273
1532484336.023,16.602,27.344,18.555,-7.812,-21.973
1532484336.027,24.414,20.020,17.090,-0.488,33.203
1532484336.030,22.461,13.672,13.184,6.348,103.027
1532484336.034,14.160,17.578,19.531,-1.953,74.707
1532484336.038,16.113,24.902,25.879,-3.418,-45.898
1532484336.042,21.973,29.297,20.020,7.812,-65.918
1532484336.046,21.973,23.438,22.949,8.789,43.457
1532484336.050,15.625,10.254,28.809,-1.953,48.828
1532484336.054,16.602,21.484,26.367,-11.719,-107.910
1532484336.058,25.391,36.621,23.438,-6.836,-104.492
1532484336.062,23.438,19.531,20.996,0.488,75.195
1532484336.066,19.043,5.859,20.996,-4.883,165.039
1532484336.069,18.066,11.230,19.531,-12.207,49.805
1532484336.073,20.996,28.320,15.625,-10.254,-43.945
1532484336.077,30.762,31.738,19.043,-0.977,68.848
1532484336.081,28.320,20.020,22.461,4.395,166.016
1532484336.085,14.160,17.090,20.508,-6.348,106.934
1532484336.089,13.184,24.414,20.020,-14.648,-49.805
1532484336.093,24.902,28.809,20.508,-11.719,-105.469
1532484336.097,23.438,28.320,23.926,-8.301,58.594
1532484336.101,13.184,23.438,27.344,-5.371,140.137
1532484336.105,11.230,30.762,23.438,-8.301,47.852
1532484336.109,17.578,27.832,20.996,-5.859,8.789
1532484336.112,19.531,18.555,27.344,1.953,96.680
1532484336.116,15.625,17.090,27.832,-5.859,150.391
1532484336.120,11.719,27.832,20.996,-13.672,40.527
1532484336.124,18.555,37.598,25.879,-7.324,1.465
1532484336.128,30.762,21.973,28.809,2.441,108.887
1532484336.132,16.113,15.625,27.344,-4.883,169.922
1532484336.136,5.371,23.926,29.297,-22.949,38.574
1532484336.140,15.625,29.785,28.809,-17.578,-113.770
1532484336.144,21.973,30.762,25.879,0.000,2.441
1532484336.148,23.926,18.066,29.785,7.324,188.477
1532484336.151,20.020,8.789,31.738,-4.395,31.738
1532484336.155,21.484,21.973,29.785,-12.695,-169.434
1532484336.159,27.832,27.344,32.227,1.465,-22.461
1532484336.163,25.391,11.719,26.855,9.277,141.113
1532484336.167,18.555,9.766,26.367,4.395,134.766
1532484336.171,20.508,22.461,32.227,-0.488,12.207
1532484336.175,28.320,27.344,28.809,-2.930,-40.527
1532484336.179,29.297,21.973,26.367,3.418,102.051
1532484336.183,22.461,13.184,24.414,-0.488,114.746
1532484336.187,15.625,20.508,21.484,-11.230,5.371
1532484336.191,19.043,26.367,20.020,-9.766,-77.637
1532484336.194,24.902,25.391,17.578,0.488,-61.523
1532484336.198,21.484,16.113,17.090,1.953,105.469
1532484336.202,12.695,13.672,18.555,-13.184,68.359
1532484336.206,17.090,27.344,20.508,-16.602,-27.344
1532484336.210,25.391,20.996,22.461,0.000,5.371
1532484336.214,27.344,13.184,23.926,0.488,80.566
1532484336.218,20.508,19.043,24.902,-13.184,51.758
1532484336.222,17.578,27.832,23.438,-18.555,-39.551
1532484336.226,24.414,26.367,20.020,-8.789,19.531
1532484336.230,21.973,15.137,20.508,1.953,103.516
1532484336.234,14.648,12.207,23.438,-11.230,-12.695
1532484336.237,16.602,25.391,21.973,-17.578,-81.543
1532484336.241,26.855,32.227,21.973,-7.324,-22.949
1532484336.245,29.297,29.785,24.414,1.953,123.535
1532484336.249,20.508,18.066,23.438,-4.883,164.551
1532484336.253,16.602,18.066,23.926,-14.648,-24.902
1532484336.257,23.438,27.344,22.461,-4.395,-104.492
1532484336.261,30.762,31.738,20.996,8.789,56.641
1532484336.265,22.949,28.809,21.484,0.488,178.223
1532484336.269,15.625,18.066,19.531,-16.113,84.961
1532484336.273,19.531,19.531,18.555,-16.602,-77.637
1532484336.276,25.391,27.832,19.043,-5.859,-43.457
1532484336.280,21.484,21.973,22.461,0.977,82.520
1532484336.284,11.719,19.043,22.461,-4.883,70.312
1532484336.288,15.137,27.344,23.438,-15.137,6.836
1532484336.292,22.949,25.879,23.926,-10.254,-104.492
1532484336.296,17.578,20.996,15.625,5.371,-24.414
1532484336.300,11.230,11.719,18.555,7.812,91.309
1532484336.304,10.742,23.926,21.973,-10.254,-11.719
1532484336.308,13.184,40.039,18.066,-18.066,-17.090
1532484336.312,16.113,32.227,20.996,-9.277,85.449
1532484336.316,11.719,21.484,22.461,-11.230,119.629
1532484336.319,8.301,23.926,23.438,-18.066,16.113
1532484336.323,12.207,33.203,21.973,-16.602,-83.008
1532484336.327,14.160,34.668,19.043,-5.371,34.668
1532484336.331,8.301,14.160,20.996,-4.395,83.008
1532484336.335,3.418,15.137,20.020,-20.508,-56.641
1532484336.339,9.766,31.250,22.949,-24.902,-52.734
1532484336.343,18.555,24.902,24.902,-9.766,34.180
1532484336.347,14.648,20.996,25.879,-5.859,178.711
1532484336.351,7.324,22.461,26.367,-17.090,108.887
1532484336.355,11.719,38.086,24.902,-19.043,-20.020
1532484336.359,17.090,39.062,22.949,-8.301,30.273
1532484336.362,14.160,29.785,23.438,0.488,125.488
1532484336.366,13.672,25.391,25.879,-1.465,146.484
1532484336.370,12.207,24.902,26.367,-12.695,-18.066
1532484336.374,15.625,33.691,29.297,-10.254,-138.184
1532484336.378,18.555,33.691,34.180,0.488,46.387
1532484336.382,13.672,19.043,35.156,-1.465,144.531
1532484336.386,9.766,23.926,29.785,-8.789,50.293
1532484336.390,16.602,18.555,26.855,-11.230,-80.566
1532484336.394,22.949,17.090,26.855,-7.324,-63.965
1532484336.398,20.508,29.785,27.344,0.488,138.672
1532484336.401,11.719,27.832,25.879,-8.789,92.773
1532484336.405,9.766,31.250,24.414,-15.625,-25.391
1532484336.409,19.531,29.297,27.832,-6.348,4.883
1532484336.413,20.020,20.996,28.809,0.488,99.609
1532484336.417,15.137,17.090,29.297,-3.906,74.219
1532484336.421,15.137,27.832,28.320,-13.184,-70.801
1532484336.425,19.531,37.109,24.902,-9.277,-27.344
1532484336.429,23.926,27.832,24.414,7.812,103.516
1532484336.433,20.020,16.113,24.902,-0.488,-6.836
1532484336.437,15.137,28.809,25.391,-15.137,-80.566
1532484336.441,20.508,37.598,26.367,-7.812,-12.207
1532484336.444,18.066,37.109,26.367,0.977,105.469
1532484336.448,10.254,33.691,30.273,0.977,187.012
1532484336.452,7.812,33.203,28.320,-9.766,24.902
1532484336.456,7.812,45.410,22.461,-17.578,-60.547
1532484336.460,14.160,46.875,25.879,-6.348,80.078
1532484336.464,17.578,26.855,28.809,-5.859,135.742
1532484336.468,14.648,24.902,26.367,-19.043,32.715
1532484336.472,15.625,31.250,25.391,-21.484,-156.250
1532484336.476,19.531,38.574,24.902,-10.742,-142.578
1532484336.480,14.160,34.180,25.391,-2.441,118.652
1532484336.484,6.836,20.020,27.832,-10.254,147.461
1532484336.487,5.371,27.832,23.438,-20.508,35.645
1532484336.491,11.719,35.156,22.461,-16.113,-21.973
1532484336.495,15.137,31.250,25.879,-4.883,71.777
1532484336.499,10.254,28.320,28.320,-5.371,139.160
1532484336.503,8.789,30.762,28.809,-14.160,33.203
1532484336.507,16.113,36.133,26.855,-11.230,-16.113
1532484336.511,20.508,34.668,26.855,1.465,62.500
1532484336.515,17.090,24.902,29.785,2.441,87.402
1532484336.519,11.719,26.367,26.855,-11.230,8.301
1532484336.523,16.113,36.621,21.973,-16.113,-36.621
1532484336.526,21.484,34.180,22.461,-2.930,83.984
1532484336.530,13.672,13.672,23.438,-2.930,106.445
1532484336.534,6.836,14.648,24.414,-12.695,-57.129
1532484336.538,6.348,35.156,22.461,-16.113,-68.359
1532484336.542,13.672,36.133,22.461,-9.766,9.277
1532484336.546,16.602,27.832,28.320,-0.977,150.879
1532484336.550,16.113,17.090,31.250,-4.883,120.605
1532484336.554,16.602,25.391,31.250,-11.719,-53.223
1532484336.558,20.020,31.738,27.832,-8.789,-75.684
1532484336.562,20.996,25.391,24.902,-2.930,23.438
1532484336.566,18.066,22.461,26.855,-4.883,143.555
1532484336.569,15.137,19.043,24.414,-11.230,39.062
1532484336.573,19.531,27.832,22.461,-13.184,-155.273
1532484336.577,24.414,34.668,22.461,-3.418,-24.414
1532484336.581,20.996,26.855,26.367,2.441,141.602
1532484336.585,17.090,25.879,30.273,-8.301,94.727
1532484336.589,21.973,23.926,29.297,-10.254,-34.668
1532484336.593,30.762,25.879,26.367,-0.977,-13.672
1532484336.597,30.273,29.297,25.879,2.441,129.883
1532484336.601,21.973,23.926,23.926,-3.418,102.539
1532484336.605,22.949,29.785,23.438,-14.648,-62.500
1532484336.609,29.785,40.527,22.461,-5.371,-74.219
1532484336.612,28.320,30.273,20.020,-0.977,-7.812
1532484336.616,18.066,29.297,21.973,-9.766,19.043
1532484336.620,19.043,39.551,22.461,-12.207,17.578
1532484336.624,29.785,33.691,21.973,-6.836,6.836
1532484336.628,28.320,25.391,24.414,0.977,81.543
1532484336.632,23.438,22.461,27.344,-7.324,99.609
1532484336.636,21.484,27.832,28.320,-15.625,35.156
1532484336.640,23.438,37.109,26.367,-15.137,-49.316
1532484336.644,27.832,34.180,25.391,-8.789,37.109
1532484336.648,20.508,19.531,24.414,-8.301,173.340
1532484336.651,13.184,21.484,21.973,-15.625,50.781
1532484336.655,18.555,42.480,21.484,-14.648,-76.172
1532484336.659,25.391,46.387,22.949,0.488,29.785
1532484336.663,23.438,29.785,23.438,5.859,157.715
1532484336.667,20.996,23.438,23.438,-2.930,155.762
1532484336.671,22.949,26.855,23.926,-11.230,-56.152
1532484336.675,26.367,31.738,23.438,-8.789,-178.711
1532484336.679,28.809,37.109,23.438,5.859,48.828
1532484336.683,22.461,31.738,23.926,4.395,179.688
1532484336.687,19.531,30.762,22.461,-4.883,25.391
1532484336.691,27.832,35.645,20.996,-4.883,-106.934
1532484336.694,28.809,40.527,24.902,5.859,37.109
1532484336.698,21.973,23.926,28.809,10.254,125.000
1532484336.702,18.066,21.484,28.320,-1.953,2.930
1532484336.706,22.461,40.039,27.344,-6.836,-35.645
1532484336.710,36.133,26.855,27.344,0.000,6.836
1532484336.714,32.227,17.090,27.832,-2.930,5.371
1532484336.718,18.555,22.949,27.832,-8.789,26.855
1532484336.722,20.508,29.785,25.879,-12.695,-9.766
1532484336.726,26.367,33.203,28.320,-6.348,23.926
1532484336.730,25.879,22.949,34.668,6.348,120.605
1532484336.733,16.113,15.625,33.203,0.488,98.633
1532484336.737,13.672,26.855,31.738,-8.789,17.578
1532484336.741,21.973,34.180,32.227,-1.953,24.414
1532484336.745,20.508,23.438,33.203,10.254,113.281
1532484336.749,9.277,7.812,33.691,-3.418,69.824
1532484336.753,6.836,12.695,29.297,-23.926,-121.094
1532484336.757,16.113,25.391,28.320,-17.090,-121.094
1532484336.761,17.090,18.066,33.203,-7.324,52.246
1532484336.765,9.766,10.254,34.180,0.977,137.207
1532484336.769,9.766,13.184,31.250,-1.953,49.805
1532484336.773,16.602,25.391,30.273,-12.695,-62.012
1532484336.776,22.949,31.738,33.691,-1.953,10.254
1532484336.780,20.020,21.484,32.715,3.418,129.395
1532484336.784,13.672,17.090,28.809,-6.348,84.473
1532484336.788,11.719,23.926,30.762,-4.883,-46.875
1532484336.792,14.160,20.020,34.668,7.812,-54.688
1532484336.796,16.113,17.578,34.180,13.672,45.898
1532484336.800,10.742,20.020,33.691,0.977,92.773
1532484336.804,8.301,23.438,29.297,-18.555,-8.789
1532484336.808,14.648,28.320,26.855,-12.695,-31.738
1532484336.812,17.090,25.879,28.320,0.000,30.273
1532484336.816,10.254,17.578,28.320,-9.277,15.137
1532484336.819,9.766,26.367,25.879,-15.625,11.719
1532484336.823,19.043,34.668,23.438,-11.230,-24.414
1532484336.827,30.273,33.203,24.414,-4.883,74.219
1532484336.831,28.320,14.648,25.879,-4.395,148.926
1532484336.835,15.137,9.277,25.391,-11.719,53.711
1532484336.839,13.672,22.461,24.414,-18.066,-64.453
1532484336.843,17.578,25.879,26.855,-7.812,-29.785
1532484336.847,13.184,16.113,30.273,4.395,126.465
1532484336.851,10.742,5.859,29.297,-9.277,35.645
1532484336.855,15.137,16.113,26.367,-17.578,-150.391
1532484336.858,21.973,34.180,24.902,-3.418,-43.457
1532484336.862,22.949,30.762,24.414,4.883,148.926
1532484336.866,21.973,20.996,27.832,3.906,143.066
1532484336.870,20.996,23.438,30.273,-5.859,-25.391
1532484336.874,23.438,32.227,29.297,-6.348,-42.969
1532484336.878,26.367,28.809,28.809,10.742,120.605
1532484336.882,22.461,24.414,31.738,4.883,207.520
1532484336.886,21.973,22.461,32.227,-9.277,65.430
1532484336.890,27.832,17.578,29.785,-7.812,-122.559
1532484336.894,33.691,23.438,28.809,-1.465,-91.797
1532484336.898,30.762,24.414,27.832,4.883,106.445
1532484336.901,25.391,16.602,29.785,-8.301,132.812
1532484336.905,27.832,26.367,28.809,-14.648,11.230
1532484336.909,32.715,27.832,26.855,3.906,-3.418
1532484336.913,30.273,20.996,30.762,8.301,92.285
1532484336.917,22.461,20.508,28.809,-2.930,125.488
1532484336.921,20.508,25.391,26.855,-11.230,15.625
1532484336.925,27.832,31.250,27.832,-1.465,-35.645
1532484336.929,26.855,23.438,28.320,7.812,85.449
1532484336.933,21.973,9.766,32.227,-2.930,91.797
1532484336.937,18.555,15.137,30.762,-11.230,-51.758
1532484336.941,20.996,25.391,25.391,-8.789,-51.270
1532484336.944,28.320,28.809,25.391,2.930,76.660
1532484336.948,22.949,14.160,25.879,2.930,147.461
1532484336.952,13.184,3.418,23.438,-18.555,-49.316
1532484336.956,15.625,18.555,20.996,-18.555,-173.828
1532484336.960,22.949,28.320,22.949,4.883,39.551
1532484336.964,19.043,16.113,23.926,5.371,178.223
1532484336.968,12.207,9.277,23.438,-9.277,105.469
1532484336.972,16.113,25.879,23.438,-14.648,-41.504
1532484336.976,23.926,34.668,22.949,-7.324,7.812
1532484336.980,25.391,23.438,26.367,1.953,136.719
1532484336.983,17.090,13.672,26.367,-6.348,64.453
1532484336.987,10.254,28.320,22.461,-13.672,-29.785
1532484336.991,24.902,29.785,27.832,-0.977,-91.797
1532484336.995,44.434,17.578,30.762,20.020,-32.715
1532484336.999,27.344,22.949,20.508,-2.441,150.879
1532484337.003,5.371,30.762,12.695,-35.645,88.867
1532484337.007,20.996,35.645,15.625,-20.996,-16.602
1532484337.011,30.762,30.273,19.531,2.441,39.062
1532484337.015,16.602,20.020,18.066,-7.324,156.250
1532484337.019,5.859,15.625,14.160,-29.785,110.352
1532484337.023,12.695,25.391,13.672,-30.762,-27.832
1532484337.026,20.996,32.715,16.113,-14.648,9.277
1532484337.030,16.602,20.996,17.090,-9.766,62.012
1532484337.034,11.230,19.043,19.531,-20.996,-25.879
1532484337.038,11.230,36.621,17.090,-24.414,-41.504
1532484337.042,18.066,36.133,11.719,-11.719,0.977
1532484337.046,22.461,26.855,12.207,-1.953,113.770
1532484337.050,16.113,19.043,17.090,-9.277,138.672
1532484337.054,11.719,28.809,16.602,-20.020,7.324
1532484337.058,20.020,38.574,14.160,-14.648,-9.277
1532484337.062,21.484,30.273,16.602,-0.977,87.402
1532484337.066,12.207,20.508,19.043,-3.418,159.668
1532484337.069,9.766,17.090,20.996,-15.625,43.945
1532484337.073,19.043,22.949,20.996,-13.184,-97.168
1532484337.077,27.344,32.227,21.484,-0.977,-7.812
1532484337.081,19.531,24.902,23.438,1.953,130.371
1532484337.085,13.184,18.066,24.902,-3.418,99.609
1532484337.089,13.184,20.020,21.484,-7.324,-12.207
1532484337.093,13.672,17.578,20.996,-1.465,-108.887
1532484337.097,14.648,22.949,26.367,0.977,3.906
1532484337.101,12.207,19.043,25.879,-11.719,83.496
1532484337.105,15.625,28.809,23.438,-13.672,-43.945
1532484337.108,24.902,29.297,25.391,1.953,-48.828
1532484337.112,24.414,12.207,21.973,10.254,62.012
1532484337.116,19.531,8.789,19.531,11.230,140.625
1532484337.120,20.508,12.207,21.973,5.371,4.395
1532484337.124,27.832,27.832,23.438,-0.488,-102.539
1532484337.128,30.762,30.273,23.926,6.348,72.754
1532484337.132,18.066,14.160,23.926,-1.953,55.176
1532484337.136,10.254,23.926,25.391,-12.207,-101.074
1532484337.140,18.555,40.039,26.855,-6.348,-52.246
1532484337.144,21.484,30.762,25.391,-3.418,46.387
1532484337.148,19.531,24.414,27.832,2.441,167.480
1532484337.151,17.090,26.367,30.273,-0.977,70.312
1532484337.155,16.113,28.809,26.367,-6.836,-58.105
1532484337.159,19.043,27.344,26.855,-2.930,9.277
1532484337.163,18.066,18.066,26.367,-7.812,121.094
1532484337.167,14.648,10.254,24.902,-9.277,83.984
1532484337.171,13.672,20.020,24.414,-16.113,-156.738
1532484337.175,19.043,34.180,26.855,-14.648,-176.270
1532484337.179,20.020,33.203,26.367,0.000,101.562
1532484337.183,12.695,22.461,27.344,-3.906,184.570
1532484337.187,4.395,25.879,29.785,-14.160,69.336
1532484337.191,8.789,33.203,28.320,-12.207,-29.297
1532484337.194,13.184,29.785,27.344,-0.488,70.312
1532484337.198,7.324,24.414,30.762,-3.906,175.781
1532484337.202,4.883,24.902,32.715,-12.695,65.430
1532484337.206,11.719,28.320,34.180,-12.207,-21.973
1532484337.210,18.066,24.414,34.180,-4.395,13.184
1532484337.214,14.648,18.066,28.320,0.000,78.125
1532484337.218,11.719,25.879,28.809,-6.836,23.438
1532484337.222,12.207,38.574,27.344,-18.555,-99.121
1532484337.226,18.066,46.875,25.391,-15.625,-10.742
1532484337.230,16.113,28.320,28.320,-4.395,107.422
1532484337.233,6.836,19.531,26.367,-9.766,4.395
1532484337.237,7.812,40.527,25.391,-16.602,-39.551
1532484337.241,16.113,38.086,28.320,-10.742,-1.953
1532484337.245,19.531,31.250,29.785,1.465,108.398
1532484337.249,16.113,23.438,28.320,-2.441,143.555
1532484337.253,14.648,24.414,26.855,-7.324,-7.812
1532484337.257,12.695,36.133,27.832,-4.883,-36.621
1532484337.261,11.719,35.645,29.297,-1.465,35.156
1532484337.265,19.043,26.367,27.832,-1.465,105.957
1532484337.269,19.043,24.414,26.855,-8.789,71.777
1532484337.273,18.555,29.297,27.832,-16.113,-149.414
1532484337.276,26.855,40.527,30.273,-10.742,-61.523
1532484337.280,23.926,30.762,30.762,-3.418,134.766
1532484337.284,17.090,20.996,28.320,-16.602,64.453
1532484337.288,20.020,33.691,25.879,-16.602,-25.391
1532484337.292,26.367,38.574,24.902,-1.465,-23.438
1532484337.296,24.902,29.785,26.855,1.953,132.812
1532484337.300,16.602,13.672,27.344,-8.789,165.039
1532484337.304,14.160,16.602,25.391,-20.508,27.344
1532484337.308,20.020,28.809,24.414,-11.230,-48.340
1532484337.312,22.461,24.902,25.391,0.000,-39.551
1532484337.315,18.555,29.785,29.297,-8.301,45.410
1532484337.319,15.137,36.621,27.344,-14.648,48.828
1532484337.323,17.090,35.645,22.949,-17.578,-14.648
1532484337.327,21.973,32.227,24.414,-12.207,55.664
1532484337.331,18.066,23.438,25.879,-4.883,118.652
1532484337.335,15.137,25.879,26.855,-9.277,68.848
1532484337.339,18.066,31.250,22.461,-18.066,-56.641
1532484337.343,22.949,33.691,19.043,-16.602,-10.742
1532484337.347,20.508,22.461,21.484,-13.184,160.156
1532484337.351,11.230,8.301,25.391,-17.578,116.699
1532484337.355,8.301,17.090,26.367,-21.484,-54.199
1532484337.358,13.184,29.297,22.949,-17.090,-64.453
1532484337.362,15.625,29.785,20.508,-7.812,78.125
1532484337.366,11.719,22.461,23.438,-13.184,152.832
1532484337.370,0.977,19.531,23.926,-24.414,3.906
1532484337.374,3.418,30.762,24.414,-23.438,-148.926
1532484337.378,16.113,39.551,27.344,-7.324,32.715
1532484337.382,15.137,24.902,27.832,-7.324,170.410
1532484337.386,11.230,23.926,29.785,-17.090,54.688
1532484337.390,14.648,31.738,27.832,-12.695,-52.734
1532484337.394,13.672,32.715,25.391,-2.441,39.062
1532484337.398,8.301,20.508,24.902,2.930,135.254
1532484337.401,5.859,19.043,24.902,-2.441,22.949
1532484337.405,9.766,37.109,23.438,-4.883,-82.031
1532484337.409,16.113,38.086,23.926,0.977,-49.805
1532484337.413,15.625,30.273,27.832,0.488,-0.977
1532484337.417,10.742,33.203,27.832,-12.695,56.152
1532484337.421,11.230,35.156,28.320,-15.137,36.133
1532484337.425,18.555,40.039,30.273,0.977,24.414
1532484337.429,21.973,32.715,29.785,10.254,101.562
1532484337.433,15.625,23.438,28.809,0.488,104.004
1532484337.437,14.648,37.598,25.879,-6.836,27.344
1532484337.440,23.438,33.691,25.391,-4.395,-51.270
1532484337.444,29.297,25.391,27.832,5.371,45.410
1532484337.448,27.832,26.367,33.203,7.812,118.652
1532484337.452,21.973,28.320,32.227,-8.789,-57.617
1532484337.456,20.508,44.922,27.832,-7.324,-150.879
1532484337.460,25.879,47.363,31.738,11.719,6.348
1532484337.464,34.180,34.668,37.598,22.461,165.039
1532484337.468,26.855,26.855,30.762,2.930,149.902
1532484337.472,8.789,33.203,21.484,-33.203,-15.625
1532484337.476,13.184,39.062,22.461,-22.461,-4.883
1532484337.480,23.438,27.832,24.414,3.906,126.465
1532484337.483,18.555,21.484,24.902,-0.977,134.766
1532484337.487,14.160,28.809,23.926,-12.207,25.391
1532484337.491,23.926,30.762,21.973,-6.348,-25.879
1532484337.495,26.855,21.484,23.926,4.883,55.176
1532484337.499,23.438,13.184,27.832,6.836,70.312
1532484337.503,21.484,18.555,28.320,-2.930,12.695
1532484337.507,25.879,30.273,27.344,-1.953,-3.906
1532484337.511,33.203,27.344,27.344,8.301,8.789
1532484337.515,31.738,15.625,27.344,6.836,-5.859
1532484337.519,24.414,20.020,27.832,1.465,-7.812
1532484337.523,28.320,33.691,27.344,2.441,-41.992
1532484337.526,40.039,35.645,27.832,6.836,21.973
1532484337.530,37.598,17.090,27.832,6.836,143.066
1532484337.534,26.367,13.672,26.367,4.395,109.375
1532484337.538,24.414,29.297,25.391,-1.953,19.043
1532484337.542,28.809,30.762,28.320,1.953,-29.785
1532484337.546,28.809,28.320,28.809,7.324,73.730
1532484337.550,25.879,22.949,27.344,-1.953,144.043
1532484337.554,21.973,23.438,26.855,-11.230,-90.820
1532484337.558,25.391,38.086,25.879,-9.766,-90.332
1532484337.562,31.738,34.180,28.320,5.371,118.164
1532484337.565,28.809,23.926,27.344,9.766,164.062
1532484337.569,20.996,21.973,29.785,1.465,54.199
1532484337.573,19.531,26.855,32.715,0.000,-70.801
1532484337.577,28.320,37.109,32.715,4.395,-3.418
1532484337.581,25.391,26.855,34.180,8.789,125.000
1532484337.585,21.973,20.020,32.715,-4.883,97.168
1532484337.589,24.414,28.809,30.762,-13.184,-43.457
1532484337.593,31.738,30.762,33.203,-4.395,-113.281
1532484337.597,34.668,29.297,35.645,1.465,66.895
1532484337.601,21.484,23.438,36.621,-8.789,157.227
1532484337.605,16.113,25.391,38.574,-6.836,8.301
1532484337.608,28.320,29.297,38.086,4.883,-9.766
1532484337.612,30.762,23.438,39.551,6.836,117.676
1532484337.616,23.926,23.438,41.504,1.953,173.340
1532484337.620,23.438,28.320,38.086,-8.301,51.758
1532484337.624,24.414,23.926,34.180,-9.766,-22.949
1532484337.628,25.879,20.508,36.133,-4.395,85.938
1532484337.632,22.949,15.625,39.062,-8.301,140.625
1532484337.636,14.648,16.113,39.551,-11.719,26.367
1532484337.640,17.090,31.250,37.109,-7.324,-86.426
1532484337.644,24.414,36.133,35.645,-2.441,5.859
1532484337.648,21.484,23.926,37.598,1.465,202.637
1532484337.651,17.578,7.812,38.574,-8.301,66.406
1532484337.655,21.484,16.602,34.668,-19.043,-145.020
1532484337.659,23.438,35.156,32.715,-12.695,-12.695
1532484337.663,20.508,25.391,34.180,-0.977,166.992
1532484337.667,17.578,19.043,37.109,-0.488,180.664
1532484337.671,13.184,25.391,34.180,-11.719,10.742
1532484337.675,15.137,36.621,31.738,-10.254,-31.250
1532484337.679,20.996,28.809,33.691,-1.465,144.043
1532484337.683,14.648,12.695,34.668,-4.395,140.137
1532484337.687,9.766,26.367,33.691,-8.789,-1.465
1532484337.690,19.043,30.762,33.691,-6.348,-104.980
1532484337.694,25.391,26.367,32.715,-1.465,-94.238
1532484337.698,19.043,25.391,33.203,-4.395,99.609
1532484337.702,12.207,22.461,37.109,-16.113,114.746
1532484337.706,9.766,23.926,35.156,-17.578,2.930
1532484337.710,12.695,22.461,30.273,-6.348,24.414
1532484337.714,13.184,23.926,30.762,2.441,129.395
1532484337.718,8.301,25.879,33.691,-5.859,116.211
1532484337.722,11.230,25.879,33.203,-9.766,-25.391
1532484337.726,20.508,29.785,32.227,1.465,12.695
1532484337.730,20.508,20.996,30.273,1.953,128.906
1532484337.733,12.695,16.602,32.227,-8.301,37.109
1532484337.737,10.742,30.762,32.227,-6.836,-40.039
1532484337.741,16.602,25.879,28.809,1.465,-25.879
1532484337.745,17.578,22.461,29.785,9.766,122.070
1532484337.749,12.695,16.113,31.250,-0.488,196.289
1532484337.753,10.254,16.113,25.879,-13.672,-28.320
1532484337.757,14.648,32.227,23.438,-10.254,-79.102
1532484337.761,20.996,35.156,24.902,6.348,93.262
1532484337.765,18.066,26.855,22.461,5.859,191.895
1532484337.769,12.695,16.602,22.461,-11.230,95.703
1532484337.773,17.578,27.832,21.973,-15.137,-67.871
1532484337.776,23.438,32.715,21.484,-11.230,-52.246
1532484337.780,21.973,25.879,26.367,-4.395,51.758
1532484337.784,22.949,26.367,26.367,-8.789,77.148
1532484337.788,24.902,36.133,25.879,-16.113,16.113
1532484337.792,23.926,25.879,25.879,-13.672,-100.098
1532484337.796,21.484,16.602,23.438,-8.301,-11.719
1532484337.800,17.578,20.996,23.926,-15.625,132.812
1532484337.804,16.113,22.461,25.391,-19.043,18.066
1532484337.808,23.438,24.902,26.855,-6.836,-2.930
1532484337.812,22.949,24.902,25.391,-1.953,59.082
1532484337.815,13.672,18.066,24.414,-9.277,103.516
1532484337.819,1.465,18.555,24.902,-14.648,65.430
1532484337.823,-0.488,21.973,20.508,-17.578,-92.285
1532484337.827,14.648,26.855,20.996,-12.695,8.301
1532484337.831,17.090,16.113,24.414,-14.648,82.520
1532484337.835,8.789,18.555,20.996,-27.344,-38.086
1532484337.839,10.742,37.109,19.043,-19.531,-35.645
1532484337.843,20.996,30.273,21.973,-5.371,34.180
1532484337.847,18.066,21.484,22.461,-4.395,193.848
1532484337.851,9.277,14.160,23.926,-21.484,125.000
1532484337.855,11.230,18.555,20.508,-31.250,-41.016
1532484337.858,16.602,27.344,19.043,-15.625,-1.465
1532484337.862,17.578,20.020,22.461,-5.859,134.277
1532484337.866,13.184,12.207,22.461,-12.695,192.871
1532484337.870,10.742,19.043,22.949,-17.578,16.113
1532484337.874,17.090,33.203,23.438,-14.160,-75.195
1532484337.878,22.949,28.809,22.461,-5.371,49.805
1532484337.882,16.113,22.461,25.879,-2.930,152.344
1532484337.886,9.766,27.344,23.926,-15.137,135.742
1532484337.890,12.695,25.879,20.508,-21.973,-41.016
1532484337.894,23.438,35.156,21.973,-13.672,-67.383
1532484337.897,22.461,26.367,23.438,-8.301,127.441
1532484337.901,11.230,5.371,24.414,-15.137,96.191
1532484337.905,11.719,22.949,22.949,-20.996,-16.602
1532484337.909,20.996,30.273,21.484,-13.184,-1.465
1532484337.913,19.043,18.066,23.438,-1.953,94.727
1532484337.917,11.230,11.230,23.926,-5.371,97.168
1532484337.921,14.648,21.973,24.414,-13.672,-68.359
1532484337.925,13.184,35.156,25.879,-2.930,-33.691
1532484337.929,15.625,26.367,29.785,9.766,94.727
1532484337.933,22.461,14.648,30.762,0.977,-20.020
1532484337.937,19.531,26.855,28.809,-6.348,-92.285
1532484337.940,22.949,32.227,27.832,-2.930,-43.945
1532484337.944,24.902,30.273,27.344,8.301,56.641
1532484337.948,21.484,22.461,29.297,9.277,164.062
1532484337.952,21.484,15.137,31.738,-1.465,36.133
1532484337.956,26.855,30.273,30.762,0.000,-51.758
1532484337.960,31.738,37.598,27.832,10.254,35.156
1532484337.964,28.809,28.320,30.762,6.836,102.539
1532484337.968,21.973,29.297,34.180,3.418,68.359
1532484337.972,22.461,28.320,30.273,-0.488,-138.672
1532484337.976,29.297,30.273,28.809,2.441,-160.156
1532484337.980,28.809,33.691,33.691,9.277,116.699
1532484337.983,23.438,26.367,31.738,1.465,161.133
1532484337.987,25.879,32.227,30.273,-0.488,18.555
1532484337.991,34.668,38.574,32.715,3.906,-73.242
1532484337.995,37.109,39.062,32.227,6.836,72.266
1532484337.999,28.809,28.320,33.203,2.441,161.133
1532484338.003,15.137,23.926,32.715,-6.348,47.852
1532484338.007,18.555,30.273,28.320,-6.348,-35.645
1532484338.011,24.902,32.715,30.273,-0.488,-3.418
1532484338.015,15.137,26.367,30.762,0.977,77.148
1532484338.019,11.230,30.762,29.297,-7.324,61.523
1532484338.022,17.578,41.992,31.738,-9.277,-29.785
1532484338.026,20.996,37.598,28.320,-1.465,43.457
1532484338.030,19.043,20.020,28.320,1.465,71.289
1532484338.034,11.719,19.043,32.715,-2.930,-41.016
1532484338.038,12.207,36.133,30.762,-5.859,-54.688
1532484338.042,20.020,36.621,28.320,4.883,-2.930
1532484338.046,21.484,20.020,27.344,18.066,125.977
1532484338.050,15.625,8.301,25.879,7.812,98.145
1532484338.054,10.254,22.461,23.926,-10.254,-24.902
1532484338.058,17.090,30.762,22.461,-9.277,-74.219
1532484338.062,16.602,25.879,22.949,0.977,11.719
1532484338.065,12.695,17.578,26.855,-0.977,154.785
1532484338.069,12.207,14.648,28.809,-8.301,59.082
1532484338.073,12.207,23.438,28.809,-16.602,-164.062
1532484338.077,20.020,35.156,26.367,-13.672,-30.762
1532484338.081,19.043,25.879,21.484,-8.789,166.992
1532484338.085,17.090,24.902,23.926,-19.043,124.512
1532484338.089,20.020,32.715,27.832,-17.090,-27.832
1532484338.093,22.461,25.879,24.414,-4.883,-36.133
1532484338.097,18.555,17.578,23.438,0.488,139.160
1532484338.101,11.230,19.531,25.879,-3.418,123.535
1532484338.105,14.160,29.297,27.832,-13.672,-41.992
1532484338.108,23.438,37.109,27.344,-9.277,-70.312
1532484338.112,24.414,27.832,25.391,-1.465,-26.367
1532484338.116,15.625,21.973,20.996,-14.160,14.648
1532484338.120,12.207,32.715,20.996,-18.555,31.250
1532484338.124,20.020,38.574,21.973,-10.254,20.020
1532484338.128,20.508,32.715,22.461,-3.418,104.980
1532484338.132,14.648,19.531,21.973,-2.930,135.742
1532484338.136,16.113,16.602,20.020,-6.836,54.199
1532484338.140,19.531,25.879,22.461,-8.789,-29.785
1532484338.144,24.414,35.645,27.344,0.000,25.879
1532484338.147,24.902,26.855,27.832,-1.953,140.625
1532484338.151,17.578,12.207,23.926,-16.602,64.941
1532484338.155,12.695,29.297,21.484,-20.020,-100.098
1532484338.159,19.043,42.480,20.508,-13.184,-21.484
1532484338.163,21.973,28.809,23.438,-7.324,137.207
1532484338.167,14.648,20.020,27.344,-15.137,115.723
1532484338.171,11.230,25.391,27.344,-25.879,-71.289
1532484338.175,16.602,34.180,25.879,-21.484,-129.395
1532484338.179,16.113,34.668,25.391,-10.254,102.539
1532484338.183,14.160,18.066,26.367,-11.719,168.945
1532484338.187,12.695,15.625,24.414,-23.926,17.090
1532484338.190,13.672,26.367,21.973,-26.367,-81.055
1532484338.194,15.137,27.344,22.949,-16.113,40.527
1532484338.198,13.672,14.160,23.926,-16.113,131.836
1532484338.202,7.324,11.230,25.391,-27.832,-4.395
1532484338.206,7.324,29.297,24.902,-24.414,-46.875
1532484338.210,17.578,28.320,25.391,-11.230,9.277
1532484338.214,15.625,20.020,27.344,-11.230,31.250
1532484338.218,9.277,24.414,31.738,-14.648,67.871
1532484338.222,9.277,26.367,32.715,-20.508,12.207
1532484338.226,14.160,27.344,30.762,-14.160,0.488
1532484338.230,23.438,21.484,28.320,-6.836,63.477
1532484338.233,14.648,15.625,24.414,-18.066,75.684
1532484338.237,1.953,21.973,25.879,-21.973,0.000
1532484338.241,8.789,30.762,28.320,-15.625,-8.301
1532484338.245,15.137,30.273,25.391,-3.906,82.520
1532484338.249,15.625,22.461,25.391,-3.418,85.938
1532484338.253,16.602,20.996,25.879,-16.113,-98.633
1532484338.257,19.531,37.109,20.996,-13.184,-122.559
1532484338.261,24.902,37.598,20.020,-4.883,70.801
1532484338.265,22.949,20.996,23.926,-7.812,166.504
1532484338.269,14.648,16.113,25.391,-13.184,63.965
1532484338.272,15.137,26.367,25.879,-15.137,-83.008
1532484338.276,23.438,35.156,25.391,-6.348,-4.883
1532484338.280,23.438,21.973,28.809,8.789,158.203
1532484338.284,17.090,10.254,32.715,6.836,80.078
1532484338.288,16.602,20.020,28.320,-0.488,-62.012
1532484338.292,20.996,24.414,25.879,4.395,-73.730
1532484338.296,19.531,22.949,25.879,1.953,3.418
1532484338.300,10.742,19.043,25.879,-5.859,109.863
1532484338.304,9.766,22.949,24.414,-5.859,39.062
1532484338.308,19.043,32.715,25.391,0.977,-25.391
1532484338.312,23.438,22.461,30.273,6.348,-9.766
1532484338.315,19.043,17.578,30.273,1.465,31.250
1532484338.319,14.160,23.926,27.832,-8.789,44.434
1532484338.323,18.066,27.344,26.855,-12.695,-58.105
1532484338.327,23.926,34.180,27.832,0.488,34.668
1532484338.331,22.461,24.902,28.320,7.324,127.930
1532484338.335,16.602,14.648,27.832,-4.395,53.223
1532484338.339,18.555,23.926,25.391,-6.348,-52.246
1532484338.343,24.902,29.785,21.973,3.418,-52.734
1532484338.347,23.438,22.949,21.973,4.883,98.633
1532484338.351,16.602,9.277,22.461,-12.207,68.359
1532484338.355,15.625,19.531,20.996,-21.484,-132.812
1532484338.358,21.484,38.574,22.949,-8.789,-42.480
1532484338.362,23.438,26.367,27.832,3.418,104.004
1532484338.366,19.531,17.578,25.879,-0.488,121.094
1532484338.370,19.531,25.391,22.949,-5.371,0.000
1532484338.374,32.715,40.039,26.855,0.977,-75.684
1532484338.378,32.715,28.809,24.414,13.184,100.586
1532484338.382,20.020,5.859,26.855,10.254,190.430
1532484338.386,16.602,5.859,27.832,-1.953,36.133
1532484338.390,22.949,17.578,21.973,-4.395,-123.535
1532484338.394,29.785,28.809,23.438,-2.441,-102.539
1532484338.397,20.996,29.297,24.902,-2.930,117.188
1532484338.401,13.672,20.508,22.949,-7.324,139.160
1532484338.405,20.020,24.414,22.949,-6.836,-42.969
1532484338.409,27.344,27.832,22.461,-0.488,-28.320
1532484338.413,27.344,23.438,24.414,4.395,104.492
1532484338.417,18.066,15.137,24.902,0.000,117.188
1532484338.421,16.113,19.043,22.949,-13.672,4.883
1532484338.425,24.414,33.203,27.344,-15.137,-20.020
1532484338.429,24.414,26.855,29.785,3.418,69.336
1532484338.433,16.602,16.602,27.344,2.441,41.992
1532484338.437,16.602,29.297,26.855,-10.254,-59.082
1532484338.440,27.832,34.668,26.855,-8.789,-67.383
1532484338.444,29.785,31.250,29.785,7.324,46.875
1532484338.448,20.508,23.438,29.785,2.441,149.902
1532484338.452,19.043,20.996,27.344,-19.043,-46.875
1532484338.456,28.320,34.668,27.832,-17.090,-161.133
1532484338.460,33.691,32.715,27.832,-4.395,40.039
1532484338.464,27.832,19.043,27.344,-2.441,136.230
1532484338.468,19.531,15.137,25.879,-9.277,98.633
1532484338.472,20.020,18.555,25.879,-11.230,-45.898
1532484338.476,26.855,24.902,28.809,-3.906,-17.578
1532484338.479,31.738,15.625,29.297,5.371,112.793
1532484338.483,27.832,10.254,29.785,4.883,53.711
1532484338.487,24.902,23.438,30.273,-3.906,10.742
1532484338.491,31.738,25.879,29.785,-2.930,-66.895
1532484338.495,31.738,24.414,28.320,3.906,-52.734
1532484338.499,25.391,24.414,26.367,2.930,118.164
1532484338.503,22.949,26.855,25.879,-5.371,57.617
1532484338.507,29.785,34.668,23.926,-8.301,-22.949
1532484338.511,33.203,31.738,24.414,-1.953,35.645
1532484338.515,23.926,20.508,24.902,0.977,110.840
1532484338.519,19.043,20.020,23.438,-9.766,104.004
1532484338.522,22.461,25.391,21.973,-14.160,-31.250
1532484338.526,27.832,27.344,21.484,-5.371,-32.227
1532484338.530,26.367,15.625,26.855,-2.441,31.250
1532484338.534,16.113,15.625,28.320,-9.277,-45.898
1532484338.538,11.230,30.273,23.926,-12.207,-37.109
1532484338.542,19.043,29.785,22.949,-11.719,11.230
1532484338.546,17.090,23.926,22.949,-7.812,112.305
1532484338.550,6.836,16.602,23.926,-15.137,119.141
1532484338.554,4.883,28.320,25.879,-23.926,-12.695
1532484338.558,15.625,36.621,23.926,-21.484,-17.090
1532484338.562,21.973,31.738,24.902,-7.812,86.426
1532484338.565,18.066,27.832,29.785,-3.906,148.926
1532484338.569,13.184,21.973,28.320,-15.625,42.480
1532484338.573,11.719,26.367,24.902,-20.020,-104.492
1532484338.577,13.672,33.203,26.855,-9.277,-31.738
1532484338.581,12.695,31.250,31.250,-5.371,93.262
1532484338.585,8.301,33.691,33.203,-13.184,74.219
1532484338.589,9.766,31.738,28.809,-16.602,-11.719
1532484338.593,16.602,32.227,29.297,-13.184,-108.887
1532484338.597,13.672,36.621,29.297,-4.395,23.438
1532484338.601,5.859,33.691,26.367,-8.301,147.949
1532484338.604,5.859,37.109,26.367,-15.137,20.020
1532484338.608,12.207,42.480,28.809,-10.742,-10.742
1532484338.612,15.137,36.621,30.762,-4.883,100.586
1532484338.616,11.230,28.320,31.738,-5.371,159.180
1532484338.620,11.719,27.832,30.273,-11.230,-7.812
1532484338.624,19.531,39.062,31.250,-6.348,-116.211
1532484338.628,22.461,39.551,32.715,4.883,59.570
1532484338.632,20.508,25.391,33.203,-2.930,51.270
1532484338.636,16.113,28.320,32.715,-10.254,-61.523
1532484338.640,20.020,45.410,30.762,-2.441,-76.660
1532484338.644,26.367,45.410,27.344,7.812,17.090
1532484338.647,21.973,26.855,25.879,10.742,162.598
1532484338.651,12.207,21.484,28.809,3.418,84.961
1532484338.655,16.113,33.203,28.809,-6.348,-35.645
1532484338.659,29.785,38.086,27.344,-9.766,8.301
1532484338.663,29.297,29.297,28.809,0.000,146.484
1532484338.667,20.508,22.461,33.691,5.371,133.301
1532484338.671,17.578,28.320,34.180,-6.836,-83.008
1532484338.675,19.531,35.156,28.320,-9.277,-149.902
1532484338.679,20.020,28.809,30.273,3.906,81.543
1532484338.683,16.602,21.484,33.691,4.883,175.781
1532484338.687,11.719,30.273,28.809,-9.277,61.035
1532484338.690,16.113,37.598,30.273,-11.230,-47.363
1532484338.694,24.902,40.039,34.180,-1.465,64.453
1532484338.698,21.973,25.879,32.227,-3.418,155.762
1532484338.702,14.160,24.414,28.320,-9.766,27.832
1532484338.706,16.113,40.527,25.391,-10.254,-22.949
1532484338.710,22.949,32.715,26.855,-0.488,51.758
1532484338.714,21.973,18.066,31.250,5.859,93.262
1532484338.718,17.578,22.949,32.227,-4.395,35.156
1532484338.722,18.066,35.645,32.227,-6.836,-43.945
1532484338.726,24.902,35.156,32.227,3.418,11.719
1532484338.729,25.879,20.996,32.227,7.812,108.398
1532484338.733,17.090,10.742,34.668,-4.883,-18.555
1532484338.737,16.602,32.715,35.645,-8.789,-79.590
1532484338.741,22.949,42.969,35.156,1.465,-2.441
1532484338.745,24.902,32.715,36.621,13.672,109.863
1532484338.749,18.555,21.484,37.109,8.789,135.742
1532484338.753,12.207,26.367,33.203,-11.230,15.137
1532484338.757,21.484,35.156,31.250,-11.230,-51.758
1532484338.761,30.273,34.180,31.738,3.418,-24.414
1532484338.765,22.461,29.785,32.227,7.324,38.086
1532484338.769,16.602,17.578,30.762,-3.418,35.156
1532484338.772,16.602,16.602,28.320,-13.184,-120.605
1532484338.776,19.531,29.785,27.832,-2.930,-84.473
1532484338.780,19.043,27.344,30.273,4.395,163.574
1532484338.784,13.672,20.508,34.180,-4.395,132.812
1532484338.788,14.160,30.273,30.762,-7.812,-13.184
1532484338.792,19.043,34.180,23.926,-5.371,-27.344
1532484338.796,17.090,26.367,25.391,0.977,115.723
1532484338.800,11.230,15.625,26.367,-1.465,170.410
1532484338.804,11.719,21.484,26.367,-11.719,49.805
1532484338.808,19.531,28.320,22.949,-12.695,-41.016
1532484338.812,26.367,19.531,25.391,-4.883,-32.227
1532484338.815,21.973,9.277,30.273,-7.324,17.578
1532484338.819,12.695,18.066,25.879,-12.695,16.113
1532484338.823,17.578,31.738,23.926,-6.836,-37.598
1532484338.827,25.391,33.691,26.367,4.883,45.410
1532484338.831,19.531,27.832,27.344,1.465,150.391
1532484338.835,13.184,20.020,29.785,-9.766,110.840
1532484338.839,16.113,20.020,30.273,-11.230,0.977
1532484338.843,22.461,27.344,28.809,-1.953,28.320
1532484338.847,20.996,21.484,30.273,2.441,155.273
1532484338.851,10.742,12.695,27.832,-3.906,114.746
1532484338.854,1.953,19.043,23.926,-5.371,-47.363
1532484338.858,12.207,25.879,26.367,3.418,-102.539
1532484338.862,24.902,19.531,26.367,10.742,45.898
1532484338.866,25.391,17.090,26.855,6.348,158.691
1532484338.870,25.879,19.531,28.320,-7.812,-1.465
1532484338.874,28.320,22.949,26.367,-13.672,-177.246
1532484338.878,27.344,31.738,23.438,-3.906,-32.227
1532484338.882,20.996,23.926,21.973,-1.953,130.859
1532484338.886,13.184,25.391,22.461,-8.789,86.914
1532484338.890,17.090,30.762,23.438,-7.324,-41.992
1532484338.894,22.461,34.668,21.973,1.953,32.227
1532484338.897,17.578,23.926,21.484,0.977,184.082
1532484338.901,12.207,11.230,21.484,-12.695,54.199
1532484338.905,10.742,28.809,21.484,-18.555,-72.754
1532484338.909,16.113,30.273,23.438,-7.812,-2.441
1532484338.913,18.066,14.160,24.902,-7.324,25.391
1532484338.917,15.625,11.719,23.438,-14.160,42.969
1532484338.921,17.578,20.996,20.508,-15.137,8.789
1532484338.925,23.438,30.762,18.066,-8.301,-11.230
1532484338.929,25.391,26.367,18.555,0.977,114.258
1532484338.933,20.996,10.742,19.531,-5.371,141.113
1532484338.937,22.461,15.625,18.555,-15.625,10.742
1532484338.940,27.344,27.344,18.066,-15.137,-61.035
1532484338.944,31.738,21.484,20.996,0.000,56.152
1532484338.948,34.668,11.230,22.949,6.836,129.883
1532484338.952,27.832,9.766,20.020,-11.719,-51.270
1532484338.956,24.414,20.020,16.113,-22.461,-141.602
1532484338.960,29.297,28.809,18.066,-12.695,22.461
1532484338.964,25.879,22.461,21.973,-0.488,145.508
1532484338.968,18.555,19.531,20.020,-1.465,109.863
1532484338.972,19.531,31.250,18.555,-8.789,-15.625
1532484338.976,26.367,33.691,23.438,-1.465,-9.277
1532484338.979,22.461,30.762,24.902,6.348,117.676
1532484338.983,10.254,27.832,23.926,-6.348,150.879
1532484338.987,2.441,20.996,25.391,-19.043,18.066
1532484338.991,5.859,24.902,23.926,-13.184,-61.523
1532484338.995,8.789,24.414,23.438,-4.883,26.367
1532484338.999,4.395,15.625,24.902,-3.906,63.965
1532484339.003,1.465,21.973,24.414,-14.160,-12.695
1532484339.007,4.883,24.414,15.625,-19.531,-24.902
1532484339.011,10.742,13.672,14.160,-16.113,-9.766
1532484339.015,8.789,15.625,22.461,-11.719,31.738
1532484339.019,5.859,21.973,24.414,-16.113,90.332
1532484339.022,4.883,22.949,22.461,-24.902,-18.555
1532484339.026,3.418,22.949,20.996,-21.973,-4.883
1532484339.030,4.395,20.020,22.949,-16.113,124.023
1532484339.034,2.441,16.113,23.926,-16.113,106.934
1532484339.038,1.953,20.508,22.949,-19.043,-7.812
1532484339.042,10.742,24.414,20.020,-18.555,-66.895
1532484339.046,16.113,20.508,20.996,-5.371,59.082
1532484339.050,15.625,9.277,24.414,-5.859,116.699
1532484339.054,17.090,13.672,25.879,-22.949,-102.539
1532484339.058,20.996,24.902,22.949,-11.719,-115.234
1532484339.061,27.832,19.043,19.531,-0.977,63.477
1532484339.065,20.996,15.137,23.926,-4.395,149.414
1532484339.069,14.648,15.625,26.367,-12.207,39.062
1532484339.073,20.020,23.438,21.484,-16.602,-93.262
1532484339.077,26.855,26.367,20.996,-6.348,21.973
1532484339.081,26.367,21.484,24.902,-4.883,148.438
1532484339.085,21.484,23.438,26.367,-10.742,114.258
1532484339.089,18.555,22.949,26.855,-9.766,-24.414
1532484339.093,22.949,26.855,26.855,-9.766,-144.531
1532484339.097,25.391,28.809,27.832,-4.883,24.902
1532484339.101,19.043,15.137,32.227,-5.859,167.969
1532484339.104,16.113,23.926,28.809,-13.672,52.734
1532484339.108,22.461,33.203,25.391,-9.277,11.719
1532484339.112,25.391,25.391,29.785,3.418,68.359
1532484339.116,19.531,22.461,32.227,3.418,92.773
1532484339.120,17.090,30.273,29.785,-6.836,30.273
1532484339.124,24.902,36.133,27.344,-7.812,-28.320
1532484339.128,28.320,35.645,28.809,-2.441,44.922
1532484339.132,21.484,29.297,28.809,-3.906,141.113
1532484339.136,15.625,24.902,27.344,-7.324,41.992
1532484339.140,14.160,32.227,27.832,-8.789,-84.473
1532484339.144,20.020,34.180,26.367,-6.348,5.859
1532484339.147,23.438,28.809,24.414,-1.953,186.035
1532484339.151,20.996,19.531,27.344,-5.371,62.500
1532484339.155,19.043,28.809,24.414,-14.160,-153.320
1532484339.159,21.484,41.016,20.508,-6.348,-37.598
1532484339.163,21.484,30.762,24.902,13.672,140.137
1532484339.167,17.578,23.438,23.926,6.836,171.875
1532484339.171,20.020,28.809,20.508,-11.230,10.742
1532484339.175,26.855,34.180,22.949,-2.930,-57.129
1532484339.179,30.273,31.250,21.484,13.184,112.793
1532484339.183,27.344,20.508,21.973,11.719,122.559
1532484339.186,23.438,29.785,23.926,2.930,-21.484
1532484339.190,28.809,34.668,20.508,-4.883,-141.602
1532484339.194,35.645,33.203,19.043,-0.977,-122.070
1532484339.198,30.762,31.250,20.996,5.371,72.754
1532484339.202,20.996,25.391,22.461,-6.348,93.262
1532484339.206,23.926,34.668,20.996,-7.812,-11.719
1532484339.210,32.227,32.715,20.508,2.441,-49.316
1532484339.214,24.902,28.320,24.414,5.371,81.543
1532484339.218,16.113,20.020,27.832,0.000,142.090
1532484339.222,16.113,21.484,27.344,-14.160,-7.812
1532484339.226,19.531,30.762,26.855,-11.719,14.160
1532484339.229,22.461,19.043,28.320,0.488,84.473
1532484339.233,17.090,9.766,27.832,-6.348,-5.371
1532484339.237,11.719,23.438,26.367,-12.695,-69.336
1532484339.241,21.484,30.273,26.855,-9.277,-64.941
1532484339.245,29.297,32.715,26.367,1.465,98.633
1532484339.249,23.926,19.531,28.809,-2.930,155.273
1532484339.253,18.066,16.113,29.785,-17.578,-46.875
1532484339.257,17.578,32.227,31.738,-19.531,-74.707
1532484339.261,20.508,28.809,34.668,-5.859,56.641
1532484339.265,14.648,20.020,31.250,2.441,147.461
1532484339.269,7.324,17.578,32.227,-7.812,106.934
1532484339.272,9.277,24.902,31.738,-18.066,-34.668
1532484339.276,19.043,29.785,30.273,-9.277,-50.781
1532484339.280,18.066,26.855,33.203,-0.488,62.500
1532484339.284,11.719,26.855,38.574,-6.348,125.488
1532484339.288,17.090,33.203,39.062,-8.301,53.223
1532484339.292,26.367,26.855,36.621,-4.395,-109.375
1532484339.296,25.391,27.344,34.180,-2.930,-44.434
1532484339.300,15.137,28.809,35.156,-7.812,123.535
1532484339.304,7.812,23.926,38.574,-14.648,30.273
1532484339.308,11.719,30.273,32.715,-17.578,-1.953
1532484339.311,21.484,31.250,33.203,-8.301,61.523
1532484339.315,7.324,25.391,38.574,-12.695,124.512
1532484339.319,-13.184,20.996,42.969,-35.156,88.867
1532484339.323,-8.789,23.438,45.898,-37.109,-71.777
1532484339.327,-10.742,30.273,41.992,-33.203,-2.441
1532484339.331,-22.949,19.531,44.434,-42.969,92.285
1532484339.335,-32.715,12.695,46.387,-60.059,-10.742
1532484339.339,-35.645,27.344,44.922,-62.988,-22.461
1532484339.343,-29.297,32.227,47.363,-53.223,0.977
1532484339.347,-27.344,26.855,51.270,-45.410,125.977
1532484339.351,-42.969,18.066,49.805,-58.105,121.094
1532484339.354,-51.270,26.855,46.875,-72.266,-16.602
1532484339.358,-42.480,36.133,51.758,-66.895,-25.391
1532484339.362,-44.922,34.180,53.711,-64.941,104.980
1532484339.366,-56.641,25.879,56.641,-78.125,196.777
1532484339.370,-60.547,22.461,60.547,-89.844,8.789
1532484339.374,-55.176,38.086,56.641,-82.520,-135.254
1532484339.378,-54.688,39.551,51.758,-71.777,36.621
1532484339.382,-58.594,21.484,54.688,-70.312,146.484
1532484339.386,-62.012,20.020,61.035,-75.195,94.727
1532484339.390,-56.152,23.926,59.082,-81.055,-59.570
1532484339.394,-49.805,29.785,51.270,-79.590,-72.266
1532484339.397,-50.781,33.691,47.363,-69.336,126.953
1532484339.401,-51.270,25.391,48.828,-67.383,131.836
1532484339.405,-50.293,32.227,42.969,-74.219,23.926
1532484339.409,-42.480,34.668,41.992,-68.359,-22.461
1532484339.413,-39.551,26.855,49.316,-58.105,76.660
1532484339.417,-43.457,19.531,49.805,-60.547,102.051
1532484339.421,-36.133,27.832,41.992,-66.895,-59.570
1532484339.425,-23.438,41.504,34.180,-65.430,-64.453
1532484339.429,-18.555,28.320,37.109,-42.969,95.703
1532484339.433,-25.879,9.277,41.016,-39.062,18.555
1532484339.436,-27.344,22.949,37.109,-52.246,-93.750
1532484339.440,-9.766,34.668,33.691,-42.480,-15.137
1532484339.444,0.977,30.273,28.809,-27.832,68.848
1532484339.448,-3.418,22.461,20.020,-26.367,145.508
1532484339.452,2.441,21.973,21.484,-27.344,81.543
1532484339.456,11.719,33.691,20.996,-21.484,-20.508
1532484339.460,19.043,37.109,15.625,-12.695,41.016
1532484339.464,29.785,26.855,17.578,-2.441,118.164
1532484339.468,34.668,21.484,20.020,2.441,52.246
1532484339.472,34.668,24.414,17.578,-7.812,-135.742
1532484339.476,42.480,24.902,13.184,5.371,-147.461
1532484339.479,44.434,21.484,9.277,26.367,91.309
1532484339.483,38.574,9.277,10.742,20.020,182.617
1532484339.487,44.922,12.207,7.324,18.066,53.711
1532484339.491,59.570,21.484,0.977,30.762,-63.965
1532484339.495,67.383,15.625,5.371,44.434,52.246
1532484339.499,65.430,0.977,7.812,52.246,180.176
1532484339.503,63.477,3.418,4.883,42.969,60.547
1532484339.507,70.801,17.090,0.977,36.621,-44.922
1532484339.511,83.984,20.508,0.000,51.758,-19.043
1532484339.515,83.496,15.625,3.418,58.594,56.152
1532484339.519,75.684,12.695,1.953,50.781,67.383
1532484339.522,79.590,19.043,0.000,46.387,-22.461
1532484339.526,85.938,20.020,0.000,57.129,10.742
1532484339.530,86.914,7.324,1.465,65.430,39.062
1532484339.534,83.984,8.789,2.930,59.082,-28.809
1532484339.538,82.520,26.367,1.953,55.176,-30.273
1532484339.542,84.473,26.367,0.000,59.082,9.766
1532484339.546,82.520,21.973,1.953,68.848,133.789
1532484339.550,78.613,12.695,8.789,68.359,122.559
1532484339.554,75.195,13.184,11.230,56.152,12.207
1532484339.558,80.078,20.508,9.766,52.734,-72.266
1532484339.561,83.984,20.508,10.742,58.594,-3.906
1532484339.565,78.125,11.719,13.672,60.547,157.227
1532484339.569,72.754,9.277,11.719,46.875,60.547
1532484339.573,76.660,24.902,8.301,26.855,-170.898
1532484339.577,78.125,37.598,8.789,36.133,-78.613
1532484339.581,66.895,29.297,9.277,39.062,169.434
1532484339.585,60.059,19.043,11.230,24.902,125.488
1532484339.589,63.477,25.879,12.207,25.391,-68.359
1532484339.593,68.359,33.203,12.207,33.691,-41.504
1532484339.597,62.012,24.414,9.277,37.109,135.742
1532484339.601,51.758,12.695,12.207,26.367,162.598
1532484339.604,46.387,17.090,13.184,17.090,-19.043
1532484339.608,50.293,32.227,10.742,22.461,-41.016
1532484339.612,53.711,19.043,14.648,24.902,-16.602
1532484339.616,45.898,14.648,16.602,18.555,-21.973
1532484339.620,42.969,32.227,18.066,16.602,57.129
1532484339.624,48.340,37.109,19.043,18.066,5.371
1532484339.628,51.758,21.973,19.531,26.367,53.223
1532484339.632,46.387,8.789,19.043,25.391,116.211
1532484339.636,36.621,23.438,18.066,12.695,65.430
1532484339.640,38.086,35.645,18.555,13.672,-16.602
1532484339.643,50.781,31.738,16.602,25.879,17.578
1532484339.647,51.758,22.949,16.602,24.414,111.816
1532484339.651,41.504,20.020,18.555,7.324,80.078
1532484339.655,40.039,27.832,20.020,0.977,-37.109
1532484339.659,42.480,32.227,16.602,7.324,5.371
1532484339.663,41.016,23.438,16.602,9.766,129.883
1532484339.667,28.320,16.113,18.066,5.371,182.129
1532484339.671,18.555,13.184,18.066,-4.395,-27.344
1532484339.675,32.715,25.391,20.020,-3.418,-164.551
1532484339.679,42.969,28.809,16.113,10.254,85.449
1532484339.683,34.668,8.789,16.113,9.766,192.383
1532484339.686,28.320,10.254,24.414,4.395,75.684
1532484339.690,32.227,24.414,23.926,6.348,-47.852
1532484339.694,32.227,30.273,21.484,15.137,29.785
1532484339.698,27.344,22.949,21.484,19.043,139.648
1532484339.702,24.414,22.461,21.484,5.859,81.543
1532484339.706,21.973,31.250,22.949,-0.977,-46.875
1532484339.710,23.438,31.738,22.949,1.953,-65.430
1532484339.714,19.043,22.461,22.949,1.953,4.395
1532484339.718,11.230,24.414,20.996,-1.465,61.035
1532484339.722,15.137,36.133,22.949,-11.230,23.438
1532484339.726,23.926,38.086,22.461,-11.230,7.812
1532484339.729,24.414,26.367,21.973,1.465,125.488
1532484339.733,20.996,20.508,27.832,0.000,155.273
1532484339.737,16.602,25.391,26.367,-10.254,49.805
1532484339.741,21.484,32.227,24.414,-5.859,13.672
1532484339.745,28.809,30.273,25.391,4.395,69.824
1532484339.749,20.508,19.531,24.414,1.953,72.266
1532484339.753,9.766,20.508,23.926,-12.207,-104.004
1532484339.757,15.625,34.668,22.461,-16.113,-137.695
1532484339.761,22.461,38.086,24.902,-0.977,72.266
1532484339.765,20.996,23.438,28.320,3.418,156.738
1532484339.768,15.137,13.184,26.855,-9.766,110.352
1532484339.772,14.160,24.414,24.902,-16.602,-27.832
1532484339.776,20.020,32.227,26.367,-7.812,2.441
1532484339.780,19.531,23.926,30.273,-0.488,161.621
1532484339.784,12.207,14.648,33.203,-6.836,133.301
1532484339.788,12.207,22.949,30.762,-13.184,23.438
1532484339.792,20.996,31.250,32.227,-8.789,-57.617
1532484339.796,26.367,33.203,36.133,0.977,16.113
1532484339.800,20.996,28.809,32.227,4.395,130.859
1532484339.804,16.113,34.668,27.832,-4.395,47.852
1532484339.808,23.438,41.016,29.297,-2.441,-6.836
1532484339.811,28.809,23.438,29.785,0.977,-20.996
1532484339.815,24.414,15.625,31.738,-0.488,7.812
1532484339.819,21.973,22.461,30.273,-3.906,70.801
1532484339.823,24.414,27.832,29.785,-5.371,-40.527
1532484339.827,28.320,27.344,30.762,-2.930,-1.953
1532484339.831,26.367,20.508,28.809,-3.418,126.465
1532484339.835,20.996,19.043,30.762,-1.465,113.770
1532484339.839,21.973,25.391,29.785,-8.789,-2.930
1532484339.843,28.320,41.992,26.367,-9.766,-83.496
1532484339.847,27.832,38.574,26.367,1.465,77.637
1532484339.851,21.973,16.113,24.902,-4.395,93.750
1532484339.854,19.043,26.855,21.484,-14.648,-114.258
1532484339.858,20.508,44.434,20.996,-5.859,-75.195
1532484339.862,25.879,36.621,25.391,7.812,109.375
1532484339.866,23.926,21.973,25.879,0.488,179.199
1532484339.870,19.531,26.367,24.414,-13.672,39.551
1532484339.874,22.949,39.062,24.414,-7.812,-96.680
1532484339.878,24.902,34.668,21.973,3.418,56.152
1532484339.882,20.508,18.555,24.414,9.277,150.879
1532484339.886,15.625,15.625,26.855,1.953,21.484
1532484339.890,18.066,30.273,27.344,-5.859,-83.984
1532484339.893,25.391,36.133,25.879,-5.859,-92.285
1532484339.897,25.391,32.227,25.391,-4.395,78.613
1532484339.901,16.113,26.855,27.832,-7.324,124.023
1532484339.905,13.672,33.691,27.344,-13.184,23.438
1532484339.909,20.996,33.203,28.809,-9.766,-16.602
1532484339.913,21.973,26.367,27.344,-2.441,75.195
1532484339.917,16.113,22.461,28.320,-2.930,162.598
1532484339.921,17.578,25.391,28.809,-12.695,43.945
1532484339.925,24.414,36.133,26.367,-13.184,-11.230
1532484339.929,24.902,32.227,26.367,2.930,88.867
1532484339.933,19.531,6.348,22.461,2.930,87.891
1532484339.936,15.137,10.742,19.043,-7.324,4.883
1532484339.940,18.555,24.414,21.484,-6.348,-57.617
1532484339.944,26.855,25.391,21.973,4.395,-19.043
1532484339.948,23.438,25.879,20.996,6.348,154.785
1532484339.952,14.648,13.184,21.973,-10.742,9.766
1532484339.956,16.113,26.367,21.484,-23.926,-150.879
1532484339.960,22.949,37.109,20.508,-17.578,20.508
1532484339.964,22.949,22.949,23.926,-4.395,152.344
1532484339.968,18.066,11.719,25.391,-4.883,138.184
1532484339.972,18.066,19.531,23.926,-15.137,-28.320
1532484339.976,23.438,33.203,19.531,-14.160,-40.039
1532484339.979,24.414,25.391,18.555,-0.977,68.359
1532484339.983,18.066,15.625,22.461,-3.906,70.312
1532484339.987,10.742,19.531,22.949,-17.578,29.785
1532484339.991,11.719,21.484,20.996,-21.973,-81.055
1532484339.995,16.602,22.949,20.996,-13.184,-35.645
1532484339.999,19.043,20.020,24.414,-3.906,142.578
1532484340.003,14.648,22.461,26.855,-6.348,47.363
1532484340.007,13.672,36.621,24.414,-14.160,-44.922
1532484340.011,20.020,35.645,24.414,-8.301,8.789
1532484340.015,16.113,25.879,23.926,0.977,126.465
1532484340.018,7.324,23.438,21.973,-6.348,100.098
1532484340.022,5.859,35.156,21.973,-6.836,-41.504
1532484340.026,10.742,31.738,20.508,-0.977,-22.949
1532484340.030,18.555,17.090,22.949,-4.883,40.039
1532484340.034,16.113,18.066,27.832,-6.836,13.184
1532484340.038,13.184,33.203,26.367,-6.348,-14.160
1532484340.042,20.508,35.156,25.879,-4.395,-17.578
1532484340.046,25.391,26.855,30.273,4.883,93.750
1532484340.050,23.438,16.602,36.621,5.371,134.766
1532484340.054,20.508,27.344,37.109,-4.883,8.789
1532484340.058,20.996,35.645,33.691,-4.395,-31.250
1532484340.061,19.531,25.391,31.250,9.277,24.414
1532484340.065,11.719,17.090,31.250,9.766,116.699
1532484340.069,5.371,10.742,32.227,-4.883,65.430
1532484340.073,10.254,22.461,30.273,-10.254,-104.492
1532484340.077,18.555,26.855,27.832,-4.883,-56.152
1532484340.081,16.113,14.648,27.344,0.977,86.426
1532484340.085,10.742,14.160,29.785,-4.883,90.820
1532484340.089,10.742,16.602,30.762,-8.789,-7.324
1532484340.093,19.531,24.414,26.367,-7.324,-138.672
1532484340.097,26.855,37.598,26.367,1.465,17.578
1532484340.101,20.020,18.066,28.809,1.953,161.133
1532484340.104,9.766,13.184,25.879,-11.719,23.438
1532484340.108,12.695,30.273,23.438,-11.719,-49.316
1532484340.112,22.949,33.691,27.344,1.953,57.617
1532484340.116,23.438,27.832,26.855,0.000,190.918
1532484340.120,14.648,23.926,25.391,-8.789,54.688
1532484340.124,20.508,35.645,27.344,-9.766,-108.887
1532484340.128,26.855,39.551,28.809,0.000,0.977
1532484340.132,20.996,27.344,30.273,0.000,54.688
1532484340.136,13.672,26.367,28.809,-15.137,-12.207
1532484340.140,13.184,35.645,29.297,-14.648,-45.898
1532484340.143,14.648,36.133,29.297,-4.395,11.719
1532484340.147,13.184,31.250,28.809,2.441,170.898
1532484340.151,10.742,23.438,28.320,-2.441,119.141
1532484340.155,8.789,26.855,21.973,-11.719,-6.836
1532484340.159,13.184,32.715,20.996,-13.672,-7.812
1532484340.163,15.137,34.180,24.902,-4.883,122.559
1532484340.167,11.230,21.973,25.391,-7.812,142.090
1532484340.171,7.812,24.902,27.344,-18.555,-50.781
1532484340.175,11.719,39.551,29.297,-19.043,-139.648
1532484340.179,16.113,41.992,27.832,-4.395,21.484
1532484340.183,13.184,31.250,30.273,-2.441,140.137
1532484340.186,11.230,31.738,31.738,-18.066,87.891
1532484340.190,16.602,42.480,28.809,-14.648,-19.531
1532484340.194,24.902,41.992,28.320,-1.465,37.598
1532484340.198,23.926,34.668,30.273,-3.418,170.898
1532484340.202,16.113,25.391,29.785,-10.742,115.234
1532484340.206,17.090,28.320,28.320,-11.230,-6.836
1532484340.210,26.367,36.621,29.297,-7.812,-16.113
1532484340.214,31.738,31.250,32.715,5.371,92.285
1532484340.218,23.926,23.926,33.203,3.418,89.844
1532484340.222,18.555,32.227,30.762,-6.348,-42.480
1532484340.225,25.879,42.480,24.902,-3.418,-48.828
1532484340.229,25.391,38.086,24.902,2.441,76.660
1532484340.233,17.090,23.438,27.832,-9.277,63.477
1532484340.237,20.020,25.879,27.344,-19.043,-45.898
1532484340.241,27.344,37.598,25.391,-12.207,-55.664
1532484340.245,27.344,37.109,26.367,-4.883,66.895
1532484340.249,19.043,26.855,30.762,3.906,142.090
1532484340.253,11.230,27.832,30.273,-5.859,75.195
1532484340.257,11.719,36.621,26.855,-21.484,-7.324
1532484340.261,16.113,34.180,25.391,-13.184,-20.508
1532484340.265,15.137,29.785,29.297,-7.324,64.941
1532484340.268,8.301,28.809,29.785,-15.137,96.191
1532484340.272,10.254,38.086,24.902,-27.832,-107.910
1532484340.276,16.602,48.340,24.902,-23.926,-142.578
1532484340.280,13.184,43.457,25.391,-13.672,110.352
1532484340.284,6.348,29.785,25.391,-18.066,149.902
1532484340.288,8.301,32.715,26.855,-21.973,33.203
1532484340.292,15.625,39.062,23.926,-19.043,-0.488
1532484340.296,20.020,37.598,23.926,-7.324,74.707
1532484340.300,15.137,32.715,28.809,-5.859,121.094
1532484340.304,11.230,27.832,33.203,-12.207,43.457
1532484340.308,20.508,31.738,32.227,-7.812,-66.406
1532484340.311,27.832,41.016,31.738,0.488,-63.477
1532484340.315,22.461,32.227,34.668,-0.488,19.531
1532484340.319,15.137,27.832,31.250,-5.859,79.590
1532484340.323,16.602,37.598,25.391,-9.277,13.672
1532484340.327,22.461,41.016,24.414,-3.906,25.391
1532484340.331,23.926,34.180,29.297,5.859,122.559
1532484340.335,19.531,26.367,32.227,1.465,69.336
1532484340.339,20.020,35.156,32.227,-6.836,-36.133
1532484340.343,31.250,39.551,30.273,0.977,-48.340
1532484340.347,32.227,41.992,27.832,9.277,89.844
1532484340.350,23.438,31.250,31.738,6.348,119.629
1532484340.354,17.578,19.043,31.250,-1.953,-56.641
1532484340.358,18.555,34.180,28.809,-0.977,-127.930
1532484340.362,22.461,38.086,29.785,8.789,-13.184
1532484340.366,17.090,28.320,30.273,8.301,109.863
1532484340.370,12.207,24.414,28.809,-10.254,12.207
1532484340.374,16.113,32.227,25.879,-22.461,-187.012
1532484340.378,24.414,41.992,24.414,-8.301,-51.270
1532484340.382,19.531,27.832,24.902,-0.488,157.227
1532484340.386,13.672,21.484,25.391,-6.836,105.469
1532484340.390,20.020,32.227,24.902,-8.789,-36.133
1532484340.393,24.414,32.227,24.414,-8.301,-39.062
1532484340.397,22.949,20.020,23.926,2.930,121.094
1532484340.401,21.484,12.695,27.344,-0.977,101.562
1532484340.405,20.020,31.738,26.367,-10.254,-74.707
1532484340.409,24.414,35.156,23.926,1.953,-52.246
1532484340.413,28.809,24.414,28.320,9.766,-3.418
1532484340.417,23.926,27.344,28.320,10.742,33.691
1532484340.421,19.531,32.227,27.344,3.906,23.438
1532484340.425,21.973,39.062,28.320,-3.906,-49.316
1532484340.429,23.438,35.645,25.391,6.348,48.828
1532484340.433,19.043,23.926,21.973,9.277,135.742
1532484340.436,14.160,24.902,21.484,-10.254,65.918
1532484340.440,15.137,33.203,20.508,-15.625,-41.992
1532484340.444,22.461,36.133,21.484,-0.977,33.203
1532484340.448,25.879,24.902,30.273,5.859,143.066
1532484340.452,19.531,18.066,32.715,-4.395,-34.180
1532484340.456,17.578,34.668,26.367,-9.766,-172.363
1532484340.460,24.414,41.504,25.879,-0.488,-26.367
1532484340.464,26.367,29.785,26.855,6.348,124.023
1532484340.468,22.461,23.926,27.344,-2.441,150.879
1532484340.472,20.508,27.344,27.344,-5.859,-20.508
1532484340.475,27.832,40.527,26.855,4.883,-123.047
1532484340.479,33.691,47.852,29.785,15.137,62.500
1532484340.483,28.320,30.762,32.227,7.812,152.344
1532484340.487,23.438,23.926,30.273,-4.883,20.508
1532484340.491,30.762,39.062,32.227,0.000,-71.777
1532484340.495,36.133,40.039,34.180,12.207,-13.672
1532484340.499,28.320,29.297,32.227,7.812,89.355
1532484340.503,20.996,26.855,28.809,-8.301,51.270
1532484340.507,23.926,35.645,26.367,-9.277,2.441
1532484340.511,27.832,31.738,25.879,-2.441,-34.668
1532484340.515,25.879,24.414,28.320,-1.465,-14.648
1532484340.518,14.648,26.855,26.367,-11.230,51.758
1532484340.522,8.301,32.227,22.949,-18.066,-27.832
1532484340.526,17.578,42.480,24.414,-9.766,-1.465
1532484340.530,21.484,30.762,24.902,1.953,126.953
1532484340.534,11.230,18.555,25.391,-4.883,95.215
1532484340.538,7.812,32.227,23.438,-15.137,-5.859
1532484340.542,18.066,35.156,22.949,-9.277,-83.496
1532484340.546,24.414,36.621,25.391,2.441,16.602
1532484340.550,20.996,21.973,29.785,1.953,121.094
1532484340.554,18.066,19.531,35.156,-11.230,-78.613
1532484340.558,23.438,44.922,30.762,-9.277,-104.980
1532484340.561,25.879,37.109,24.902,1.953,60.059
1532484340.565,19.043,26.855,28.320,1.465,156.250
1532484340.569,11.230,26.367,30.273,-10.254,81.055
1532484340.573,12.207,31.250,29.785,-14.160,-78.125
1532484340.577,20.508,34.180,27.344,-2.930,-21.973
1532484340.581,23.438,27.832,22.461,6.348,135.254
1532484340.585,18.066,21.973,24.414,1.465,136.230
1532484340.589,13.672,21.484,22.461,-8.789,-34.180
1532484340.593,18.066,27.832,20.020,-8.789,-195.801
1532484340.597,20.996,33.691,22.949,-0.488,-35.156
1532484340.600,16.113,25.879,24.414,-2.441,137.207
1532484340.604,10.254,26.367,23.438,-11.719,29.785
1532484340.608,14.648,22.949,21.484,-10.254,-45.410
1532484340.612,20.020,23.438,24.902,1.465,28.809
1532484340.616,14.648,26.855,25.879,1.465,127.441
1532484340.620,7.812,18.066,23.926,-8.789,37.598
1532484340.624,10.254,27.344,22.461,-9.277,-29.785
1532484340.628,19.531,32.715,23.438,-3.906,75.684
1532484340.632,19.531,22.461,26.855,-1.953,140.625
1532484340.636,15.625,20.508,26.367,-9.277,27.832
1532484340.640,12.695,32.715,22.461,-16.113,-104.492
1532484340.643,19.531,44.434,22.461,-10.742,-36.133
1532484340.647,25.879,46.387,28.809,-1.953,153.809
1532484340.651,17.578,26.367,29.297,-10.742,55.176
1532484340.655,16.113,28.320,26.367,-17.090,-143.555
1532484340.659,24.414,38.574,23.926,-6.836,-67.383
1532484340.663,25.391,34.668,25.391,-1.953,96.191
1532484340.667,21.484,33.691,30.762,-4.883,178.223
1532484340.671,18.555,36.133,29.785,-11.719,31.250
1532484340.675,20.996,41.504,27.344,-10.254,-68.848
1532484340.679,27.344,40.527,30.762,3.418,58.594
1532484340.683,20.996,27.832,32.227,4.883,117.188
1532484340.686,17.578,26.855,31.738,-7.812,14.160
1532484340.690,24.414,34.668,31.250,-13.184,-144.531
1532484340.694,32.715,41.992,32.227,-11.230,-124.023
1532484340.698,39.062,47.363,34.180,2.930,85.449
1532484340.702,31.250,39.062,31.250,1.953,99.609
1532484340.706,24.902,34.180,27.832,-6.348,19.531
1532484340.710,31.250,34.668,28.320,6.348,-21.484
1532484340.714,29.785,38.574,30.762,13.672,84.473
1532484340.718,19.043,36.133,34.668,3.906,174.805
1532484340.722,11.719,38.574,31.250,-9.766,57.129
1532484340.725,19.531,49.316,29.785,-1.953,44.434
1532484340.729,25.879,37.598,32.715,13.184,113.770
1532484340.733,19.043,25.391,30.273,3.906,38.574
1532484340.737,13.184,31.250,25.879,-9.766,-23.926
1532484340.741,19.531,41.992,27.344,-7.812,-13.184
1532484340.745,27.832,46.387,29.785,2.930,92.285
1532484340.749,25.391,24.414,29.785,2.930,125.488
1532484340.753,17.090,19.043,31.738,-1.465,22.461
1532484340.757,17.090,37.109,30.762,-4.395,-30.762
1532484340.761,28.320,43.945,30.273,1.465,20.020
1532484340.765,32.227,39.062,32.227,3.906,182.129
1532484340.768,21.484,27.832,30.762,-4.883,121.094
1532484340.772,18.555,38.086,27.832,-8.301,-69.336
1532484340.776,25.391,45.898,28.320,-4.883,-44.434
1532484340.780,23.926,36.133,29.785,-1.465,90.332
1532484340.784,17.090,31.250,28.809,-6.348,130.371
1532484340.788,16.113,38.086,31.250,-12.207,36.621
1532484340.792,25.391,45.410,31.738,-11.719,-121.094
1532484340.796,27.344,38.574,27.344,-5.371,-30.762
1532484340.800,17.578,24.414,29.785,-1.953,160.156
1532484340.804,17.578,25.391,35.645,-11.719,60.059
1532484340.807,25.879,37.598,34.668,-11.719,-27.344
1532484340.811,31.738,40.039,31.738,1.953,30.762
1532484340.815,29.785,32.715,32.715,3.906,131.348
1532484340.819,21.484,30.273,32.227,-5.859,76.660
1532484340.823,23.926,42.480,29.785,-3.906,-61.035
1532484340.827,32.227,44.922,29.297,4.883,-30.273
1532484340.831,33.691,30.273,31.250,-2.441,11.230
1532484340.835,27.344,33.203,32.227,-10.742,-26.855
1532484340.839,22.461,45.410,29.297,-12.207,-25.391
1532484340.843,26.855,40.527,28.320,-8.789,-1.953
1532484340.847,24.902,34.668,30.762,0.977,120.117
1532484340.850,18.555,30.273,30.273,3.906,120.117
1532484340.854,16.113,38.574,29.785,-4.883,-15.137
1532484340.858,20.020,43.457,31.250,-5.371,-24.414
1532484340.862,25.879,36.621,31.250,1.953,66.406
1532484340.866,20.996,33.203,35.156,-2.930,156.738
1532484340.870,15.625,29.297,34.180,-14.160,-1.465
1532484340.874,18.066,35.156,28.809,-18.555,-183.105
1532484340.878,25.879,48.340,31.250,-0.977,-12.695
1532484340.882,25.879,44.434,34.180,5.371,159.180
1532484340.886,21.973,32.227,28.320,-5.371,117.188
1532484340.890,21.484,28.809,24.414,-9.766,-67.383
1532484340.893,22.949,34.180,27.832,-4.883,-99.609
1532484340.897,17.090,32.227,29.297,2.930,90.332
1532484340.901,4.883,21.973,28.320,-3.906,135.742
1532484340.905,11.230,19.531,26.855,-12.207,1.953
1532484340.909,21.973,20.020,27.832,-15.137,-65.918
1532484340.913,18.066,22.949,27.344,-10.742,58.105
1532484340.917,11.719,23.926,28.320,-5.371,105.469
1532484340.921,9.766,28.809,29.297,-10.742,-13.672
1532484340.925,15.137,36.133,20.996,-13.184,-30.762
1532484340.929,19.043,34.180,21.484,-2.930,68.848
1532484340.932,14.648,22.461,24.902,0.000,28.320
1532484340.936,11.230,30.762,24.414,-6.348,-64.453
1532484340.940,19.043,46.875,26.367,-1.465,-50.781
1532484340.944,29.297,45.410,29.297,5.371,62.988
1532484340.948,29.297,27.344,31.250,12.695,127.441
1532484340.952,24.902,27.344,31.250,7.324,13.672
1532484340.956,27.832,42.480,28.809,-2.930,-62.988
1532484340.960,35.156,34.180,28.320,0.488,-5.859
1532484340.964,34.180,25.879,26.855,6.348,91.797
1532484340.968,24.902,30.762,26.855,-5.859,93.750
1532484340.972,18.066,38.086,27.344,-19.531,-64.941
1532484340.975,20.508,45.898,28.320,-6.836,-141.602
1532484340.979,23.926,44.434,27.832,4.883,81.543
1532484340.983,17.090,31.250,27.832,-0.488,187.012
1532484340.987,13.672,32.227,29.297,-7.812,60.547
1532484340.991,18.066,36.133,28.809,-8.301,-78.613
1532484340.995,22.949,35.645,29.297,3.418,22.949
1532484340.999,20.996,29.785,30.273,12.207,185.547
1532484341.003,15.625,29.785,29.297,5.859,120.117
1532484341.007,17.578,32.715,28.809,-1.465,-41.016
1532484341.011,21.973,24.414,27.344,0.977,-57.129
1532484341.015,18.066,23.926,25.391,5.859,44.434
1532484341.018,12.695,28.320,26.855,0.977,71.289
1532484341.022,13.672,34.180,25.879,-9.766,3.906
1532484341.026,20.020,35.645,24.902,-10.742,23.926
1532484341.030,25.879,26.367,27.832,4.883,90.820
1532484341.034,21.484,21.484,26.855,2.441,16.602
1532484341.038,14.648,36.621,24.902,-5.859,-33.203
1532484341.042,22.461,42.969,23.926,0.977,-5.859
1532484341.046,28.320,34.180,23.438,8.789,98.633
1532484341.050,21.973,21.973,24.414,2.930,130.859
1532484341.054,13.184,21.973,26.367,-8.789,15.137
1532484341.057,16.602,19.043,24.414,-13.672,-86.914
1532484341.061,26.367,25.879,21.484,-7.324,-13.672
1532484341.065,24.414,28.320,20.996,-2.441,110.840
1532484341.069,16.602,24.414,22.949,-14.160,62.988
1532484341.073,19.043,31.738,25.391,-20.508,-133.301
1532484341.077,26.367,40.527,26.367,-5.859,-101.074
1532484341.081,21.484,36.133,26.367,1.465,160.645
1532484341.085,17.578,20.508,27.344,-4.883,154.785
1532484341.089,19.531,33.203,30.273,-8.301,12.207
1532484341.093,25.879,43.457,30.273,-3.906,-34.668
1532484341.097,24.414,30.273,27.832,2.930,104.980
1532484341.100,17.578,22.461,29.297,2.930,170.898
1532484341.104,15.625,25.879,28.809,-10.254,-1.465
1532484341.108,18.555,30.762,22.949,-9.277,-87.891
1532484341.112,21.484,28.809,22.949,-7.324,-63.477
1532484341.116,22.461,28.320,28.320,-12.695,24.414
1532484341.120,17.090,30.273,28.320,-11.230,80.078
1532484341.124,18.555,30.762,28.809,-13.184,-72.266
1532484341.128,24.414,39.062,27.344,-2.441,-25.391
1532484341.132,21.484,27.832,26.367,-1.953,129.395
1532484341.136,17.090,19.043,28.320,-16.602,72.266
1532484341.140,18.066,34.668,27.344,-9.766,-18.066
1532484341.143,25.879,40.039,27.344,1.953,18.555
1532484341.147,29.297,33.203,30.273,6.836,133.789
1532484341.151,21.973,24.902,29.297,3.418,99.121
1532484341.155,19.531,31.738,26.367,-9.766,-54.688
1532484341.159,23.926,36.621,26.367,-5.859,-39.062
1532484341.163,25.879,28.809,25.879,2.441,89.844
1532484341.167,24.414,20.996,26.855,0.488,148.926
1532484341.171,18.066,18.555,27.344,-7.324,-18.066
1532484341.175,17.578,31.250,25.391,-13.184,-161.621
1532484341.179,25.879,43.945,26.855,0.977,57.617
1532484341.182,22.461,20.020,26.855,7.812,163.574
1532484341.186,11.719,10.254,22.461,-2.930,31.738
1532484341.190,13.672,26.367,19.531,-7.812,-68.848
1532484341.194,20.508,33.203,20.020,-1.953,10.254
1532484341.198,16.602,24.414,24.902,4.883,134.277
1532484341.202,10.254,16.113,25.391,-3.906,60.547
1532484341.206,12.695,28.320,23.438,-11.230,-24.902
1532484341.210,20.996,22.461,21.973,-4.395,-27.832
1532484341.214,24.902,5.859,21.973,-0.488,-5.859
1532484341.218,20.020,12.207,23.438,-6.348,70.801
1532484341.222,10.254,19.043,20.508,-14.160,20.020
1532484341.225,10.742,22.461,16.113,-9.277,-40.039
1532484341.229,16.113,20.020,18.066,-4.395,65.918
1532484341.233,15.625,12.695,23.926,-6.348,129.395
1532484341.237,10.742,21.973,20.508,-7.324,55.176
1532484341.241,13.672,35.645,19.531,-10.254,-55.664
1532484341.245,20.996,26.367,25.879,-2.930,-23.926
1532484341.249,18.066,5.859,27.344,-1.953,85.449
1532484341.253,15.137,0.977,26.855,-14.648,-64.941
1532484341.257,16.113,22.461,25.391,-20.020,-145.996
1532484341.261,23.926,30.273,22.461,-10.742,20.508
1532484341.265,21.484,20.020,20.508,-2.930,151.367
1532484341.268,12.695,14.648,20.508,-11.230,145.020
1532484341.272,14.160,21.973,24.902,-15.625,-23.926
1532484341.276,19.531,31.250,24.902,-3.418,-35.645
1532484341.280,22.461,23.926,24.414,3.418,113.770
1532484341.284,16.113,12.695,26.367,-2.441,136.719
1532484341.288,9.766,17.090,25.391,-13.184,25.879
1532484341.292,19.043,25.391,22.461,-16.602,-74.707
1532484341.296,29.785,26.855,22.461,-2.441,6.836
1532484341.300,24.414,18.555,23.926,-3.906,145.996
1532484341.304,18.555,13.184,23.438,-17.090,37.598
1532484341.307,20.020,26.855,22.949,-10.254,-31.250
1532484341.311,25.879,22.461,25.879,-3.906,-4.883
1532484341.315,20.996,13.184,25.879,-8.301,-5.859
1532484341.319,15.137,24.414,27.832,-11.230,74.707
1532484341.323,18.066,32.227,27.832,-10.742,2.441
1532484341.327,20.508,32.715,24.902,-7.324,25.879
1532484341.331,19.531,24.414,22.949,-5.371,138.672
1532484341.335,18.555,18.066,25.391,-11.230,93.262
1532484341.339,14.648,21.484,27.832,-11.719,-11.719
1532484341.343,19.043,27.344,23.438,-3.906,-53.223
1532484341.347,29.297,30.273,23.438,-0.977,118.164
1532484341.350,21.484,17.090,26.855,-9.766,125.488
1532484341.354,14.160,18.066,29.297,-22.461,-118.164
1532484341.358,18.555,36.133,29.785,-17.578,-74.707
1532484341.362,21.484,39.062,29.297,-5.859,67.383
1532484341.366,10.254,30.273,24.414,-7.812,137.207
1532484341.370,3.418,17.578,22.461,-16.113,52.246
1532484341.374,9.277,27.832,24.902,-21.484,-70.801
1532484341.378,16.113,36.133,25.391,-13.184,40.039
1532484341.382,14.160,22.461,26.367,-2.930,168.457
1532484341.386,10.254,14.160,28.320,-6.348,86.426
1532484341.389,11.230,24.902,28.320,-10.742,-80.566
1532484341.393,16.602,31.250,27.832,-5.859,-124.023
1532484341.397,18.555,27.832,27.344,-0.977,62.500
1532484341.401,13.672,18.555,29.297,-2.930,147.461
1532484341.405,16.602,23.926,31.250,-7.812,21.484
1532484341.409,26.855,31.250,31.738,-3.418,-29.297
1532484341.413,34.668,35.645,35.645,12.695,70.312
1532484341.417,29.785,33.203,34.180,2.441,173.828
1532484341.421,18.555,28.320,30.273,-12.207,23.926
1532484341.425,23.438,44.922,29.785,-6.836,-79.590
1532484341.429,29.785,39.551,30.762,4.395,68.848
1532484341.432,26.855,18.066,30.762,10.254,106.445
1532484341.436,24.414,22.949,29.297,-11.230,-4.395
1532484341.440,31.250,37.598,27.832,-14.160,-77.148
1532484341.444,36.621,35.156,27.832,5.859,-11.719
1532484341.448,33.203,21.973,27.344,5.371,150.391
1532484341.452,24.902,8.789,27.832,-10.742,30.273
1532484341.456,18.066,20.508,26.855,-15.137,-133.789
1532484341.460,25.391,35.156,25.391,0.488,-35.156
1532484341.464,31.738,30.762,27.832,10.254,83.984
1532484341.468,26.367,24.902,31.250,11.230,112.793
1532484341.472,22.949,32.227,28.809,5.859,-44.434
1532484341.475,27.832,47.363,25.879,5.371,-72.754
1532484341.479,31.738,37.109,27.832,16.113,52.246
1532484341.483,25.879,25.391,27.344,13.672,64.453
1532484341.487,22.949,35.156,23.438,0.977,2.930
1532484341.491,24.902,38.086,23.926,-5.859,-116.699
1532484341.495,24.414,38.086,25.879,-3.906,-99.121
1532484341.499,20.996,39.062,25.391,0.000,124.512
1532484341.503,16.602,30.273,28.809,-6.836,103.516
1532484341.507,18.066,34.668,28.809,-8.301,-22.461
1532484341.511,24.902,39.062,26.367,1.465,-10.254
1532484341.514,22.461,37.109,27.832,10.254,123.047
1532484341.518,16.602,37.109,30.273,5.371,150.391
1532484341.522,18.555,36.621,29.785,-8.301,-11.230
1532484341.526,20.508,40.527,27.344,-4.883,-37.598
1532484341.530,18.066,32.227,29.297,1.465,52.734
1532484341.534,15.137,24.414,30.762,-7.812,34.180
1532484341.538,15.625,37.598,28.809,-14.160,-39.551
1532484341.542,19.043,40.039,28.320,-8.789,-88.379
1532484341.546,23.438,36.621,31.250,2.930,74.219
1532484341.550,21.484,20.996,32.227,-2.930,160.156
1532484341.554,17.578,17.090,31.250,-13.184,30.273
1532484341.557,18.555,38.086,31.250,-9.277,-13.672
1532484341.561,26.855,40.039,32.715,4.395,46.875
1532484341.565,27.344,22.949,35.156,6.836,171.875
1532484341.569,17.578,16.113,36.133,-1.953,113.281
1532484341.573,20.508,28.809,34.668,-0.488,-89.844
1532484341.577,30.273,38.574,33.691,4.395,-90.332
1532484341.581,29.785,28.320,32.715,9.277,86.426
1532484341.585,21.973,20.996,31.250,9.766,138.672
1532484341.589,20.508,28.320,30.273,0.977,10.254
1532484341.593,26.855,32.715,29.785,-4.883,-110.840
1532484341.597,27.344,28.809,29.785,3.418,-21.484
1532484341.600,22.461,21.484,30.762,1.953,101.074
1532484341.604,18.066,22.949,31.250,-16.113,20.996
1532484341.608,20.020,31.738,30.273,-16.113,-25.391
1532484341.612,22.949,33.203,31.738,0.977,56.641
1532484341.616,18.555,33.203,30.762,1.953,159.668
1532484341.620,15.137,24.902,27.832,-5.859,51.270
1532484341.624,19.043,27.832,27.344,-8.301,-103.516
1532484341.628,25.391,37.109,25.879,-3.418,14.648
1532484341.632,25.391,20.996,28.809,-0.488,73.242
1532484341.636,19.531,16.602,27.832,-10.742,-10.254
1532484341.639,22.461,28.809,23.438,-8.301,-32.227
1532484341.643,33.691,31.738,28.320,5.859,12.207
1532484341.647,35.156,25.879,32.227,10.742,145.020
1532484341.651,25.879,17.090,30.762,3.418,124.023
1532484341.655,20.020,16.602,28.809,-7.812,-10.254
1532484341.659,23.438,25.879,30.273,-8.301,-64.453
1532484341.663,23.438,32.227,30.762,-0.488,93.750
1532484341.667,18.555,21.484,30.273,-0.977,140.137
1532484341.671,17.090,17.090,29.785,-9.766,-91.309
1532484341.675,20.508,29.785,27.344,-15.137,-179.688
1532484341.679,24.414,36.133,25.879,-8.789,36.621
1532484341.682,19.043,19.531,28.809,-7.324,174.805
1532484341.686,13.184,17.578,30.273,-13.672,92.285
1532484341.690,16.602,29.297,27.832,-15.625,-50.781
1532484341.694,23.438,34.668,30.762,-6.348,2.930
1532484341.698,22.949,34.668,36.621,0.977,168.945
1532484341.702,14.648,20.996,33.691,-7.812,129.395
1532484341.706,14.648,20.020,29.297,-12.207,4.883
1532484341.710,26.367,32.715,28.320,-3.906,-26.367
1532484341.714,27.344,27.344,29.785,1.465,38.574
1532484341.718,19.531,20.996,32.227,-3.418,49.805
1532484341.722,19.043,29.297,30.762,-7.324,-34.668
1532484341.725,26.855,39.551,30.273,-1.953,-39.551
1532484341.729,32.715,36.133,32.227,6.348,57.617
1532484341.733,28.320,22.949,33.691,2.441,28.320
1532484341.737,26.855,36.621,36.133,-6.348,-49.316
1532484341.741,30.273,43.945,32.715,-0.488,-40.039
1532484341.745,28.809,31.738,27.832,5.859,56.152
1532484341.749,22.461,18.555,32.227,1.953,125.977
1532484341.753,13.184,16.113,34.180,-3.906,62.500
1532484341.757,13.672,34.180,28.809,-8.789,-15.137
1532484341.761,20.508,37.109,28.809,-2.441,-28.809
1532484341.764,22.461,32.227,30.762,2.930,66.895
1532484341.768,13.672,28.809,27.344,-3.906,137.207
1532484341.772,11.230,24.902,27.832,-13.184,-57.617
1532484341.776,24.414,30.273,28.809,-8.789,-165.039
1532484341.780,27.832,34.668,27.344,-2.441,41.992
1532484341.784,20.508,30.762,29.297,-9.277,136.719
1532484341.788,17.578,27.344,27.832,-17.578,35.645
1532484341.792,21.973,25.879,25.391,-14.648,-52.734
1532484341.796,25.879,28.809,26.367,-3.906,57.129
1532484341.800,18.555,20.996,28.320,-6.836,141.113
1532484341.804,11.719,17.578,29.785,-15.625,36.133
1532484341.807,20.020,25.391,28.809,-14.160,-71.777
1532484341.811,25.391,30.762,27.832,-5.371,-72.266
1532484341.815,20.508,28.320,29.785,1.465,17.090
1532484341.819,16.602,35.645,31.250,-0.977,58.105
1532484341.823,17.578,44.434,31.738,-8.301,-22.461
1532484341.827,25.391,49.805,31.250,-0.977,17.090
1532484341.831,28.809,43.945,29.785,8.301,141.602
1532484341.835,24.414,27.832,31.250,0.977,76.172
1532484341.839,26.855,38.574,32.715,-1.953,-33.203
1532484341.843,35.156,45.898,33.203,7.324,-37.109
1532484341.847,32.715,34.668,34.668,16.113,83.496
1532484341.850,20.996,25.879,33.203,2.930,141.602
1532484341.854,14.648,29.297,27.832,-8.301,-14.648
1532484341.858,25.879,32.715,25.391,-3.418,-116.211
1532484341.862,29.297,33.691,24.902,-0.977,20.508
1532484341.866,14.160,29.297,26.855,2.441,185.059
1532484341.870,5.859,21.973,24.902,-6.836,86.426
1532484341.874,13.184,29.297,20.996,-15.625,-145.508
1532484341.878,23.438,42.969,25.391,8.301,-46.387
1532484341.882,23.926,33.691,31.250,17.578,140.625
1532484341.886,19.043,30.273,33.691,8.301,106.934
1532484341.889,25.879,38.086,37.598,4.883,-28.320
1532484341.893,37.109,39.062,37.598,13.672,-52.246
1532484341.897,36.621,38.086,39.062,26.855,97.656
1532484341.901,32.715,24.902,41.992,15.625,93.262
1532484341.905,30.273,27.832,39.551,-0.488,-48.828
1532484341.909,32.227,37.598,38.086,3.906,-39.551
1532484341.913,35.645,32.227,38.574,8.789,-10.254
1532484341.917,30.273,30.762,39.062,2.441,45.898
1532484341.921,25.391,39.062,36.133,-1.953,61.523
1532484341.925,30.762,45.898,34.668,11.719,-16.113
1532484341.929,39.551,39.062,37.598,21.973,54.199
1532484341.932,37.109,33.691,42.480,14.160,126.953
1532484341.936,32.227,31.250,41.504,0.977,82.031
1532484341.940,34.180,34.180,38.086,0.977,-20.996
1532484341.944,41.504,42.480,37.598,12.207,24.902
1532484341.948,40.527,32.227,36.133,15.625,138.184
1532484341.952,35.156,20.020,37.109,7.324,-12.695
1532484341.956,34.668,36.621,37.109,-2.930,-166.504
1532484341.960,38.574,43.457,35.156,5.859,-28.320
1532484341.964,37.109,20.508,34.180,15.625,120.117
1532484341.968,27.832,17.090,31.738,9.766,155.762
1532484341.971,25.391,25.879,30.273,2.930,10.254
1532484341.975,35.645,34.668,31.738,5.371,-69.824
1532484341.979,35.156,29.785,35.645,17.090,57.129
1532484341.983,28.320,17.090,35.156,20.020,154.297
1532484341.987,31.250,20.508,31.738,8.301,87.402
1532484341.991,29.297,26.855,30.273,1.465,-47.852
1532484341.995,31.250,22.461,28.809,9.277,-36.133
1532484341.999,30.273,15.137,30.762,13.184,74.707
1532484342.003,22.461,15.625,29.785,5.371,61.035
1532484342.007,22.461,31.250,25.879,0.488,3.418
1532484342.011,27.832,26.367,25.391,-4.395,-19.531
1532484342.014,23.438,9.277,26.367,0.488,5.371
1532484342.018,17.090,14.648,29.785,1.953,63.965
1532484342.022,15.625,22.461,24.902,-6.836,-25.391
1532484342.026,22.461,25.879,20.508,-4.883,-37.109
1532484342.030,23.926,18.555,23.926,0.000,62.988
1532484342.034,17.090,15.137,27.832,-2.930,82.520
1532484342.038,15.137,22.461,27.832,-8.789,31.738
1532484342.042,21.973,26.855,21.484,-10.742,-71.289
1532484342.046,25.879,26.367,16.113,-4.883,-0.488
1532484342.050,22.461,14.160,18.555,-1.953,88.867
1532484342.054,19.043,14.648,21.973,-6.836,-97.168
1532484342.057,21.484,30.762,20.996,-8.301,-141.602
1532484342.061,28.809,31.738,22.461,3.906,4.883
1532484342.065,27.344,18.066,25.391,8.789,113.770
1532484342.069,21.973,0.488,24.414,0.000,54.199
1532484342.073,22.949,16.602,21.484,-5.371,-99.609
1532484342.077,28.320,32.715,20.508,-1.465,-29.785
1532484342.081,24.902,20.508,22.461,4.395,130.371
1532484342.085,16.602,14.160,23.926,-1.953,143.066
1532484342.089,17.578,19.531,23.926,-13.672,-16.602
1532484342.093,23.438,24.902,21.973,-13.672,-195.312
1532484342.096,22.949,29.785,19.531,-2.441,-45.410
1532484342.100,20.996,26.855,22.461,-1.465,148.926
1532484342.104,22.461,26.367,24.414,-9.766,52.734
1532484342.108,26.367,27.344,18.555,-7.812,-12.695
1532484342.112,29.297,26.367,19.531,-0.977,56.152
1532484342.116,20.996,25.391,25.879,-0.488,161.621
1532484342.120,10.742,11.719,25.879,-8.789,90.332
1532484342.124,16.113,17.578,23.438,-9.766,-15.137
1532484342.128,23.438,26.855,22.949,0.488,44.922
1532484342.132,18.555,17.578,24.902,6.348,114.258
1532484342.136,12.695,17.578,24.902,-0.977,47.363
1532484342.139,12.207,29.297,24.414,-7.324,-84.961
1532484342.143,17.090,28.320,24.902,-1.465,-58.594
1532484342.147,15.625,24.414,24.902,3.418,128.418
1532484342.151,11.230,17.578,24.902,-3.418,64.941
1532484342.155,15.625,21.973,23.926,-15.625,-140.137
1532484342.159,19.043,35.156,20.020,-11.719,-69.336
1532484342.163,23.926,31.738,20.020,-1.465,76.172
1532484342.167,21.484,19.531,23.926,-7.324,178.711
1532484342.171,17.090,14.160,22.949,-16.602,36.133
1532484342.175,20.996,29.785,23.926,-12.207,-65.918
1532484342.179,30.273,35.645,25.879,2.441,63.965
1532484342.182,26.855,23.438,23.926,1.465,113.770
1532484342.186,14.648,20.508,23.926,-13.184,36.621
1532484342.190,13.672,21.973,22.461,-21.973,-102.539
1532484342.194,18.555,25.391,21.973,-16.113,-131.836
1532484342.198,16.113,27.344,20.508,-5.371,94.727
1532484342.202,8.301,10.742,19.043,-13.672,128.418
1532484342.206,8.301,17.090,18.555,-22.461,10.254
1532484342.210,15.625,20.996,19.043,-12.207,-28.809
1532484342.214,17.090,13.184,20.508,-2.441,76.660
1532484342.218,13.184,13.184,22.949,-6.836,156.250
1532484342.221,7.812,16.113,24.414,-15.137,12.207
1532484342.225,12.207,24.414,22.949,-9.766,-2.930
1532484342.229,21.484,26.855,24.414,3.906,104.980
1532484342.233,16.113,17.578,26.367,-3.418,13.672
1532484342.237,7.324,25.391,24.902,-16.602,-62.500
1532484342.241,14.648,35.156,24.414,-16.602,-52.734
1532484342.245,23.438,30.762,22.461,-3.906,53.711
1532484342.249,20.508,16.602,22.949,3.906,116.211
1532484342.253,17.578,13.184,24.414,-7.812,-11.230
1532484342.257,17.578,27.344,25.879,-13.184,-57.129
1532484342.261,22.461,27.344,26.855,-1.953,3.906
1532484342.264,19.531,15.137,24.902,0.977,140.625
1532484342.268,10.254,8.789,24.414,-7.324,126.953
1532484342.272,13.672,13.184,24.414,-7.324,-49.316
1532484342.276,19.531,27.344,23.926,3.906,-81.055
1532484342.280,18.555,26.367,22.949,7.324,48.828
1532484342.284,14.648,20.508,25.391,-3.906,114.746
1532484342.288,12.207,26.855,24.414,-13.672,46.387
1532484342.292,17.090,25.879,25.391,-14.160,-123.535
1532484342.296,20.020,30.762,25.391,-10.254,-69.336
1532484342.300,16.602,25.391,25.391,-5.371,147.461
1532484342.304,12.207,16.113,26.367,-11.230,69.824
1532484342.307,14.160,29.297,25.879,-7.812,-68.359
1532484342.311,22.461,33.691,26.367,4.883,-21.973
1532484342.315,20.020,28.809,26.855,7.324,112.305
1532484342.319,13.672,27.344,27.832,-3.906,104.492
1532484342.323,18.066,28.320,28.320,-6.348,-59.082
1532484342.327,23.438,32.715,29.297,1.953,-57.617
1532484342.331,22.461,25.391,28.320,7.812,62.012
1532484342.335,17.090,14.160,29.785,1.465,-4.883
1532484342.339,15.625,24.902,29.297,-3.906,-51.758
1532484342.343,20.996,30.273,27.832,-1.953,-23.926
1532484342.346,26.367,26.367,27.832,7.324,108.398
1532484342.350,19.043,14.160,27.344,8.301,113.770
1532484342.354,14.160,22.949,27.344,-2.441,-3.418
1532484342.358,19.531,26.855,23.438,-7.812,-31.250
1532484342.362,23.438,22.461,20.996,0.488,77.637
1532484342.366,19.531,19.531,23.438,7.324,149.414
1532484342.370,17.090,17.578,23.438,-1.465,-32.715
1532484342.374,22.949,27.832,22.949,-3.418,-178.711
1532484342.378,33.203,38.086,25.391,7.812,-46.387
1532484342.382,31.738,30.762,25.391,9.277,156.250
1532484342.386,20.020,23.438,25.879,1.953,144.043
1532484342.389,19.043,29.785,25.879,-2.441,-32.715
1532484342.393,24.414,33.203,25.879,-0.488,-113.281
1532484342.397,23.926,32.227,24.902,2.930,82.520
1532484342.401,18.555,15.625,26.367,0.000,152.344
1532484342.405,14.160,21.973,25.391,-11.230,5.371
1532484342.409,16.113,27.344,24.414,-9.277,-48.340
1532484342.413,18.066,19.043,24.414,-0.977,62.988
1532484342.417,13.672,10.254,22.949,-1.953,108.398
1532484342.421,9.766,11.230,23.926,-12.695,-32.715
1532484342.425,13.672,23.438,21.973,-15.625,-78.125
1532484342.429,19.043,24.414,18.555,-5.859,21.973
1532484342.432,17.090,12.207,20.508,-9.277,21.973
1532484342.436,13.672,15.625,24.902,-20.508,-61.035
1532484342.440,17.090,30.762,28.320,-16.602,-35.156
1532484342.444,23.438,33.691,27.344,0.977,35.645
1532484342.448,22.949,23.926,26.855,8.789,152.832
1532484342.452,18.555,19.531,31.250,1.465,111.816
1532484342.456,19.043,32.715,31.250,-6.348,-14.648
1532484342.460,26.855,31.738,28.809,-4.883,12.207
1532484342.464,27.344,19.531,30.762,1.953,90.820
1532484342.468,20.020,18.066,34.180,2.930,109.863
1532484342.471,17.090,21.484,34.180,-10.254,-39.062
1532484342.475,24.414,26.855,29.297,-9.766,-145.996
1532484342.479,28.809,32.227,29.297,6.836,95.215
1532484342.483,23.438,21.973,33.691,6.348,154.297
1532484342.487,19.531,30.762,35.156,-7.812,7.812
1532484342.491,23.438,42.480,30.762,-8.789,-61.523
1532484342.495,25.879,43.457,29.297,2.441,21.973
1532484342.499,20.020,36.133,32.715,2.930,160.645
1532484342.503,12.695,28.809,31.738,-4.395,89.844
1532484342.507,14.160,39.062,27.832,-6.836,-38.574
1532484342.511,23.438,33.203,25.879,-6.836,-60.547
1532484342.514,23.926,26.855,29.785,-1.465,30.273
1532484342.518,17.090,33.691,29.785,2.441,115.234
1532484342.522,12.207,34.180,25.879,-6.836,24.414
1532484342.526,17.578,31.738,27.344,-4.883,3.906
1532484342.530,18.555,24.902,31.250,0.488,89.355
1532484342.534,12.207,20.508,30.762,-3.418,84.961
1532484342.538,10.254,36.133,27.832,-17.090,26.855
1532484342.542,20.020,39.062,28.809,-15.137,-8.301
1532484342.546,32.227,25.879,30.273,1.953,66.406
1532484342.550,27.832,19.531,33.203,3.418,111.816
1532484342.553,18.555,25.879,30.762,-9.766,42.480
1532484342.557,24.902,35.645,25.879,-11.719,-51.270
1532484342.561,35.156,37.598,26.855,-3.906,2.441
1532484342.565,32.715,29.297,30.273,-0.977,153.320
1532484342.569,28.320,25.391,33.691,-3.906,104.980
1532484342.573,31.250,33.203,34.668,-10.742,-127.930
1532484342.577,37.598,36.621,30.762,-5.859,-94.727
1532484342.581,33.691,31.738,32.227,5.859,140.625
1532484342.585,25.879,25.879,33.691,-1.465,141.113
1532484342.589,25.391,33.203,31.250,-7.324,-2.441
1532484342.593,26.367,40.527,29.297,-2.930,-65.918
1532484342.596,21.484,30.273,29.297,5.859,104.492
1532484342.600,17.090,20.996,31.250,7.324,180.664
1532484342.604,17.090,26.367,27.344,-5.371,-17.090
1532484342.608,20.996,35.645,22.949,-3.418,-95.215
1532484342.612,25.391,26.367,25.879,0.977,-41.504
1532484342.616,18.555,16.113,28.809,-7.324,20.996
1532484342.620,10.254,23.926,27.832,-12.207,74.707
1532484342.624,16.113,34.668,27.832,-12.207,-31.738
1532484342.628,20.508,34.668,23.926,-3.418,6.836
1532484342.632,17.090,19.043,23.926,-0.977,124.023
1532484342.636,12.695,21.484,28.320,-8.301,97.168
1532484342.639,13.672,29.785,26.367,-15.625,5.859
1532484342.643,22.461,30.273,25.879,-4.883,4.883
1532484342.647,22.949,25.391,27.344,2.441,138.672
1532484342.651,13.672,16.602,27.832,-6.348,100.098
1532484342.655,8.301,24.902,27.344,-14.160,-48.828
1532484342.659,16.602,35.156,24.902,-14.160,-13.672
1532484342.663,21.484,28.320,25.391,-8.301,77.148
1532484342.667,12.207,21.973,25.879,-12.695,143.066
