timestamps,TP9,AF7,AF8,TP10,Right AUX
1532485343.723,46.387,50.781,32.227,21.973,-291.992
1532485343.727,49.316,41.016,35.156,35.156,-488.770
1532485343.730,44.434,37.109,34.668,30.762,-375.000
1532485343.734,40.527,49.805,29.297,20.996,-515.625
1532485343.738,41.504,127.441,26.855,27.344,-91.797
1532485343.742,42.969,110.352,27.344,34.180,288.574
1532485343.746,41.504,66.406,30.762,37.598,258.789
1532485343.750,37.598,24.902,29.785,29.785,-105.469
1532485343.754,38.086,20.508,26.855,26.855,-621.582
1532485343.758,35.645,152.832,25.879,31.738,18.555
1532485343.762,36.621,123.535,29.297,31.250,811.035
1532485343.766,36.133,-22.461,31.250,21.484,-93.750
1532485343.770,34.180,22.461,29.297,18.066,-610.352
1532485343.773,41.016,41.016,30.273,37.109,-563.477
1532485343.777,43.945,73.730,28.809,41.992,-199.219
1532485343.781,46.875,36.621,27.832,36.133,-32.715
1532485343.785,47.852,22.949,28.809,34.668,-474.121
1532485343.789,48.828,108.887,28.320,34.668,-71.777
1532485343.793,50.293,50.293,26.367,36.621,105.957
1532485343.797,43.945,47.363,27.344,29.297,-12.207
1532485343.801,40.039,146.484,28.809,18.555,726.562
1532485343.805,40.527,21.973,27.344,25.879,60.547
1532485343.809,38.574,-4.395,26.367,35.156,-560.547
1532485343.812,40.039,18.555,28.320,30.762,-448.242
1532485343.816,40.527,25.879,28.320,25.391,-420.898
1532485343.820,41.016,39.062,29.785,31.738,-178.711
1532485343.824,44.434,33.691,30.273,40.039,-378.906
1532485343.828,48.828,35.645,32.227,39.551,-382.324
1532485343.832,45.410,21.973,31.250,29.297,-417.969
1532485343.836,38.086,109.863,29.785,26.855,-49.316
1532485343.840,43.457,188.965,31.738,25.391,832.031
1532485343.844,49.316,24.414,29.297,30.762,334.473
1532485343.848,41.016,-29.785,27.832,27.832,-388.672
1532485343.852,24.414,22.949,30.762,18.066,-575.684
1532485343.855,-7.812,52.246,29.785,21.973,-519.531
1532485343.859,-44.434,62.012,26.855,28.320,80.566
1532485343.863,-69.824,9.766,32.227,37.598,-143.555
1532485343.867,-97.168,24.902,34.668,31.738,-478.516
1532485343.871,-118.164,39.551,34.180,26.367,-518.555
1532485343.875,-133.301,54.688,36.133,35.645,-376.953
1532485343.879,-141.602,73.242,37.109,36.621,234.863
1532485343.883,-130.371,59.570,34.180,24.414,276.367
1532485343.887,-110.352,47.363,35.156,20.996,-44.922
1532485343.891,-92.285,20.508,37.109,34.180,-268.555
1532485343.895,-80.078,22.461,35.645,35.645,-347.168
1532485343.898,-76.172,133.789,34.180,18.555,444.336
1532485343.902,-59.082,63.965,35.156,19.531,581.543
1532485343.906,-28.809,-2.441,43.945,42.480,-328.613
1532485343.910,-12.695,42.480,50.293,44.922,-355.469
1532485343.914,-8.789,21.484,47.852,32.227,-404.785
1532485343.918,-7.324,112.305,42.480,31.250,12.695
1532485343.922,-2.441,61.035,40.039,30.273,161.133
1532485343.926,2.441,9.766,38.574,35.156,-350.098
1532485343.930,1.953,83.984,36.621,32.715,132.324
1532485343.934,4.883,15.137,36.133,21.973,-87.402
1532485343.937,8.789,94.238,35.156,23.926,-148.438
1532485343.941,17.578,138.184,32.715,27.344,770.996
1532485343.945,31.250,-28.320,34.180,36.621,57.129
1532485343.949,29.785,-19.531,34.668,38.574,-540.527
1532485343.953,34.180,20.996,32.227,29.785,-609.863
1532485343.957,45.898,60.547,30.762,34.668,-428.223
1532485343.961,45.898,31.738,30.762,43.945,-39.551
1532485343.965,43.945,-6.836,31.738,43.945,-314.453
1532485343.969,47.363,27.832,30.762,38.086,-508.789
1532485343.973,51.758,33.203,29.297,32.715,-531.250
1532485343.977,52.246,102.539,28.809,37.109,81.055
1532485343.980,49.805,135.254,29.785,40.527,875.488
1532485343.984,51.758,0.000,33.203,30.273,115.234
1532485343.988,53.223,-4.883,31.738,27.344,-576.660
1532485343.992,53.223,29.785,29.297,33.203,-504.883
1532485343.996,51.758,20.020,30.762,31.250,-305.176
1532485344.000,49.316,23.438,30.762,29.297,-19.043
1532485344.004,51.758,20.508,30.273,28.320,-404.785
1532485344.008,59.082,36.621,32.715,33.691,-475.098
1532485344.012,60.059,20.996,36.133,38.574,-345.215
1532485344.016,57.129,23.926,35.156,23.438,-294.434
1532485344.019,59.082,58.105,36.133,31.738,57.129
1532485344.023,57.617,78.613,41.992,42.969,191.406
1532485344.027,61.035,39.062,40.039,40.527,134.766
1532485344.031,62.500,-14.160,35.156,31.738,-236.328
1532485344.035,53.711,42.480,31.738,19.531,-437.012
1532485344.039,55.664,181.641,32.715,15.625,573.730
1532485344.043,62.500,51.758,35.645,24.902,635.254
1532485344.047,58.105,-35.645,35.156,27.832,-254.883
1532485344.051,56.641,17.578,34.668,21.973,-479.004
1532485344.055,62.012,42.480,36.133,14.648,-532.715
1532485344.059,58.105,92.773,35.645,18.066,62.988
1532485344.062,57.617,17.090,36.133,31.738,-10.742
1532485344.066,51.758,11.719,35.645,26.367,-417.969
1532485344.070,45.898,97.168,29.785,15.625,-36.621
1532485344.074,50.781,83.008,26.855,17.578,135.254
1532485344.078,48.828,118.652,26.855,16.113,477.051
1532485344.082,42.480,70.801,30.762,3.418,742.188
1532485344.086,42.480,-26.855,31.250,1.465,-222.168
1532485344.090,46.387,22.461,30.762,9.277,-585.449
1532485344.094,48.828,58.594,30.273,15.137,-288.574
1532485344.098,42.969,68.359,30.273,15.625,36.621
1532485344.102,39.551,27.344,30.762,12.695,-136.230
1532485344.105,43.457,28.320,29.297,14.648,-501.953
1532485344.109,42.480,42.480,29.297,21.973,-359.863
1532485344.113,42.969,8.789,30.273,18.555,-360.840
1532485344.117,40.039,99.121,26.855,10.254,107.422
1532485344.121,36.621,149.902,25.879,10.254,823.242
1532485344.125,42.969,4.395,30.273,23.438,75.684
1532485344.129,43.457,-13.184,30.273,33.203,-394.043
1532485344.133,39.062,10.742,29.297,17.578,-433.105
1532485344.137,36.621,37.598,31.250,15.137,-451.172
1532485344.141,39.551,39.551,31.250,26.855,-120.605
1532485344.144,42.480,11.719,30.762,21.973,-254.395
1532485344.148,43.457,16.113,31.738,12.695,-365.234
1532485344.152,44.922,33.691,30.273,12.207,-492.676
1532485344.156,41.504,51.758,29.785,12.207,-389.160
1532485344.160,37.109,43.945,30.273,20.996,88.379
1532485344.164,31.738,45.410,29.785,23.438,192.871
1532485344.168,31.250,31.738,30.273,15.137,-6.348
1532485344.172,37.109,7.812,33.203,16.602,-415.527
1532485344.176,35.645,54.688,28.320,21.973,-280.273
1532485344.180,29.785,150.391,24.902,16.113,740.723
1532485344.184,31.250,18.555,25.879,6.348,375.488
1532485344.187,34.180,-14.160,27.344,5.371,-468.262
1532485344.191,37.598,29.785,29.785,15.625,-463.867
1532485344.195,39.551,24.902,29.785,19.531,-269.531
1532485344.199,39.062,48.340,27.344,16.602,168.457
1532485344.203,41.992,20.020,25.391,16.113,-249.512
1532485344.207,44.434,42.480,27.832,23.438,-474.609
1532485344.211,42.969,79.102,28.809,26.855,158.691
1532485344.215,38.574,38.574,31.738,23.438,176.758
1532485344.219,35.156,137.695,32.227,16.602,558.594
1532485344.223,38.086,65.430,28.320,17.578,625.000
1532485344.227,40.527,-33.203,32.227,24.902,-233.887
1532485344.230,39.062,3.906,34.668,22.949,-394.043
1532485344.234,35.156,11.719,27.832,12.695,-482.422
1532485344.238,30.273,83.496,26.367,9.766,-138.184
1532485344.242,30.762,32.715,29.785,19.043,-105.469
1532485344.246,30.762,0.000,30.273,21.973,-345.703
1532485344.250,29.297,18.555,32.715,18.066,-367.676
1532485344.254,27.344,38.574,29.785,16.113,-541.504
1532485344.258,24.902,128.418,22.949,20.996,184.082
1532485344.262,31.250,50.781,25.391,22.949,619.141
1532485344.266,33.691,-29.785,29.785,16.113,-197.754
1532485344.269,30.762,19.043,28.320,10.254,-475.586
1532485344.273,34.180,27.832,27.832,13.184,-523.926
1532485344.277,32.715,68.848,28.809,11.230,-96.680
1532485344.281,29.297,22.949,31.250,10.254,318.359
1532485344.285,30.762,-7.324,31.250,5.859,-310.547
1532485344.289,36.133,31.738,27.832,11.230,-504.883
1532485344.293,39.062,21.973,27.832,20.020,-369.141
1532485344.297,38.086,24.902,27.832,16.113,-176.758
1532485344.301,42.969,29.297,26.855,15.625,6.348
1532485344.305,48.340,74.707,28.809,19.531,53.223
1532485344.309,50.293,78.125,33.203,32.715,249.512
1532485344.312,55.176,-14.160,31.738,42.480,-110.840
1532485344.316,44.922,29.297,28.809,30.762,-214.844
1532485344.320,31.250,163.574,33.203,23.926,727.051
1532485344.324,37.598,27.344,37.109,26.367,266.113
1532485344.328,42.969,-30.762,34.668,26.367,-373.535
1532485344.332,41.992,6.348,31.250,21.973,-400.879
1532485344.336,38.574,24.902,27.832,18.555,-424.316
1532485344.340,41.504,42.480,26.855,21.484,-11.719
1532485344.344,49.316,4.883,31.738,23.926,-212.891
1532485344.348,47.363,19.531,33.203,20.020,-333.984
1532485344.352,48.828,67.383,34.668,22.949,-24.902
1532485344.355,50.781,61.523,34.668,29.785,-15.625
1532485344.359,47.363,136.230,31.250,34.180,664.062
1532485344.363,44.922,11.230,34.180,33.691,512.207
1532485344.367,40.527,-45.410,35.156,28.320,-402.344
1532485344.371,41.016,18.555,32.715,28.320,-590.820
1532485344.375,44.434,33.203,30.273,39.062,-464.355
1532485344.379,41.016,56.152,28.809,34.668,131.348
1532485344.383,38.574,6.836,29.297,27.344,-143.555
1532485344.387,39.551,27.832,30.273,21.973,-538.086
1532485344.391,43.945,36.621,28.320,21.973,-452.637
1532485344.394,43.945,32.715,24.902,25.391,-355.469
1532485344.398,37.598,104.980,26.367,20.996,393.555
1532485344.402,35.156,51.758,29.785,23.438,310.547
1532485344.406,39.551,12.695,31.250,29.297,-390.137
1532485344.410,42.969,37.109,32.715,28.809,-263.184
1532485344.414,43.457,2.441,32.715,22.461,-376.953
1532485344.418,38.574,119.141,29.785,23.926,109.863
1532485344.422,38.086,113.281,29.297,25.391,771.484
1532485344.426,38.086,-21.484,34.180,32.227,-59.570
1532485344.430,31.250,-6.348,34.180,34.180,-385.254
1532485344.434,28.320,13.184,36.133,26.367,-426.270
1532485344.437,30.762,66.895,34.180,16.113,-329.590
1532485344.441,35.156,56.152,32.227,27.832,-87.402
1532485344.445,35.645,60.547,34.180,36.621,114.746
1532485344.449,33.203,38.086,34.668,23.926,123.047
1532485344.453,33.203,-2.441,37.598,17.090,-487.305
1532485344.457,34.668,87.402,36.621,25.879,-286.621
1532485344.461,35.645,144.531,35.645,26.367,761.230
1532485344.465,36.621,-10.254,38.574,27.832,166.992
1532485344.469,36.133,-13.184,36.133,32.227,-564.941
1532485344.473,39.062,36.133,36.133,29.297,-565.430
1532485344.476,43.457,37.109,37.109,36.621,-347.168
1532485344.480,45.410,20.020,35.156,41.016,25.879
1532485344.484,39.062,8.301,35.156,30.762,-339.844
1532485344.488,39.062,51.270,33.203,29.785,-491.211
1532485344.492,32.715,70.801,31.250,36.133,-97.168
1532485344.496,2.441,61.523,27.832,31.738,205.078
1532485344.500,-36.621,140.137,26.855,16.602,777.344
1532485344.504,-62.500,42.969,28.320,15.137,225.586
1532485344.508,-61.523,-5.371,27.344,24.414,-469.238
1532485344.512,-51.270,23.926,28.320,23.438,-430.176
1532485344.516,-49.316,62.500,31.738,20.996,-208.008
1532485344.519,-41.016,58.105,35.156,20.508,129.395
1532485344.523,-24.902,12.695,32.715,20.508,-305.664
1532485344.527,-18.555,35.156,28.809,20.996,-366.211
1532485344.531,-11.719,17.090,33.203,24.414,-320.312
1532485344.535,-7.812,43.457,32.227,21.484,-433.105
1532485344.539,-3.418,128.418,27.344,16.113,396.484
1532485344.543,5.371,52.734,28.809,23.926,440.430
1532485344.547,7.324,-4.395,30.273,31.250,-213.867
1532485344.551,9.277,16.602,30.273,25.391,-365.234
1532485344.555,14.160,46.875,28.809,15.625,-518.066
1532485344.559,17.578,158.203,28.809,19.531,359.375
1532485344.562,26.367,39.551,33.203,23.926,576.172
1532485344.566,26.367,-27.832,37.598,21.484,-289.062
1532485344.570,24.902,28.809,34.668,21.484,-495.117
1532485344.574,33.203,41.504,31.738,22.461,-453.125
1532485344.578,33.691,87.402,31.738,24.902,31.250
1532485344.582,28.809,32.227,32.227,21.484,15.625
1532485344.586,30.273,70.801,33.203,16.113,10.254
1532485344.590,36.133,67.383,29.785,25.879,177.246
1532485344.594,40.039,-12.207,30.762,34.180,-304.199
1532485344.598,35.156,92.773,32.715,27.832,76.172
1532485344.601,24.414,123.535,34.180,24.414,799.316
1532485344.605,31.738,-8.301,35.156,34.180,-92.285
1532485344.609,42.480,2.441,32.715,35.156,-470.215
1532485344.613,43.457,7.812,32.227,29.297,-356.934
1532485344.617,41.504,45.898,32.715,21.484,-278.809
1532485344.621,43.457,53.223,32.227,25.879,-122.559
1532485344.625,43.945,19.043,32.227,31.250,-376.465
1532485344.629,44.434,32.715,33.691,34.668,-286.621
1532485344.633,41.992,59.570,32.715,37.598,15.625
1532485344.637,33.203,101.074,29.785,26.367,231.934
1532485344.641,38.574,146.484,30.762,30.273,779.297
1532485344.644,49.316,7.324,34.180,39.062,254.395
1532485344.648,44.434,-33.691,33.691,29.785,-405.762
1532485344.652,41.016,20.508,32.715,27.344,-540.039
1532485344.656,47.363,40.527,32.715,34.668,-472.168
1532485344.660,51.758,32.715,31.738,35.645,2.930
1532485344.664,51.758,2.930,31.738,28.320,-215.332
1532485344.668,46.875,25.391,31.250,23.438,-440.430
1532485344.672,47.852,33.203,29.785,27.832,-521.484
1532485344.676,54.199,54.688,31.738,37.598,-318.848
1532485344.680,53.223,95.215,32.715,38.086,574.707
1532485344.684,47.852,60.547,29.785,31.250,448.730
1532485344.687,46.875,31.738,31.250,27.832,-233.398
1532485344.691,49.316,23.926,32.715,32.227,-412.598
1532485344.695,48.828,37.598,32.227,31.738,-257.324
1532485344.699,41.016,144.043,30.762,24.414,629.395
1532485344.703,40.527,42.969,31.250,25.879,305.664
1532485344.707,45.898,-7.812,31.738,28.320,-446.777
1532485344.711,44.922,20.508,32.227,29.785,-358.887
1532485344.715,38.574,23.438,32.715,24.414,-309.082
1532485344.719,35.645,76.660,31.738,21.484,50.293
1532485344.723,41.504,41.016,33.203,27.832,-166.504
1532485344.726,47.363,80.566,35.156,33.203,14.648
1532485344.730,46.387,68.359,35.156,38.574,419.434
1532485344.734,36.133,-1.953,32.227,30.762,-196.777
1532485344.738,46.875,139.160,29.785,28.320,180.176
1532485344.742,56.152,93.750,29.785,43.457,784.180
1532485344.746,56.152,-42.969,30.762,39.551,-83.008
1532485344.750,52.246,0.977,27.344,28.320,-457.031
1532485344.754,48.340,28.320,25.879,25.879,-546.387
1532485344.758,49.316,86.914,29.785,29.297,-220.703
1532485344.762,51.758,37.109,32.715,34.180,9.766
1532485344.766,47.363,-10.254,29.785,30.273,-353.516
1532485344.769,41.992,44.922,28.809,25.391,-420.410
1532485344.773,47.852,78.125,27.832,32.715,-109.375
1532485344.777,47.363,103.516,24.902,34.668,379.883
1532485344.781,43.457,103.027,27.832,25.391,811.035
1532485344.785,28.809,-9.277,32.227,20.508,-20.996
1532485344.789,-5.371,4.883,31.250,26.367,-587.891
1532485344.793,-34.180,28.809,30.273,32.227,-449.707
1532485344.797,-46.387,26.367,30.762,23.926,-257.812
1532485344.801,-41.016,22.461,32.227,22.461,-81.055
1532485344.805,-27.344,25.391,29.785,26.855,-431.641
1532485344.808,-14.648,39.062,24.902,27.344,-418.945
1532485344.812,-5.859,16.113,24.414,32.227,-322.266
1532485344.816,-1.465,35.645,27.344,33.691,-266.113
1532485344.820,4.395,92.285,27.832,27.344,265.625
1532485344.824,18.555,48.828,27.344,34.668,141.602
1532485344.828,27.832,20.020,27.832,38.574,-187.988
1532485344.832,25.879,8.301,28.320,24.902,-343.262
1532485344.836,25.879,61.523,29.785,32.715,-339.355
1532485344.840,33.691,191.406,30.273,43.457,678.223
1532485344.844,42.969,40.039,32.227,41.992,438.477
1532485344.848,41.016,-28.320,32.715,35.645,-322.754
1532485344.851,38.086,28.320,32.227,30.762,-485.352
1532485344.855,43.945,60.059,35.156,32.715,-456.055
1532485344.859,47.363,66.895,31.738,35.645,88.379
1532485344.863,47.363,17.090,26.855,34.668,-93.750
1532485344.867,41.992,75.684,26.367,30.273,5.859
1532485344.871,46.387,44.434,27.344,27.344,-5.371
1532485344.875,53.223,25.391,28.320,24.902,-389.648
1532485344.879,48.340,149.414,26.855,23.438,562.012
1532485344.883,42.480,41.016,30.273,23.926,637.695
1532485344.887,36.133,-20.020,30.273,22.949,-409.668
1532485344.891,37.598,33.203,28.809,27.832,-542.480
1532485344.894,44.434,34.180,27.832,28.320,-381.836
1532485344.898,45.410,81.543,28.809,14.648,64.453
1532485344.902,45.898,42.480,31.738,20.996,-147.949
1532485344.906,53.711,32.715,32.227,34.180,-541.504
1532485344.910,53.711,53.711,29.785,34.668,-301.270
1532485344.914,47.363,62.988,32.227,36.133,-24.414
1532485344.918,44.922,133.789,33.691,30.762,468.262
1532485344.922,46.387,100.586,31.250,25.879,754.883
1532485344.926,53.223,-9.766,34.668,39.551,-91.309
1532485344.930,57.129,2.441,40.039,45.898,-416.016
1532485344.933,51.758,10.742,42.969,40.039,-472.168
1532485344.937,48.340,68.359,45.410,34.180,-364.746
1532485344.941,53.223,48.828,39.062,41.992,-136.719
1532485344.945,54.688,4.883,41.016,44.434,-317.871
1532485344.949,52.734,19.043,46.387,36.621,-354.980
1532485344.953,50.781,29.297,40.527,31.250,-514.160
1532485344.957,50.781,71.289,39.062,27.344,-338.379
1532485344.961,48.828,86.914,41.016,27.344,365.723
1532485344.965,44.434,16.113,43.457,31.250,220.215
1532485344.969,46.387,17.090,42.480,28.809,-298.340
1532485344.973,52.246,26.367,40.039,29.297,-506.836
1532485344.976,56.641,62.988,39.062,38.086,-217.773
1532485344.980,52.734,149.902,39.062,34.180,758.789
1532485344.984,46.387,16.113,41.504,29.297,213.867
1532485344.988,49.805,-5.371,42.480,35.645,-539.062
1532485344.992,54.688,36.621,41.992,41.504,-462.891
1532485344.996,53.711,29.785,41.016,42.969,-238.281
1532485345.000,48.828,28.320,38.574,36.133,49.316
1532485345.004,50.781,25.879,39.551,31.738,-363.281
1532485345.008,56.641,87.891,39.551,39.551,-107.910
1532485345.012,56.152,40.039,37.598,46.387,146.973
1532485345.016,43.945,20.020,36.621,37.109,-169.434
1532485345.019,38.086,161.133,34.180,30.762,644.043
1532485345.023,49.805,40.527,36.133,39.062,443.848
1532485345.027,55.664,-24.902,36.133,43.945,-347.656
1532485345.031,53.223,8.789,36.133,28.809,-404.297
1532485345.035,49.805,34.668,37.109,21.973,-466.797
1532485345.039,52.734,78.613,36.133,33.691,-18.555
1532485345.043,54.688,25.879,36.133,40.527,-129.883
1532485345.047,50.781,7.812,35.156,40.039,-379.883
1532485345.051,46.387,28.809,31.250,30.762,-375.000
1532485345.055,48.340,88.379,28.809,25.391,-148.926
1532485345.058,41.016,163.574,31.250,30.762,638.184
1532485345.062,7.812,41.992,32.715,38.086,689.941
1532485345.066,-28.809,-43.945,31.738,37.109,-253.906
1532485345.070,-59.570,22.949,30.762,29.785,-588.867
1532485345.074,-84.961,41.504,30.273,31.250,-542.480
1532485345.078,-103.516,89.844,29.785,40.527,-55.664
1532485345.082,-101.562,26.855,28.809,35.645,-55.664
1532485345.086,-90.332,7.324,29.297,30.762,-503.906
1532485345.090,-72.754,43.457,30.762,32.715,-457.031
1532485345.094,-59.570,30.762,31.738,26.367,-388.184
1532485345.098,-51.758,70.312,32.227,26.367,-60.059
1532485345.101,-42.480,83.984,29.785,32.227,297.363
1532485345.105,-31.250,24.414,31.250,30.762,-62.988
1532485345.109,-20.020,25.391,31.250,28.809,-250.000
1532485345.113,-14.648,4.395,30.273,32.715,-348.145
1532485345.117,-15.625,75.684,31.738,25.391,-137.695
1532485345.121,-8.789,158.691,30.762,23.438,745.117
1532485345.125,8.789,12.207,31.250,29.785,135.742
1532485345.129,16.113,-12.695,32.715,33.691,-406.250
1532485345.133,20.508,15.625,32.715,35.645,-427.246
1532485345.137,26.367,43.457,33.203,31.738,-436.523
1532485345.141,35.645,41.016,33.691,36.133,-112.793
1532485345.144,41.016,16.113,34.668,41.504,-243.652
1532485345.148,39.062,69.824,33.691,41.016,74.707
1532485345.152,38.086,44.922,30.762,41.016,63.477
1532485345.156,39.062,46.875,29.785,41.992,-199.219
1532485345.160,40.039,154.785,30.762,34.180,704.590
1532485345.164,42.969,13.184,30.273,31.738,334.961
1532485345.168,48.340,-25.391,36.621,37.598,-504.395
1532485345.172,59.082,44.922,46.875,46.387,-599.609
1532485345.176,64.941,53.711,42.969,55.664,-404.297
1532485345.180,57.617,40.527,40.039,51.270,102.539
1532485345.183,50.781,12.695,40.039,38.574,-247.559
1532485345.187,50.781,40.039,37.109,37.598,-552.246
1532485345.191,59.082,45.898,37.598,47.363,-424.316
1532485345.195,62.500,83.984,34.668,43.945,54.688
1532485345.199,52.734,143.555,30.762,36.621,843.750
1532485345.203,53.223,29.785,32.227,36.621,434.082
1532485345.207,60.547,-12.207,33.203,34.180,-419.922
1532485345.211,62.988,13.672,31.250,31.738,-452.637
1532485345.215,56.152,18.555,33.691,31.250,-403.809
1532485345.219,48.828,83.008,30.273,24.902,-29.297
1532485345.223,50.781,39.551,27.344,23.438,-242.188
1532485345.226,49.316,23.926,30.273,24.414,-444.824
1532485345.230,49.805,20.996,30.273,21.973,-303.223
1532485345.234,45.898,28.320,32.227,19.043,-456.543
1532485345.238,40.039,105.957,32.227,12.695,-87.891
1532485345.242,42.969,97.168,29.785,11.719,337.891
1532485345.246,41.016,42.969,31.738,15.137,246.582
1532485345.250,34.668,11.719,35.156,15.625,-104.980
1532485345.254,38.574,8.789,35.645,14.648,-557.617
1532485345.258,45.898,125.488,31.250,22.461,-23.438
1532485345.262,49.805,108.398,31.250,29.297,814.941
1532485345.265,54.688,-34.668,34.180,31.250,-9.277
1532485345.269,53.711,8.301,30.273,30.273,-553.711
1532485345.273,52.734,42.480,31.250,35.645,-537.598
1532485345.277,52.734,73.730,32.715,41.016,-207.031
1532485345.281,52.734,31.250,33.203,39.551,13.184
1532485345.285,53.223,24.414,35.156,38.574,-395.020
1532485345.289,50.293,110.840,34.668,39.551,-11.230
1532485345.293,56.152,29.297,35.645,48.828,23.926
1532485345.297,52.246,38.574,36.133,48.828,-114.258
1532485345.301,41.992,145.020,39.062,37.109,740.723
1532485345.305,45.898,20.508,40.039,41.016,106.445
1532485345.308,48.828,-0.977,39.551,47.363,-528.320
1532485345.312,47.852,18.555,37.598,35.156,-398.926
1532485345.316,46.875,24.902,37.598,27.832,-356.445
1532485345.320,46.875,38.086,39.551,22.461,-128.906
1532485345.324,52.246,25.879,36.621,22.461,-362.793
1532485345.328,52.246,32.227,36.133,34.668,-355.469
1532485345.332,48.340,13.672,39.551,34.668,-360.352
1532485345.336,45.898,91.309,39.551,24.902,-91.309
1532485345.340,47.852,174.316,35.156,23.926,798.828
1532485345.344,50.781,16.113,35.645,32.715,379.883
1532485345.348,49.316,-39.062,38.086,31.250,-346.191
1532485345.351,48.828,9.766,33.691,27.344,-530.762
1532485345.355,51.758,50.781,32.227,31.738,-526.367
1532485345.359,54.688,84.473,35.156,38.574,123.047
1532485345.363,53.711,15.137,36.133,41.016,-69.336
1532485345.367,50.781,21.973,38.086,38.086,-454.590
1532485345.371,48.828,37.109,39.062,36.621,-503.906
1532485345.375,45.410,49.805,34.668,33.691,-428.711
1532485345.379,43.457,85.449,31.250,34.668,202.637
1532485345.383,39.062,68.359,33.203,28.809,343.262
1532485345.387,36.621,63.477,32.227,20.996,44.922
1532485345.390,40.039,27.832,30.273,23.926,-193.848
1532485345.394,40.039,11.719,31.250,26.855,-391.113
1532485345.398,32.715,136.230,27.344,19.531,379.883
1532485345.402,36.621,75.195,23.438,16.113,714.355
1532485345.406,45.410,-20.996,25.879,25.879,-274.902
1532485345.410,43.945,20.508,27.832,27.832,-438.965
1532485345.414,43.945,12.695,30.762,18.066,-379.883
1532485345.418,40.527,79.590,32.227,14.160,-150.879
1532485345.422,44.434,53.223,33.203,30.762,-171.875
1532485345.426,53.711,27.832,32.227,39.062,-436.523
1532485345.430,48.340,72.266,30.273,29.785,125.488
1532485345.433,41.504,9.277,38.086,26.855,10.742
1532485345.437,38.574,89.355,37.598,26.367,-108.398
1532485345.441,39.062,154.297,37.598,28.809,757.812
1532485345.445,42.480,-11.719,39.062,37.598,123.047
1532485345.449,33.691,-14.160,35.156,29.297,-483.398
1532485345.453,6.348,28.320,32.715,28.320,-564.453
1532485345.457,-20.996,58.594,33.203,40.039,-428.223
1532485345.461,-46.387,36.621,31.738,42.480,-25.879
1532485345.465,-73.242,3.418,30.762,34.668,-260.254
1532485345.469,-95.215,34.180,35.156,29.785,-471.191
1532485345.473,-111.328,40.527,33.203,35.156,-516.602
1532485345.476,-129.883,103.516,30.273,36.621,77.148
1532485345.480,-151.367,149.414,32.227,30.273,878.906
1532485345.484,-165.527,10.254,36.133,33.203,160.156
1532485345.488,-171.875,-3.906,32.715,34.180,-550.781
1532485345.492,-178.223,31.738,25.879,33.203,-509.277
1532485345.496,-187.988,23.438,27.832,39.551,-283.203
1532485345.500,-194.336,26.855,31.250,36.621,41.992
1532485345.504,-195.312,25.879,34.668,30.273,-367.188
1532485345.508,-196.777,45.410,36.133,34.180,-480.469
1532485345.512,-184.570,24.414,33.203,41.016,-338.867
1532485345.515,-160.645,26.367,31.738,41.016,-262.695
1532485345.519,-136.230,55.664,32.715,28.809,100.586
1532485345.523,-105.957,78.613,33.691,32.227,161.621
1532485345.527,-78.613,54.199,33.203,43.945,133.301
1532485345.531,-63.477,-3.906,32.715,41.504,-176.270
1532485345.535,-50.781,36.133,32.227,34.668,-430.664
1532485345.539,-45.410,178.223,26.855,30.273,536.621
1532485345.543,-33.691,59.082,28.809,32.227,669.434
1532485345.547,-19.043,-32.715,29.785,29.785,-210.938
1532485345.551,-14.648,15.137,30.762,21.484,-431.641
1532485345.555,-8.789,43.457,32.227,22.461,-518.555
1532485345.558,0.488,106.934,34.180,31.250,16.602
1532485345.562,10.742,25.879,40.039,35.645,-14.648
1532485345.566,13.672,11.230,41.992,31.250,-404.297
1532485345.570,17.090,95.703,40.039,29.297,-2.930
1532485345.574,28.320,67.383,38.574,36.621,51.758
1532485345.578,38.086,116.211,38.086,39.551,352.539
1532485345.582,42.480,77.148,36.621,33.203,763.184
1532485345.586,48.340,-32.715,34.180,26.367,-208.008
1532485345.590,57.617,20.020,28.809,30.273,-604.004
1532485345.594,61.523,25.879,29.785,43.457,-459.961
1532485345.598,58.105,55.176,35.645,41.504,-177.246
1532485345.601,58.105,38.574,32.227,26.855,-136.230
1532485345.605,64.453,30.762,28.320,35.645,-503.906
1532485345.609,72.266,49.316,33.691,45.898,-400.391
1532485345.613,68.848,16.113,36.133,34.668,-355.469
1532485345.617,59.570,100.098,32.715,24.902,115.723
1532485345.621,56.641,150.879,33.203,20.020,820.801
1532485345.625,62.012,7.812,37.109,28.809,85.449
1532485345.629,62.500,-14.648,39.551,32.715,-402.832
1532485345.633,56.641,12.207,39.551,24.902,-427.734
1532485345.637,50.781,36.621,39.062,20.996,-458.496
1532485345.640,62.500,39.551,38.574,34.180,-128.906
1532485345.644,76.172,16.602,39.551,43.945,-258.789
1532485345.648,74.219,24.414,38.086,41.504,-358.887
1532485345.652,72.754,33.203,33.203,38.086,-470.703
1532485345.656,73.242,48.828,31.250,41.504,-400.391
1532485345.660,76.172,49.316,30.273,41.504,88.379
1532485345.664,74.707,59.082,31.250,33.691,293.457
1532485345.668,67.871,37.109,32.715,25.879,87.891
1532485345.672,67.871,4.883,37.598,33.691,-409.180
1532485345.676,66.895,52.734,40.039,33.691,-318.359
1532485345.680,64.941,148.438,38.086,26.855,726.074
1532485345.683,70.801,15.625,39.551,23.438,418.945
1532485345.687,71.777,-21.973,35.645,29.297,-456.543
1532485345.691,71.777,29.297,36.133,41.504,-476.074
1532485345.695,71.289,32.227,37.598,38.574,-284.180
1532485345.699,65.918,60.059,36.133,27.832,186.035
1532485345.703,64.453,19.043,34.180,28.320,-226.562
1532485345.707,69.824,42.480,26.855,33.691,-484.863
1532485345.711,71.289,81.543,30.273,36.621,153.320
1532485345.715,67.871,29.785,36.133,30.762,86.426
1532485345.719,56.641,136.719,34.180,19.531,480.957
1532485345.722,56.641,75.684,34.668,22.949,661.133
1532485345.726,67.871,-28.809,34.180,28.320,-226.074
1532485345.730,63.965,3.418,32.227,21.973,-383.789
1532485345.734,61.035,16.113,31.738,17.578,-467.285
1532485345.738,62.500,89.844,31.738,22.949,-163.086
1532485345.742,68.848,42.480,36.621,26.367,-109.375
1532485345.746,69.824,6.348,35.645,29.785,-342.773
1532485345.750,64.941,26.367,34.668,29.785,-337.891
1532485345.754,63.965,33.691,35.156,27.832,-542.969
1532485345.758,64.453,136.230,32.715,29.785,125.488
1532485345.762,67.383,117.188,34.668,30.273,855.957
1532485345.765,69.336,-24.414,37.109,31.250,-14.648
1532485345.769,63.477,10.254,37.109,25.391,-544.922
1532485345.773,62.500,32.227,36.133,33.691,-545.898
1532485345.777,65.918,57.617,38.086,39.551,-248.047
1532485345.781,64.941,46.875,38.086,29.785,118.652
1532485345.785,63.477,6.836,37.598,31.250,-298.828
1532485345.789,61.035,36.621,34.668,35.645,-501.953
1532485345.793,62.988,38.086,35.645,38.574,-386.230
1532485345.797,62.012,25.391,34.668,35.156,-190.430
1532485345.801,56.152,33.691,32.715,27.344,7.812
1532485345.805,56.152,80.078,35.645,32.715,76.172
1532485345.808,58.105,55.176,33.203,37.109,109.863
1532485345.812,60.059,-11.719,35.645,39.062,-243.652
1532485345.816,57.129,48.828,39.062,33.691,-206.543
1532485345.820,54.688,171.387,33.203,27.832,726.074
1532485345.824,61.523,38.086,12.695,36.621,283.691
1532485345.828,65.918,-14.648,15.137,39.062,-359.863
1532485345.832,61.035,19.531,40.527,28.320,-393.066
1532485345.836,51.270,38.574,45.410,21.484,-425.293
1532485345.840,50.781,59.082,35.156,27.344,-3.906
1532485345.844,59.570,20.508,20.020,31.250,-185.059
1532485345.847,61.523,26.855,22.461,31.250,-322.754
1532485345.851,53.223,69.336,30.273,30.762,-24.414
1532485345.855,52.734,104.492,32.227,26.367,180.176
1532485345.859,58.594,155.273,30.762,31.738,784.180
1532485345.863,62.988,17.090,33.691,32.715,522.949
1532485345.867,60.547,-35.645,33.203,24.414,-367.676
1532485345.871,55.664,26.855,34.668,24.414,-595.703
1532485345.875,51.270,52.734,34.668,34.668,-486.816
1532485345.879,52.734,82.520,30.762,31.738,110.352
1532485345.883,58.105,23.438,31.250,29.297,-119.141
1532485345.887,52.246,33.203,30.273,28.320,-537.109
1532485345.890,51.270,41.504,28.809,28.809,-441.406
1532485345.894,57.617,38.574,30.273,39.062,-383.301
1532485345.898,49.805,133.301,30.762,39.062,381.836
1532485345.902,46.387,64.941,29.785,31.250,440.430
1532485345.906,52.246,2.930,30.273,37.598,-389.160
1532485345.910,52.246,37.109,29.297,41.016,-329.590
1532485345.914,47.363,10.254,31.738,33.691,-409.180
1532485345.918,42.969,118.164,35.645,25.879,26.855
1532485345.922,49.805,86.426,36.133,26.367,573.730
1532485345.926,56.641,-10.742,36.133,30.273,-180.664
1532485345.930,51.270,17.090,35.156,25.879,-391.602
1532485345.933,44.434,22.461,31.738,22.461,-433.594
1532485345.937,45.898,75.684,30.762,25.879,-341.309
1532485345.941,51.758,61.035,31.738,36.133,-86.914
1532485345.945,50.781,69.824,31.250,39.062,159.668
1532485345.949,46.875,51.758,32.715,35.645,240.723
1532485345.953,48.340,-5.859,34.180,26.367,-431.152
1532485345.957,48.340,81.055,30.762,30.762,-322.754
1532485345.961,46.387,151.367,30.762,41.992,757.812
1532485345.965,48.828,-7.812,31.738,33.691,207.031
1532485345.969,46.387,-20.508,33.691,28.320,-538.086
1532485345.972,53.711,33.203,35.645,38.086,-558.594
1532485345.976,60.547,38.086,32.227,47.852,-342.773
1532485345.980,41.992,19.043,33.691,38.574,28.320
1532485345.984,29.297,12.695,36.621,23.438,-323.242
1532485345.988,35.156,68.359,33.203,21.973,-326.660
1532485345.992,41.016,76.660,29.297,35.156,47.852
1532485345.996,42.480,79.590,28.320,36.133,286.133
1532485346.000,40.039,141.113,27.344,27.832,823.730
1532485346.004,42.480,24.414,26.367,30.762,218.750
1532485346.008,44.922,-15.625,26.367,31.250,-502.441
1532485346.012,46.875,18.555,26.367,26.855,-446.289
1532485346.015,44.922,27.344,27.344,24.414,-376.953
1532485346.019,37.598,54.199,29.785,22.949,-30.273
1532485346.023,38.574,23.926,31.250,29.297,-327.148
1532485346.027,40.039,32.715,29.785,30.273,-412.109
1532485346.031,41.016,16.602,28.809,25.879,-349.609
1532485346.035,38.086,37.109,29.785,20.996,-457.031
1532485346.039,36.133,125.000,30.762,26.367,361.816
1532485346.043,40.039,51.758,32.227,36.133,354.492
1532485346.047,38.574,-0.488,32.715,37.598,-254.883
1532485346.051,35.645,15.625,34.180,29.785,-347.168
1532485346.054,34.668,40.039,35.645,28.320,-537.109
1532485346.058,39.062,149.414,32.227,36.133,287.598
1532485346.062,41.504,41.016,33.691,34.180,592.773
1532485346.066,39.062,-30.273,36.133,26.367,-272.461
1532485346.070,37.598,29.297,35.645,21.484,-507.812
1532485346.074,44.922,42.480,36.133,25.391,-475.098
1532485346.078,48.340,81.055,35.645,30.273,-25.879
1532485346.082,41.992,36.133,33.691,26.367,16.602
1532485346.086,36.621,68.359,29.785,23.926,-2.930
1532485346.090,27.832,56.641,29.297,28.320,63.965
1532485346.094,-4.395,-6.348,29.297,31.250,-364.258
1532485346.097,-47.852,90.332,24.902,22.949,34.180
1532485346.101,-81.055,125.000,26.367,11.719,802.734
1532485346.105,-100.098,4.883,30.762,21.973,-43.945
1532485346.109,-119.141,5.859,31.738,34.668,-470.215
1532485346.113,-145.020,1.465,32.715,27.832,-343.750
1532485346.117,-166.992,38.574,34.668,22.949,-279.297
1532485346.121,-179.199,48.340,33.203,26.367,-105.469
1532485346.125,-187.012,16.113,29.297,29.297,-355.469
1532485346.129,-192.383,35.156,31.250,27.344,-266.113
1532485346.133,-199.707,57.617,33.691,24.414,43.945
1532485346.137,-210.449,90.820,30.273,20.508,219.238
1532485346.140,-211.914,140.625,29.785,24.902,776.855
1532485346.144,-207.031,10.254,30.273,32.715,284.180
1532485346.148,-218.750,-25.391,27.832,21.484,-383.789
1532485346.152,-224.121,21.973,27.832,19.531,-532.227
1532485346.156,-213.379,38.574,28.320,29.785,-472.656
1532485346.160,-204.102,33.691,29.297,37.109,11.719
1532485346.164,-187.500,2.930,31.250,31.738,-206.055
1532485346.168,-163.086,30.273,29.297,24.902,-431.152
1532485346.172,-136.230,34.180,28.809,30.273,-536.621
1532485346.176,-107.422,59.570,29.297,40.039,-340.820
1532485346.179,-91.797,90.332,27.344,35.645,574.707
1532485346.183,-69.336,22.461,34.668,46.387,164.062
1532485346.187,-52.734,34.180,31.250,46.387,-459.473
1532485346.191,-44.434,34.180,20.020,30.762,-382.324
1532485346.195,-29.297,36.133,24.414,35.645,-265.625
1532485346.199,-22.461,145.020,28.809,33.691,604.492
1532485346.203,-6.348,72.754,30.273,27.832,492.188
1532485346.207,13.184,2.441,29.785,36.621,-286.621
1532485346.211,22.461,14.160,31.250,47.363,-365.723
1532485346.215,26.855,26.367,31.738,35.156,-317.871
1532485346.219,27.832,86.426,28.320,21.484,43.457
1532485346.222,39.551,46.875,29.785,26.855,-176.270
1532485346.226,50.293,69.824,33.203,37.598,-64.941
1532485346.230,52.734,37.598,34.668,40.527,209.473
1532485346.234,52.734,-5.859,33.691,26.367,-413.086
1532485346.238,52.734,152.344,31.250,21.484,87.891
1532485346.242,62.012,110.840,29.785,28.809,790.039
1532485346.246,67.383,-32.227,32.715,33.691,-61.523
1532485346.250,61.523,2.930,33.203,28.320,-458.496
1532485346.254,62.988,24.902,28.320,28.320,-556.641
1532485346.258,72.266,81.543,28.320,38.086,-260.742
1532485346.262,77.637,39.062,33.691,43.945,16.113
1532485346.265,78.125,-9.766,35.156,38.086,-332.031
1532485346.269,78.613,43.457,32.227,29.785,-425.293
1532485346.273,83.008,77.148,33.691,35.156,-141.113
1532485346.277,83.496,104.492,35.645,38.086,342.773
1532485346.281,78.125,111.816,33.203,27.344,819.824
1532485346.285,79.590,-9.766,31.738,27.344,16.113
1532485346.289,83.496,-2.930,28.809,31.738,-595.703
1532485346.293,82.520,29.785,29.297,37.598,-483.887
1532485346.297,76.660,24.414,32.715,35.156,-290.527
1532485346.301,75.195,12.207,33.203,29.785,-79.102
1532485346.304,76.660,20.508,31.250,28.320,-424.805
1532485346.308,81.055,42.969,31.738,33.691,-441.895
1532485346.312,84.961,24.902,34.180,45.410,-333.496
1532485346.316,79.590,31.738,33.203,37.598,-270.020
1532485346.320,72.266,87.891,32.715,31.738,267.090
1532485346.324,76.172,83.984,30.273,41.992,319.336
1532485346.328,79.102,30.762,29.297,38.574,-27.832
1532485346.332,73.242,-0.977,34.180,29.297,-323.730
1532485346.336,71.289,52.734,37.598,24.414,-342.773
1532485346.340,70.312,182.129,35.156,23.438,659.668
1532485346.344,72.754,41.016,35.645,36.621,464.844
1532485346.347,76.172,-30.273,34.180,39.551,-306.152
1532485346.351,71.777,22.461,33.203,27.344,-465.820
1532485346.355,76.660,52.734,33.203,28.809,-471.680
1532485346.359,80.566,68.848,33.203,32.715,74.707
1532485346.363,75.684,15.625,34.668,36.621,-84.473
1532485346.367,77.637,64.941,30.762,35.156,-71.777
1532485346.371,80.566,65.918,29.785,26.367,25.879
1532485346.375,80.566,34.180,34.180,31.738,-343.262
1532485346.379,73.242,153.809,32.227,34.668,500.000
1532485346.383,73.242,46.875,30.762,28.320,678.223
1532485346.387,76.172,-26.367,33.203,28.320,-370.605
1532485346.390,76.660,36.621,32.715,27.344,-548.340
1532485346.394,74.219,35.156,31.738,32.227,-402.344
1532485346.398,66.406,81.543,32.227,32.227,21.973
1532485346.402,64.941,41.016,37.598,23.926,-142.090
1532485346.406,70.312,25.879,37.109,24.902,-557.129
1532485346.410,71.777,55.176,33.691,36.133,-326.172
1532485346.414,68.848,62.012,37.109,41.016,25.391
1532485346.418,70.801,129.395,41.504,39.062,467.773
1532485346.422,74.219,117.188,41.504,29.785,758.301
1532485346.426,74.707,-1.465,41.016,40.527,-82.031
1532485346.429,72.754,6.348,39.062,45.898,-435.059
1532485346.433,69.824,22.949,35.645,31.250,-482.422
1532485346.437,69.336,74.219,34.180,32.715,-405.273
1532485346.441,76.660,57.617,35.645,42.969,-144.043
1532485346.445,77.637,15.137,36.133,43.457,-322.754
1532485346.449,70.801,30.762,31.738,35.156,-359.375
1532485346.453,66.895,35.156,27.344,29.785,-521.973
1532485346.457,66.895,73.242,31.738,32.715,-382.324
1532485346.461,63.965,87.402,36.621,39.551,337.402
1532485346.465,58.105,15.137,35.156,33.203,149.414
1532485346.469,50.781,20.020,30.273,20.996,-338.867
1532485346.472,53.711,34.180,30.762,19.531,-513.672
1532485346.476,55.176,67.871,28.320,25.879,-258.301
1532485346.480,48.828,153.809,28.320,24.414,750.488
1532485346.484,48.828,20.996,26.367,28.320,254.395
1532485346.488,56.641,-4.395,9.766,36.621,-522.461
1532485346.492,59.082,39.062,14.648,35.645,-482.422
1532485346.496,56.641,31.738,30.273,27.344,-241.211
1532485346.500,56.152,25.879,32.227,25.391,82.520
1532485346.504,54.688,18.066,26.367,28.320,-328.613
1532485346.508,50.781,95.703,28.809,31.738,-56.641
1532485346.511,52.246,64.941,37.598,34.668,272.461
1532485346.515,53.223,15.625,35.156,27.344,-78.613
1532485346.519,47.852,137.207,29.785,20.996,640.137
1532485346.523,51.270,44.922,33.203,29.785,472.168
1532485346.527,54.199,-20.020,34.668,40.039,-345.215
1532485346.531,54.199,4.883,29.785,26.855,-393.555
1532485346.535,51.758,26.367,29.297,32.227,-447.266
1532485346.539,47.363,82.520,28.320,47.852,-20.996
1532485346.543,45.410,30.762,29.785,47.363,-132.324
1532485346.547,41.016,8.301,31.250,30.273,-374.512
1532485346.551,36.621,34.668,25.879,26.367,-344.727
1532485346.554,34.668,86.914,24.902,16.113,-146.484
1532485346.558,35.156,152.344,25.879,-1.465,588.867
1532485346.562,39.551,49.805,22.949,5.859,719.727
1532485346.566,40.039,-40.527,26.855,8.301,-203.125
1532485346.570,36.133,14.648,31.250,6.836,-583.008
1532485346.574,41.504,37.598,29.785,14.648,-571.777
1532485346.578,41.992,83.496,24.902,20.020,-112.793
1532485346.582,41.504,30.273,25.879,22.461,-47.852
1532485346.586,41.504,16.113,26.367,19.043,-493.164
1532485346.590,44.434,50.293,23.438,18.066,-486.816
1532485346.594,44.922,31.738,24.414,26.367,-430.176
1532485346.597,39.551,67.383,25.879,25.391,-102.051
1532485346.601,44.434,90.820,24.902,20.996,333.984
1532485346.605,48.340,39.551,26.367,27.832,22.949
1532485346.609,51.758,22.949,25.391,33.203,-254.883
1532485346.613,51.758,14.648,25.879,34.668,-348.145
1532485346.617,49.805,51.758,29.297,35.645,-123.047
1532485346.621,50.293,55.664,26.367,30.762,352.051
1532485346.625,54.688,49.316,23.438,36.133,-17.578
1532485346.629,55.664,39.551,24.414,43.945,-140.137
1532485346.633,52.246,-4.395,26.855,41.504,-381.348
1532485346.636,50.293,75.195,26.855,34.668,-283.691
1532485346.640,54.688,110.840,27.832,41.016,562.012
1532485346.644,62.500,16.602,29.785,48.828,83.008
1532485346.648,56.641,62.988,24.902,37.109,71.289
1532485346.652,48.828,23.926,21.973,37.598,-26.855
1532485346.656,50.781,42.969,25.391,45.898,-379.883
1532485346.660,51.270,166.504,24.414,37.109,692.871
1532485346.664,53.711,11.230,26.855,41.016,371.582
1532485346.668,50.293,-29.297,28.809,39.062,-482.422
1532485346.672,44.434,31.250,24.902,21.484,-605.469
1532485346.676,47.852,41.992,25.391,28.320,-442.871
1532485346.679,44.922,37.598,26.367,38.086,108.398
1532485346.683,41.504,6.836,28.320,26.855,-209.473
1532485346.687,42.969,32.715,28.809,21.484,-560.059
1532485346.691,43.457,36.621,25.879,32.715,-445.312
1532485346.695,47.363,79.102,23.926,37.109,34.180
1532485346.699,45.898,139.160,23.438,24.414,834.473
1532485346.703,44.434,13.672,26.367,18.555,478.027
1532485346.707,51.270,-23.438,26.855,27.832,-418.457
1532485346.711,54.199,13.672,26.367,25.391,-461.426
1532485346.715,49.805,14.648,29.785,21.484,-389.160
1532485346.719,45.898,81.543,28.809,30.762,-21.973
1532485346.722,52.734,39.551,27.832,36.621,-229.492
1532485346.726,58.594,22.461,30.273,35.156,-466.309
1532485346.730,56.152,17.090,30.273,31.738,-308.594
1532485346.734,52.734,20.508,32.227,37.598,-449.219
1532485346.738,50.781,103.027,28.809,26.367,-139.648
1532485346.742,56.152,100.098,26.367,26.855,297.852
1532485346.746,57.129,27.344,29.297,39.551,154.297
1532485346.750,42.969,14.648,27.832,35.156,-185.059
1532485346.754,47.363,12.695,27.344,27.832,-557.617
1532485346.758,48.828,115.723,23.926,31.738,-82.520
1532485346.761,44.922,130.371,22.949,38.086,813.965
1532485346.765,46.387,-30.273,24.902,29.297,43.945
1532485346.769,46.387,-6.348,22.949,29.785,-536.133
1532485346.773,51.270,21.973,20.508,39.062,-536.621
1532485346.777,48.340,51.758,21.484,39.062,-245.117
1532485346.781,44.434,26.367,23.926,35.645,24.414
1532485346.785,45.898,16.113,23.926,30.273,-377.930
1532485346.789,49.316,101.562,24.902,36.133,-70.801
1532485346.793,51.758,32.715,25.879,48.340,20.996
1532485346.797,45.898,29.297,26.367,47.852,-105.469
1532485346.801,39.062,143.066,25.391,34.180,737.305
1532485346.804,46.387,19.043,29.785,31.738,138.184
1532485346.808,50.293,-13.184,31.738,40.039,-533.691
1532485346.812,44.434,19.043,27.344,43.457,-404.297
1532485346.816,40.527,19.043,19.043,37.598,-317.383
1532485346.820,37.598,29.297,18.066,29.297,-72.266
1532485346.824,45.410,29.785,29.297,35.156,-345.703
1532485346.828,45.410,33.203,30.762,39.062,-350.586
1532485346.832,34.668,12.207,22.949,28.320,-326.660
1532485346.836,30.273,88.867,24.414,29.785,-71.289
1532485346.840,32.715,181.641,25.391,25.391,798.340
1532485346.844,46.387,26.855,26.367,24.902,409.668
1532485346.847,47.363,-29.785,26.367,37.109,-316.895
1532485346.851,36.621,12.695,23.438,28.809,-493.652
1532485346.855,34.668,39.062,24.414,20.996,-516.113
1532485346.859,40.527,63.477,21.973,28.320,52.734
1532485346.863,47.363,8.789,20.996,38.574,-99.121
1532485346.867,41.992,16.602,19.531,32.715,-421.387
1532485346.871,41.504,32.227,20.508,29.297,-479.980
1532485346.875,47.852,51.270,21.973,34.180,-431.641
1532485346.879,43.945,83.496,21.484,35.156,201.172
1532485346.883,33.203,69.336,22.461,34.668,378.418
1532485346.886,37.109,68.359,23.926,37.109,173.828
1532485346.890,46.875,23.438,26.367,34.668,-84.473
1532485346.894,41.992,5.859,26.855,36.621,-394.043
1532485346.898,30.762,125.488,26.855,31.738,328.125
1532485346.902,31.250,76.660,27.832,20.996,743.164
1532485346.906,39.551,-16.602,27.344,27.344,-250.000
1532485346.910,38.086,22.461,24.902,38.086,-461.426
1532485346.914,33.203,10.742,22.461,39.551,-376.465
1532485346.918,31.738,69.824,25.391,32.715,-162.109
1532485346.922,18.066,48.340,26.855,32.227,-160.645
1532485346.926,-7.812,26.855,23.926,36.621,-431.152
1532485346.929,-20.508,88.867,25.879,36.133,182.129
1532485346.933,-17.090,17.578,24.902,33.203,113.770
1532485346.937,-9.277,71.777,27.832,31.738,-101.074
1532485346.941,-2.930,143.066,30.273,32.715,751.465
1532485346.945,3.418,-18.555,30.762,32.715,165.527
1532485346.949,3.906,-24.902,29.297,36.621,-453.125
1532485346.953,1.953,12.695,26.855,33.691,-544.922
1532485346.957,-10.742,39.551,27.832,27.832,-462.402
1532485346.961,-39.551,29.297,27.344,36.133,-34.180
1532485346.965,-59.082,-0.977,26.855,36.133,-225.098
1532485346.968,-47.852,20.020,26.855,27.344,-440.918
1532485346.972,-27.344,27.832,28.320,28.320,-505.859
1532485346.976,-21.484,100.586,26.855,26.855,80.078
1532485346.980,-18.555,142.578,25.391,28.320,885.742
1532485346.984,-6.836,0.977,29.785,30.273,179.199
1532485346.988,-1.953,-12.695,28.809,27.344,-547.852
1532485346.992,3.418,25.879,27.832,33.203,-533.691
1532485346.996,6.348,18.555,30.273,36.621,-320.312
1532485347.000,6.836,17.090,29.297,31.738,37.109
1532485347.004,9.277,5.371,28.320,27.344,-370.117
1532485347.008,13.184,27.344,31.250,29.785,-520.508
1532485347.011,20.020,15.625,32.715,40.527,-369.629
1532485347.015,17.578,22.461,31.738,37.598,-289.062
1532485347.019,20.020,57.617,33.691,29.297,86.426
1532485347.023,33.691,78.125,31.250,33.203,165.039
1532485347.027,41.016,71.289,29.785,40.039,220.215
1532485347.031,37.109,-3.906,33.691,36.621,-44.922
1532485347.035,26.855,18.066,30.273,20.996,-428.223
1532485347.039,20.020,168.457,29.785,7.812,486.816
1532485347.043,6.836,60.059,34.668,20.996,665.527
1532485347.047,-18.066,-1.465,34.180,32.715,-53.223
1532485347.051,-57.129,16.602,38.086,19.531,-270.508
1532485347.054,-98.633,19.043,46.387,2.930,-540.039
1532485347.058,-119.629,98.633,44.434,4.395,-29.297
1532485347.062,-132.812,19.043,46.387,9.277,-13.184
1532485347.066,-169.434,1.953,48.828,-19.043,-387.207
1532485347.070,-178.711,89.844,43.945,-28.809,45.410
1532485347.074,-152.344,30.762,46.875,-18.555,-94.727
1532485347.078,-145.020,97.656,51.758,-32.715,154.297
1532485347.082,-139.648,93.750,55.176,-45.410,799.316
1532485347.086,-131.348,-28.320,52.734,-61.035,-150.879
1532485347.090,-126.465,14.160,53.711,-62.988,-602.539
1532485347.093,-122.070,21.484,59.570,-61.035,-474.121
1532485347.097,-115.234,48.340,60.059,-74.707,-177.246
1532485347.101,-112.305,28.809,64.453,-74.707,-80.566
1532485347.105,-110.352,16.113,62.012,-75.684,-477.539
1532485347.109,-98.145,40.527,55.176,-77.637,-412.598
1532485347.113,-91.309,16.602,56.152,-79.590,-347.656
1532485347.117,-82.520,98.145,53.223,-79.102,120.117
1532485347.121,-68.848,152.344,50.781,-77.148,829.590
1532485347.125,-52.734,11.719,50.781,-67.383,91.797
1532485347.129,-41.504,-8.301,53.711,-58.594,-420.410
1532485347.133,-35.645,16.602,56.641,-60.059,-422.363
1532485347.136,-21.973,39.551,55.176,-41.992,-445.312
1532485347.140,-3.906,48.340,54.688,-23.926,-124.023
1532485347.144,2.441,25.879,51.758,-21.973,-276.855
1532485347.148,14.648,21.484,44.922,-16.113,-366.211
1532485347.152,23.926,25.879,39.551,-1.953,-480.957
1532485347.156,32.715,50.781,37.109,6.348,-437.500
1532485347.160,50.293,57.617,30.273,17.578,56.641
1532485347.164,65.430,65.430,29.297,29.297,262.695
1532485347.168,70.312,38.574,30.273,27.344,64.941
1532485347.172,75.684,5.859,22.461,37.598,-435.059
1532485347.176,92.285,51.270,20.508,48.828,-391.113
1532485347.179,98.145,149.414,22.949,49.316,690.430
1532485347.183,99.609,11.230,20.020,49.805,449.707
1532485347.187,113.281,-33.691,16.113,54.199,-478.516
1532485347.191,125.000,19.043,14.160,62.500,-531.250
1532485347.195,127.441,25.391,7.812,64.941,-343.262
1532485347.199,129.395,48.828,4.883,71.777,152.832
1532485347.203,132.324,1.465,6.348,75.195,-223.145
1532485347.207,136.719,23.926,2.441,75.684,-532.715
1532485347.211,141.113,60.547,5.859,75.684,20.996
1532485347.215,142.578,12.207,10.742,75.684,23.926
1532485347.218,143.066,114.746,8.789,79.590,425.781
1532485347.222,151.855,59.082,8.301,82.520,661.621
1532485347.226,154.785,-50.293,5.371,91.309,-230.469
1532485347.230,151.367,-18.555,7.324,91.309,-403.809
1532485347.234,153.320,-6.348,7.324,85.938,-458.984
1532485347.238,152.344,69.824,6.836,83.496,-210.938
1532485347.242,155.273,29.785,10.254,90.820,-137.207
1532485347.246,154.785,-13.184,9.277,86.426,-342.773
1532485347.250,144.043,-0.488,10.742,77.148,-325.195
1532485347.254,145.020,7.812,11.719,85.449,-540.527
1532485347.258,148.926,120.117,11.230,90.332,77.148
1532485347.261,146.484,103.516,12.207,85.449,852.539
1532485347.265,153.320,-49.316,14.160,85.449,10.742
1532485347.269,150.879,-9.277,13.184,79.590,-548.340
1532485347.273,142.578,23.438,14.160,77.148,-563.965
1532485347.277,142.090,41.992,12.695,80.078,-307.617
1532485347.281,139.160,18.555,12.207,77.148,-2.930
1532485347.285,134.277,-2.441,11.230,67.871,-367.188
1532485347.289,134.766,29.297,13.672,68.848,-513.672
1532485347.293,139.648,30.762,18.066,75.195,-418.457
1532485347.297,134.766,19.043,17.090,70.312,-200.684
1532485347.300,125.000,21.484,14.160,62.012,20.996
1532485347.304,119.629,76.660,12.695,49.805,93.750
1532485347.308,121.094,58.594,17.090,54.199,159.668
1532485347.312,120.117,-18.555,20.508,75.195,-221.191
1532485347.316,111.816,30.762,20.020,67.383,-204.590
1532485347.320,108.398,151.855,19.043,51.270,736.816
1532485347.324,111.816,19.531,18.066,53.711,283.691
1532485347.328,108.887,-32.227,19.531,58.594,-368.652
1532485347.332,98.145,4.395,20.020,56.641,-367.188
1532485347.336,88.379,24.414,17.578,51.758,-393.555
1532485347.340,94.727,52.246,18.555,41.504,7.324
1532485347.343,106.445,12.695,20.996,53.223,-213.379
1532485347.347,107.422,27.344,21.484,62.012,-320.312
1532485347.351,105.469,72.266,25.879,51.758,5.859
1532485347.355,102.051,69.336,24.414,47.363,-4.395
1532485347.359,97.168,90.820,20.508,44.922,480.469
1532485347.363,97.168,14.160,21.973,49.316,190.918
1532485347.367,91.309,1.465,21.973,47.363,-385.742
1532485347.371,87.891,28.320,20.508,37.598,-419.922
1532485347.375,94.727,41.504,21.484,51.758,-492.676
1532485347.379,94.727,149.902,22.949,53.223,477.539
1532485347.383,95.215,46.387,26.367,35.156,698.242
1532485347.386,93.262,-25.391,25.879,37.109,-321.777
1532485347.390,93.262,31.738,24.414,43.945,-511.230
1532485347.394,94.238,28.320,27.344,46.875,-419.922
1532485347.398,83.008,106.445,27.344,38.574,341.309
1532485347.402,80.078,38.086,25.391,38.574,476.074
1532485347.406,80.566,-11.230,24.902,41.992,-410.156
1532485347.410,79.590,23.438,24.902,46.387,-432.617
1532485347.414,78.613,6.348,25.879,40.527,-426.758
1532485347.418,69.824,76.172,25.879,29.297,-88.379
1532485347.422,65.918,45.410,25.391,29.785,155.273
1532485347.425,69.336,5.371,28.809,33.691,-353.027
1532485347.429,65.430,16.113,30.762,42.969,-343.262
1532485347.433,60.059,3.906,30.273,34.668,-398.926
1532485347.437,55.176,58.105,29.297,34.180,-319.336
1532485347.441,53.711,53.711,30.273,49.316,-62.500
1532485347.445,53.711,56.152,30.762,44.434,145.508
1532485347.449,49.805,30.273,28.320,34.180,189.941
1532485347.453,48.340,-15.137,28.809,29.297,-414.551
1532485347.457,48.340,75.684,29.785,24.902,-320.312
1532485347.461,43.945,143.066,31.250,22.949,749.512
1532485347.465,43.945,-9.766,34.668,36.133,236.816
1532485347.468,46.875,11.230,31.738,33.691,-338.379
1532485347.472,53.223,38.574,29.785,31.250,-382.812
1532485347.476,53.223,13.184,30.762,35.645,-370.605
1532485347.480,51.270,6.836,32.715,35.156,76.172
1532485347.484,53.711,-10.742,30.762,33.203,-277.344
1532485347.488,49.805,39.551,30.273,31.250,-482.910
1532485347.492,45.410,70.312,31.250,38.086,-33.691
1532485347.496,42.969,42.969,30.762,38.086,188.477
1532485347.500,37.598,115.723,30.273,37.598,743.164
1532485347.504,42.480,15.137,31.738,35.645,285.645
1532485347.508,49.316,-24.414,34.180,39.551,-494.141
1532485347.511,49.805,16.113,33.691,47.363,-445.312
1532485347.515,43.945,17.090,30.762,41.992,-351.074
1532485347.519,41.992,43.457,29.297,32.715,17.578
1532485347.523,49.805,19.531,30.762,28.809,-302.246
1532485347.527,52.734,25.391,32.227,42.480,-425.781
1532485347.531,48.340,4.395,29.785,45.898,-324.219
1532485347.535,43.457,34.180,28.320,34.668,-434.082
1532485347.539,39.551,128.906,27.344,30.273,331.055
1532485347.543,42.480,51.758,28.320,35.645,358.887
1532485347.547,44.922,-5.859,26.855,34.668,-234.863
1532485347.550,38.574,14.160,26.367,25.391,-300.293
1532485347.554,39.062,31.250,24.902,20.020,-521.973
1532485347.558,43.457,145.020,24.902,24.414,216.797
1532485347.562,43.945,42.969,27.344,25.879,615.234
1532485347.566,36.133,-48.828,24.902,10.742,-225.098
1532485347.570,31.738,14.160,25.391,-0.488,-501.465
1532485347.574,36.133,34.180,28.809,15.137,-485.352
1532485347.578,37.109,80.566,26.367,18.555,-47.852
1532485347.582,38.086,31.738,26.855,15.137,40.039
1532485347.586,35.156,59.082,26.855,16.602,-14.160
1532485347.590,37.109,79.590,24.414,18.066,170.410
1532485347.593,44.922,-5.859,25.391,26.855,-257.324
1532485347.597,44.434,75.195,27.344,25.391,-6.348
1532485347.601,42.969,134.277,28.809,18.066,799.316
1532485347.605,49.805,4.395,28.809,21.973,-39.551
1532485347.609,50.293,4.883,24.414,29.297,-508.301
1532485347.613,45.410,13.184,25.879,29.297,-360.840
1532485347.617,40.039,29.785,28.809,25.391,-302.734
1532485347.621,40.039,37.598,30.273,24.902,-129.395
1532485347.625,46.875,21.484,29.785,27.832,-384.766
1532485347.629,46.387,35.645,26.855,35.645,-306.152
1532485347.633,39.062,43.457,26.367,34.668,-0.977
1532485347.636,38.086,83.008,27.832,29.785,208.984
1532485347.640,41.504,151.855,30.273,29.785,785.156
1532485347.644,42.969,12.695,32.227,36.133,288.086
1532485347.648,37.109,-40.039,31.250,32.227,-370.117
1532485347.652,37.109,13.672,32.715,28.320,-521.484
1532485347.656,40.039,34.180,31.250,19.531,-490.723
1532485347.660,42.969,35.156,27.832,20.996,8.789
1532485347.664,48.340,2.441,31.738,34.668,-184.570
1532485347.668,54.199,24.902,39.551,37.598,-420.410
1532485347.672,60.059,41.992,43.945,40.039,-525.391
1532485347.675,62.988,63.965,40.527,44.434,-389.160
1532485347.679,62.012,104.004,39.062,38.086,536.133
1532485347.683,59.570,56.641,38.574,32.227,492.188
1532485347.687,59.082,20.508,35.645,32.715,-245.117
1532485347.691,64.453,20.020,36.621,36.621,-435.547
1532485347.695,65.430,39.551,36.621,48.340,-304.688
1532485347.699,57.617,137.695,35.645,38.086,575.684
1532485347.703,54.688,39.062,35.645,22.949,367.188
1532485347.707,58.594,-0.977,32.227,32.715,-451.660
1532485347.711,57.617,32.715,34.180,37.598,-381.348
1532485347.715,51.758,22.949,37.109,26.855,-310.059
1532485347.718,47.852,74.219,35.645,19.531,26.855
1532485347.722,52.734,36.621,34.668,24.902,-156.250
1532485347.726,53.223,68.359,32.715,31.738,9.277
1532485347.730,50.781,58.105,33.691,24.414,359.863
1532485347.734,48.340,-8.301,35.156,17.090,-296.387
1532485347.738,38.574,124.023,30.273,20.996,40.039
1532485347.742,40.527,104.980,29.785,24.902,799.805
1532485347.746,46.387,-35.645,31.738,28.809,-12.695
1532485347.750,42.480,-10.742,32.715,24.902,-440.918
1532485347.754,41.504,13.184,31.250,13.184,-540.039
1532485347.757,43.945,71.289,28.320,22.461,-302.246
1532485347.761,44.922,39.551,29.785,31.738,5.371
1532485347.765,47.363,-8.789,30.273,20.508,-315.430
1532485347.769,49.805,36.621,29.297,17.578,-425.293
1532485347.773,52.734,79.590,29.785,26.855,-112.305
1532485347.777,57.617,107.422,32.227,31.738,367.188
1532485347.781,54.688,115.234,31.250,24.902,825.684
1532485347.785,51.270,-2.930,32.227,29.297,53.711
1532485347.789,50.293,1.953,31.738,32.715,-589.844
1532485347.793,53.223,39.062,32.715,31.250,-494.629
1532485347.797,52.246,22.461,33.691,37.109,-283.203
1532485347.800,48.828,11.230,30.273,27.832,-55.176
1532485347.804,46.387,17.090,31.738,22.949,-422.363
1532485347.808,46.875,38.574,32.715,26.855,-464.844
1532485347.812,47.363,23.926,28.320,33.691,-342.773
1532485347.816,43.457,23.438,27.344,30.762,-273.438
1532485347.820,43.457,70.801,29.297,23.926,211.914
1532485347.824,49.805,44.922,27.832,32.227,88.867
1532485347.828,49.805,16.602,26.855,28.320,-201.172
1532485347.832,45.898,0.977,29.297,20.508,-308.105
1532485347.836,45.410,43.945,30.762,15.137,-346.191
1532485347.840,44.922,171.875,28.809,19.531,644.531
1532485347.843,53.223,36.133,31.738,37.598,507.812
1532485347.847,54.199,-33.203,33.691,33.203,-267.090
1532485347.851,47.363,11.230,33.691,22.461,-437.012
1532485347.855,48.340,43.457,31.250,20.508,-456.055
1532485347.859,51.270,71.777,28.809,29.297,80.078
1532485347.863,51.270,13.672,34.180,40.039,-49.805
1532485347.867,44.922,61.035,34.180,34.180,43.945
1532485347.871,45.898,30.762,31.250,31.250,15.137
1532485347.875,52.246,8.789,29.785,32.227,-448.730
1532485347.879,51.758,145.996,30.762,33.691,460.938
1532485347.882,49.805,37.598,32.715,31.738,714.355
1532485347.886,48.828,-38.086,35.156,32.715,-356.934
1532485347.890,55.664,56.641,37.109,38.086,-396.973
1532485347.894,63.477,29.297,32.715,48.340,-245.117
1532485347.898,49.316,55.176,31.250,38.574,-1.465
1532485347.902,37.109,30.762,33.691,16.602,-123.535
1532485347.906,43.945,12.207,34.180,22.461,-553.711
1532485347.910,52.246,48.340,34.668,39.062,-338.867
1532485347.914,54.688,61.035,33.691,39.551,20.020
1532485347.918,50.781,99.609,32.227,28.809,403.809
1532485347.922,51.270,101.074,34.668,17.578,755.859
1532485347.925,60.059,-4.395,36.133,23.926,-49.805
1532485347.929,62.012,-4.395,37.598,33.691,-428.223
1532485347.933,55.664,13.184,39.062,23.926,-452.637
1532485347.937,51.758,61.035,36.621,23.926,-410.156
1532485347.941,53.711,50.293,35.645,41.992,-149.414
1532485347.945,58.594,13.184,35.156,45.410,-322.266
1532485347.949,56.152,19.531,33.691,35.645,-357.910
1532485347.953,53.223,19.531,31.250,27.344,-507.812
1532485347.957,55.176,54.688,32.715,34.668,-407.715
1532485347.961,53.223,80.566,32.715,42.480,336.914
1532485347.965,52.246,13.184,32.227,46.875,240.723
1532485347.968,50.781,9.766,36.621,36.621,-295.898
1532485347.972,53.223,16.113,34.180,28.809,-517.090
1532485347.976,52.734,48.340,31.250,38.574,-265.137
1532485347.980,45.898,146.484,32.715,34.668,747.559
1532485347.984,43.945,15.137,32.715,24.902,275.391
1532485347.988,48.340,-9.766,35.156,29.297,-517.090
1532485347.992,49.805,31.738,34.668,40.039,-490.723
1532485347.996,45.410,24.414,29.785,42.480,-253.418
1532485348.000,44.434,25.391,29.785,38.574,102.539
1532485348.004,48.340,15.137,30.273,36.133,-318.848
1532485348.007,50.293,96.191,31.250,37.109,-78.613
1532485348.011,49.805,66.895,33.203,40.527,305.664
1532485348.015,49.316,8.789,33.203,29.297,-95.215
1532485348.019,43.945,141.602,27.832,19.043,611.816
1532485348.023,47.363,41.016,25.879,28.809,514.648
1532485348.027,51.270,-35.156,30.762,33.203,-347.656
1532485348.031,45.898,4.883,29.785,25.391,-394.043
1532485348.035,43.945,33.203,27.832,20.508,-453.613
1532485348.039,43.457,91.797,28.320,21.973,-52.734
1532485348.043,47.363,36.133,28.320,23.438,-145.020
1532485348.047,49.805,8.301,28.809,27.344,-387.207
1532485348.050,42.969,24.414,28.809,20.996,-339.355
1532485348.054,39.062,63.965,26.367,13.184,-263.672
1532485348.058,44.922,150.879,25.391,26.367,446.777
1532485348.062,51.758,56.152,24.902,30.762,753.418
1532485348.066,50.781,-45.898,28.320,25.879,-166.016
1532485348.070,44.434,11.230,31.738,21.973,-576.660
1532485348.074,46.387,28.320,30.762,20.508,-574.707
1532485348.078,47.363,75.195,27.344,23.438,-150.879
1532485348.082,49.805,27.344,28.320,26.367,-38.086
1532485348.086,49.805,3.418,30.762,24.414,-470.703
1532485348.090,49.316,37.109,31.250,28.809,-483.398
1532485348.093,56.152,23.926,29.785,32.227,-421.387
1532485348.097,52.734,56.152,30.273,20.996,-99.121
1532485348.101,45.410,77.148,29.297,24.414,352.539
1532485348.105,47.852,46.875,32.227,36.133,120.117
1532485348.109,53.223,21.973,34.668,36.133,-169.434
1532485348.113,49.316,0.488,32.227,35.156,-348.633
1532485348.117,40.039,44.922,30.762,22.949,-131.836
1532485348.121,37.109,50.293,31.250,23.438,401.367
1532485348.125,41.504,4.395,33.691,36.133,-145.020
1532485348.129,41.016,24.902,34.180,37.598,-306.152
1532485348.132,36.133,-5.859,30.273,27.344,-352.051
1532485348.136,35.156,56.641,26.367,22.949,-300.781
1532485348.140,37.109,145.020,26.367,21.484,664.062
1532485348.144,44.434,16.602,30.762,27.832,235.840
1532485348.148,43.457,36.621,30.762,30.273,90.820
1532485348.152,38.086,15.137,28.809,14.160,65.430
1532485348.156,41.016,23.926,30.273,9.277,-357.422
1532485348.160,46.875,159.180,31.250,15.137,667.480
1532485348.164,49.805,3.418,32.715,22.949,401.367
1532485348.168,45.410,-43.945,32.227,14.648,-479.492
1532485348.172,45.410,18.555,28.320,13.184,-614.258
1532485348.175,49.805,33.691,24.414,28.809,-466.309
1532485348.179,44.922,35.645,26.367,30.762,104.492
1532485348.183,42.969,-2.441,28.320,20.996,-190.430
1532485348.187,43.457,22.949,25.879,18.066,-557.129
1532485348.191,42.969,37.109,25.391,20.020,-457.031
1532485348.195,39.551,77.148,26.367,22.949,0.000
1532485348.199,34.180,134.277,28.320,16.602,806.152
1532485348.203,39.551,20.996,32.227,18.555,514.648
1532485348.207,44.922,-27.344,32.227,36.621,-413.086
1532485348.211,44.922,7.812,29.297,27.344,-479.004
1532485348.214,42.969,7.324,32.715,14.160,-406.250
1532485348.218,36.621,69.824,32.715,15.625,-52.246
1532485348.222,39.062,29.297,30.273,13.184,-233.398
1532485348.226,42.969,12.695,30.273,22.461,-482.422
1532485348.230,41.016,12.207,28.809,23.926,-308.105
1532485348.234,37.109,13.184,31.738,18.555,-450.684
1532485348.238,33.203,92.285,32.715,19.531,-171.387
1532485348.242,37.598,86.426,31.738,28.320,275.391
1532485348.246,43.945,7.812,33.691,26.855,76.172
1532485348.250,42.480,0.000,35.645,19.043,-212.891
1532485348.254,39.551,8.789,36.133,26.855,-527.344
1532485348.257,38.086,104.980,32.715,34.180,-132.324
1532485348.261,41.992,123.047,30.273,35.645,802.246
1532485348.265,44.434,-33.203,32.715,33.691,94.238
1532485348.269,39.551,-14.648,33.203,25.391,-514.160
1532485348.273,46.875,24.902,33.203,31.250,-528.809
1532485348.277,52.734,42.969,31.250,34.668,-270.508
1532485348.281,48.828,13.184,30.273,25.391,28.320
1532485348.285,45.410,7.812,30.273,29.297,-333.496
1532485348.289,47.363,87.402,30.273,30.762,-28.320
1532485348.293,51.758,19.531,28.809,35.645,8.789
1532485348.297,52.246,20.508,27.344,37.109,-130.371
1532485348.300,47.363,131.836,26.367,21.973,748.535
1532485348.304,47.363,8.789,29.785,25.391,173.828
1532485348.308,48.828,-15.137,32.227,35.156,-536.133
1532485348.312,46.387,47.852,31.250,37.109,-240.723
1532485348.316,41.504,19.531,25.879,20.996,-151.367
1532485348.320,39.062,12.695,22.461,15.137,-71.289
1532485348.324,41.992,19.043,24.414,25.879,-354.980
1532485348.328,44.922,13.672,23.926,23.926,-399.414
1532485348.332,45.898,-0.977,26.367,28.320,-345.215
1532485348.336,40.527,83.984,24.902,23.926,-32.715
1532485348.339,37.598,162.598,22.461,17.090,803.711
1532485348.343,43.457,7.812,27.832,26.855,426.758
1532485348.347,43.457,-48.340,32.227,31.250,-319.336
1532485348.351,37.598,-1.953,32.227,25.879,-507.324
1532485348.355,37.598,39.062,32.227,24.414,-537.109
1532485348.359,37.109,68.848,30.762,27.344,14.160
1532485348.363,29.785,0.977,28.809,25.879,-109.863
1532485348.367,27.344,2.441,29.785,20.020,-425.781
1532485348.371,32.715,25.391,30.273,14.648,-485.840
1532485348.375,37.598,44.922,30.762,21.484,-472.656
1532485348.379,36.621,84.473,28.320,25.879,149.902
1532485348.382,32.715,55.176,27.344,21.973,358.398
1532485348.386,31.250,45.410,28.320,24.902,54.199
1532485348.390,36.621,23.926,30.273,36.133,-202.148
1532485348.394,41.992,2.930,31.738,29.785,-427.734
1532485348.398,33.203,115.723,31.250,23.926,259.766
1532485348.402,29.297,76.660,31.738,21.484,757.812
1532485348.406,31.738,-24.902,36.133,23.438,-221.680
1532485348.410,32.715,13.184,36.621,28.809,-478.516
1532485348.414,33.691,1.953,35.156,23.438,-375.000
1532485348.418,28.809,60.059,33.203,19.531,-177.734
1532485348.422,31.250,42.480,33.203,25.879,-152.832
1532485348.425,38.086,13.184,34.180,37.598,-436.035
1532485348.429,36.621,75.684,34.180,37.598,99.609
1532485348.433,34.668,38.086,33.691,34.180,197.266
1532485348.437,32.715,67.383,31.250,36.133,-20.996
1532485348.441,33.691,139.648,31.738,28.320,713.867
1532485348.445,41.504,-9.277,34.668,38.574,177.246
1532485348.449,39.551,-34.180,32.715,43.457,-460.938
1532485348.453,34.180,9.766,31.738,25.391,-541.504
1532485348.457,39.062,37.109,32.227,28.809,-477.051
1532485348.461,41.016,24.414,30.762,49.316,-58.594
1532485348.464,35.645,-1.953,34.180,48.340,-237.793
1532485348.468,32.715,21.484,35.156,31.738,-449.219
1532485348.472,35.156,31.250,31.250,28.320,-536.621
1532485348.476,36.133,97.656,29.297,33.691,13.672
1532485348.480,35.645,143.555,28.809,31.738,873.535
1532485348.484,37.598,-1.953,31.250,18.555,207.031
1532485348.488,36.621,-20.508,32.715,19.531,-541.992
1532485348.492,38.574,23.438,32.227,32.227,-543.945
1532485348.496,40.039,20.996,32.227,35.156,-316.406
1532485348.500,38.086,20.020,32.227,31.250,67.871
1532485348.504,37.598,9.766,29.785,27.832,-346.680
1532485348.507,41.016,35.645,28.809,32.227,-521.484
1532485348.511,45.410,24.902,27.832,40.527,-368.164
1532485348.515,41.016,22.949,26.855,32.227,-285.156
1532485348.519,38.574,55.176,29.297,31.250,104.980
1532485348.523,42.480,66.895,27.344,35.156,145.996
1532485348.527,39.551,54.688,26.855,35.645,141.113
1532485348.531,39.062,-9.277,28.320,34.668,-57.129
1532485348.535,35.645,4.395,26.367,25.879,-435.547
1532485348.539,29.785,152.344,28.320,19.531,417.969
1532485348.543,38.574,54.199,30.273,27.832,703.125
1532485348.547,42.480,-47.363,31.738,34.180,-187.012
1532485348.550,34.180,-5.371,33.691,29.297,-431.152
1532485348.554,32.227,10.254,31.250,21.973,-537.598
1532485348.558,38.086,81.055,31.738,33.691,-90.820
1532485348.562,39.551,24.902,32.227,43.457,-24.414
1532485348.566,30.273,1.465,29.297,24.902,-381.836
1532485348.570,28.809,87.891,30.762,24.414,41.992
1532485348.574,37.109,37.598,32.227,34.180,-19.043
1532485348.578,37.109,88.867,31.250,36.621,134.277
1532485348.582,33.691,93.262,31.250,29.785,796.387
1532485348.586,33.203,-34.668,31.738,24.902,-105.957
1532485348.589,31.250,1.953,30.273,26.855,-608.887
1532485348.593,30.273,17.090,30.762,33.203,-471.191
1532485348.597,28.320,40.039,32.227,26.367,-204.590
1532485348.601,24.902,22.461,30.762,18.555,-79.102
1532485348.605,27.344,9.277,28.809,24.414,-461.914
1532485348.609,35.156,33.203,29.297,28.320,-430.176
1532485348.613,38.574,13.184,29.297,33.203,-344.238
1532485348.617,37.109,87.402,29.297,32.715,116.699
1532485348.621,31.250,139.160,29.297,23.438,827.637
1532485348.625,38.086,5.859,30.273,34.668,112.793
1532485348.629,46.387,-14.160,30.273,44.922,-415.527
1532485348.632,37.598,3.418,29.785,29.785,-416.504
1532485348.636,28.320,19.531,29.785,21.973,-441.406
1532485348.640,35.645,31.250,30.273,26.855,-125.000
1532485348.644,41.504,7.812,28.320,28.320,-272.949
1532485348.648,36.133,7.812,27.832,26.855,-352.051
1532485348.652,31.250,17.090,30.273,25.879,-457.520
1532485348.656,34.180,44.922,29.785,25.879,-432.617
1532485348.660,36.133,53.223,30.273,31.738,88.379
1532485348.664,32.715,49.316,32.227,24.902,256.836
1532485348.668,30.273,51.758,29.297,17.090,148.926
1532485348.671,32.715,8.789,26.855,21.973,-294.922
1532485348.675,31.738,41.016,30.273,27.344,-400.879
1532485348.679,29.297,148.438,33.691,31.250,677.734
1532485348.683,32.227,9.277,36.133,31.738,501.465
1532485348.687,28.809,-33.691,33.203,25.879,-453.613
1532485348.691,34.180,21.973,33.203,29.785,-536.621
1532485348.695,41.504,28.809,36.133,33.691,-358.398
1532485348.699,37.109,59.570,33.203,30.762,162.598
1532485348.703,36.621,7.812,31.250,24.414,-198.730
1532485348.707,41.992,30.273,31.738,22.949,-534.180
1532485348.711,43.945,74.707,33.203,36.133,111.328
1532485348.714,41.504,9.766,34.180,38.574,45.898
1532485348.718,33.203,105.957,29.297,26.367,354.980
1532485348.722,35.645,70.312,27.832,23.926,700.195
1532485348.726,44.922,-40.527,29.785,43.457,-204.590
1532485348.730,44.434,-4.883,31.250,41.992,-418.457
1532485348.734,37.598,40.039,28.320,24.902,-287.598
1532485348.738,35.645,83.496,26.855,24.902,-78.613
1532485348.742,44.922,28.809,26.855,25.879,-160.645
1532485348.746,47.363,1.465,27.832,32.227,-353.027
1532485348.750,43.945,12.207,29.785,37.598,-345.215
1532485348.754,38.574,17.578,26.367,31.250,-539.062
1532485348.757,36.133,125.000,22.949,30.273,83.496
1532485348.761,41.016,123.535,24.414,36.133,861.328
1532485348.765,41.504,-35.645,31.250,37.598,43.457
1532485348.769,38.574,-15.625,31.738,31.738,-531.738
1532485348.773,37.598,22.949,27.344,29.785,-566.895
1532485348.777,36.621,44.434,26.855,33.203,-338.867
1532485348.781,36.621,20.020,28.809,31.738,-6.836
1532485348.785,33.691,0.488,27.832,29.297,-360.840
1532485348.789,30.273,30.273,28.809,33.203,-527.832
1532485348.793,36.621,31.738,31.738,40.527,-447.754
1532485348.796,36.133,26.855,29.297,38.574,-224.609
1532485348.800,32.227,21.484,28.320,31.738,38.086
1532485348.804,33.691,68.848,31.738,25.391,67.871
1532485348.808,31.738,78.613,30.762,36.621,217.773
1532485348.812,32.227,-8.301,29.297,41.016,-98.145
1532485348.816,28.809,20.996,28.320,26.367,-204.102
1532485348.820,22.461,146.973,29.297,24.414,730.469
1532485348.824,34.668,23.438,31.738,36.133,299.316
1532485348.828,43.457,-25.391,32.715,41.992,-375.488
1532485348.832,41.504,3.906,34.668,39.551,-365.234
1532485348.836,36.621,21.484,32.715,32.715,-390.137
1532485348.839,38.086,55.664,30.273,35.156,20.020
1532485348.843,42.480,14.160,32.715,43.457,-210.938
1532485348.847,39.062,16.602,32.227,35.645,-325.195
1532485348.851,33.691,52.246,29.297,24.414,67.871
1532485348.855,30.273,48.340,27.344,33.203,-55.664
1532485348.859,28.320,142.578,25.879,26.855,565.918
1532485348.863,27.832,27.344,29.297,24.414,641.602
1532485348.867,23.926,-55.664,32.715,28.809,-303.711
1532485348.871,21.484,8.301,26.855,16.113,-562.988
1532485348.875,28.809,40.527,25.879,12.207,-522.461
1532485348.879,33.691,91.309,29.297,27.344,54.688
1532485348.882,31.250,14.648,28.320,23.926,-62.500
1532485348.886,30.762,8.301,27.344,22.461,-501.465
1532485348.890,39.551,38.086,28.320,30.273,-466.797
1532485348.894,45.410,33.691,31.250,29.785,-433.105
1532485348.898,46.875,119.629,35.645,38.574,347.168
1532485348.902,46.387,56.641,38.086,37.598,584.961
1532485348.906,42.480,-8.301,35.645,28.809,-354.980
1532485348.910,32.227,31.250,34.668,31.250,-457.520
1532485348.914,34.180,8.789,30.273,31.250,-392.578
1532485348.918,33.691,63.965,24.902,19.043,-135.254
1532485348.921,27.344,49.805,29.785,20.996,11.230
1532485348.925,33.691,13.672,29.297,27.832,-392.090
1532485348.929,38.086,28.320,26.855,33.203,-313.965
1532485348.933,16.602,17.578,28.320,32.227,-351.074
1532485348.937,-14.648,57.129,27.832,31.738,-291.016
1532485348.941,-28.809,51.270,30.762,36.621,-40.039
1532485348.945,-47.363,59.570,30.762,34.180,136.230
1532485348.949,-70.312,67.383,27.832,30.273,377.441
1532485348.953,-84.961,-9.277,29.785,25.391,-198.730
1532485348.957,-99.121,54.688,28.320,29.297,-306.641
1532485348.961,-112.305,151.855,25.879,30.273,752.930
1532485348.964,-118.652,-3.906,31.250,33.203,307.129
1532485348.968,-128.906,-30.762,34.668,39.062,-443.359
1532485348.972,-139.160,23.438,32.227,30.273,-535.645
1532485348.976,-140.137,30.273,29.785,31.250,-366.211
1532485348.980,-144.043,20.996,30.273,32.715,123.535
1532485348.984,-150.391,-0.977,30.762,20.020,-218.262
1532485348.988,-152.832,36.133,29.297,15.137,-469.727
1532485348.992,-154.785,69.336,27.344,24.902,-53.223
1532485348.996,-158.203,83.008,29.785,29.297,385.254
1532485349.000,-162.109,124.023,32.227,24.414,870.605
1532485349.003,-163.574,6.348,34.180,24.902,289.062
1532485349.007,-161.621,-23.438,30.273,24.902,-475.586
1532485349.011,-156.738,9.766,32.227,32.227,-458.984
1532485349.015,-165.527,10.254,33.203,30.273,-337.891
1532485349.019,-168.457,45.898,28.809,21.484,57.129
1532485349.023,-160.645,19.043,29.297,31.738,-293.457
1532485349.027,-156.738,26.367,35.645,46.387,-459.473
1532485349.031,-155.273,2.930,38.574,47.363,-318.848
1532485349.035,-162.109,22.949,32.715,24.902,-412.109
1532485349.039,-165.039,122.559,31.250,16.113,311.035
1532485349.043,-157.227,66.895,33.691,35.156,392.090
1532485349.046,-153.809,-1.953,36.133,39.551,-175.293
1532485349.050,-155.762,6.348,35.156,34.180,-270.996
1532485349.054,-153.809,20.020,33.203,21.973,-525.391
1532485349.058,-149.902,131.836,33.203,17.578,145.020
1532485349.062,-130.371,50.781,32.227,23.926,629.395
1532485349.066,-104.980,-42.480,31.738,22.949,-188.477
1532485349.070,-86.914,15.137,31.250,14.648,-496.582
1532485349.074,-65.430,29.785,29.785,20.508,-524.902
1532485349.078,-45.898,71.777,30.762,21.484,-129.883
1532485349.082,-31.738,28.809,29.785,21.484,42.969
1532485349.086,-22.949,42.480,27.344,20.508,-19.531
1532485349.089,-11.719,48.828,27.344,16.113,-26.367
1532485349.093,3.906,-4.395,29.785,31.250,-412.109
1532485349.097,11.719,71.777,31.738,28.809,-60.059
1532485349.101,13.672,118.164,29.297,14.648,788.574
1532485349.105,27.344,-4.395,31.250,24.902,-11.230
1532485349.109,37.109,-0.488,33.691,34.668,-553.223
1532485349.113,40.039,8.301,29.297,26.367,-395.508
1532485349.117,46.387,20.508,31.738,19.043,-310.059
1532485349.121,54.199,35.156,35.156,27.832,-123.047
1532485349.125,61.523,20.020,30.273,33.691,-408.203
1532485349.128,62.500,42.480,28.809,34.180,-327.637
1532485349.132,66.895,51.758,32.715,33.691,42.969
1532485349.136,65.430,82.031,30.273,23.926,211.914
1532485349.140,61.523,149.902,23.438,21.484,778.809
1532485349.144,70.312,14.160,26.855,27.832,285.645
1532485349.148,72.266,-47.852,29.785,23.438,-380.859
1532485349.152,70.312,5.371,28.809,17.090,-522.949
1532485349.156,71.289,68.848,25.879,20.020,-354.004
1532485349.160,75.195,43.945,27.832,27.344,93.750
1532485349.164,77.637,-16.113,30.762,30.273,-219.238
1532485349.168,72.754,6.836,27.344,23.926,-423.340
1532485349.171,74.219,16.602,26.367,19.531,-525.879
1532485349.175,80.078,43.457,28.809,32.715,-458.008
1532485349.179,83.496,77.148,29.785,36.133,291.992
1532485349.183,82.520,3.906,30.273,20.996,222.168
1532485349.187,82.520,-3.418,31.250,26.855,-373.047
1532485349.191,84.473,19.043,30.273,37.598,-436.035
1532485349.195,87.402,26.855,30.273,31.738,-362.793
1532485349.199,84.473,143.066,33.203,19.531,567.383
1532485349.203,84.473,49.316,31.738,21.973,620.117
1532485349.207,88.379,-22.461,31.738,20.508,-372.070
1532485349.211,89.844,20.508,36.133,23.926,-446.777
1532485349.214,89.844,18.555,37.109,35.156,-333.008
1532485349.218,83.008,69.824,33.203,27.832,-7.812
1532485349.222,83.008,38.574,32.715,23.926,-178.711
1532485349.226,85.449,68.848,36.621,30.762,-32.715
1532485349.230,83.008,31.738,36.133,27.344,218.262
1532485349.234,75.684,-27.832,34.668,24.414,-407.715
1532485349.238,70.312,119.141,32.715,25.391,-0.488
1532485349.242,73.730,110.352,31.250,23.438,791.016
1532485349.246,77.637,-41.016,34.180,26.367,-21.484
1532485349.250,56.641,-12.695,30.762,28.809,-457.520
1532485349.253,28.809,20.508,27.832,21.973,-547.363
1532485349.257,14.648,75.684,30.273,25.879,-361.816
1532485349.261,-1.953,45.898,30.273,33.691,-26.855
1532485349.265,-22.461,-7.812,28.809,29.297,-308.594
1532485349.269,-33.691,38.574,28.809,20.020,-398.438
1532485349.273,-25.879,72.266,25.879,23.438,-143.066
1532485349.277,-13.184,95.215,25.391,33.203,259.766
1532485349.281,-1.953,122.070,27.344,34.180,814.453
1532485349.285,9.277,-5.371,28.809,27.832,95.215
1532485349.289,15.625,-11.719,29.785,24.414,-609.863
1532485349.293,23.926,31.738,28.320,32.715,-548.340
1532485349.296,29.297,20.020,27.832,31.250,-323.730
1532485349.300,30.762,13.672,33.203,32.227,-48.828
1532485349.304,34.180,16.113,33.691,35.156,-428.223
1532485349.308,40.039,37.598,32.715,33.691,-512.695
1532485349.312,44.922,31.738,32.715,41.992,-374.023
1532485349.316,45.410,29.297,32.227,35.645,-272.949
1532485349.320,46.387,78.125,32.715,22.949,213.867
1532485349.324,50.293,81.055,28.809,23.926,230.957
1532485349.328,59.570,29.297,30.273,32.715,-88.379
1532485349.332,59.570,-9.277,33.691,35.645,-307.129
1532485349.336,51.758,37.109,30.273,23.926,-351.074
1532485349.339,50.293,167.969,29.785,14.648,623.535
1532485349.343,55.176,42.969,31.738,26.367,513.184
1532485349.347,58.105,-26.367,33.203,30.762,-291.016
1532485349.351,55.176,15.137,32.715,17.090,-447.266
1532485349.355,54.688,47.852,32.715,19.531,-492.188
1532485349.359,55.664,83.984,33.691,26.367,49.805
1532485349.363,55.176,18.066,32.227,24.414,-65.430
1532485349.367,55.664,53.711,28.320,16.113,-79.102
1532485349.371,55.664,77.637,26.855,14.648,172.363
1532485349.375,57.129,25.879,30.762,11.230,-258.789
1532485349.378,60.059,133.789,32.715,27.832,369.141
1532485349.382,57.617,50.293,33.203,33.203,737.305
1532485349.386,57.617,-41.016,32.227,19.043,-315.430
1532485349.390,62.012,23.926,31.250,22.461,-598.633
1532485349.394,66.406,20.508,29.297,23.438,-473.145
1532485349.398,64.941,60.059,25.879,26.367,-60.059
1532485349.402,62.012,23.438,26.367,23.438,-108.887
1532485349.406,60.059,9.766,28.809,20.996,-542.480
1532485349.410,58.105,45.898,31.250,22.461,-372.070
1532485349.414,58.594,46.387,33.203,33.203,-74.707
1532485349.418,59.570,100.586,33.691,30.762,344.727
1532485349.421,61.523,102.051,34.180,20.996,775.879
1532485349.425,68.359,-15.625,35.645,25.879,-41.992
1532485349.429,73.730,-4.395,35.156,25.879,-445.801
1532485349.433,70.801,6.348,34.180,22.949,-441.406
1532485349.437,65.918,45.410,33.203,25.391,-421.875
1532485349.441,64.941,42.480,30.273,29.297,-166.504
1532485349.445,59.570,4.883,32.715,35.156,-319.336
1532485349.449,64.453,13.672,36.621,33.691,-340.820
1532485349.453,66.895,23.438,35.156,23.926,-480.957
1532485349.457,62.012,60.547,32.715,27.344,-414.062
1532485349.460,64.453,78.125,29.785,29.785,295.898
1532485349.464,67.871,9.766,31.738,23.926,170.410
1532485349.468,63.965,8.301,34.180,18.555,-305.176
1532485349.472,62.988,24.902,29.785,23.438,-515.625
1532485349.476,65.430,62.012,26.855,28.809,-308.105
1532485349.480,64.453,144.043,28.320,22.461,739.746
1532485349.484,63.477,10.254,32.715,26.367,309.570
1532485349.488,63.965,-15.137,36.133,36.621,-505.859
1532485349.492,65.430,29.297,37.109,37.598,-519.043
1532485349.496,61.523,27.344,33.203,35.156,-270.996
1532485349.500,59.082,23.926,31.738,32.227,141.113
1532485349.503,58.594,16.602,33.203,31.250,-283.691
1532485349.507,57.617,100.586,33.203,36.621,-61.035
1532485349.511,59.082,41.504,34.180,50.781,199.707
1532485349.515,58.105,-0.977,35.156,37.109,-224.121
1532485349.519,51.270,138.672,33.691,14.648,604.980
1532485349.523,55.664,37.598,35.156,27.344,551.270
1532485349.527,60.547,-29.785,35.645,43.945,-346.680
1532485349.531,61.523,1.465,36.133,41.016,-391.113
1532485349.535,60.547,20.020,35.645,30.762,-438.477
1532485349.539,57.129,89.355,32.227,34.180,-43.945
1532485349.543,60.547,32.227,32.715,45.898,-139.648
1532485349.546,62.012,-0.977,35.645,41.016,-401.855
1532485349.550,55.176,24.414,35.156,30.762,-312.988
1532485349.554,52.734,71.289,35.645,33.691,-132.324
1532485349.558,58.105,139.648,34.180,36.133,484.375
1532485349.562,57.617,59.082,32.227,37.598,759.766
1532485349.566,56.152,-46.387,35.156,39.551,-126.465
1532485349.570,58.105,1.953,35.645,32.715,-577.637
1532485349.574,57.617,28.809,31.738,30.273,-603.516
1532485349.578,59.570,72.754,31.250,36.621,-222.168
1532485349.582,58.105,23.438,30.273,36.621,-40.039
1532485349.585,51.270,-0.977,31.738,25.391,-445.312
1532485349.589,52.246,35.645,34.668,22.949,-503.418
1532485349.593,55.664,30.762,28.809,41.992,-468.750
1532485349.597,49.805,56.152,25.879,41.016,-131.348
1532485349.601,48.828,70.801,32.715,41.504,330.566
1532485349.605,50.293,58.594,34.668,42.969,124.023
1532485349.609,51.270,38.086,33.203,34.668,-51.270
1532485349.613,50.781,-11.719,31.738,35.645,-311.035
1532485349.617,44.434,43.945,30.273,26.855,-203.613
1532485349.621,40.039,142.090,28.809,17.578,725.586
1532485349.625,48.340,15.625,29.785,30.762,166.016
1532485349.628,49.316,-20.020,32.715,45.410,-428.711
1532485349.632,45.410,8.301,37.109,35.156,-391.113
1532485349.636,43.457,27.832,36.133,22.461,-396.484
1532485349.640,42.480,33.203,32.715,26.855,-105.957
1532485349.644,41.992,25.391,32.715,26.855,-276.855
1532485349.648,40.527,73.730,31.250,23.438,100.098
1532485349.652,44.434,10.742,33.203,24.902,-0.488
1532485349.656,46.387,27.832,30.762,19.531,-388.184
1532485349.660,46.387,165.527,26.367,19.531,662.109
1532485349.664,49.805,17.090,31.250,35.156,457.031
1532485349.668,44.434,-34.668,29.297,28.809,-419.922
1532485349.671,38.574,25.879,26.855,23.438,-583.496
1532485349.675,44.922,43.457,28.320,29.297,-478.516
1532485349.679,49.805,53.223,28.809,22.949,113.281
1532485349.683,47.363,8.301,28.320,24.902,-144.531
1532485349.687,50.293,27.344,29.297,31.250,-541.992
1532485349.691,51.758,43.945,25.879,31.738,-455.078
1532485349.695,46.875,77.148,27.344,30.762,-8.789
1532485349.699,39.551,135.742,30.273,24.414,790.039
1532485349.703,37.598,26.855,30.762,27.832,562.988
1532485349.707,41.016,-23.438,33.691,31.250,-396.484
1532485349.710,40.039,16.602,32.227,26.855,-493.164
1532485349.714,35.156,12.695,27.344,25.391,-395.508
1532485349.718,30.273,75.195,26.367,17.090,-61.523
1532485349.722,37.109,33.691,28.320,21.484,-219.727
1532485349.726,41.504,16.113,28.320,31.250,-492.188
1532485349.730,37.109,19.531,25.879,35.156,-300.781
1532485349.734,35.645,5.859,26.855,25.391,-413.086
1532485349.738,34.180,87.402,29.785,13.184,-181.641
1532485349.742,34.180,100.586,31.738,20.508,301.270
1532485349.746,39.551,42.480,36.621,36.621,267.578
1532485349.750,39.062,1.465,38.574,34.180,-58.594
1532485349.753,37.598,-10.254,39.062,26.367,-504.395
1532485349.757,42.969,99.609,37.109,26.855,-168.945
1532485349.761,45.898,139.160,31.250,21.484,789.551
1532485349.765,45.898,-21.973,29.297,24.902,144.531
1532485349.769,41.992,-10.254,29.785,24.414,-491.699
1532485349.773,46.875,30.273,27.832,22.461,-532.715
1532485349.777,54.199,48.340,27.344,32.715,-302.734
1532485349.781,54.199,21.484,27.344,29.785,55.664
1532485349.785,54.199,2.930,29.785,30.273,-301.270
1532485349.789,49.805,89.844,28.320,31.250,-94.727
1532485349.793,51.270,67.383,25.391,35.645,174.805
1532485349.796,53.711,34.180,30.762,40.527,45.898
1532485349.800,42.480,125.977,32.227,24.414,733.887
1532485349.804,43.945,14.648,31.738,24.414,196.777
1532485349.808,47.852,-15.625,30.273,29.785,-525.879
1532485349.812,45.410,25.391,32.227,29.785,-416.504
1532485349.816,41.992,19.043,34.668,37.109,-293.457
1532485349.820,36.133,30.762,31.250,24.902,-16.602
1532485349.824,39.551,24.414,33.691,19.043,-346.191
1532485349.828,42.969,33.691,35.156,26.367,-400.391
1532485349.832,43.945,18.555,31.250,21.973,-295.898
1532485349.835,40.527,73.730,28.809,15.625,-44.922
1532485349.839,36.621,153.809,31.738,24.902,778.809
1532485349.843,46.387,20.508,36.133,33.691,470.703
1532485349.847,48.340,-32.227,37.109,33.203,-278.809
1532485349.851,45.898,9.277,40.039,33.691,-458.008
1532485349.855,40.527,36.621,38.086,34.180,-519.043
1532485349.859,42.969,75.195,36.133,35.156,26.367
1532485349.863,49.805,12.695,36.621,38.086,-70.801
1532485349.867,44.434,5.371,35.156,38.086,-390.137
1532485349.871,41.016,23.926,31.738,30.273,-446.777
1532485349.875,43.457,42.480,33.203,34.180,-474.609
1532485349.878,42.969,92.773,35.645,38.086,125.000
1532485349.882,41.992,65.918,34.668,36.133,398.926
1532485349.886,49.316,41.016,34.668,35.645,66.406
1532485349.890,53.711,22.461,34.668,36.621,-243.652
1532485349.894,51.758,6.348,32.715,35.645,-436.523
1532485349.898,46.875,113.281,31.738,26.855,222.168
1532485349.902,47.363,86.914,35.156,26.367,783.691
1532485349.906,51.758,-23.438,30.762,34.180,-164.062
1532485349.910,51.270,17.578,27.344,39.551,-467.773
1532485349.914,48.828,16.602,33.691,40.527,-345.703
1532485349.917,42.969,57.129,34.180,32.715,-158.691
1532485349.921,43.945,44.922,33.203,33.203,-130.371
1532485349.925,48.340,27.344,33.203,33.203,-419.434
1532485349.929,44.434,86.426,31.250,37.109,147.461
1532485349.933,43.945,24.902,29.785,37.109,174.805
1532485349.937,43.945,54.688,30.762,39.551,-93.262
1532485349.941,44.922,143.066,31.738,41.992,712.891
1532485349.945,48.828,0.977,32.227,41.992,213.867
1532485349.949,49.316,-25.391,33.203,38.086,-424.316
1532485349.953,45.410,15.625,31.738,28.809,-502.441
1532485349.957,41.504,34.180,28.320,24.414,-476.074
1532485349.960,43.945,22.461,27.832,33.691,-62.012
1532485349.964,44.922,-2.930,29.297,35.156,-206.055
1532485349.968,41.992,20.996,28.809,22.461,-401.367
1532485349.972,42.480,38.574,32.715,29.785,-497.070
1532485349.976,42.480,109.375,33.691,40.527,35.645
1532485349.980,36.621,148.438,27.344,37.598,882.324
1532485349.984,36.133,0.488,29.785,29.785,248.535
1532485349.988,37.109,-13.184,31.738,22.949,-510.254
1532485349.992,43.945,30.273,29.297,32.715,-559.570
1532485349.996,45.410,36.133,28.809,39.551,-333.496
1532485350.000,37.598,48.340,30.273,33.691,200.684
1532485350.003,42.969,9.277,33.691,32.715,-238.281
1532485350.007,44.922,28.320,31.738,34.180,-543.945
1532485350.011,42.969,28.320,26.855,38.574,-373.535
1532485350.015,42.480,32.227,28.809,34.180,-271.973
1532485350.019,36.133,71.289,27.344,19.531,129.883
1532485350.023,35.156,69.824,25.879,23.926,138.672
1532485350.027,42.969,34.668,28.809,33.203,-31.250
1532485350.031,41.504,-4.883,27.832,25.879,-172.363
1532485350.035,35.645,14.648,25.879,13.184,-412.598
1532485350.039,32.715,157.227,25.879,16.602,368.652
1532485350.042,40.527,68.359,28.320,29.297,719.238
1532485350.046,43.457,-45.410,28.320,31.250,-143.066
1532485350.050,37.109,3.906,25.879,33.203,-385.254
1532485350.054,39.062,30.273,25.879,35.156,-513.184
1532485350.058,37.598,100.098,27.344,28.320,-129.395
1532485350.062,36.621,29.785,27.832,26.367,-21.973
1532485350.066,37.598,3.418,28.809,27.344,-332.520
1532485350.070,31.738,95.215,30.762,24.414,64.453
1532485350.074,39.062,32.715,32.227,31.738,-116.699
1532485350.078,45.898,94.727,31.250,33.691,40.039
1532485350.082,40.527,111.328,30.762,29.785,818.848
1532485350.085,40.039,-29.785,30.762,30.762,-44.922
1532485350.089,42.969,12.207,30.762,28.320,-602.539
1532485350.093,43.457,34.668,31.250,35.156,-494.141
1532485350.097,42.480,44.434,30.273,37.109,-217.773
1532485350.101,43.945,22.461,30.762,30.762,-45.898
1532485350.105,45.898,16.113,29.297,35.156,-437.988
1532485350.109,49.805,44.922,28.320,41.016,-456.543
1532485350.113,47.363,19.043,30.762,41.504,-353.516
1532485350.117,38.574,82.520,30.273,34.180,130.371
1532485350.121,36.621,150.879,29.785,30.273,837.891
1532485350.125,44.922,17.090,33.203,37.598,122.070
1532485350.128,46.875,-12.695,35.156,38.086,-418.457
1532485350.132,41.016,14.160,33.691,32.227,-396.484
1532485350.136,33.691,28.320,28.809,29.297,-418.457
1532485350.140,33.203,39.062,29.785,22.461,-113.281
1532485350.144,45.898,20.996,41.504,36.621,-274.902
1532485350.148,51.758,20.508,46.875,48.340,-330.078
1532485350.152,48.828,34.180,44.434,41.992,-421.387
1532485350.156,48.828,62.500,43.945,36.133,-423.828
1532485350.160,48.340,64.941,42.969,33.691,89.355
1532485350.164,42.480,61.035,40.527,36.621,316.895
1532485350.167,35.156,26.855,39.062,32.715,109.375
1532485350.171,35.156,-1.953,41.016,28.809,-379.395
1532485350.175,38.086,45.410,40.527,38.574,-411.133
1532485350.179,37.598,149.414,37.109,33.691,653.320
1532485350.183,39.551,20.508,36.133,27.344,565.430
1532485350.187,41.016,-25.879,36.133,24.902,-395.020
1532485350.191,46.387,23.926,33.203,30.762,-521.973
1532485350.195,46.875,34.180,34.180,44.922,-361.328
1532485350.199,41.016,73.730,34.180,29.785,166.016
1532485350.203,38.086,21.973,32.715,20.020,-147.949
1532485350.207,37.109,34.668,33.691,28.809,-526.367
1532485350.210,38.086,78.125,33.203,35.156,6.348
1532485350.214,37.109,41.504,34.668,33.203,106.934
1532485350.218,32.227,113.770,35.645,23.926,426.270
1532485350.222,35.645,75.684,31.738,22.461,695.801
1532485350.226,44.434,-21.484,30.273,33.691,-189.453
1532485350.230,44.434,2.441,28.320,42.480,-401.367
1532485350.234,44.922,5.859,30.273,36.621,-417.969
1532485350.238,46.875,75.195,32.715,35.156,-256.348
1532485350.242,53.711,44.922,32.715,41.016,-145.508
1532485350.246,54.199,9.277,31.738,44.434,-334.473
1532485350.249,42.969,19.043,28.320,33.203,-308.105
1532485350.253,33.203,15.625,28.320,26.855,-505.371
1532485350.257,32.715,119.141,24.902,24.902,20.996
1532485350.261,36.621,128.418,23.438,28.809,846.191
1532485350.265,36.621,-27.832,29.785,35.156,108.887
1532485350.269,30.273,-13.184,29.785,25.879,-495.605
1532485350.273,35.156,24.414,30.273,21.973,-560.547
1532485350.277,40.039,42.480,31.738,26.367,-357.910
1532485350.281,37.598,23.926,29.785,23.926,16.602
1532485350.285,37.109,5.371,30.762,28.320,-307.129
1532485350.289,36.621,25.391,28.320,26.367,-500.488
1532485350.292,40.527,34.668,30.273,26.855,-448.730
1532485350.296,39.062,37.598,31.738,30.273,-214.355
1532485350.300,35.645,26.855,30.273,26.855,76.660
1532485350.304,29.297,74.219,31.250,21.484,105.469
1532485350.308,29.785,60.547,36.133,24.902,119.141
1532485350.312,34.180,-1.465,39.062,33.691,-240.234
1532485350.316,28.320,31.738,35.645,20.020,-163.574
1532485350.320,25.391,57.617,30.762,9.277,450.684
1532485350.324,28.320,17.578,32.227,20.020,-104.492
1532485350.328,27.344,30.762,34.668,24.414,-346.191
1532485350.332,28.809,6.348,33.203,20.996,-251.465
1532485350.335,28.320,41.016,32.227,22.461,-298.340
1532485350.339,27.832,138.672,33.691,25.879,563.477
1532485350.343,35.156,29.785,32.227,25.879,250.977
1532485350.347,38.574,4.883,31.738,23.926,-268.066
1532485350.351,37.598,77.148,32.715,24.902,155.273
1532485350.355,38.574,67.383,27.832,20.996,165.527
1532485350.359,39.551,154.785,26.855,20.996,644.531
1532485350.363,41.992,141.602,30.273,28.320,-950.684
1532485350.367,44.922,-40.527,33.203,31.738,171.387
1532485350.371,46.387,-33.691,33.203,31.250,-604.980
1532485350.374,44.922,41.016,30.762,32.715,-641.113
1532485350.378,42.969,79.590,30.762,35.645,-83.984
1532485350.382,43.945,12.695,29.297,41.016,-146.973
1532485350.386,38.086,6.348,29.297,39.551,-567.383
1532485350.390,38.574,37.598,31.250,36.621,-562.988
1532485350.394,43.457,38.574,30.762,40.039,-527.832
1532485350.398,39.551,105.469,31.250,35.645,272.949
1532485350.402,35.156,33.691,28.809,29.785,500.000
1532485350.406,35.156,-12.695,29.297,29.785,-416.504
1532485350.410,33.203,31.250,33.203,31.250,-489.258
1532485350.414,36.133,9.766,33.203,25.391,-446.289
1532485350.417,36.133,64.941,29.297,22.949,-163.574
1532485350.421,33.691,76.660,28.320,32.227,310.547
1532485350.425,43.457,17.578,32.715,41.992,-227.051
1532485350.429,44.922,16.113,35.645,41.504,-414.062
1532485350.433,38.086,18.066,35.156,34.180,-399.414
1532485350.437,39.551,49.805,33.203,28.809,-393.066
1532485350.441,43.457,58.594,34.180,26.855,-138.672
1532485350.445,40.527,66.406,35.156,32.715,123.047
1532485350.449,40.527,25.391,36.133,47.852,151.855
1532485350.453,38.574,-21.484,36.621,42.480,-427.734
1532485350.457,39.551,64.941,37.598,33.203,-381.348
1532485350.460,44.922,164.551,36.621,39.062,720.215
1532485350.464,45.410,10.742,38.086,38.574,307.617
1532485350.468,37.109,-21.973,37.109,17.578,-473.633
1532485350.472,36.133,35.156,35.156,17.578,-570.801
1532485350.476,42.480,41.016,35.645,33.691,-411.621
1532485350.480,46.875,30.762,38.086,38.574,89.844
1532485350.484,41.504,-2.930,37.109,36.133,-245.605
1532485350.488,32.715,42.480,34.180,27.832,-490.723
1532485350.492,38.574,77.637,34.668,27.832,-58.105
1532485350.496,42.969,50.781,35.645,35.645,140.625
1532485350.499,36.133,120.117,34.180,40.527,725.098
1532485350.503,39.062,21.484,33.203,40.039,369.629
1532485350.507,46.875,-15.137,33.691,39.062,-501.465
1532485350.511,45.898,23.438,32.227,41.016,-492.676
1532485350.515,42.480,21.484,31.250,38.086,-364.258
1532485350.519,41.504,59.570,34.180,30.762,22.949
1532485350.523,40.527,24.902,32.227,24.902,-303.223
1532485350.527,40.039,29.785,30.273,31.250,-479.980
1532485350.531,38.086,12.207,31.250,34.180,-320.312
1532485350.535,36.621,26.367,32.715,23.438,-424.805
1532485350.539,35.156,126.953,30.273,27.832,279.297
1532485350.542,34.180,53.711,30.273,31.738,353.516
1532485350.546,35.645,-5.859,34.180,35.156,-234.375
1532485350.550,35.156,15.137,30.762,30.273,-275.879
1532485350.554,34.180,19.531,29.297,13.672,-527.832
1532485350.558,34.180,129.395,30.273,10.254,78.125
1532485350.562,33.203,65.430,31.738,24.414,640.137
1532485350.566,26.367,-27.832,32.227,28.809,-140.625
1532485350.570,21.973,19.531,31.250,18.555,-476.562
1532485350.574,29.785,35.645,34.180,22.461,-517.090
1532485350.578,32.227,83.496,34.180,30.762,-149.414
1532485350.582,28.320,37.598,29.785,25.879,50.781
1532485350.585,26.367,56.641,32.227,18.066,0.488
1532485350.589,29.785,94.727,33.203,16.602,208.496
1532485350.593,35.645,0.977,32.227,33.691,-213.867
1532485350.597,31.738,57.129,33.203,33.691,-89.844
1532485350.601,27.832,136.230,32.227,23.926,791.016
1532485350.605,35.645,7.324,34.668,24.414,27.832
1532485350.609,41.016,-0.977,33.691,30.273,-543.945
1532485350.613,37.109,18.066,32.227,29.297,-382.324
1532485350.617,31.250,22.949,32.227,26.855,-302.734
1532485350.621,28.809,35.645,31.250,26.855,-114.258
1532485350.624,32.227,24.902,31.250,31.738,-396.973
1532485350.628,35.156,38.086,30.762,39.551,-333.984
1532485350.632,30.273,43.457,30.273,32.715,-31.738
1532485350.636,27.344,75.195,31.738,33.691,162.598
1532485350.640,30.762,150.391,31.738,38.086,786.621
1532485350.644,34.180,19.531,28.809,41.504,303.223
1532485350.648,30.762,-36.133,26.855,42.969,-356.445
1532485350.652,30.273,15.625,28.809,29.785,-491.211
1532485350.656,34.180,41.016,27.344,24.902,-498.047
1532485350.660,33.691,46.875,25.391,32.227,2.930
1532485350.664,31.738,5.371,25.879,35.156,-172.363
1532485350.667,26.855,16.602,25.391,24.902,-416.016
1532485350.671,23.438,30.762,24.414,16.602,-505.859
1532485350.675,20.508,52.734,24.902,28.809,-444.824
1532485350.679,16.602,92.285,27.832,29.297,300.293
1532485350.683,22.461,57.617,29.785,26.367,403.809
1532485350.687,26.367,20.508,31.738,33.203,-211.914
1532485350.691,22.949,20.996,28.320,36.621,-430.176
1532485350.695,25.879,33.691,26.367,31.250,-366.699
1532485350.699,20.020,137.695,25.879,27.344,523.926
1532485350.703,15.137,49.805,26.855,28.809,656.250
1532485350.706,18.066,-22.461,28.809,26.367,-338.867
1532485350.710,19.043,20.996,28.809,26.855,-443.359
1532485350.714,17.090,15.137,29.785,31.250,-328.613
1532485350.718,8.789,70.801,31.250,33.203,-25.879
1532485350.722,9.277,47.852,30.762,30.273,-163.086
1532485350.726,15.625,76.660,29.297,29.785,-59.082
1532485350.730,18.066,74.219,30.273,39.551,377.441
1532485350.734,18.555,-15.625,30.762,30.762,-229.980
1532485350.738,17.578,106.934,25.391,14.160,-58.594
1532485350.742,21.484,127.441,23.438,23.438,796.387
1532485350.746,23.438,-24.902,27.832,36.133,22.461
1532485350.749,16.602,-8.789,29.785,26.855,-446.777
1532485350.753,21.484,19.531,28.809,21.973,-534.668
1532485350.757,27.344,69.336,30.762,31.738,-395.020
1532485350.761,28.320,52.246,29.297,41.016,-28.809
1532485350.765,25.879,-2.441,28.320,32.715,-291.992
1532485350.769,20.508,33.691,30.762,22.461,-426.758
1532485350.773,20.996,79.590,26.855,29.785,-133.301
1532485350.777,20.996,100.586,20.508,33.691,306.641
1532485350.781,23.438,112.793,23.926,32.715,823.730
1532485350.785,24.902,-6.836,27.344,34.668,124.512
1532485350.789,20.020,-8.301,24.902,34.180,-580.566
1532485350.792,24.414,35.645,26.855,42.480,-533.691
1532485350.796,27.344,24.414,28.809,47.363,-309.082
1532485350.800,20.020,10.742,27.832,37.109,-19.043
1532485350.804,16.602,13.184,26.855,34.180,-398.438
1532485350.808,24.414,38.086,23.438,34.180,-494.629
1532485350.812,26.855,28.320,25.391,44.922,-366.211
1532485350.816,21.484,24.414,27.832,45.410,-253.418
1532485350.820,20.020,65.430,26.855,37.109,255.371
1532485350.824,22.949,65.918,29.297,39.062,172.363
1532485350.828,26.367,24.414,30.762,45.410,-137.207
1532485350.831,27.832,-1.953,28.809,41.504,-286.133
1532485350.835,20.996,41.504,27.832,29.785,-373.047
1532485350.839,16.113,166.992,25.879,26.855,591.797
1532485350.843,18.066,61.523,24.902,35.156,668.945
1532485350.847,17.578,-31.250,26.367,46.387,-167.480
1532485350.851,16.602,0.488,26.367,26.367,-442.383
1532485350.855,19.531,43.945,26.367,18.555,-498.047
1532485350.859,21.973,84.473,24.902,30.762,16.113
1532485350.863,22.461,26.855,26.367,32.715,-52.734
1532485350.867,16.602,58.594,26.855,26.367,32.227
1532485350.871,15.625,37.598,22.949,27.832,26.367
1532485350.874,20.508,14.648,24.902,31.738,-508.301
1532485350.878,17.578,147.461,26.855,33.691,307.129
1532485350.882,17.578,59.082,28.320,35.156,767.578
1532485350.886,14.648,-37.109,27.832,29.785,-271.484
1532485350.890,9.277,27.344,25.879,26.855,-586.426
1532485350.894,10.254,31.250,26.367,26.367,-467.773
1532485350.898,6.348,68.359,22.461,21.484,-77.148
1532485350.902,7.324,34.180,23.438,17.578,-89.844
1532485350.906,13.184,22.949,23.438,17.090,-538.086
1532485350.910,14.648,56.641,22.461,30.762,-377.930
1532485350.914,14.160,49.805,26.855,32.227,19.043
1532485350.917,9.766,93.262,25.391,22.461,374.023
1532485350.921,8.301,121.582,23.926,23.926,766.602
1532485350.925,16.602,2.930,23.438,24.902,-6.836
1532485350.929,14.648,-9.277,22.461,23.926,-438.477
1532485350.933,11.230,5.859,24.902,26.855,-424.316
1532485350.937,13.184,42.969,27.344,25.879,-426.270
1532485350.941,15.137,41.016,29.785,26.855,-160.156
1532485350.945,15.625,7.324,31.250,23.438,-300.781
1532485350.949,14.160,12.695,29.785,17.090,-334.961
1532485350.953,12.207,19.043,29.297,21.484,-473.145
1532485350.956,6.836,50.781,26.855,25.879,-423.828
1532485350.960,5.859,77.637,27.832,22.461,311.035
1532485350.964,9.277,12.207,28.320,16.602,253.418
1532485350.968,4.883,-0.977,24.414,18.555,-266.113
1532485350.972,5.371,17.090,27.344,19.531,-506.348
1532485350.976,8.789,56.152,25.879,22.461,-317.871
1532485350.980,5.859,147.949,21.484,29.785,728.027
1532485350.984,5.859,6.348,27.832,26.367,333.984
1532485350.988,6.836,-27.832,33.203,26.367,-500.000
1532485350.992,7.324,25.391,34.180,29.785,-518.066
1532485350.996,9.766,30.273,32.715,28.809,-283.691
1532485350.999,10.742,20.020,32.227,16.113,137.695
1532485351.003,8.789,7.324,33.203,11.230,-262.207
1532485351.007,10.742,80.566,21.973,25.391,-64.453
1532485351.011,9.766,22.461,18.555,26.855,122.070
1532485351.015,10.254,-2.441,31.250,23.926,-281.250
1532485351.019,6.348,147.461,32.715,16.113,574.707
1532485351.023,8.789,46.875,29.297,17.578,582.520
1532485351.027,15.137,-26.367,26.855,26.367,-327.148
1532485351.031,12.207,4.883,25.391,24.414,-383.789
1532485351.035,9.277,17.090,27.344,19.043,-441.895
1532485351.039,6.836,84.473,28.320,19.043,-93.262
1532485351.042,12.207,30.762,31.738,34.668,-145.020
1532485351.046,14.648,-2.930,33.203,34.668,-384.277
1532485351.050,9.277,10.742,30.762,25.879,-311.035
1532485351.054,10.254,59.570,29.785,25.879,-220.703
1532485351.058,15.625,119.629,29.785,29.785,356.445
1532485351.062,18.555,28.809,24.902,39.062,524.414
1532485351.066,14.160,-34.180,20.020,31.738,-218.750
1532485351.070,8.789,14.648,27.344,18.555,-462.402
1532485351.074,10.742,23.438,30.273,22.461,-601.562
1532485351.078,13.184,89.355,26.855,26.855,-91.309
1532485351.081,10.254,34.180,26.855,22.461,478.516
1532485351.085,5.371,-27.344,25.391,15.625,-261.230
1532485351.089,8.789,28.320,28.320,19.531,-540.527
1532485351.093,10.742,21.484,27.832,24.902,-454.590
1532485351.097,6.348,40.527,24.414,20.508,-193.359
1532485351.101,2.930,63.477,22.949,20.996,317.383
1532485351.105,3.418,20.508,21.973,13.672,27.832
1532485351.109,10.254,18.555,22.949,11.719,-303.711
1532485351.113,16.602,6.348,24.902,20.996,-351.074
1532485351.117,8.789,49.805,21.973,15.625,-177.734
1532485351.121,3.906,145.996,18.555,11.719,722.168
1532485351.124,16.602,22.461,19.043,23.926,207.031
1532485351.128,20.508,-16.113,22.461,31.738,-397.461
1532485351.132,12.695,4.395,22.949,17.090,-366.211
1532485351.136,8.789,24.414,22.949,3.906,-371.582
1532485351.140,11.719,27.344,25.879,24.414,-69.824
1532485351.144,16.113,6.836,27.832,41.992,-252.930
1532485351.148,13.184,70.801,26.855,37.109,88.379
1532485351.152,5.371,54.688,24.414,30.762,199.707
1532485351.156,-0.977,40.039,22.461,29.785,-231.445
1532485351.160,-4.395,150.879,20.996,30.273,636.719
1532485351.163,0.488,13.184,20.508,27.344,502.930
1532485351.167,1.465,-48.828,19.531,23.926,-400.879
1532485351.171,3.418,18.555,21.973,25.391,-592.773
1532485351.175,5.859,41.016,21.484,21.973,-493.652
1532485351.179,7.324,52.246,20.996,27.832,112.793
1532485351.183,10.254,8.301,21.484,24.414,-130.371
1532485351.187,10.742,25.879,21.973,21.973,-547.363
1532485351.191,16.602,50.293,22.461,32.227,-455.566
1532485351.195,19.531,80.566,22.461,39.062,-12.207
1532485351.199,12.695,126.953,20.996,26.367,764.160
1532485351.203,13.672,26.855,21.973,21.484,599.121
1532485351.206,20.020,-25.879,22.949,26.855,-365.723
1532485351.210,21.484,15.625,21.484,26.855,-494.141
1532485351.214,22.461,9.277,22.949,46.387,-403.320
1532485351.218,21.484,69.824,21.973,48.340,-94.238
1532485351.222,26.367,39.062,28.320,36.621,-220.703
1532485351.226,31.250,20.508,30.762,36.621,-496.582
1532485351.230,24.902,23.926,27.344,34.668,-307.129
1532485351.234,20.508,3.906,27.344,27.832,-418.457
1532485351.238,20.508,78.613,24.902,23.926,-218.262
1532485351.242,25.391,92.773,21.973,25.879,256.836
1532485351.246,28.320,14.648,23.438,31.738,83.008
1532485351.249,25.391,5.371,23.438,32.715,-193.359
1532485351.253,20.508,6.836,24.902,24.414,-490.234
1532485351.257,20.996,90.332,26.855,28.809,-215.332
1532485351.261,24.902,142.578,26.855,42.480,755.859
1532485351.265,25.879,12.695,28.809,36.133,326.660
1532485351.269,20.508,-7.812,30.762,33.691,-333.984
1532485351.273,19.043,20.020,27.344,26.855,-541.992
1532485351.277,11.719,42.969,23.438,23.438,-331.543
1532485351.281,11.230,15.137,25.879,31.738,24.414
1532485351.285,10.742,7.324,26.367,24.902,-299.805
1532485351.288,8.301,98.145,24.902,20.020,-65.430
1532485351.292,18.066,64.453,29.785,31.250,135.254
1532485351.296,16.602,24.414,25.391,34.668,-6.348
1532485351.300,8.301,127.441,24.414,11.719,730.469
1532485351.304,14.648,26.855,26.855,8.789,195.312
1532485351.308,20.508,-5.859,23.926,23.926,-561.035
1532485351.312,18.555,23.926,25.391,26.367,-457.520
1532485351.316,15.625,19.531,29.297,18.066,-342.773
1532485351.320,16.602,34.180,26.367,20.508,-53.223
1532485351.324,17.578,26.367,25.879,30.273,-368.652
1532485351.328,19.531,34.668,30.762,33.203,-440.918
1532485351.331,21.484,18.066,27.832,28.320,-318.848
1532485351.335,17.090,78.125,21.484,29.297,-45.410
1532485351.339,15.137,157.715,22.461,31.738,771.973
1532485351.343,24.414,19.531,25.879,31.738,489.258
1532485351.347,29.297,-39.551,28.809,38.574,-297.852
1532485351.351,21.973,1.465,25.879,23.438,-489.258
1532485351.355,17.578,30.762,21.484,13.184,-564.941
1532485351.359,21.973,80.078,22.949,23.926,-39.551
1532485351.363,24.902,16.113,25.879,30.273,-104.004
1532485351.367,19.043,0.000,28.809,25.879,-431.641
1532485351.371,20.996,29.785,33.203,22.461,-472.168
1532485351.374,29.297,52.246,37.109,37.109,-517.578
1532485351.378,32.715,107.422,38.086,43.945,52.734
1532485351.382,32.715,76.660,38.086,42.969,385.254
1532485351.386,32.227,41.504,37.598,35.156,77.637
1532485351.390,30.273,31.738,34.668,23.926,-224.609
1532485351.394,28.809,10.742,32.227,41.016,-459.473
1532485351.398,27.344,107.422,33.691,54.688,150.879
1532485351.402,23.438,100.098,32.227,39.062,788.574
1532485351.406,25.879,-16.602,33.691,39.551,-165.039
1532485351.410,25.391,10.254,34.668,43.945,-514.648
1532485351.413,25.391,7.812,29.297,36.621,-381.348
1532485351.417,21.973,51.270,26.855,28.320,-215.332
1532485351.421,22.949,36.621,38.086,31.738,-149.414
1532485351.425,26.367,22.949,41.016,46.387,-431.152
1532485351.429,22.949,84.961,35.156,45.898,139.648
1532485351.433,23.926,0.000,35.156,35.156,35.645
1532485351.437,16.602,42.969,34.180,32.715,-252.930
1532485351.441,13.184,152.344,34.180,29.785,710.938
1532485351.445,21.973,6.348,35.156,32.715,227.051
1532485351.449,20.020,-26.855,37.598,31.250,-435.547
1532485351.453,11.719,13.184,30.273,20.508,-513.672
1532485351.456,13.184,34.180,22.461,19.043,-492.676
1532485351.460,20.996,25.391,30.273,31.738,-64.941
1532485351.464,20.020,0.000,33.691,32.715,-219.727
1532485351.468,11.719,14.648,28.809,16.602,-437.988
1532485351.472,12.695,19.043,31.738,4.883,-530.762
1532485351.476,19.531,97.656,34.180,24.902,-1.465
1532485351.480,21.484,150.391,32.715,32.227,873.535
1532485351.484,22.949,-6.836,33.691,25.391,268.066
1532485351.488,20.508,-23.438,32.715,24.414,-523.926
1532485351.492,25.879,28.320,30.273,29.785,-580.566
1532485351.495,30.273,29.785,28.809,35.645,-363.281
1532485351.499,23.926,30.762,34.668,32.715,102.051
1532485351.503,18.555,6.836,32.227,24.414,-305.176
1532485351.507,16.602,32.715,24.902,22.949,-561.035
1532485351.511,14.160,27.832,24.902,31.738,-395.996
1532485351.515,12.695,30.273,30.273,36.621,-301.270
1532485351.519,10.254,70.312,29.785,26.855,115.723
1532485351.523,15.625,78.613,28.320,27.832,169.922
1532485351.527,22.461,72.266,29.297,38.086,189.941
1532485351.531,25.391,6.348,31.250,38.086,5.371
1532485351.535,23.926,3.906,30.273,25.391,-452.148
1532485351.538,22.949,149.414,27.344,18.066,293.945
1532485351.542,29.297,75.195,28.809,23.926,739.746
1532485351.546,30.762,-33.691,27.832,20.508,-130.371
1532485351.550,21.484,1.953,27.344,18.066,-421.387
1532485351.554,17.578,22.461,28.809,22.949,-541.016
1532485351.558,17.090,90.820,27.832,25.879,-182.129
1532485351.562,19.043,37.598,27.832,33.691,-20.996
1532485351.566,18.066,5.371,30.273,30.273,-348.633
1532485351.570,10.742,81.055,24.414,13.672,-48.340
1532485351.574,13.184,34.668,20.508,15.625,-149.902
1532485351.578,18.066,84.961,22.949,23.438,2.930
1532485351.581,17.578,106.445,23.438,20.508,799.316
1532485351.585,21.973,-29.297,23.438,24.902,-21.484
1532485351.589,26.855,1.953,23.438,32.227,-617.676
1532485351.593,31.738,23.926,23.926,36.133,-499.023
1532485351.597,31.738,31.738,24.414,25.391,-252.441
1532485351.601,24.414,17.578,23.438,20.996,-60.059
1532485351.605,20.996,23.438,25.879,19.043,-426.270
1532485351.609,25.391,44.922,25.391,25.879,-450.684
1532485351.613,23.438,18.555,27.344,35.156,-348.145
1532485351.617,12.695,79.590,32.227,21.484,106.934
1532485351.620,10.742,140.137,31.738,20.020,837.891
1532485351.624,17.090,15.137,31.738,30.273,152.344
1532485351.628,17.578,-15.137,32.227,33.203,-412.109
1532485351.632,13.184,5.859,30.762,34.668,-402.832
1532485351.636,13.672,21.973,32.227,20.020,-415.527
1532485351.640,18.066,35.645,30.273,18.066,-92.773
1532485351.644,23.926,12.207,26.855,39.062,-278.320
1532485351.648,21.484,9.766,25.879,33.203,-349.609
1532485351.652,13.184,11.230,26.855,20.508,-429.199
1532485351.656,12.207,44.922,27.832,25.879,-436.035
1532485351.660,18.066,62.012,30.273,28.320,89.844
1532485351.663,19.043,50.293,31.738,27.344,301.758
1532485351.667,18.066,44.434,30.273,29.297,212.891
1532485351.671,18.066,1.465,29.297,25.391,-271.973
1532485351.675,25.391,36.133,31.250,29.785,-448.730
1532485351.679,27.344,154.785,26.855,27.832,632.324
1532485351.683,22.461,28.320,26.855,21.973,589.355
1532485351.687,15.137,5.859,29.297,21.973,-230.957
1532485351.691,15.625,23.926,30.273,23.926,-369.141
1532485351.695,16.602,5.859,29.785,30.762,-382.324
1532485351.699,15.137,69.824,28.809,20.508,154.297
1532485351.703,17.090,14.648,31.250,21.484,-143.066
1532485351.706,19.043,29.297,26.855,25.391,-557.617
1532485351.710,20.508,91.797,25.391,28.320,92.773
1532485351.714,19.043,24.902,28.320,28.809,120.605
1532485351.718,11.719,103.516,27.344,4.395,284.180
1532485351.722,15.137,91.797,28.320,0.000,722.656
1532485351.726,25.391,-30.273,28.320,21.484,-165.527
1532485351.730,27.832,-1.465,27.832,21.484,-434.570
1532485351.734,26.367,5.859,28.320,12.695,-452.148
1532485351.738,22.949,69.824,24.902,10.742,-311.523
1532485351.742,26.367,49.805,26.855,15.625,-165.039
1532485351.745,27.832,8.301,31.738,20.020,-354.492
1532485351.749,24.902,11.719,31.250,27.832,-341.309
1532485351.753,23.438,10.742,30.762,20.996,-507.812
1532485351.757,20.996,113.281,30.762,23.926,16.602
1532485351.761,22.461,139.160,31.738,30.762,840.820
1532485351.765,24.414,-20.996,32.715,24.414,115.234
1532485351.769,26.855,-11.719,33.691,23.926,-516.113
1532485351.773,25.879,29.297,31.738,13.672,-583.008
1532485351.777,23.438,33.691,26.367,19.531,-388.184
1532485351.781,24.414,12.695,28.809,26.367,0.977
1532485351.785,21.973,1.465,29.297,16.113,-318.359
1532485351.788,20.508,34.668,26.855,11.719,-523.926
1532485351.792,24.414,37.109,28.320,24.414,-462.891
1532485351.796,24.902,28.809,30.762,32.715,-225.098
1532485351.800,23.438,21.973,31.250,30.273,96.680
1532485351.804,21.973,62.500,29.785,37.598,111.328
1532485351.808,20.996,51.270,27.832,39.062,30.762
1532485351.812,24.414,-0.488,30.273,34.180,-264.648
1532485351.816,22.461,32.227,26.367,25.391,-230.469
1532485351.820,15.625,150.391,21.484,17.090,703.613
1532485351.824,21.484,37.109,27.832,24.414,360.840
1532485351.828,26.367,-15.137,29.785,30.762,-368.652
1532485351.831,17.090,10.742,29.297,21.484,-364.258
1532485351.835,11.230,25.879,26.367,18.555,-389.160
1532485351.839,16.113,67.871,24.414,20.996,28.809
1532485351.843,14.160,22.949,25.879,22.949,-186.523
1532485351.847,7.812,26.855,23.926,26.367,-335.449
1532485351.851,12.695,62.012,22.949,14.648,93.262
1532485351.855,15.137,43.945,26.855,22.461,-88.379
1532485351.859,13.672,146.973,26.367,29.785,452.148
1532485351.863,12.695,52.246,22.949,16.602,707.031
1532485351.867,9.277,-46.387,25.879,14.648,-239.746
1532485351.870,6.348,18.066,27.832,15.137,-550.293
1532485351.874,5.859,37.598,20.020,20.996,-549.805
1532485351.878,5.371,80.566,22.461,22.949,-17.578
1532485351.882,6.836,19.043,29.785,19.531,-29.785
1532485351.886,7.812,9.277,24.414,18.066,-467.285
1532485351.890,10.742,41.016,23.926,18.066,-470.703
1532485351.894,14.648,37.109,26.367,23.926,-435.059
1532485351.898,13.184,111.328,26.855,22.949,313.477
1532485351.902,13.672,77.637,24.902,13.184,782.227
1532485351.906,13.672,-14.160,23.438,9.277,-150.879
1532485351.910,12.695,15.137,24.902,23.926,-468.262
1532485351.913,12.695,13.184,31.250,42.480,-382.324
1532485351.917,9.277,48.340,32.227,37.598,-174.805
1532485351.921,10.254,39.062,24.414,30.762,30.273
1532485351.925,13.672,13.672,20.996,23.438,-365.723
1532485351.929,16.113,19.043,21.973,25.391,-340.820
1532485351.933,12.695,3.418,20.508,23.438,-339.844
1532485351.937,4.395,36.621,21.973,20.508,-330.078
1532485351.941,8.301,48.828,26.367,33.691,-67.383
1532485351.945,11.719,62.012,23.926,32.227,181.641
1532485351.949,7.812,21.484,21.484,24.414,197.266
1532485351.952,6.836,-20.508,22.461,20.996,-370.117
1532485351.956,7.324,58.105,22.949,19.531,-347.656
1532485351.960,17.090,157.715,24.414,32.227,724.121
1532485351.964,18.555,15.625,26.367,43.457,344.727
1532485351.968,4.395,-25.879,27.832,35.156,-429.688
1532485351.972,1.953,28.320,25.879,24.414,-546.387
1532485351.976,5.859,34.668,24.414,23.926,-400.879
1532485351.980,7.812,23.438,25.879,26.855,120.117
1532485351.984,7.812,-10.254,27.344,24.902,-202.637
1532485351.988,6.836,30.273,22.949,28.809,-471.191
1532485351.992,13.184,64.453,22.461,35.645,-109.863
1532485351.995,17.090,47.363,27.344,33.203,119.141
1532485351.999,11.719,108.398,25.879,20.020,737.793
1532485352.003,15.625,15.137,28.320,14.160,416.992
1532485352.007,19.043,-27.832,31.250,19.043,-459.961
1532485352.011,18.066,9.766,29.297,24.902,-465.820
1532485352.015,18.555,14.648,27.832,25.391,-336.426
1532485352.019,20.020,58.105,28.809,19.043,80.566
1532485352.023,22.461,23.438,28.809,23.926,-249.023
1532485352.027,22.949,27.832,25.879,28.809,-470.703
1532485352.031,24.902,9.277,27.832,32.227,-278.320
1532485352.035,22.461,11.230,30.273,37.109,-439.453
1532485352.038,18.555,130.371,28.809,33.691,316.406
1532485352.042,23.926,46.875,26.855,33.691,567.871
1532485352.046,28.320,-28.809,26.855,39.551,-223.145
1532485352.050,23.438,4.883,28.809,28.320,-370.117
1532485352.054,20.996,13.184,25.391,15.137,-549.805
1532485352.058,26.855,89.844,20.508,12.695,-121.094
1532485352.062,30.762,42.480,22.949,26.855,145.996
1532485352.066,26.855,-7.324,20.508,32.227,-302.734
1532485352.070,18.555,20.508,19.531,16.113,-422.363
1532485352.074,18.555,30.273,23.438,18.066,-505.859
1532485352.077,22.461,63.965,25.879,35.645,-146.973
1532485352.081,21.484,28.320,28.320,29.297,108.887
1532485352.085,16.113,50.293,29.297,24.414,121.094
1532485352.089,19.043,59.082,26.367,31.738,141.602
1532485352.093,25.391,-11.719,26.367,34.180,-319.336
1532485352.097,24.414,58.594,28.809,32.227,-82.520
1532485352.101,25.879,125.977,29.297,26.855,791.992
1532485352.105,28.809,5.371,28.809,20.020,68.359
1532485352.109,26.367,30.762,27.832,22.461,-377.930
1532485352.113,25.879,29.297,30.762,31.250,-234.375
1532485352.117,22.949,6.348,29.785,26.367,-280.273
1532485352.120,18.066,25.879,24.414,24.414,-71.777
1532485352.124,22.949,19.531,25.391,29.297,-385.254
1532485352.128,28.320,41.504,23.926,33.691,-337.402
1532485352.132,23.926,50.781,20.996,31.250,89.355
1532485352.136,20.996,74.707,19.531,27.832,266.113
1532485352.140,22.461,142.578,18.066,31.250,785.645
1532485352.144,25.879,16.602,21.973,30.762,320.801
1532485352.148,23.438,-38.086,24.414,24.902,-354.004
1532485352.152,18.555,0.977,21.973,14.648,-495.117
1532485352.156,18.555,29.297,23.926,10.742,-510.742
1532485352.160,17.090,39.551,25.879,22.461,-4.883
1532485352.163,10.254,-4.883,24.902,32.227,-173.340
1532485352.167,5.859,6.836,21.973,16.602,-406.738
1532485352.171,12.207,21.484,25.391,4.883,-515.625
1532485352.175,17.578,57.617,28.809,18.555,-486.816
1532485352.179,13.672,112.793,28.320,24.902,511.230
1532485352.183,19.531,31.738,36.133,25.391,409.180
1532485352.187,20.020,22.461,32.715,25.879,-387.207
1532485352.191,14.648,40.527,25.391,24.902,-441.895
1532485352.195,17.090,39.551,28.320,33.691,-401.367
1532485352.199,12.695,133.301,25.391,31.250,438.477
1532485352.202,9.766,55.664,25.391,28.809,480.957
1532485352.206,12.207,30.273,28.320,32.715,-426.270
1532485352.210,14.648,80.078,28.320,33.203,-449.219
1532485352.214,14.160,77.148,30.273,30.273,-339.355
1532485352.218,9.766,149.902,30.762,26.367,-37.598
1532485352.222,8.301,138.184,28.809,24.902,-130.859
1532485352.226,11.230,166.992,25.391,27.832,-34.180
1532485352.230,13.184,168.945,25.391,26.855,383.789
1532485352.234,12.695,84.961,32.227,21.973,-214.355
1532485352.238,2.930,200.684,27.344,17.578,-102.051
1532485352.242,8.789,241.211,28.809,21.484,792.480
1532485352.245,25.391,95.703,41.016,30.762,48.340
1532485352.249,10.742,90.332,27.832,16.602,-458.008
1532485352.253,-0.977,114.258,19.531,11.230,-540.527
1532485352.257,6.836,163.086,22.949,13.184,-424.316
1532485352.261,10.742,141.113,23.926,24.414,-40.039
1532485352.265,10.254,93.262,25.391,31.250,-281.250
1532485352.269,7.812,130.371,27.344,20.508,-409.180
1532485352.273,6.348,167.480,28.809,22.949,-136.719
1532485352.277,9.766,183.594,29.297,27.344,234.863
1532485352.281,11.230,202.637,31.250,24.414,806.152
1532485352.285,14.160,78.125,33.691,27.344,160.156
1532485352.288,11.230,62.988,28.320,24.902,-585.938
1532485352.292,9.766,102.051,24.902,25.879,-570.312
1532485352.296,15.137,93.750,28.809,33.691,-324.707
1532485352.300,15.625,81.055,29.297,23.926,20.996
1532485352.304,9.766,77.148,28.320,18.555,-384.766
1532485352.308,8.301,98.633,26.367,27.832,-527.344
1532485352.312,13.672,86.914,26.367,33.691,-388.672
1532485352.316,13.672,90.332,29.297,25.879,-260.742
1532485352.320,6.836,134.277,27.344,19.043,284.180
1532485352.324,7.324,118.164,25.391,20.508,203.125
1532485352.327,10.742,78.125,25.879,32.715,-157.715
1532485352.331,9.277,48.340,22.949,37.109,-280.273
1532485352.335,0.977,77.637,20.996,28.809,-362.793
1532485352.339,-6.836,199.219,23.438,20.996,591.309
1532485352.343,-1.465,83.496,23.926,22.461,593.262
1532485352.347,2.930,12.207,24.902,32.715,-261.719
1532485352.351,-1.953,49.316,25.879,29.785,-433.105
1532485352.355,-3.418,82.031,25.391,24.414,-479.980
1532485352.359,1.465,126.953,27.344,29.297,23.926
1532485352.363,6.348,72.754,29.785,41.504,-35.156
1532485352.367,1.953,96.191,26.855,34.180,62.500
1532485352.370,0.000,70.801,25.879,22.461,62.988
1532485352.374,5.371,49.805,29.297,23.926,-521.484
1532485352.378,1.953,172.852,30.762,27.832,222.656
1532485352.382,-1.953,91.309,30.273,25.391,791.992
1532485352.386,-2.441,-6.836,26.367,15.137,-214.355
1532485352.390,0.000,52.734,23.926,15.625,-594.727
1532485352.394,6.836,55.664,26.367,34.180,-497.559
1532485352.398,4.883,85.938,27.832,33.691,-113.770
1532485352.402,-1.465,46.387,27.832,21.484,-71.289
1532485352.406,-0.488,26.367,24.414,21.484,-520.020
1532485352.409,9.277,62.988,30.273,28.320,-416.016
1532485352.413,7.324,69.824,31.738,31.738,-76.172
1532485352.417,0.488,93.750,29.785,30.273,347.168
1532485352.421,0.000,61.523,31.250,20.020,562.012
1532485352.425,4.883,4.883,32.227,23.926,-218.262
1532485352.429,9.766,29.785,33.203,32.227,-389.160
1532485352.433,5.859,3.906,26.367,24.414,-425.293
1532485352.437,10.742,72.266,30.273,23.438,-307.617
1532485352.441,18.555,107.422,33.691,28.320,488.281
1532485352.445,11.230,13.184,23.438,26.367,-43.945
1532485352.449,9.766,13.184,22.949,22.461,-406.738
1532485352.452,9.277,27.832,26.855,15.137,-447.266
1532485352.456,9.766,57.129,26.855,25.391,-477.539
1532485352.460,12.207,95.215,26.855,35.156,242.676
1532485352.464,13.672,73.242,27.832,34.668,408.691
1532485352.468,9.277,24.414,25.391,25.391,-111.816
1532485352.472,4.883,18.555,23.438,22.949,-541.016
1532485352.476,11.230,79.102,28.809,32.227,-383.789
1532485352.480,15.137,163.574,28.320,22.949,704.590
1532485352.484,17.578,18.066,27.344,22.949,378.906
1532485352.488,14.160,-7.324,29.785,33.203,-506.348
1532485352.492,10.254,48.340,27.344,33.691,-577.637
1532485352.495,7.812,54.199,24.902,19.043,-338.379
1532485352.499,5.371,49.316,25.879,9.766,155.762
1532485352.503,4.395,21.973,24.414,18.066,-248.535
1532485352.507,0.977,97.656,22.949,21.973,-141.602
1532485352.511,6.836,65.918,23.926,22.949,208.008
1532485352.515,10.742,14.648,26.367,19.531,-202.148
1532485352.519,1.465,154.297,26.367,15.625,526.855
1532485352.523,5.859,64.941,26.367,16.113,606.445
1532485352.527,12.207,-11.719,23.926,23.926,-373.047
1532485352.531,12.207,47.852,27.832,27.344,-302.734
1532485352.534,10.742,29.297,28.809,14.648,-330.566
1532485352.538,6.348,84.473,25.391,9.277,-114.258
1532485352.542,9.277,52.246,26.855,17.090,-163.574
1532485352.546,9.277,16.113,27.832,20.020,-429.199
1532485352.550,5.859,27.832,30.762,18.066,-334.473
1532485352.554,2.930,83.496,31.738,10.254,-125.488
1532485352.558,3.906,118.164,30.273,18.066,325.195
1532485352.562,9.277,28.320,30.762,32.227,323.730
1532485352.566,11.719,-9.277,33.203,32.227,-261.230
1532485352.570,7.812,30.273,32.227,24.414,-425.293
1532485352.574,7.812,27.344,30.762,21.973,-625.000
1532485352.577,7.812,107.422,29.297,25.391,-147.461
1532485352.581,7.324,81.055,28.320,24.414,672.852
1532485352.585,6.836,-25.391,29.785,17.090,-119.141
1532485352.589,6.836,23.926,30.273,20.020,-593.750
1532485352.593,13.184,35.645,29.297,34.668,-520.508
1532485352.597,12.207,49.316,29.785,37.109,-256.348
1532485352.601,6.348,60.059,26.367,28.809,293.945
1532485352.605,7.324,22.461,24.902,15.137,-75.195
1532485352.609,16.602,35.645,35.156,19.043,-421.875
1532485352.613,24.902,27.832,42.480,33.691,-413.086
1532485352.617,19.043,60.059,41.992,33.691,-212.402
