timestamps,TP9,AF7,AF8,TP10,Right AUX
1532484642.903,23.438,33.691,32.227,21.484,-5.859
1532484642.907,24.414,28.320,35.645,26.855,169.922
1532484642.911,20.020,25.391,34.668,17.090,133.301
1532484642.915,16.113,30.273,35.156,16.113,-64.453
1532484642.919,20.020,33.203,34.180,25.879,-36.621
1532484642.923,24.902,27.832,31.250,24.902,93.262
1532484642.926,20.508,24.902,31.250,26.855,66.895
1532484642.930,15.625,27.832,31.738,14.648,25.879
1532484642.934,19.531,26.855,30.762,2.441,-43.457
1532484642.938,23.926,28.320,31.738,18.066,-66.895
1532484642.942,20.020,28.809,35.156,22.461,93.262
1532484642.946,18.555,28.320,33.203,16.113,71.777
1532484642.950,24.902,34.180,28.320,19.531,-32.715
1532484642.954,29.297,30.762,28.320,22.949,2.441
1532484642.958,26.367,27.344,30.273,19.043,115.723
1532484642.962,18.555,30.273,28.320,12.207,80.078
1532484642.965,20.996,33.691,25.879,8.789,-12.207
1532484642.969,27.832,31.738,26.855,13.184,17.090
1532484642.973,25.879,27.832,28.320,10.742,112.793
1532484642.977,23.926,24.414,29.785,7.812,8.789
1532484642.981,21.973,31.738,29.297,11.719,-54.688
1532484642.985,23.438,39.062,27.832,14.160,-23.926
1532484642.989,26.367,32.227,31.250,19.531,64.453
1532484642.993,21.484,24.902,32.227,23.438,134.277
1532484642.997,18.555,32.715,27.832,13.184,2.930
1532484643.001,15.137,32.715,26.367,11.719,-51.758
1532484643.005,17.090,27.832,26.367,18.066,37.109
1532484643.008,15.137,23.438,23.926,19.043,141.113
1532484643.012,14.648,26.855,28.320,11.719,73.730
1532484643.016,19.043,33.691,31.250,1.465,-104.004
1532484643.020,23.926,32.715,28.320,11.719,-42.969
1532484643.024,22.461,27.344,29.785,26.367,112.793
1532484643.028,19.531,28.320,30.762,14.160,87.891
1532484643.032,22.461,36.133,32.715,10.254,-4.395
1532484643.036,27.832,38.086,34.180,16.602,-83.008
1532484643.040,30.273,32.227,31.250,20.020,25.879
1532484643.044,23.438,27.832,29.785,14.160,124.023
1532484643.047,14.648,31.738,27.832,4.395,-8.301
1532484643.051,13.672,36.133,26.855,12.695,-32.715
1532484643.055,15.137,37.109,28.809,21.973,77.637
1532484643.059,13.184,34.180,33.691,17.090,134.766
1532484643.063,8.301,34.668,35.156,9.277,7.812
1532484643.067,7.812,36.133,30.273,-2.441,-108.887
1532484643.071,13.672,36.621,32.227,18.066,27.832
1532484643.075,13.672,30.762,34.180,20.996,102.539
1532484643.079,6.348,29.297,31.250,8.789,-55.176
1532484643.083,9.766,39.551,31.250,13.184,-56.641
1532484643.087,17.578,38.574,31.738,4.395,47.363
1532484643.090,17.090,29.785,30.762,4.883,128.906
1532484643.094,15.137,30.762,29.785,8.301,46.875
1532484643.098,13.184,36.133,25.879,-2.441,-62.500
1532484643.102,15.625,33.203,26.367,8.789,-39.551
1532484643.106,17.090,33.203,29.297,24.902,87.891
1532484643.110,8.789,27.832,26.367,11.719,122.070
1532484643.114,1.953,20.996,27.344,0.000,-60.547
1532484643.118,8.301,23.926,29.785,5.371,-217.773
1532484643.122,16.602,26.367,28.809,16.113,-9.766
1532484643.126,8.789,17.578,26.367,14.648,147.461
1532484643.130,1.465,22.461,25.391,7.324,52.734
1532484643.133,6.348,30.273,23.926,6.348,-40.527
1532484643.137,10.254,21.973,26.367,15.137,6.348
1532484643.141,12.207,16.602,27.344,15.625,110.840
1532484643.145,13.184,20.996,27.344,6.836,62.012
1532484643.149,14.648,27.832,30.273,15.137,-40.527
1532484643.153,21.484,28.320,30.273,19.043,12.695
1532484643.157,19.531,17.090,26.855,21.484,85.449
1532484643.161,17.578,16.113,27.832,19.043,27.832
1532484643.165,20.508,24.414,29.785,2.441,-87.402
1532484643.169,25.391,26.855,28.320,16.602,-58.105
1532484643.172,31.738,26.855,26.367,31.250,125.488
1532484643.176,26.367,22.949,27.344,20.508,41.504
1532484643.180,19.043,32.227,26.855,14.648,-92.773
1532484643.184,20.020,39.062,25.391,16.113,-40.039
1532484643.188,26.855,36.621,26.367,12.695,69.336
1532484643.192,24.414,35.645,27.832,10.254,156.250
1532484643.196,18.066,31.738,27.344,12.207,34.180
1532484643.200,23.926,34.180,26.855,22.461,-20.020
1532484643.204,30.762,36.133,30.762,33.691,39.551
1532484643.208,21.973,32.715,27.832,30.762,82.520
1532484643.212,18.066,36.621,29.785,18.555,72.266
1532484643.215,20.508,36.133,33.203,7.324,-102.051
1532484643.219,24.414,34.180,29.785,13.672,-110.840
1532484643.223,26.855,32.227,32.715,23.438,98.145
1532484643.227,20.996,27.344,35.156,11.230,116.211
1532484643.231,19.531,31.250,34.180,-1.953,-0.488
1532484643.235,24.902,31.738,33.691,16.602,-70.801
1532484643.239,26.367,29.785,34.668,29.785,59.082
1532484643.243,22.949,30.273,36.621,15.625,148.926
1532484643.247,14.648,34.668,35.156,-0.488,51.270
1532484643.251,11.719,34.668,32.715,20.508,-30.273
1532484643.255,25.879,32.715,32.715,25.879,-13.672
1532484643.258,25.391,40.527,36.621,17.578,-4.395
1532484643.262,18.066,40.039,38.574,21.973,5.859
1532484643.266,20.508,34.668,35.156,24.414,-40.527
1532484643.270,25.391,39.062,33.203,21.484,19.043
1532484643.274,22.949,34.180,34.180,8.301,120.117
1532484643.278,18.555,34.180,33.203,14.648,76.660
1532484643.282,22.461,39.551,29.297,16.113,-24.414
1532484643.286,30.273,40.527,29.785,9.766,-20.508
1532484643.290,29.297,35.156,34.180,19.043,126.953
1532484643.294,24.414,22.949,36.621,15.137,107.422
1532484643.297,21.484,29.785,32.227,13.184,-41.016
1532484643.301,27.832,33.203,26.367,18.555,-85.449
1532484643.305,31.250,33.691,29.785,27.832,6.836
1532484643.309,23.926,32.715,32.227,24.414,165.527
1532484643.313,20.996,33.203,32.715,15.625,89.355
1532484643.317,25.391,34.668,34.180,24.902,-176.270
1532484643.321,27.344,41.504,34.668,30.762,-54.688
1532484643.325,23.926,38.574,36.133,24.414,155.762
1532484643.329,21.484,33.203,31.738,14.160,90.820
1532484643.333,20.508,37.109,30.273,9.277,-23.438
1532484643.337,21.484,36.133,31.250,5.859,-37.598
1532484643.340,19.531,31.738,28.809,26.367,147.461
1532484643.344,16.602,29.297,31.738,33.691,120.605
1532484643.348,16.113,31.250,29.785,23.926,-72.754
1532484643.352,21.484,27.344,25.879,15.625,-36.621
1532484643.356,30.762,23.926,29.785,5.859,15.625
1532484643.360,24.902,29.297,30.273,3.906,37.598
1532484643.364,17.578,34.668,26.855,6.836,14.160
1532484643.368,23.438,35.645,27.344,21.973,-35.645
1532484643.372,28.809,33.691,31.738,32.715,71.289
1532484643.376,26.367,30.762,36.621,22.949,132.812
1532484643.379,21.973,32.715,35.645,16.602,48.340
1532484643.383,24.902,33.691,31.738,20.020,-32.715
1532484643.387,29.785,29.785,31.250,29.785,44.922
1532484643.391,23.926,22.461,31.738,24.902,138.672
1532484643.395,18.066,20.020,31.250,5.371,-14.160
1532484643.399,21.973,32.715,30.762,8.301,-163.086
1532484643.403,25.879,36.621,30.762,26.855,-20.508
1532484643.407,25.879,28.320,31.738,33.203,124.023
1532484643.411,20.508,24.414,30.762,15.137,104.980
1532484643.415,18.555,27.832,29.785,10.254,-48.340
1532484643.419,22.949,37.109,27.832,21.484,-58.105
1532484643.422,25.391,37.598,28.320,17.578,122.070
1532484643.426,25.391,29.297,31.250,15.137,145.020
1532484643.430,18.066,24.414,28.320,4.395,7.324
1532484643.434,16.602,31.738,25.391,3.906,-103.516
1532484643.438,23.438,34.668,26.855,16.602,0.977
1532484643.442,23.926,28.809,30.273,15.137,70.801
1532484643.446,17.578,33.203,28.809,5.371,-9.766
1532484643.450,14.160,40.039,26.367,4.883,-13.672
1532484643.454,20.996,37.598,27.832,13.672,40.039
1532484643.458,19.531,30.762,25.879,16.113,-3.906
1532484643.462,15.625,33.203,28.320,3.418,15.137
1532484643.465,18.066,34.180,28.320,7.812,-24.902
1532484643.469,20.508,25.879,27.832,20.996,-10.742
1532484643.473,16.602,24.414,33.203,21.484,142.090
1532484643.477,10.742,30.273,32.715,12.695,117.188
1532484643.481,12.695,34.180,29.785,-5.859,1.465
1532484643.485,14.648,31.738,31.738,3.906,-66.895
1532484643.489,15.137,30.762,32.227,16.602,24.414
1532484643.493,11.230,27.832,29.297,6.836,118.652
1532484643.497,7.812,29.785,30.273,-5.371,-114.258
1532484643.501,13.672,39.551,32.227,-2.441,-143.066
1532484643.504,16.113,35.156,33.691,12.207,60.059
1532484643.508,11.719,29.297,34.668,8.301,123.535
1532484643.512,15.625,36.621,34.180,7.812,60.547
1532484643.516,19.531,33.691,33.203,11.230,-56.641
1532484643.520,20.508,25.879,33.203,18.066,10.742
1532484643.524,24.414,25.391,34.180,14.648,125.977
1532484643.528,20.020,27.344,34.180,14.160,83.496
1532484643.532,19.043,33.203,35.156,16.113,-40.527
1532484643.536,26.855,34.668,36.133,14.648,-126.465
1532484643.540,25.879,30.273,33.203,29.785,-4.883
1532484643.544,17.578,28.809,29.785,27.344,116.699
1532484643.547,15.625,32.227,29.785,14.160,6.348
1532484643.551,20.996,37.109,29.297,12.695,-44.434
1532484643.555,22.949,33.203,27.832,21.484,25.879
1532484643.559,17.090,26.367,29.297,23.926,114.258
1532484643.563,15.137,31.250,33.203,17.578,40.527
1532484643.567,17.578,33.203,33.691,14.160,-70.801
1532484643.571,18.555,22.949,30.273,21.484,14.648
1532484643.575,19.043,24.414,29.297,18.066,91.797
1532484643.579,14.648,25.391,27.344,13.672,4.883
1532484643.583,15.625,27.832,26.367,16.602,-134.277
1532484643.587,23.438,35.156,28.809,14.160,-69.824
1532484643.590,21.484,33.203,28.809,20.020,132.812
1532484643.594,10.742,23.926,30.273,23.438,94.727
1532484643.598,9.766,26.367,29.297,12.207,-139.648
1532484643.602,16.113,33.203,26.367,10.742,-62.988
1532484643.606,14.648,28.809,27.832,18.555,116.699
1532484643.610,9.277,26.367,30.762,9.766,148.926
1532484643.614,8.789,31.250,31.250,7.812,5.371
1532484643.618,14.648,30.273,26.855,20.508,-105.469
1532484643.622,16.602,27.832,29.297,24.414,63.965
1532484643.626,14.648,27.832,34.668,28.320,123.535
1532484643.629,12.207,28.809,33.203,27.344,10.742
1532484643.633,13.184,34.180,30.762,14.648,-52.246
1532484643.637,16.602,35.156,29.297,17.578,-97.168
1532484643.641,15.137,33.691,31.738,23.926,50.781
1532484643.645,9.277,34.180,33.203,13.672,80.566
1532484643.649,14.160,40.527,28.809,6.348,-6.836
1532484643.653,27.832,39.551,30.762,15.625,5.859
1532484643.657,26.855,31.738,34.668,33.691,72.754
1532484643.661,21.973,29.785,33.691,30.762,87.891
1532484643.665,22.949,32.715,29.297,20.996,-22.461
1532484643.669,27.344,35.156,25.879,28.809,-25.879
1532484643.672,27.832,38.086,28.809,30.273,84.473
1532484643.676,21.484,33.691,32.227,9.766,41.504
1532484643.680,19.043,33.691,27.344,3.906,-20.020
1532484643.684,24.902,37.598,25.879,17.090,-32.227
1532484643.688,29.297,34.668,28.320,24.414,67.871
1532484643.692,26.855,30.762,28.809,16.113,154.297
1532484643.696,25.879,35.156,28.809,1.465,-20.508
1532484643.700,27.832,38.086,25.879,8.301,-94.238
1532484643.704,28.809,37.109,26.367,21.484,31.250
1532484643.708,23.926,35.156,26.855,20.020,165.527
1532484643.712,17.578,32.715,25.879,12.207,106.445
1532484643.715,15.625,34.668,26.367,-2.930,-60.059
1532484643.719,18.066,29.785,25.879,13.184,-36.133
1532484643.723,17.090,25.879,26.855,28.809,64.453
1532484643.727,13.184,28.320,27.832,18.555,86.914
1532484643.731,14.648,38.086,26.855,10.742,20.020
1532484643.735,20.996,39.551,25.879,-1.465,-77.637
1532484643.739,22.949,36.133,26.367,4.883,-25.879
1532484643.743,16.602,33.203,27.832,13.184,119.141
1532484643.747,11.230,32.715,23.926,-5.371,46.875
1532484643.751,15.625,34.180,24.414,-0.488,-57.617
1532484643.754,20.020,31.738,31.250,26.367,4.883
1532484643.758,17.578,28.320,29.785,23.926,102.051
1532484643.762,12.207,29.785,29.297,7.812,69.336
1532484643.766,13.184,32.227,30.273,14.648,-50.781
1532484643.770,18.555,29.297,29.785,23.438,-26.367
1532484643.774,17.090,27.832,35.645,19.531,87.402
1532484643.778,10.254,30.273,32.715,1.465,-38.574
1532484643.782,10.742,38.574,26.367,-9.766,-68.848
1532484643.786,18.555,34.180,27.344,-5.859,7.812
1532484643.790,10.742,25.391,28.809,0.000,125.977
1532484643.794,0.977,25.879,28.320,-0.488,126.465
1532484643.797,-0.488,34.180,26.367,0.488,-18.066
1532484643.801,8.301,34.668,29.297,5.371,-38.574
1532484643.805,15.625,31.738,33.203,11.719,61.035
1532484643.809,13.184,30.273,33.203,11.230,151.367
1532484643.813,12.695,26.855,32.227,7.324,25.391
1532484643.817,17.578,31.250,31.738,12.207,-149.902
1532484643.821,19.043,34.180,30.762,10.742,-23.438
1532484643.825,14.160,30.762,31.250,9.766,126.953
1532484643.829,8.789,31.250,32.715,10.254,97.168
1532484643.833,12.695,33.691,32.715,6.348,1.953
1532484643.836,18.555,37.598,34.668,11.230,-116.211
1532484643.840,14.160,34.668,36.133,10.254,29.297
1532484643.844,7.324,32.715,32.715,4.883,108.398
1532484643.848,10.254,40.527,34.668,6.836,-4.883
1532484643.852,13.672,38.086,34.668,2.441,-18.555
1532484643.856,10.254,31.738,32.715,14.160,59.082
1532484643.860,4.395,28.320,33.691,16.113,107.910
1532484643.864,4.883,31.738,32.715,11.719,-40.527
1532484643.868,13.672,38.574,29.785,17.578,-84.961
1532484643.872,19.531,36.621,27.344,20.508,106.445
1532484643.876,18.555,28.320,34.180,14.648,116.211
1532484643.879,16.113,36.621,35.156,11.230,-31.250
1532484643.883,19.531,46.387,30.762,11.230,-29.297
1532484643.887,24.414,41.504,31.738,19.531,73.730
1532484643.891,24.414,35.645,30.762,20.996,154.297
1532484643.895,21.973,38.574,28.320,5.371,53.711
1532484643.899,23.438,49.805,26.855,15.625,-47.852
1532484643.903,29.785,49.805,27.344,23.926,37.598
1532484643.907,31.250,38.574,29.785,23.926,115.234
1532484643.911,27.832,39.551,29.297,17.578,79.102
1532484643.915,26.855,45.898,28.809,9.277,-38.086
1532484643.919,32.715,45.898,28.809,7.812,-124.512
1532484643.922,38.574,41.016,26.367,14.160,54.199
1532484643.926,33.691,33.691,26.367,19.531,136.230
1532484643.930,32.227,41.504,28.320,23.438,25.391
1532484643.934,33.203,44.922,29.785,20.508,-92.285
1532484643.938,31.738,38.574,30.273,24.902,14.160
1532484643.942,35.156,38.574,33.203,38.086,157.715
1532484643.946,35.156,40.527,34.180,28.809,52.246
1532484643.950,35.645,39.062,30.273,17.578,-22.949
1532484643.954,41.992,35.645,28.809,23.438,24.414
1532484643.958,39.551,38.086,29.297,34.180,70.801
1532484643.961,33.203,41.016,30.273,32.715,63.965
1532484643.965,33.691,41.016,30.762,20.996,-28.320
1532484643.969,35.645,43.457,29.785,26.367,-0.488
1532484643.973,31.738,40.039,29.297,36.133,134.277
1532484643.977,27.832,36.133,30.273,25.391,-2.441
1532484643.981,21.973,43.457,29.297,17.578,-66.406
1532484643.985,21.973,47.363,28.809,23.438,-17.578
1532484643.989,24.902,45.898,29.785,33.203,67.871
1532484643.993,23.926,46.387,31.250,27.344,162.109
1532484643.997,24.414,51.758,32.227,9.277,14.648
1532484644.001,30.762,50.781,31.738,13.184,-97.168
1532484644.004,30.273,40.527,28.809,22.949,-17.090
1532484644.008,28.320,40.039,28.320,19.531,135.742
1532484644.012,26.367,44.434,28.809,16.602,93.750
1532484644.016,22.949,45.410,26.855,11.230,-144.043
1532484644.020,24.902,52.246,25.879,8.301,-83.984
1532484644.024,26.855,53.711,27.344,12.207,135.254
1532484644.028,21.484,54.199,27.832,21.484,99.609
1532484644.032,17.090,57.129,26.855,16.113,-15.137
1532484644.036,23.438,54.199,30.273,16.113,-43.457
1532484644.040,25.879,54.199,32.227,26.367,106.934
1532484644.044,25.391,50.781,30.762,23.926,158.691
1532484644.047,22.949,53.223,28.320,10.254,-3.418
1532484644.051,21.973,59.570,28.320,9.277,-75.195
1532484644.055,24.902,51.270,28.320,18.555,-22.949
1532484644.059,20.996,56.152,29.297,24.902,90.332
1532484644.063,17.090,55.176,31.250,18.066,57.617
1532484644.067,20.996,52.734,29.785,15.137,-58.594
1532484644.071,27.344,60.547,28.320,23.926,65.918
1532484644.075,25.391,54.199,30.762,13.672,122.559
1532484644.079,20.996,53.223,30.762,2.441,3.418
1532484644.083,22.949,57.129,28.809,8.789,-27.344
1532484644.086,26.367,54.688,27.832,20.020,27.344
1532484644.090,29.297,51.270,31.738,28.809,142.578
1532484644.094,21.973,49.316,31.738,24.902,83.008
1532484644.098,12.207,56.152,29.297,7.324,-87.402
1532484644.102,19.531,63.965,31.250,5.371,-49.805
1532484644.106,23.926,62.988,30.273,26.855,105.469
1532484644.110,18.066,57.129,28.320,23.926,147.949
1532484644.114,13.672,54.199,30.762,12.695,12.695
1532484644.118,18.066,59.570,31.250,13.672,-174.805
1532484644.122,24.902,65.430,30.762,19.531,0.977
1532484644.126,20.996,59.570,32.715,19.531,138.184
1532484644.129,14.160,60.547,33.691,22.949,46.875
1532484644.133,15.625,62.012,29.785,17.578,-40.527
1532484644.137,23.438,63.965,31.250,15.137,12.207
1532484644.141,25.879,63.477,35.156,29.785,143.555
1532484644.145,18.066,61.523,29.785,11.230,51.758
1532484644.149,17.578,68.848,31.250,5.859,-44.434
1532484644.153,22.949,65.430,31.250,18.555,22.461
1532484644.157,20.508,55.664,27.344,18.066,-5.371
1532484644.161,15.137,60.547,29.297,18.066,17.578
1532484644.165,14.160,67.871,28.320,9.277,13.184
1532484644.168,18.555,71.289,29.297,8.789,-6.348
1532484644.172,17.578,63.477,30.762,22.949,100.586
1532484644.176,8.789,58.594,29.785,10.254,104.980
1532484644.180,6.836,62.500,26.855,4.395,14.648
1532484644.184,14.648,62.500,22.949,3.906,-45.898
1532484644.188,19.043,62.988,23.438,8.301,22.949
1532484644.192,15.137,59.570,27.832,25.879,125.000
1532484644.196,12.207,58.105,27.344,11.719,-8.789
1532484644.200,16.602,66.406,25.879,-0.488,-121.094
1532484644.204,22.461,67.871,26.855,5.859,33.203
1532484644.208,18.555,62.012,28.320,16.602,138.184
1532484644.211,14.648,61.035,27.832,15.137,101.562
1532484644.215,17.090,64.941,26.855,4.395,-38.574
1532484644.219,24.414,67.383,27.344,11.230,-15.137
1532484644.223,26.855,64.941,27.344,20.996,133.301
1532484644.227,19.043,61.523,27.344,1.953,128.906
1532484644.231,19.531,62.500,27.344,0.977,-2.930
1532484644.235,25.879,63.965,27.832,13.672,-85.449
1532484644.239,25.391,61.523,27.344,15.625,28.809
1532484644.243,21.973,57.129,27.344,23.926,97.168
1532484644.247,18.066,57.129,25.879,13.672,-0.488
1532484644.251,19.043,59.082,22.949,5.859,-28.809
1532484644.254,21.484,58.105,22.949,8.789,43.457
1532484644.258,20.996,59.082,23.926,7.812,28.320
1532484644.262,19.043,59.082,26.855,12.695,13.672
1532484644.266,19.043,62.012,26.367,10.742,-19.043
1532484644.270,23.926,62.012,24.902,14.648,40.527
1532484644.274,23.926,52.246,24.414,30.762,114.258
1532484644.278,15.625,54.688,25.879,21.973,70.801
1532484644.282,13.184,61.523,26.855,11.230,-33.691
1532484644.286,20.020,62.988,25.879,15.625,-99.609
1532484644.290,20.996,63.477,26.855,20.996,78.125
1532484644.293,18.555,62.500,28.320,19.043,132.324
1532484644.297,18.555,65.430,29.297,7.324,-135.254
1532484644.301,19.043,68.848,28.809,7.812,-116.211
1532484644.305,17.090,64.453,25.879,14.160,105.957
1532484644.309,12.695,58.105,24.902,16.602,156.738
1532484644.313,11.230,61.035,24.414,14.160,50.293
1532484644.317,8.789,61.523,23.438,10.742,-64.453
1532484644.321,9.277,55.664,23.926,13.672,15.137
1532484644.325,17.578,54.199,25.879,9.766,131.348
1532484644.329,16.113,57.617,29.785,3.418,53.223
1532484644.333,9.766,61.035,26.367,6.836,-63.477
1532484644.336,13.672,56.641,24.414,8.789,-87.402
1532484644.340,12.207,60.059,27.344,12.207,58.594
1532484644.344,7.324,60.059,30.273,9.766,117.676
1532484644.348,7.812,60.059,32.715,7.812,-16.602
1532484644.352,11.719,65.918,33.203,9.277,-13.184
1532484644.356,12.207,61.523,36.133,12.207,77.637
1532484644.360,4.395,55.176,36.621,20.508,126.465
1532484644.364,3.418,57.617,31.738,17.090,36.133
1532484644.368,10.254,60.059,28.320,13.184,-39.062
1532484644.372,9.766,55.664,31.250,16.602,71.777
1532484644.376,10.254,49.805,36.133,19.531,119.629
1532484644.379,13.672,54.688,39.062,14.648,12.207
1532484644.383,16.113,60.059,36.621,10.742,-56.152
1532484644.387,20.996,55.176,35.645,17.090,5.371
1532484644.391,19.531,52.246,34.668,12.207,138.184
1532484644.395,12.695,48.828,34.180,-6.348,62.012
1532484644.399,12.695,54.688,32.715,5.859,-127.441
1532484644.403,22.461,60.059,28.809,23.438,-33.203
1532484644.407,24.414,54.688,27.832,20.508,123.535
1532484644.411,19.531,49.805,28.809,21.484,137.695
1532484644.415,19.531,52.734,25.879,20.020,-16.113
1532484644.418,26.855,57.129,27.344,15.137,-57.617
1532484644.422,32.715,52.246,28.809,26.855,48.828
1532484644.426,27.344,46.875,27.832,22.461,53.223
1532484644.430,20.996,50.293,26.855,6.836,2.930
1532484644.434,22.461,51.758,27.344,9.277,-58.594
1532484644.438,27.344,47.363,30.762,20.508,-67.383
1532484644.442,26.855,42.480,32.227,27.344,86.426
1532484644.446,22.461,43.945,29.785,21.973,74.707
1532484644.450,21.973,50.293,30.273,22.949,-8.789
1532484644.454,26.855,45.898,28.320,24.902,18.555
1532484644.458,27.344,47.852,27.344,21.484,123.535
1532484644.461,20.996,50.293,29.785,24.902,116.211
1532484644.465,19.043,46.875,29.297,16.113,-27.344
1532484644.469,24.414,48.340,30.762,16.602,-20.508
1532484644.473,27.344,45.898,35.156,21.484,65.918
1532484644.477,23.926,40.039,38.574,12.695,-27.344
1532484644.481,18.555,46.387,35.645,17.090,-71.777
1532484644.485,18.555,46.875,32.715,14.648,-23.438
1532484644.489,22.461,47.852,33.203,25.391,102.051
1532484644.493,20.508,39.551,32.227,25.879,175.293
1532484644.497,10.254,38.086,32.227,14.648,20.996
1532484644.500,14.160,48.340,34.180,20.996,-42.969
1532484644.504,24.414,48.340,35.645,26.367,65.430
1532484644.508,18.066,41.992,35.156,26.855,130.859
1532484644.512,14.648,43.457,35.156,16.113,81.055
1532484644.516,20.020,49.316,35.645,12.207,-53.711
1532484644.520,28.320,50.293,34.180,23.926,-59.082
1532484644.524,23.926,47.852,34.668,26.855,97.656
1532484644.528,21.973,50.781,37.109,31.250,114.746
1532484644.532,20.508,54.688,36.621,21.484,20.020
1532484644.536,21.484,47.852,34.180,11.719,-86.426
1532484644.540,21.973,47.363,33.203,22.949,2.930
1532484644.543,15.625,48.340,34.668,29.785,145.508
1532484644.547,12.695,42.969,32.715,24.902,33.691
1532484644.551,15.137,42.969,25.879,13.184,-40.039
1532484644.555,19.531,43.945,25.391,19.531,59.082
1532484644.559,18.555,42.969,28.809,25.391,148.438
1532484644.563,17.090,45.898,28.809,16.113,50.781
1532484644.567,16.113,51.270,26.855,8.789,-116.211
1532484644.571,20.508,53.711,26.367,20.020,14.160
1532484644.575,21.973,45.898,29.785,24.414,121.582
1532484644.579,15.137,45.898,30.762,16.602,-25.391
1532484644.583,14.648,52.246,29.785,10.254,-59.570
1532484644.586,18.555,53.223,33.203,19.043,19.531
1532484644.590,21.484,49.316,38.086,34.668,141.602
1532484644.594,19.043,45.898,36.621,17.578,125.488
1532484644.598,12.207,49.316,33.203,-0.488,29.297
1532484644.602,14.160,48.340,33.203,11.230,-0.488
1532484644.606,16.602,42.969,34.180,18.555,84.961
1532484644.610,16.113,43.457,36.133,14.648,131.836
1532484644.614,16.113,44.434,38.574,17.090,-3.418
1532484644.618,15.625,45.410,35.645,18.555,-167.480
1532484644.622,20.020,52.246,35.645,19.043,-12.695
1532484644.625,17.578,41.016,38.086,22.949,153.320
1532484644.629,12.207,42.480,36.133,15.625,86.914
1532484644.633,15.625,49.316,34.180,7.324,-26.367
1532484644.637,17.578,45.898,32.227,16.113,7.812
1532484644.641,16.113,39.062,32.715,21.973,159.180
1532484644.645,11.719,35.156,35.156,11.230,104.492
1532484644.649,11.719,42.480,35.156,7.324,-23.438
1532484644.653,16.113,43.457,33.691,17.578,-11.230
1532484644.657,16.602,41.016,32.227,26.855,53.223
1532484644.661,17.090,41.992,33.691,27.344,28.320
1532484644.665,18.555,43.457,35.156,18.555,-91.309
1532484644.668,25.391,45.898,32.715,17.578,-70.312
1532484644.672,34.180,47.363,34.668,23.926,108.398
1532484644.676,32.227,42.969,39.062,17.578,46.387
1532484644.680,24.414,49.316,35.156,18.555,-62.012
1532484644.684,22.461,51.270,33.203,22.949,-66.406
1532484644.688,27.344,49.316,30.762,17.578,22.461
1532484644.692,28.320,49.805,30.273,21.973,171.875
1532484644.696,22.461,46.387,31.738,19.043,45.410
1532484644.700,22.461,45.410,31.250,19.531,-75.684
1532484644.704,27.832,44.434,29.785,26.367,5.371
1532484644.708,27.832,39.551,31.250,20.508,71.777
1532484644.711,22.461,39.062,34.180,20.508,80.566
1532484644.715,18.066,42.480,30.762,10.742,-63.965
1532484644.719,22.949,47.363,28.809,7.812,-123.535
1532484644.723,22.949,41.992,31.738,26.855,71.777
1532484644.727,13.672,37.598,33.691,26.367,136.230
1532484644.731,17.090,39.551,30.273,-1.465,10.742
1532484644.735,21.973,46.875,30.273,-1.465,-88.867
1532484644.739,23.438,44.922,35.156,26.855,37.598
1532484644.743,24.414,33.203,36.133,23.926,134.277
1532484644.747,17.090,40.039,34.180,11.719,41.504
1532484644.750,19.043,45.410,31.250,13.672,-46.875
1532484644.754,28.809,39.062,29.297,23.926,-9.766
1532484644.758,22.949,33.691,26.855,25.879,17.578
1532484644.762,15.137,36.133,25.391,9.766,29.785
1532484644.766,15.625,40.527,27.344,4.883,-42.480
1532484644.770,18.555,41.504,28.320,14.648,-4.395
1532484644.774,20.996,37.598,31.250,17.578,102.539
1532484644.778,17.090,38.086,32.227,13.672,69.824
1532484644.782,17.090,44.434,29.785,5.371,-24.902
1532484644.786,24.902,45.898,28.809,16.602,-40.527
1532484644.790,24.902,42.480,27.832,28.320,104.980
1532484644.793,17.090,35.645,27.832,22.949,145.508
1532484644.797,11.230,35.645,26.367,6.836,-24.414
1532484644.801,14.160,41.504,24.902,-2.930,-111.328
1532484644.805,23.926,42.969,26.855,13.672,-3.906
1532484644.809,25.391,41.016,26.367,21.484,142.578
1532484644.813,18.555,47.363,26.367,4.395,76.172
1532484644.817,13.672,43.945,25.879,-3.418,-184.082
1532484644.821,18.066,43.457,25.879,6.836,-75.684
1532484644.825,16.602,42.480,29.297,23.438,116.699
1532484644.829,9.277,37.598,28.320,15.137,75.684
1532484644.833,14.648,41.504,27.344,7.812,-32.715
1532484644.836,20.996,45.898,28.809,7.812,-38.574
1532484644.840,19.531,41.992,25.879,7.812,145.508
1532484644.844,13.184,32.715,28.320,18.066,127.930
1532484644.848,7.812,37.598,29.297,9.277,-71.777
1532484644.852,14.648,41.992,29.785,7.812,-34.668
1532484644.856,19.043,36.133,33.203,14.648,29.297
1532484644.860,13.184,35.156,32.227,10.254,41.992
1532484644.864,9.766,35.156,30.273,-0.977,31.250
1532484644.868,13.672,35.645,26.367,2.441,-36.621
1532484644.872,17.090,40.527,24.414,9.277,34.668
1532484644.875,13.672,37.598,27.832,8.301,103.516
1532484644.879,9.277,35.156,31.250,10.254,53.711
1532484644.883,10.254,38.086,29.297,0.488,-40.039
1532484644.887,15.137,41.992,26.367,1.465,20.996
1532484644.891,15.625,35.645,25.879,16.602,154.297
1532484644.895,15.625,31.250,28.809,9.766,51.758
1532484644.899,15.625,42.480,28.320,4.395,-133.301
1532484644.903,17.090,40.039,28.320,9.766,-48.828
1532484644.907,18.066,31.250,29.785,14.648,135.254
1532484644.911,15.137,28.809,29.297,10.254,136.230
1532484644.915,9.766,32.227,28.809,0.977,-27.832
1532484644.918,13.672,35.156,25.879,7.812,-52.246
1532484644.922,18.066,31.738,25.391,15.625,103.027
1532484644.926,16.113,31.738,26.367,9.766,173.340
1532484644.930,12.695,35.156,26.367,11.719,69.336
1532484644.934,13.672,36.133,25.879,8.301,-35.156
1532484644.938,20.020,34.180,25.391,10.254,24.414
1532484644.942,20.020,27.344,27.344,22.949,104.004
1532484644.946,14.160,26.855,27.344,21.484,55.664
1532484644.950,13.672,31.738,20.996,19.043,-2.441
1532484644.954,21.484,33.691,19.043,7.812,35.156
1532484644.957,25.879,31.250,24.414,8.789,41.504
1532484644.961,24.902,36.133,26.855,19.043,86.426
1532484644.965,27.344,37.109,25.879,11.719,19.531
1532484644.969,32.715,38.574,27.344,10.742,1.953
1532484644.973,30.273,34.668,27.832,26.855,131.348
1532484644.977,20.020,26.855,23.926,15.625,105.469
1532484644.981,17.090,33.691,21.973,4.883,17.578
1532484644.985,23.926,40.527,25.879,19.531,-48.340
1532484644.989,26.367,36.133,25.879,20.020,16.113
1532484644.993,21.484,34.180,24.414,15.137,153.809
1532484644.997,20.020,33.691,23.438,1.953,-33.691
1532484645.000,25.391,39.551,23.438,9.766,-141.113
1532484645.004,33.203,41.016,25.879,20.508,44.434
1532484645.008,27.832,34.668,24.902,9.766,144.531
1532484645.012,19.531,40.527,27.344,6.836,93.750
1532484645.016,19.531,45.898,26.367,18.555,-66.406
1532484645.020,20.508,38.086,25.391,23.438,-13.672
1532484645.024,23.926,36.133,29.785,28.809,133.789
1532484645.028,25.391,36.621,29.297,17.578,98.145
1532484645.032,21.973,33.691,24.414,9.766,-12.695
1532484645.036,23.926,31.738,23.438,9.277,-124.512
1532484645.040,25.879,35.645,25.879,17.578,-28.320
1532484645.043,21.484,33.203,25.879,26.855,110.352
1532484645.047,20.020,33.691,23.926,19.531,10.254
1532484645.051,25.391,36.621,26.367,13.184,-74.219
1532484645.055,32.715,36.133,28.809,13.184,-28.809
1532484645.059,28.320,35.156,28.809,30.762,92.285
1532484645.063,22.461,35.156,28.320,24.414,39.062
1532484645.067,22.461,40.039,29.297,14.648,-55.176
1532484645.071,27.832,38.086,30.762,33.691,13.184
1532484645.075,24.902,32.227,29.785,34.180,61.523
1532484645.079,19.531,34.180,30.762,15.137,29.785
1532484645.082,20.508,36.621,34.180,16.113,-99.121
1532484645.086,23.926,38.086,31.250,30.273,-85.938
1532484645.090,29.785,31.250,27.344,26.367,110.352
1532484645.094,28.320,21.973,28.320,14.160,94.238
1532484645.098,24.902,31.250,26.855,6.836,-136.719
1532484645.102,27.832,37.598,25.391,10.254,-78.613
1532484645.106,28.320,33.691,27.832,24.902,67.383
1532484645.110,24.414,30.273,27.832,14.648,127.441
1532484645.114,22.461,29.785,26.367,2.441,37.109
1532484645.118,25.879,35.645,29.297,17.090,-77.148
1532484645.122,27.832,37.109,28.320,27.344,38.574
1532484645.125,20.996,32.227,25.879,25.391,117.676
1532484645.129,17.578,34.668,29.785,14.160,21.484
1532484645.133,20.996,39.551,32.715,12.207,-66.406
1532484645.137,24.902,34.668,30.762,17.090,-129.395
1532484645.141,23.926,34.180,30.762,26.367,41.504
1532484645.145,19.043,34.668,32.227,20.996,115.234
1532484645.149,16.113,36.621,29.297,11.719,-7.324
1532484645.153,20.508,37.598,29.785,20.508,0.977
1532484645.157,23.438,32.227,31.250,16.113,66.406
1532484645.161,16.113,28.320,29.785,6.348,115.234
1532484645.165,12.207,29.297,27.344,5.371,22.949
1532484645.168,20.508,32.715,25.391,3.418,-9.766
1532484645.172,29.297,27.344,29.297,9.766,104.492
1532484645.176,27.832,21.484,31.738,18.555,41.504
1532484645.180,22.461,26.367,28.320,8.789,-41.016
1532484645.184,27.344,34.668,25.391,3.906,-69.336
1532484645.188,34.180,35.645,26.367,21.484,24.902
1532484645.192,29.785,33.691,28.320,21.973,149.902
1532484645.196,22.461,38.086,27.832,2.930,5.859
1532484645.200,22.461,36.621,27.344,11.230,-85.449
1532484645.204,27.344,33.203,25.879,18.555,3.418
1532484645.207,26.855,36.133,24.414,17.090,122.070
1532484645.211,20.996,33.691,26.367,19.531,91.309
1532484645.215,20.996,37.598,27.832,13.672,-79.102
1532484645.219,26.367,42.969,29.785,10.742,-81.543
1532484645.223,21.973,39.062,27.344,22.949,36.133
1532484645.227,17.578,32.715,24.902,25.879,59.570
1532484645.231,16.602,35.156,27.832,14.160,-7.324
1532484645.235,17.578,37.598,27.832,12.695,-116.699
1532484645.239,21.484,38.574,25.391,17.578,-70.801
1532484645.243,11.230,34.180,27.832,20.508,105.957
1532484645.247,8.789,37.109,28.320,8.789,53.223
1532484645.250,18.066,43.457,27.344,4.883,-62.012
1532484645.254,19.531,40.039,30.762,15.625,-41.992
1532484645.258,15.625,40.527,27.832,14.648,89.844
1532484645.262,11.719,35.156,26.367,6.348,73.730
1532484645.266,20.996,27.832,31.738,9.766,-103.027
1532484645.270,26.367,31.738,33.691,15.137,-86.426
1532484645.274,20.020,34.668,32.227,20.020,80.566
1532484645.278,15.137,35.156,30.762,13.672,0.488
1532484645.282,14.648,37.598,28.809,0.488,-73.730
1532484645.286,19.043,36.133,29.297,7.324,-50.781
1532484645.289,20.508,32.227,29.297,8.301,79.102
1532484645.293,19.531,28.809,34.180,14.648,99.121
1532484645.297,15.137,32.227,34.180,25.879,-38.086
1532484645.301,15.137,36.621,29.785,11.230,-68.848
1532484645.305,19.531,34.668,30.273,10.742,30.762
1532484645.309,17.090,26.855,33.203,13.672,108.398
1532484645.313,12.207,28.320,30.762,3.906,32.227
1532484645.317,16.602,35.645,28.809,3.906,-171.387
1532484645.321,22.461,37.109,30.762,12.695,-78.125
1532484645.325,17.090,32.715,32.715,20.508,105.957
1532484645.329,12.695,30.273,33.203,20.996,71.289
1532484645.332,20.020,32.715,33.691,14.160,-31.738
1532484645.336,30.273,36.133,35.156,15.137,-73.730
1532484645.340,29.297,35.156,34.180,19.531,67.383
1532484645.344,23.438,37.109,32.715,18.555,100.098
1532484645.348,20.996,37.598,32.227,12.695,-16.602
1532484645.352,22.949,31.738,31.250,12.695,-17.090
1532484645.356,27.344,31.250,31.250,19.531,75.195
1532484645.360,27.832,29.297,35.645,28.320,105.469
1532484645.364,23.926,32.715,35.156,18.066,-7.324
1532484645.368,20.996,38.086,32.227,18.066,-54.199
1532484645.372,25.879,35.156,31.250,17.578,86.426
1532484645.375,28.809,29.297,31.250,19.531,72.266
1532484645.379,19.043,35.156,30.273,20.020,-40.527
1532484645.383,14.160,37.598,28.809,3.418,-38.574
1532484645.387,23.926,35.645,31.250,20.020,7.812
1532484645.391,26.855,36.133,34.668,30.273,120.605
1532484645.395,22.461,37.598,34.180,22.461,73.730
1532484645.399,23.438,40.039,31.738,11.230,-51.270
1532484645.403,26.855,38.086,31.738,15.137,-44.434
1532484645.407,30.762,36.133,32.227,29.297,56.641
1532484645.411,26.855,35.156,34.180,28.809,90.820
1532484645.414,20.508,35.645,33.203,16.113,-65.430
1532484645.418,25.391,42.480,31.738,4.883,-187.500
1532484645.422,27.344,43.945,29.297,16.602,31.738
1532484645.426,22.461,35.645,30.762,28.809,139.648
1532484645.430,19.531,31.738,28.809,16.113,12.695
1532484645.434,21.484,30.273,25.879,14.648,-89.355
1532484645.438,28.809,34.180,28.809,22.461,7.324
1532484645.442,25.391,32.715,27.832,9.277,154.297
1532484645.446,17.578,29.297,28.809,3.906,57.617
1532484645.450,18.066,39.062,31.250,8.789,-43.457
1532484645.454,20.508,37.109,30.762,13.184,-16.602
1532484645.457,20.508,26.367,30.762,22.461,63.965
1532484645.461,16.113,31.250,32.227,13.672,63.477
1532484645.465,14.160,38.574,30.273,7.324,-47.852
1532484645.469,18.555,39.551,29.297,16.113,-23.438
1532484645.473,21.484,36.621,30.762,18.555,116.699
1532484645.477,19.043,35.156,30.762,12.695,9.766
1532484645.481,16.602,42.480,30.762,-0.977,-57.129
1532484645.485,16.113,43.457,31.250,9.766,-37.109
1532484645.489,16.602,38.574,30.273,25.879,54.199
1532484645.493,12.695,28.320,31.250,24.902,145.020
1532484645.497,8.789,28.320,31.250,17.090,9.766
1532484645.500,10.254,35.645,28.320,6.348,-114.746
1532484645.504,18.555,38.574,27.832,13.672,-57.129
1532484645.508,17.578,36.133,30.273,22.461,77.148
1532484645.512,11.719,33.691,30.273,13.672,67.871
1532484645.516,12.207,32.715,27.832,0.977,-144.531
1532484645.520,17.090,37.109,27.344,17.090,-117.676
1532484645.524,17.090,36.133,26.855,20.996,99.121
1532484645.528,13.184,29.297,25.391,8.301,70.801
1532484645.532,16.113,37.598,27.344,9.277,-34.668
1532484645.536,21.973,39.062,27.832,12.207,-82.520
1532484645.539,27.344,33.203,27.344,18.066,28.809
1532484645.543,21.973,32.715,30.762,12.207,112.793
1532484645.547,15.137,32.227,28.320,14.160,-30.762
1532484645.551,19.043,38.574,27.344,17.090,-97.656
1532484645.555,20.996,38.574,31.738,13.672,-23.926
1532484645.559,13.672,31.250,30.762,6.348,-1.953
1532484645.563,10.254,33.691,27.832,-0.488,0.977
1532484645.567,14.648,42.969,26.367,-7.324,-65.918
1532484645.571,17.578,43.457,25.391,6.836,-5.371
1532484645.575,17.578,31.738,26.855,16.113,92.773
1532484645.579,12.695,28.809,27.344,9.766,43.945
1532484645.582,13.184,32.227,27.344,4.395,-68.848
1532484645.586,19.043,34.668,26.367,9.766,-53.711
1532484645.590,23.438,31.250,28.320,23.926,103.027
1532484645.594,25.391,27.832,30.762,21.484,70.801
1532484645.598,21.973,34.668,27.832,11.230,-86.426
1532484645.602,25.391,40.039,30.273,7.812,-71.289
1532484645.606,26.367,37.109,28.320,9.766,42.969
1532484645.610,26.367,35.156,28.320,17.578,145.020
1532484645.614,24.902,35.156,31.738,20.996,37.598
1532484645.618,16.602,37.109,32.715,21.973,-202.637
1532484645.622,25.879,40.527,33.203,24.414,-30.762
1532484645.625,27.832,32.227,31.738,22.949,138.184
1532484645.629,23.926,27.344,33.203,19.043,39.551
1532484645.633,29.785,28.809,32.715,21.973,-74.707
1532484645.637,35.156,32.715,31.250,19.531,-43.457
1532484645.641,30.762,31.250,30.762,16.113,103.027
1532484645.645,23.926,28.809,32.715,24.902,51.270
1532484645.649,27.832,37.598,33.203,24.414,-36.621
1532484645.653,33.691,39.551,31.738,31.738,20.996
1532484645.657,31.738,29.785,34.180,30.762,16.113
1532484645.661,26.855,29.297,36.133,19.531,35.645
1532484645.664,25.879,32.227,33.691,22.949,1.465
1532484645.668,30.762,35.645,30.762,31.738,-49.316
1532484645.672,31.250,33.203,31.250,28.320,38.086
1532484645.676,27.832,31.738,31.738,24.414,67.383
1532484645.680,28.320,33.691,30.273,25.879,4.395
1532484645.684,28.320,36.133,28.320,23.438,-86.426
1532484645.688,27.344,37.598,27.832,31.250,-28.320
1532484645.692,24.414,26.855,31.738,34.180,91.797
1532484645.696,18.066,25.391,33.691,21.973,7.324
1532484645.700,13.672,34.668,27.344,10.254,-123.047
1532484645.704,22.461,35.156,25.391,17.578,-50.781
1532484645.707,29.785,34.668,27.344,32.715,96.680
1532484645.711,25.879,34.180,26.367,21.973,77.148
1532484645.715,21.484,35.156,26.367,21.973,-74.707
1532484645.719,23.926,34.180,24.902,26.367,-42.969
1532484645.723,25.391,29.785,23.926,20.508,91.309
1532484645.727,21.973,26.367,24.902,13.672,112.305
1532484645.731,24.414,30.273,29.785,15.137,0.000
1532484645.735,29.297,32.715,31.738,22.461,-105.469
1532484645.739,31.738,29.297,31.738,20.020,-38.086
1532484645.743,22.949,27.344,29.297,16.113,59.570
1532484645.746,9.766,28.320,28.809,9.766,-10.742
1532484645.750,16.113,35.156,31.738,2.441,-59.082
1532484645.754,26.367,30.762,29.297,12.207,-20.996
1532484645.758,24.902,25.391,32.227,19.043,-18.555
1532484645.762,17.090,29.785,35.156,18.555,29.297
1532484645.766,16.602,35.156,33.203,17.090,-36.621
1532484645.770,20.508,26.367,33.691,18.555,-43.945
1532484645.774,20.508,20.020,34.180,24.902,50.781
1532484645.778,17.090,28.320,34.180,18.555,67.871
1532484645.782,14.160,29.785,34.668,19.043,-36.133
1532484645.786,20.020,27.832,33.203,23.438,-130.371
1532484645.789,25.391,27.832,33.691,24.414,25.879
1532484645.793,22.461,26.855,36.133,17.090,123.047
1532484645.797,17.578,27.832,34.180,8.789,-126.465
1532484645.801,17.578,33.203,31.738,13.672,-152.344
1532484645.805,18.555,31.738,33.691,21.973,28.809
1532484645.809,16.602,28.320,33.691,26.855,99.609
1532484645.813,15.137,28.809,33.691,14.160,42.969
1532484645.817,17.578,27.344,35.645,10.742,-82.031
1532484645.821,18.066,28.320,34.668,28.809,-39.062
1532484645.825,19.043,31.250,36.621,34.668,113.281
1532484645.829,20.020,32.227,38.574,19.043,76.172
1532484645.832,21.484,34.668,38.574,7.812,-104.492
1532484645.836,25.879,33.691,38.086,14.648,-160.156
1532484645.840,21.484,33.691,37.598,24.414,54.199
1532484645.844,16.113,32.227,35.156,12.207,108.887
1532484645.848,18.066,37.109,33.691,5.371,-38.574
1532484645.852,17.090,37.598,33.691,7.324,-44.434
1532484645.856,17.578,32.715,35.645,24.902,-17.090
1532484645.860,18.555,33.691,33.691,30.762,71.777
1532484645.864,12.695,38.086,30.762,17.578,32.227
1532484645.868,14.648,40.039,30.273,10.254,-73.242
1532484645.871,17.578,32.227,25.879,12.207,20.996
1532484645.875,19.043,28.809,25.879,20.996,83.984
1532484645.879,16.113,28.320,29.785,8.301,3.906
1532484645.883,12.695,26.855,30.273,7.812,-73.242
1532484645.887,20.020,30.762,31.250,19.531,-11.230
1532484645.891,20.996,29.297,29.297,21.484,142.090
1532484645.895,11.719,21.484,25.879,9.766,56.152
1532484645.899,11.230,26.367,27.344,-5.859,-156.738
1532484645.903,16.602,31.250,29.785,12.695,-92.773
1532484645.907,17.090,29.785,32.227,27.832,86.426
1532484645.911,13.184,22.461,29.785,11.719,133.789
1532484645.914,12.207,20.020,29.785,5.859,-40.039
1532484645.918,14.160,27.832,29.297,10.742,-94.727
1532484645.922,17.578,25.391,26.855,18.066,44.434
1532484645.926,18.555,21.484,27.344,23.438,49.316
1532484645.930,19.043,27.344,27.832,22.949,18.066
1532484645.934,25.879,27.344,27.832,17.090,-59.082
1532484645.938,35.156,29.297,28.809,22.949,-147.461
1532484645.942,29.297,30.273,30.273,23.926,43.457
1532484645.946,18.555,29.785,27.832,8.789,67.871
1532484645.950,20.020,34.668,25.879,17.090,-63.965
1532484645.954,26.855,33.203,28.320,29.785,-30.762
1532484645.957,26.367,31.738,30.273,27.832,62.500
1532484645.961,22.949,32.715,29.297,20.020,78.125
1532484645.965,20.508,33.203,26.367,14.648,-20.996
1532484645.969,25.879,32.227,26.367,23.926,-41.992
1532484645.973,31.738,30.273,25.879,32.227,55.664
1532484645.977,26.855,26.855,26.367,26.855,24.414
1532484645.981,23.438,30.273,25.391,29.297,-18.555
1532484645.985,27.832,34.180,26.367,28.320,-46.387
1532484645.989,30.273,31.738,31.250,25.391,28.320
1532484645.993,25.391,25.879,33.203,16.113,118.652
1532484645.996,21.484,29.297,35.156,5.859,-52.734
1532484646.000,20.996,39.551,34.668,6.836,-88.867
1532484646.004,24.902,38.086,32.715,24.902,27.344
1532484646.008,27.344,31.250,33.691,28.809,97.656
1532484646.012,21.973,33.203,33.691,12.207,77.148
1532484646.016,19.531,37.109,32.227,20.508,-73.242
1532484646.020,25.879,35.645,32.227,26.855,-83.496
1532484646.024,33.203,32.715,34.180,30.273,99.121
1532484646.028,31.250,29.785,32.715,28.320,127.441
1532484646.032,25.879,33.203,30.273,12.695,23.438
1532484646.036,25.879,34.180,30.762,11.719,-79.590
1532484646.039,26.855,35.156,31.738,32.715,-30.273
1532484646.043,20.996,30.762,30.762,35.156,117.676
1532484646.047,13.184,27.832,28.809,17.578,32.227
1532484646.051,15.137,30.273,28.320,16.602,-69.336
1532484646.055,21.484,29.785,32.715,18.066,-10.254
1532484646.059,18.555,27.832,34.668,10.742,97.168
1532484646.063,14.160,26.367,33.203,4.883,15.137
1532484646.067,17.578,30.273,34.180,17.578,-141.602
1532484646.071,20.996,34.668,33.691,22.461,-36.133
1532484646.075,18.555,27.832,32.227,18.066,113.770
1532484646.078,16.113,30.762,32.715,20.508,7.324
1532484646.082,19.531,39.551,32.227,16.602,-53.711
1532484646.086,24.902,34.668,33.203,20.020,-33.691
1532484646.090,23.438,25.879,31.738,19.531,86.914
1532484646.094,19.531,24.414,31.250,17.578,80.078
1532484646.098,19.531,32.227,33.203,16.113,-49.805
1532484646.102,26.367,30.273,36.133,21.484,-64.941
1532484646.106,34.180,22.461,37.109,26.855,30.273
1532484646.110,28.320,20.020,33.203,17.578,85.449
1532484646.114,22.461,24.414,31.738,16.602,-14.648
1532484646.118,27.344,26.367,32.227,12.207,-198.242
1532484646.121,29.297,30.273,30.762,20.020,-59.082
1532484646.125,25.879,28.320,27.832,26.855,132.324
1532484646.129,21.484,27.832,26.855,9.277,73.242
1532484646.133,21.484,29.785,24.902,1.953,-41.016
1532484646.137,22.949,29.297,24.414,11.230,-17.090
1532484646.141,25.391,24.414,29.297,22.461,121.582
1532484646.145,25.879,20.996,31.738,18.555,74.219
1532484646.149,24.414,27.832,30.762,9.766,-25.879
1532484646.153,27.832,32.227,32.715,30.762,13.184
1532484646.157,30.762,23.926,32.227,35.156,51.758
1532484646.161,28.809,22.949,30.762,16.602,41.504
1532484646.164,26.367,30.762,32.227,22.949,-45.410
1532484646.168,29.297,34.180,30.762,18.066,-68.848
1532484646.172,32.715,29.785,31.250,25.879,90.820
1532484646.176,28.809,18.066,31.738,36.133,49.805
1532484646.180,19.531,23.438,31.738,22.461,-82.520
1532484646.184,20.020,32.715,31.738,9.766,-67.871
1532484646.188,24.902,29.785,29.297,22.461,3.906
1532484646.192,24.414,29.297,31.738,22.949,133.301
1532484646.196,20.996,28.809,32.715,18.555,49.316
1532484646.200,20.508,31.250,30.762,22.949,-78.613
1532484646.203,24.902,32.227,30.273,21.973,-20.020
1532484646.207,25.879,29.297,32.715,21.973,52.246
1532484646.211,20.508,25.879,36.621,9.277,76.660
1532484646.215,21.484,24.902,34.668,5.371,-58.594
1532484646.219,28.809,30.762,33.203,16.113,-129.883
1532484646.223,31.250,27.832,33.691,32.715,98.145
1532484646.227,24.414,22.949,34.668,35.156,147.949
1532484646.231,19.043,28.809,32.715,25.879,0.977
1532484646.235,22.461,28.809,34.668,25.391,-86.914
1532484646.239,40.039,25.879,39.062,32.227,31.250
1532484646.243,37.109,30.273,34.180,29.785,130.371
1532484646.246,9.766,33.203,27.344,7.324,38.574
1532484646.250,20.508,35.156,23.926,15.137,-43.945
1532484646.254,45.898,37.109,22.949,33.203,-21.973
1532484646.258,49.805,36.133,20.996,40.527,20.508
1532484646.262,42.480,41.016,17.578,27.832,56.152
1532484646.266,43.457,45.898,15.137,17.578,-18.555
1532484646.270,52.246,46.387,15.137,35.156,-16.113
1532484646.274,47.852,41.016,16.113,32.227,100.586
1532484646.278,53.223,41.504,12.207,25.879,93.750
1532484646.282,59.082,47.852,6.836,29.785,-5.859
1532484646.286,62.500,50.293,6.348,27.832,-32.715
1532484646.289,73.730,52.246,5.859,33.691,80.566
1532484646.293,73.242,51.758,3.418,44.434,141.113
1532484646.297,64.941,51.758,-1.953,42.969,-4.395
1532484646.301,69.824,60.547,-6.348,29.785,-104.492
1532484646.305,75.684,62.500,-3.906,33.691,21.973
1532484646.309,68.848,54.199,-0.488,45.898,157.227
1532484646.313,69.336,50.293,-3.418,22.949,104.980
1532484646.317,78.613,52.246,-5.371,24.414,-144.043
1532484646.321,79.102,56.641,-7.812,35.156,-97.656
1532484646.325,77.148,55.664,-6.348,20.996,109.863
1532484646.328,75.195,53.223,-4.883,24.414,84.961
1532484646.332,74.219,59.570,-10.742,34.180,-3.418
1532484646.336,81.543,64.453,-9.766,32.715,-21.973
1532484646.340,86.426,62.012,-6.836,30.273,98.633
1532484646.344,81.543,53.711,-10.254,35.156,117.188
1532484646.348,77.148,53.223,-13.672,35.645,-63.965
1532484646.352,83.008,57.617,-15.625,37.598,-59.570
1532484646.356,86.914,47.852,-13.184,45.410,-9.277
1532484646.360,81.055,47.852,-10.254,37.109,34.180
1532484646.364,75.684,53.223,-8.301,40.527,56.152
1532484646.368,72.754,51.270,-7.324,37.109,-27.832
1532484646.371,78.125,52.734,-4.883,34.668,42.969
1532484646.375,83.008,51.270,-3.418,38.574,102.539
1532484646.379,78.125,50.293,-1.465,42.480,52.734
1532484646.383,78.613,53.711,0.977,41.504,-35.645
1532484646.387,80.566,54.688,-0.488,34.180,-14.648
1532484646.391,79.102,47.363,0.000,40.039,116.699
1532484646.395,73.730,42.480,3.906,41.016,27.832
1532484646.399,71.289,54.688,4.883,20.996,-174.805
1532484646.403,73.730,55.664,5.371,25.879,-83.496
1532484646.407,70.801,46.875,5.859,37.109,110.840
1532484646.410,65.430,46.387,4.883,34.668,152.344
1532484646.414,62.988,48.340,7.324,34.668,-7.812
1532484646.418,62.500,51.758,10.254,12.695,-53.711
1532484646.422,64.941,52.734,10.742,20.996,79.590
1532484646.426,58.594,50.781,11.719,22.461,128.906
1532484646.430,50.293,46.875,13.184,6.836,33.691
1532484646.434,61.523,49.316,14.648,27.832,-100.098
1532484646.438,68.359,51.270,16.602,44.434,-30.273
1532484646.442,58.105,45.898,16.602,28.809,85.938
1532484646.446,50.293,44.922,14.160,12.695,5.371
1532484646.450,50.293,51.758,14.160,13.672,-37.598
1532484646.453,54.199,48.340,17.578,24.414,0.488
1532484646.457,63.477,44.434,16.113,28.320,-18.066
1532484646.461,59.570,47.363,12.695,15.625,48.828
1532484646.465,50.293,45.410,22.461,20.996,13.184
1532484646.469,47.363,37.109,32.715,31.738,-20.996
1532484646.473,35.645,28.809,36.133,24.414,98.145
1532484646.477,21.973,23.438,41.016,26.367,103.027
1532484646.481,17.578,27.344,46.875,16.113,18.555
1532484646.485,20.020,22.949,51.758,7.812,-50.781
1532484646.489,23.926,17.578,58.105,13.184,4.883
1532484646.493,9.277,15.625,62.012,26.855,145.996
1532484646.496,-8.789,13.184,62.988,15.625,-20.508
1532484646.500,-6.836,20.996,66.895,11.230,-130.371
1532484646.504,0.000,20.508,69.824,33.691,14.160
1532484646.508,-7.812,6.348,76.172,41.992,129.395
1532484646.512,-19.043,2.441,80.078,17.578,80.566
1532484646.516,-20.020,7.812,83.496,3.418,-65.430
1532484646.520,-21.484,0.977,86.914,34.668,-30.762
1532484646.524,-23.438,-6.348,88.867,40.039,118.652
1532484646.528,-25.879,-6.348,90.332,34.180,108.887
1532484646.532,-27.344,-3.906,93.750,38.574,-9.277
1532484646.535,-21.973,-7.812,97.168,38.574,-100.098
1532484646.539,-19.531,-8.301,97.168,44.922,-10.254
1532484646.543,-23.438,-5.859,100.586,41.992,132.812
1532484646.547,-28.809,-3.418,102.051,30.762,30.762
1532484646.551,-36.621,-3.418,99.609,30.762,-62.012
1532484646.555,-34.180,-6.836,101.562,40.039,-4.883
1532484646.559,-31.738,-8.789,102.539,37.598,91.797
1532484646.563,-38.086,-8.301,104.004,38.086,63.965
1532484646.567,-38.574,-6.348,104.492,41.992,-42.969
1532484646.571,-26.855,-4.883,104.492,48.828,-15.137
1532484646.575,-25.879,-11.230,107.910,45.898,66.895
1532484646.578,-34.180,-16.113,109.375,41.016,36.133
1532484646.582,-32.715,-9.766,109.375,43.945,-72.266
1532484646.586,-28.320,-3.418,113.281,56.641,-77.148
1532484646.590,-24.902,-5.371,114.258,62.012,109.375
1532484646.594,-24.414,-12.695,117.676,43.457,126.953
1532484646.598,-26.855,-7.812,117.676,38.574,-106.445
1532484646.602,-22.461,-3.906,114.258,57.617,-86.914
1532484646.606,-23.438,-9.766,113.281,60.547,61.523
1532484646.610,-32.227,-13.184,118.164,54.688,141.602
1532484646.614,-31.738,-13.184,121.582,50.781,41.016
1532484646.618,-23.926,-6.836,119.629,43.945,-84.961
1532484646.621,-22.949,-4.883,117.188,37.598,35.156
1532484646.625,-25.391,-6.348,116.699,46.387,106.934
1532484646.629,-25.391,-8.301,115.723,47.852,13.672
1532484646.633,-20.508,-4.883,117.188,49.805,-36.621
1532484646.637,-10.254,-3.418,117.188,61.523,-92.285
1532484646.641,-14.648,-4.883,109.863,55.176,55.664
1532484646.645,-20.508,-8.789,109.863,47.363,100.098
1532484646.649,-18.066,-7.812,114.258,52.246,-24.902
1532484646.653,-9.766,-4.395,112.305,53.711,-12.207
1532484646.657,-1.465,-5.859,111.816,58.105,67.383
1532484646.660,-2.930,-10.254,109.863,53.711,113.770
1532484646.664,-7.324,-5.859,104.980,41.016,-9.277
1532484646.668,0.488,4.395,102.539,44.922,-61.035
1532484646.672,7.812,0.000,102.539,62.500,47.363
1532484646.676,6.348,-7.324,102.539,60.547,8.789
1532484646.680,3.418,1.953,100.098,44.922,-28.320
1532484646.684,7.324,8.301,93.750,48.828,-63.965
1532484646.688,20.020,9.766,91.797,68.359,17.578
1532484646.692,17.578,7.812,94.238,58.594,144.043
1532484646.696,16.602,5.371,96.191,46.387,23.438
1532484646.700,19.043,8.301,93.750,60.059,-63.477
1532484646.703,19.043,6.348,92.285,61.035,-24.902
1532484646.707,20.508,1.953,89.844,60.059,89.844
1532484646.711,20.508,1.465,85.449,58.105,113.770
1532484646.715,26.367,5.859,90.332,59.570,-27.832
1532484646.719,30.273,4.883,90.332,66.406,-65.918
1532484646.723,27.344,-0.977,81.543,62.500,22.949
1532484646.727,23.438,-3.418,85.938,56.152,78.613
1532484646.731,32.227,11.230,92.285,57.617,26.855
1532484646.735,22.461,4.883,81.543,40.527,-72.266
1532484646.739,4.883,-5.371,73.242,21.973,-56.641
1532484646.743,2.930,0.000,70.801,16.602,116.699
1532484646.746,0.000,7.324,70.801,20.508,55.176
1532484646.750,-14.160,8.789,71.777,12.695,-52.246
1532484646.754,-9.277,9.277,72.754,16.602,1.465
1532484646.758,-8.301,11.230,71.777,21.973,118.164
1532484646.762,-16.602,14.648,72.754,0.977,118.164
1532484646.766,-30.273,21.484,67.383,-21.973,-59.082
1532484646.770,-41.016,22.949,66.895,-28.320,-76.172
1532484646.774,-32.715,22.949,67.383,-31.250,89.355
1532484646.778,-36.133,23.926,59.082,-39.062,-1.953
1532484646.782,-56.152,28.320,55.176,-53.223,-68.359
1532484646.785,-61.035,33.691,54.688,-67.871,-27.832
1532484646.789,-58.105,34.180,49.805,-62.500,96.680
1532484646.793,-60.059,29.297,47.852,-60.547,125.488
1532484646.797,-62.012,35.156,45.410,-67.871,3.906
1532484646.801,-61.523,40.527,37.109,-84.961,-43.457
1532484646.805,-58.594,37.109,35.645,-74.219,38.086
1532484646.809,-53.223,34.668,33.691,-59.082,155.273
1532484646.813,-51.758,40.527,26.855,-68.359,88.867
1532484646.817,-49.805,43.457,20.020,-78.125,-137.207
1532484646.821,-38.086,41.992,10.742,-73.730,-67.871
1532484646.825,-34.668,41.016,2.930,-62.012,126.465
1532484646.828,-30.273,40.039,2.441,-56.152,111.328
1532484646.832,-20.508,44.922,-2.930,-58.594,-18.066
1532484646.836,-10.254,51.758,-12.695,-59.570,-66.895
1532484646.840,0.000,56.641,-20.996,-47.852,105.957
1532484646.844,0.977,50.293,-24.414,-37.598,152.832
1532484646.848,6.836,50.781,-26.367,-42.480,4.883
1532484646.852,12.695,59.082,-36.133,-38.574,-31.738
1532484646.856,17.578,60.547,-44.434,-27.344,64.941
1532484646.860,21.973,59.082,-45.410,-29.297,100.098
1532484646.864,18.555,59.570,-49.316,-40.527,-28.809
1532484646.867,29.297,59.570,-52.734,-46.387,-65.430
1532484646.871,42.969,58.105,-57.617,-19.531,77.637
1532484646.875,41.504,52.734,-61.035,-16.602,105.957
1532484646.879,39.551,59.570,-58.594,-23.926,-22.949
1532484646.883,42.969,60.547,-55.176,-18.555,-50.293
1532484646.887,55.664,57.129,-58.105,-8.789,25.391
1532484646.891,56.641,56.641,-57.617,-5.859,128.418
1532484646.895,46.387,51.270,-53.711,-13.184,66.406
1532484646.899,51.758,54.688,-52.734,-7.324,-45.410
1532484646.903,53.711,54.688,-53.711,-3.418,-17.578
1532484646.907,55.176,49.316,-52.734,-4.395,66.895
1532484646.910,51.270,47.363,-49.805,-5.859,69.336
1532484646.914,45.410,45.898,-45.410,-13.184,-20.508
1532484646.918,48.340,45.898,-43.945,-17.578,-165.039
1532484646.922,54.199,48.828,-41.016,5.371,19.043
1532484646.926,52.734,39.062,-36.133,2.930,156.738
1532484646.930,44.434,37.598,-33.691,-7.812,40.039
1532484646.934,49.316,45.410,-30.273,5.371,-88.379
1532484646.938,58.105,47.852,-26.855,9.277,-3.906
1532484646.942,56.641,41.016,-24.902,1.953,137.207
1532484646.946,45.410,37.598,-22.461,3.418,68.359
1532484646.950,39.551,43.945,-18.555,7.812,-46.387
1532484646.953,45.410,43.457,-13.184,12.207,-15.137
1532484646.957,42.969,40.039,-10.254,15.625,68.848
1532484646.961,37.109,37.109,-8.301,11.719,91.797
1532484646.965,35.645,41.504,-7.324,14.160,-22.461
1532484646.969,40.039,42.480,-3.906,10.742,-26.367
1532484646.973,41.504,26.855,0.000,8.789,108.887
1532484646.977,37.109,23.926,1.465,20.020,11.230
1532484646.981,32.715,34.180,3.418,17.578,-38.574
1532484646.985,29.785,33.691,6.348,12.207,-35.156
1532484646.989,33.203,32.715,8.789,25.391,57.129
1532484646.992,33.691,27.832,7.812,18.555,166.504
1532484646.996,29.785,27.344,7.812,11.230,33.691
1532484647.000,34.180,32.715,6.836,12.695,-78.125
1532484647.004,39.551,30.762,8.789,21.484,-18.066
1532484647.008,38.086,28.320,12.207,21.973,80.078
1532484647.012,32.227,31.250,12.695,15.625,114.746
1532484647.016,32.715,28.320,10.742,14.648,-62.012
1532484647.020,38.574,30.762,13.184,7.324,-105.957
1532484647.024,37.598,28.809,17.578,16.113,129.395
1532484647.028,31.738,26.367,18.066,26.367,144.531
1532484647.032,32.227,31.738,19.043,17.090,6.836
1532484647.035,41.504,35.645,20.996,20.996,-49.805
1532484647.039,42.969,37.598,20.020,29.297,81.543
1532484647.043,35.156,31.250,21.484,21.484,164.551
1532484647.047,30.762,35.156,18.555,8.789,3.418
1532484647.051,32.715,40.039,16.113,12.695,-109.863
1532484647.055,36.133,28.809,20.996,18.555,-23.438
1532484647.059,37.598,25.879,22.949,15.625,36.133
1532484647.063,36.133,30.762,24.902,14.160,31.250
1532484647.067,35.156,34.668,24.902,18.066,-32.227
1532484647.071,33.691,31.250,24.414,22.461,23.438
1532484647.075,31.738,25.391,25.879,18.555,97.168
1532484647.078,28.809,29.297,26.855,18.066,58.105
1532484647.082,25.879,32.715,24.414,20.020,-20.508
1532484647.086,23.926,34.180,24.414,22.949,-5.371
1532484647.090,24.414,29.785,22.949,19.531,130.859
1532484647.094,23.438,25.879,20.996,23.438,112.305
1532484647.098,19.531,34.668,23.926,22.949,-41.016
1532484647.102,24.414,28.320,26.855,17.090,-54.688
1532484647.106,32.715,24.414,26.855,22.949,66.895
1532484647.110,26.855,26.367,24.902,18.066,168.945
1532484647.114,21.973,23.926,23.926,6.836,77.148
1532484647.117,24.414,25.391,22.949,1.953,-167.480
1532484647.121,28.809,29.297,21.484,12.207,-30.762
1532484647.125,27.344,24.414,25.391,23.926,158.203
1532484647.129,20.020,21.973,27.344,25.391,84.961
1532484647.133,22.949,27.832,24.902,17.578,-19.531
1532484647.137,30.273,28.809,22.949,11.230,-12.207
1532484647.141,29.785,23.438,26.367,13.672,104.004
1532484647.145,21.973,26.855,26.367,8.789,56.641
1532484647.149,16.602,36.621,20.996,13.672,-37.598
1532484647.153,24.414,36.133,20.508,20.508,6.348
1532484647.157,27.344,27.832,22.949,18.555,1.953
1532484647.160,23.438,32.715,23.438,24.414,47.363
1532484647.164,19.531,37.598,23.926,15.137,21.484
1532484647.168,21.973,39.551,22.949,8.789,-37.109
1532484647.172,27.832,42.480,20.508,22.949,73.242
1532484647.176,24.902,37.598,22.461,21.973,107.422
1532484647.180,19.531,33.203,22.949,5.859,32.715
1532484647.184,20.508,40.527,22.461,0.977,-48.828
1532484647.188,21.973,35.645,22.461,8.789,-5.371
1532484647.192,21.484,24.902,23.438,12.695,89.844
1532484647.196,17.090,26.367,23.926,6.836,-8.301
1532484647.199,15.137,34.180,23.926,0.000,-145.020
1532484647.203,20.996,35.645,25.391,3.906,-43.945
1532484647.207,22.461,32.227,26.855,14.160,137.207
1532484647.211,15.625,27.832,26.367,9.766,131.348
1532484647.215,12.207,29.297,23.926,4.395,-89.355
1532484647.219,12.207,39.062,24.414,2.441,-93.262
1532484647.223,11.230,37.109,24.902,-8.301,96.191
1532484647.227,8.301,30.273,24.902,-3.906,140.137
1532484647.231,6.348,34.668,27.344,4.395,40.039
1532484647.235,11.719,32.715,27.832,-0.977,-55.664
1532484647.239,18.066,28.809,23.926,-3.418,-12.207
1532484647.242,15.137,29.785,22.949,6.836,113.281
1532484647.246,9.277,29.297,22.949,-2.441,52.246
1532484647.250,9.277,37.109,21.973,-11.719,-23.438
1532484647.254,11.719,34.668,23.926,0.488,22.949
1532484647.258,13.672,25.879,24.902,9.277,27.344
1532484647.262,10.742,27.344,24.902,7.812,44.922
1532484647.266,10.254,31.250,24.414,6.836,-31.738
1532484647.270,20.020,34.180,23.438,7.324,8.789
1532484647.274,25.391,27.344,26.367,7.324,109.863
1532484647.278,23.926,28.320,22.949,8.789,104.492
1532484647.282,20.020,30.762,19.531,-0.977,-0.977
1532484647.285,20.996,30.762,23.438,2.930,-96.191
1532484647.289,25.879,31.738,24.902,21.973,71.777
1532484647.293,23.926,23.926,26.367,14.160,187.988
1532484647.297,19.531,21.973,26.367,-0.977,-69.336
1532484647.301,20.020,34.180,24.414,7.812,-131.836
1532484647.305,26.367,33.691,26.855,14.648,73.730
1532484647.309,24.902,25.391,27.832,12.207,176.758
1532484647.313,17.090,26.367,25.879,11.230,102.051
1532484647.317,14.160,28.809,27.832,5.859,-69.336
1532484647.321,16.602,33.691,32.227,10.254,-14.648
1532484647.324,18.066,32.715,36.621,22.949,170.898
1532484647.328,16.113,26.855,37.598,21.973,117.676
1532484647.332,19.531,33.691,38.574,12.695,-27.832
1532484647.336,26.855,34.668,39.062,11.719,-84.961
1532484647.340,25.391,31.250,39.062,20.996,48.828
1532484647.344,23.438,27.344,37.109,18.555,144.531
1532484647.348,18.555,26.367,36.133,5.371,7.324
1532484647.352,21.973,28.809,36.133,15.137,-27.832
1532484647.356,36.621,24.902,34.668,34.180,51.758
1532484647.360,29.297,23.438,35.645,24.902,109.375
1532484647.364,12.695,28.320,35.156,1.953,55.176
1532484647.367,16.113,31.738,31.250,-2.930,-21.484
1532484647.371,26.367,27.832,32.715,25.391,33.203
1532484647.375,29.297,21.484,36.133,36.133,76.172
1532484647.379,28.320,27.832,33.691,18.555,11.230
1532484647.383,31.250,33.691,33.691,16.113,-48.340
1532484647.387,34.668,28.809,32.715,20.508,-31.738
1532484647.391,30.762,22.461,30.273,9.277,133.301
1532484647.395,21.484,20.020,30.273,-5.371,121.094
1532484647.399,23.438,28.809,29.785,2.441,-111.328
1532484647.403,29.785,34.180,30.273,15.625,-63.477
1532484647.407,28.320,30.273,28.320,23.926,109.375
1532484647.410,24.414,24.902,29.785,15.625,151.367
1532484647.414,25.879,22.949,29.297,8.789,0.488
1532484647.418,31.738,29.785,25.391,12.207,-72.754
1532484647.422,31.738,26.367,27.344,16.113,71.289
1532484647.426,34.180,20.020,34.180,26.855,92.773
1532484647.430,34.180,26.855,33.203,23.438,41.992
1532484647.434,30.273,29.297,30.273,17.090,-10.742
1532484647.438,34.668,27.344,30.762,18.555,-78.613
1532484647.442,36.133,31.738,31.250,28.320,84.961
1532484647.446,26.855,28.320,30.762,16.113,107.910
1532484647.449,21.484,24.902,30.762,6.836,-10.254
1532484647.453,31.250,27.832,32.227,25.391,-6.348
1532484647.457,35.156,29.785,30.762,21.973,75.195
1532484647.461,32.227,28.320,31.738,9.277,104.980
1532484647.465,35.156,31.250,33.691,25.879,15.137
1532484647.469,31.738,33.203,29.785,31.250,-44.434
1532484647.473,33.691,31.738,30.762,32.227,29.297
1532484647.477,40.527,25.391,36.133,32.227,-0.977
1532484647.481,34.180,30.762,34.180,23.438,-36.133
1532484647.485,36.133,31.738,31.738,23.926,-45.410
1532484647.489,40.039,26.367,29.785,25.391,16.602
1532484647.492,34.668,24.902,30.273,15.625,157.715
1532484647.496,32.715,23.926,32.715,20.508,58.594
1532484647.500,39.551,25.391,31.250,23.926,-45.898
1532484647.504,44.434,25.391,31.250,29.297,37.598
1532484647.508,41.992,23.926,31.250,33.203,154.297
1532484647.512,33.203,24.902,33.203,29.785,124.023
1532484647.516,27.832,32.227,34.180,23.438,-35.645
1532484647.520,31.250,30.762,29.297,21.484,-60.547
1532484647.524,31.738,23.926,26.367,22.461,69.336
1532484647.528,28.809,25.391,26.367,22.949,123.535
1532484647.532,30.762,29.785,27.344,14.648,51.758
1532484647.535,31.738,29.297,29.297,9.277,-83.008
1532484647.539,28.320,30.762,29.785,26.855,-8.789
1532484647.543,29.297,29.785,30.762,24.902,136.230
1532484647.547,27.832,30.762,30.273,7.812,38.086
1532484647.551,30.273,32.227,28.320,12.695,-41.992
1532484647.555,32.715,28.809,24.902,18.555,-14.160
1532484647.559,27.344,27.832,22.461,20.996,111.816
1532484647.563,20.020,25.879,24.902,9.766,84.473
1532484647.567,13.672,29.297,24.902,1.465,-94.727
1532484647.571,17.578,35.156,24.414,10.254,14.160
1532484647.574,27.832,30.273,26.367,8.301,153.320
1532484647.578,29.297,25.879,26.855,18.066,1.465
1532484647.582,29.785,38.086,26.855,24.902,-46.875
1532484647.586,39.551,43.945,25.879,26.367,18.066
1532484647.590,42.480,35.156,26.367,33.203,137.207
1532484647.594,27.832,27.832,26.855,28.809,130.371
1532484647.598,22.949,36.133,29.297,19.043,-9.766
1532484647.602,28.809,37.598,30.762,7.324,-56.152
1532484647.606,25.391,30.762,27.832,1.465,56.641
1532484647.610,19.043,27.832,30.762,10.742,129.883
1532484647.614,18.555,27.344,33.691,10.254,1.953
1532484647.617,20.996,28.809,28.809,11.230,-188.477
1532484647.621,24.902,34.180,26.367,15.625,-23.438
1532484647.625,28.320,33.203,31.250,17.090,186.523
1532484647.629,22.949,29.297,31.738,13.184,115.723
1532484647.633,20.508,29.297,28.320,10.254,4.395
1532484647.637,24.902,29.785,29.785,19.043,-26.367
1532484647.641,23.438,28.320,32.227,25.391,126.953
1532484647.645,20.996,26.367,34.180,14.648,153.320
1532484647.649,20.508,28.809,31.738,5.371,-0.977
1532484647.653,20.996,28.809,27.344,12.695,-23.926
1532484647.656,22.949,27.832,27.344,25.391,69.824
1532484647.660,20.020,25.391,27.832,25.391,83.008
1532484647.664,16.602,24.414,26.367,8.789,-12.207
1532484647.668,20.508,30.273,26.367,11.719,-44.922
1532484647.672,29.297,30.762,29.297,14.648,86.914
1532484647.676,26.855,20.020,29.297,1.465,92.773
1532484647.680,18.066,22.949,28.320,8.301,-26.855
1532484647.684,17.578,29.785,27.832,15.137,-50.293
1532484647.688,19.531,26.367,29.297,14.160,29.297
1532484647.692,20.020,25.879,31.250,15.137,160.156
1532484647.696,22.461,27.832,30.273,14.648,92.285
1532484647.699,22.949,31.250,30.273,17.578,-35.645
1532484647.703,25.879,30.273,31.250,27.344,-23.438
1532484647.707,29.297,28.320,32.227,30.762,42.969
1532484647.711,22.461,30.762,32.715,18.066,99.609
1532484647.715,19.043,28.809,29.297,16.113,-32.227
1532484647.719,24.902,32.227,26.855,25.879,-146.484
1532484647.723,24.902,34.668,28.809,27.832,46.387
1532484647.727,22.461,28.320,31.250,24.414,137.207
1532484647.731,20.508,29.297,28.809,22.461,17.578
1532484647.735,22.461,31.250,29.785,20.508,-88.867
1532484647.739,26.855,27.344,32.227,20.020,32.227
1532484647.742,23.438,20.996,32.715,19.531,149.902
1532484647.746,18.066,20.996,30.762,14.648,74.707
1532484647.750,18.066,26.855,31.250,8.301,-14.648
1532484647.754,21.973,29.297,34.180,15.625,-0.488
1532484647.758,24.902,27.344,32.715,11.230,27.344
1532484647.762,22.949,25.879,30.762,8.301,78.125
1532484647.766,18.066,28.809,28.809,9.277,22.461
1532484647.770,18.066,29.785,28.320,11.230,33.691
1532484647.774,17.090,25.879,32.227,20.996,113.281
1532484647.778,16.113,25.391,35.645,13.672,77.637
1532484647.781,15.137,28.320,35.645,6.836,2.930
1532484647.785,19.043,30.273,35.156,7.812,-30.273
1532484647.789,25.391,31.250,34.668,14.160,80.078
1532484647.793,20.508,24.414,34.668,12.695,140.625
1532484647.797,14.648,27.344,32.715,5.371,-3.906
1532484647.801,18.555,35.156,29.297,7.812,-106.934
1532484647.805,24.414,30.762,27.344,3.418,-32.227
1532484647.809,22.949,25.879,26.855,8.301,109.375
1532484647.813,19.043,26.855,29.785,19.531,85.449
1532484647.817,17.090,25.879,26.367,3.906,-147.461
1532484647.821,20.996,30.273,21.484,4.395,-92.773
1532484647.824,21.484,27.344,25.391,11.719,128.418
1532484647.828,19.531,25.879,27.344,13.184,114.258
1532484647.832,22.949,32.227,23.926,8.789,-2.930
1532484647.836,21.973,29.297,24.902,1.953,-61.035
1532484647.840,26.367,27.344,26.855,17.578,101.074
1532484647.844,26.855,21.484,29.297,20.996,145.020
1532484647.848,21.973,23.926,28.809,12.695,-28.320
1532484647.852,20.508,31.738,26.367,13.672,-61.523
1532484647.856,21.973,26.855,28.809,12.695,7.324
1532484647.860,20.508,26.367,30.273,18.066,56.641
1532484647.864,16.602,30.273,28.809,15.137,66.406
1532484647.867,16.602,29.785,30.273,12.695,-26.367
1532484647.871,19.531,32.227,30.273,19.043,20.996
1532484647.875,18.555,32.227,32.227,24.414,100.098
1532484647.879,7.812,24.902,33.691,15.625,66.406
1532484647.883,6.836,26.855,30.762,4.395,-9.766
1532484647.887,17.090,33.203,29.297,15.625,-8.789
1532484647.891,14.160,26.855,31.250,20.020,103.516
1532484647.895,10.742,20.508,36.621,11.230,59.082
1532484647.899,8.301,24.902,33.691,-0.977,-104.492
1532484647.903,11.719,28.809,35.156,9.277,-64.453
1532484647.906,11.719,22.461,37.598,20.996,100.586
1532484647.910,-0.488,14.160,34.180,11.230,147.949
1532484647.914,-5.859,20.020,34.180,10.254,5.371
1532484647.918,-4.395,31.250,38.086,10.742,-62.988
1532484647.922,5.371,27.832,37.109,13.184,54.199
1532484647.926,5.371,22.949,37.598,18.555,144.043
1532484647.930,-2.930,23.926,40.039,1.953,84.473
1532484647.934,-1.953,30.273,40.527,-2.930,-58.105
1532484647.938,0.488,41.504,47.852,5.859,-48.340
1532484647.942,-12.207,33.203,46.875,-6.836,64.941
1532484647.946,-33.203,20.020,38.574,-24.902,45.898
1532484647.949,-36.133,26.855,35.645,-27.344,-7.812
1532484647.953,-32.227,32.227,35.645,-28.809,22.949
1532484647.957,-32.227,28.320,39.551,-28.809,8.789
1532484647.961,-40.527,27.832,40.039,-39.062,65.430
1532484647.965,-44.434,31.738,39.551,-55.176,15.137
1532484647.969,-37.598,35.645,40.039,-45.898,-35.156
1532484647.973,-35.645,32.715,40.039,-31.250,104.492
1532484647.977,-40.039,30.273,42.969,-35.156,122.070
1532484647.981,-27.832,42.969,50.293,-32.227,41.992
1532484647.985,-19.531,39.551,45.898,-34.180,-51.758
1532484647.988,-19.531,27.344,36.133,-24.414,12.207
1532484647.992,-13.672,30.762,43.457,-5.371,135.254
1532484647.996,-17.090,24.414,44.434,-13.672,-20.020
1532484648.000,-12.695,25.391,32.715,-8.789,-104.492
1532484648.004,4.395,34.180,32.715,12.207,27.344
1532484648.008,10.742,30.273,38.086,17.090,141.602
1532484648.012,7.812,24.414,38.574,20.508,127.930
1532484648.016,8.301,24.902,38.574,18.555,-34.668
1532484648.020,13.184,23.438,36.621,17.090,-30.762
1532484648.024,27.832,27.344,40.039,32.715,121.582
1532484648.028,25.391,22.949,37.109,26.855,148.438
1532484648.031,16.113,11.719,25.879,16.113,16.113
1532484648.035,22.461,14.160,20.996,20.508,-110.840
1532484648.039,30.273,20.996,24.902,26.367,-39.062
1532484648.043,36.621,20.996,26.855,32.715,110.840
1532484648.047,38.574,19.531,22.461,43.457,56.152
1532484648.051,41.504,26.367,23.438,45.898,-17.578
1532484648.055,46.387,27.344,22.949,45.410,12.695
1532484648.059,47.363,21.484,21.973,53.223,125.488
1532484648.063,41.992,20.996,23.438,45.410,102.051
1532484648.067,41.504,25.879,21.973,35.645,-40.527
1532484648.071,47.363,23.926,25.391,41.504,-18.066
1532484648.074,47.852,19.043,23.926,47.363,87.402
1532484648.078,43.945,17.090,23.926,41.504,82.031
1532484648.082,42.480,20.996,25.391,38.086,-44.922
1532484648.086,48.828,24.414,23.926,48.828,-57.129
1532484648.090,52.734,20.508,22.949,60.059,96.191
1532484648.094,48.340,16.113,23.438,46.875,115.234
1532484648.098,51.270,25.391,23.926,37.598,-93.750
1532484648.102,57.617,27.344,25.391,50.781,-88.379
1532484648.106,58.105,17.578,25.391,60.059,67.871
1532484648.110,54.199,17.578,21.484,57.617,159.668
1532484648.113,48.828,19.043,23.438,56.152,56.641
1532484648.117,52.246,25.391,26.367,52.734,-82.031
1532484648.121,54.199,24.414,25.391,46.875,12.695
1532484648.125,48.340,16.113,26.367,50.781,121.094
1532484648.129,39.551,19.531,27.832,41.016,45.410
1532484648.133,36.133,27.344,27.344,22.949,-31.250
1532484648.137,40.527,20.020,26.855,35.156,-132.324
1532484648.141,42.969,18.066,27.832,43.457,26.855
1532484648.145,41.016,22.461,26.855,37.109,148.438
1532484648.149,40.039,24.414,26.855,39.551,5.371
1532484648.153,43.945,23.926,27.344,42.480,-24.414
1532484648.156,46.387,26.855,29.785,42.969,64.941
1532484648.160,45.898,26.367,30.762,34.180,116.699
1532484648.164,41.016,27.832,29.297,28.809,40.039
1532484648.168,40.527,31.250,29.297,32.715,-34.180
1532484648.172,43.945,24.902,25.879,32.715,46.875
1532484648.176,40.527,17.090,26.367,25.391,45.898
1532484648.180,39.062,27.832,29.297,26.855,-32.715
1532484648.184,36.621,31.738,28.320,29.297,-44.922
1532484648.188,36.621,27.344,28.320,34.180,31.738
1532484648.192,39.551,29.785,32.227,38.086,142.578
1532484648.196,32.715,24.902,35.156,31.250,61.035
1532484648.199,29.785,25.391,32.227,21.973,-55.176
1532484648.203,36.133,28.809,27.832,23.438,-24.414
1532484648.207,30.762,23.438,27.832,31.738,97.656
1532484648.211,20.996,20.508,28.809,21.973,121.094
1532484648.215,15.625,23.438,26.855,20.020,-46.875
1532484648.219,14.160,19.043,26.367,18.066,-93.262
1532484648.223,15.625,11.719,30.762,19.043,20.020
1532484648.227,14.160,15.625,29.785,20.508,82.031
1532484648.231,12.695,17.090,26.855,21.973,44.434
1532484648.235,17.090,17.578,27.832,22.461,-78.125
1532484648.238,21.484,20.020,27.832,29.297,-97.168
1532484648.242,20.996,17.090,26.367,30.273,125.000
1532484648.246,17.578,17.090,30.273,24.902,131.348
1532484648.250,19.531,24.414,29.297,22.949,1.953
1532484648.254,25.391,22.949,27.832,25.391,11.719
1532484648.258,24.414,19.531,32.227,23.926,121.582
1532484648.262,20.996,16.113,33.203,16.113,117.188
1532484648.266,23.438,17.090,32.715,19.043,-50.781
1532484648.270,26.855,24.414,33.691,27.344,-62.012
1532484648.274,27.344,21.973,32.715,27.832,88.867
1532484648.278,22.461,17.578,31.250,20.508,19.043
1532484648.281,19.531,30.273,30.273,14.648,-26.855
1532484648.285,25.879,34.668,28.320,10.254,9.766
1532484648.289,29.297,24.902,26.855,24.902,82.520
1532484648.293,22.949,20.020,29.297,28.320,158.691
1532484648.297,17.578,21.484,28.809,17.578,51.758
1532484648.301,20.996,21.973,28.320,15.625,-45.410
1532484648.305,25.391,26.367,30.762,24.414,21.484
1532484648.309,23.926,19.531,29.785,24.414,132.324
1532484648.313,14.648,10.254,28.809,16.113,79.102
1532484648.317,7.324,19.043,27.832,8.301,-148.438
1532484648.320,12.695,24.902,28.320,15.625,-84.961
1532484648.324,19.531,21.973,29.297,25.879,118.164
1532484648.328,18.066,19.043,28.809,16.113,101.562
1532484648.332,12.207,24.414,30.273,4.883,-5.371
1532484648.336,10.742,26.855,30.273,0.977,-86.914
1532484648.340,13.184,25.391,31.738,10.742,65.918
1532484648.344,11.230,20.508,33.691,18.555,142.090
1532484648.348,8.301,17.090,32.227,19.531,19.531
1532484648.352,16.113,18.555,32.715,15.137,-34.180
1532484648.356,18.555,19.531,30.273,14.160,32.715
1532484648.360,15.137,14.160,26.855,15.625,93.262
1532484648.363,13.672,18.555,28.320,10.254,0.977
1532484648.367,11.719,28.809,24.902,6.348,-75.684
1532484648.371,18.066,30.762,26.855,15.625,12.207
1532484648.375,17.578,17.090,27.344,14.160,77.637
1532484648.379,10.254,21.484,27.344,4.883,-23.438
1532484648.383,7.812,29.785,30.273,-4.395,-59.570
1532484648.387,8.789,23.438,29.785,5.859,-14.648
1532484648.391,8.789,17.090,29.297,20.020,97.168
1532484648.395,4.883,16.113,27.344,8.789,72.266
1532484648.399,1.465,24.414,26.367,5.859,-41.504
1532484648.403,2.930,26.855,26.367,10.742,-43.945
1532484648.406,8.789,23.438,26.855,10.742,61.035
1532484648.410,9.277,20.020,29.297,15.625,126.953
1532484648.414,4.883,23.926,31.738,10.254,-22.461
1532484648.418,3.906,34.180,31.250,1.465,-206.543
1532484648.422,8.301,37.109,32.715,14.160,-31.738
1532484648.426,6.836,30.273,32.715,17.090,141.113
1532484648.430,4.883,16.602,29.785,8.301,80.566
1532484648.434,7.812,19.531,30.762,10.742,-39.551
1532484648.438,6.836,30.273,29.785,12.207,3.906
1532484648.442,7.324,25.391,32.227,11.719,145.020
1532484648.445,5.859,21.973,34.668,6.348,84.473
1532484648.449,-0.977,26.855,27.832,5.859,-30.762
1532484648.453,4.395,23.926,25.391,19.531,-7.324
1532484648.457,6.348,20.996,25.879,25.879,45.410
1532484648.461,0.488,22.461,26.367,20.020,60.059
1532484648.465,0.977,30.273,26.855,10.742,0.488
1532484648.469,7.812,38.574,25.879,6.836,-11.719
1532484648.473,9.766,24.902,25.391,10.742,81.055
1532484648.477,7.324,16.602,24.902,3.906,19.531
1532484648.481,6.348,28.320,23.926,-1.953,-13.672
1532484648.485,7.324,32.715,22.949,9.277,-16.602
1532484648.488,16.602,31.250,23.438,13.184,41.992
1532484648.492,20.020,25.879,25.879,16.602,151.855
1532484648.496,14.648,26.367,25.879,10.254,51.270
1532484648.500,16.113,30.762,26.367,10.742,-76.172
1532484648.504,24.414,30.762,27.832,23.438,-61.035
1532484648.508,21.973,28.320,26.367,27.832,87.891
1532484648.512,15.625,28.809,26.855,25.879,146.973
1532484648.516,17.578,28.809,26.367,5.371,-48.828
1532484648.520,22.949,30.273,24.902,6.836,-119.629
1532484648.524,13.184,31.250,25.879,24.414,77.637
1532484648.528,10.254,29.785,27.344,27.344,139.648
1532484648.531,17.090,21.973,26.855,7.812,20.508
1532484648.535,16.602,30.273,26.367,9.277,-74.707
1532484648.539,17.578,38.574,26.367,20.020,31.738
1532484648.543,15.625,24.902,28.809,12.207,139.648
1532484648.547,12.695,28.809,26.367,14.160,18.066
1532484648.551,17.578,35.645,27.832,17.578,-94.238
1532484648.555,18.555,26.855,30.762,8.301,-40.039
1532484648.559,14.648,25.879,31.250,11.230,34.180
1532484648.563,6.836,26.367,31.738,17.578,69.336
1532484648.567,1.953,24.414,31.250,7.324,-18.555
1532484648.570,6.348,24.902,32.227,15.625,-9.766
1532484648.574,4.883,19.043,31.250,23.438,99.609
1532484648.578,1.465,16.113,32.227,16.602,106.445
1532484648.582,2.441,18.066,30.273,16.602,16.602
1532484648.586,7.812,25.391,28.809,18.066,-4.395
1532484648.590,10.742,23.438,26.855,14.160,133.301
1532484648.594,9.766,13.184,26.855,12.207,144.531
1532484648.598,8.301,20.508,28.809,0.000,-30.762
1532484648.602,6.348,23.926,26.855,-0.977,-72.266
1532484648.606,11.719,23.926,26.855,1.953,26.855
1532484648.610,10.742,27.344,30.273,-0.488,171.875
1532484648.613,1.953,30.273,31.250,5.859,115.723
1532484648.617,1.953,34.668,27.344,-1.953,-147.461
1532484648.621,7.812,34.668,26.367,0.488,-11.230
1532484648.625,6.836,28.320,27.832,9.766,189.941
1532484648.629,3.418,29.785,27.832,5.371,125.977
1532484648.633,6.348,38.574,28.320,2.930,-5.371
1532484648.637,14.160,32.715,28.809,6.348,-32.227
1532484648.641,12.207,23.438,27.344,0.488,94.727
1532484648.645,3.418,23.926,28.320,-2.441,78.125
1532484648.649,-1.953,26.367,29.297,3.418,3.418
1532484648.653,1.953,32.227,27.344,2.441,6.348
1532484648.656,6.836,27.344,25.879,-0.488,-14.160
1532484648.660,6.836,24.902,25.879,-0.977,45.898
1532484648.664,7.812,29.785,25.879,-3.418,35.645
1532484648.668,8.301,28.320,26.855,2.930,-28.320
1532484648.672,9.277,30.273,26.367,9.277,58.594
1532484648.676,11.719,28.809,27.832,8.301,113.770
1532484648.680,9.277,26.367,29.297,1.953,83.008
1532484648.684,10.254,32.227,25.879,-0.488,7.812
1532484648.688,20.020,30.762,25.391,11.230,12.695
1532484648.692,21.484,30.762,28.320,14.648,101.074
1532484648.695,10.254,26.855,26.855,-0.977,28.809
1532484648.699,6.348,30.762,25.879,0.488,-121.582
1532484648.703,10.254,36.133,27.344,9.766,-42.969
1532484648.707,8.301,27.344,26.855,12.207,104.004
1532484648.711,4.883,24.902,29.785,12.207,100.098
1532484648.715,2.441,32.227,33.203,12.695,-44.434
1532484648.719,4.883,39.062,34.180,16.602,-84.473
1532484648.723,10.742,36.133,34.668,18.555,61.035
1532484648.727,13.672,28.809,33.691,21.484,146.484
1532484648.731,14.648,29.785,33.691,14.160,50.293
1532484648.735,9.766,34.180,30.273,8.301,-81.543
1532484648.738,13.672,36.621,31.738,12.695,-38.574
1532484648.742,20.508,35.156,35.645,21.973,103.516
1532484648.746,16.602,35.645,35.156,19.043,99.121
1532484648.750,15.625,33.691,35.156,4.883,-17.090
1532484648.754,17.090,29.297,33.691,6.348,-18.066
1532484648.758,17.578,28.320,29.785,14.160,13.672
1532484648.762,14.160,27.832,30.273,13.672,71.777
1532484648.766,18.555,31.250,34.668,13.672,-6.348
1532484648.770,26.855,36.133,35.156,13.672,-25.391
1532484648.774,25.391,28.809,35.156,23.926,79.102
1532484648.777,19.531,27.344,38.086,30.273,109.375
1532484648.781,17.090,31.250,36.133,15.137,29.785
1532484648.785,20.996,33.203,31.738,6.348,-83.008
1532484648.789,26.367,31.250,32.227,25.879,72.266
1532484648.793,22.461,22.949,34.668,28.320,169.922
1532484648.797,20.020,26.855,35.156,19.043,-34.668
1532484648.801,22.949,37.109,35.156,15.625,-68.848
1532484648.805,27.344,30.273,32.715,20.996,24.902
1532484648.809,25.391,20.508,33.203,32.227,119.141
1532484648.813,19.531,24.414,33.691,24.902,88.379
1532484648.817,22.949,30.762,33.691,15.625,-131.836
1532484648.820,29.297,31.738,34.180,15.625,-68.359
1532484648.824,26.855,23.926,34.668,22.461,127.441
1532484648.828,18.066,22.461,35.645,31.250,85.938
1532484648.832,13.672,33.691,37.109,20.508,-38.574
1532484648.836,13.184,28.809,35.156,12.695,-140.137
1532484648.840,14.648,27.344,35.645,18.066,-32.715
1532484648.844,13.184,28.809,36.133,10.742,130.859
1532484648.848,11.719,25.879,32.715,11.230,59.570
1532484648.852,18.066,32.227,31.738,18.555,-30.762
1532484648.856,10.254,29.785,37.109,11.230,43.457
1532484648.860,-2.441,22.461,38.574,4.883,146.484
1532484648.863,-8.301,26.855,31.250,-10.742,74.219
1532484648.867,-2.441,33.203,27.832,-0.977,-31.738
1532484648.871,10.742,32.227,30.273,13.184,23.926
1532484648.875,10.254,24.902,32.715,17.090,86.426
1532484648.879,3.418,22.461,32.715,11.230,4.395
1532484648.883,10.742,29.785,32.227,2.930,-79.590
1532484648.887,10.254,33.203,31.250,9.766,-25.391
1532484648.891,15.137,31.738,32.227,12.207,131.348
1532484648.895,12.207,26.367,31.738,1.953,104.492
1532484648.899,5.859,33.203,31.738,-2.441,-105.957
1532484648.902,14.160,45.898,31.738,11.230,-89.355
1532484648.906,18.555,34.180,29.297,19.531,94.238
1532484648.910,16.602,25.391,29.297,14.160,142.578
1532484648.914,14.648,31.250,29.785,8.789,4.883
1532484648.918,14.160,38.086,31.250,18.066,-70.312
1532484648.922,16.602,33.691,32.715,25.879,54.688
1532484648.926,16.602,26.855,32.715,25.391,102.051
1532484648.930,13.672,33.691,33.203,12.695,82.520
1532484648.934,15.137,32.227,33.203,19.531,-5.859
1532484648.938,21.973,27.344,33.203,20.996,-126.465
1532484648.942,20.996,26.367,34.180,20.020,62.012
1532484648.945,14.648,16.602,36.133,29.785,109.375
1532484648.949,14.160,21.484,34.180,19.043,-20.508
1532484648.953,20.020,25.879,29.785,18.555,-5.371
1532484648.957,20.996,21.973,30.762,31.250,81.055
1532484648.961,17.090,25.879,33.203,29.785,128.906
1532484648.965,18.555,31.250,30.762,20.996,-0.488
1532484648.969,20.996,28.320,30.762,18.066,-91.309
1532484648.973,16.602,28.809,32.227,19.043,33.203
1532484648.977,11.230,24.902,29.297,7.812,10.742
1532484648.981,9.277,28.809,25.879,6.836,-51.270
1532484648.985,12.695,34.668,29.785,12.695,-24.902
1532484648.988,17.578,30.273,29.297,15.625,50.293
1532484648.992,14.160,25.879,24.902,14.648,155.273
1532484648.996,9.766,25.391,26.855,5.859,85.449
1532484649.000,11.719,31.250,29.297,10.742,-28.809
1532484649.004,17.090,32.715,30.273,16.113,-13.184
1532484649.008,20.020,31.250,30.273,15.137,102.539
1532484649.012,16.113,27.344,29.785,10.254,117.188
1532484649.016,12.207,30.273,28.320,5.371,-62.988
1532484649.020,16.602,35.645,29.785,5.371,-101.562
1532484649.024,14.648,27.832,29.297,1.465,52.246
1532484649.027,5.371,25.391,27.832,12.695,110.352
1532484649.031,3.418,31.738,27.344,12.695,58.105
1532484649.035,12.207,32.227,29.785,3.418,-74.219
1532484649.039,19.043,34.180,32.715,9.277,-60.547
1532484649.043,15.137,33.203,34.180,18.555,132.812
1532484649.047,10.254,33.691,35.156,18.555,100.586
1532484649.051,14.160,37.109,31.738,13.672,-42.480
1532484649.055,24.902,34.668,29.785,22.461,-11.719
1532484649.059,29.785,38.574,32.715,21.973,152.344
1532484649.063,20.996,35.645,32.715,8.789,98.145
1532484649.067,19.043,29.297,31.250,7.812,-109.863
1532484649.070,29.297,36.621,32.227,18.555,-12.695
1532484649.074,33.203,30.762,29.785,27.344,128.906
1532484649.078,26.855,25.391,28.809,20.996,21.484
1532484649.082,20.508,32.227,29.297,13.672,-13.672
1532484649.086,18.555,30.762,25.879,12.695,-4.395
1532484649.090,20.020,26.855,29.785,18.555,85.449
1532484649.094,26.367,21.484,31.738,26.367,107.422
1532484649.098,23.438,28.809,26.855,20.020,2.441
1532484649.102,14.648,36.621,26.855,8.301,-58.105
1532484649.106,11.719,32.715,30.273,-2.441,30.762
1532484649.109,10.254,24.902,32.227,10.254,136.719
1532484649.113,8.301,29.785,33.203,13.184,38.574
1532484649.117,8.301,30.273,31.738,4.883,-184.082
1532484649.121,12.207,34.180,30.762,17.578,-63.477
1532484649.125,15.137,35.156,33.203,15.625,161.133
1532484649.129,12.207,21.484,34.180,13.184,115.723
1532484649.133,10.254,23.438,28.809,5.371,-21.973
1532484649.137,17.578,29.785,28.320,12.207,-51.270
1532484649.141,19.043,27.832,30.273,23.926,96.680
1532484649.145,9.277,24.902,27.832,6.836,127.930
1532484649.149,2.930,28.809,26.855,-1.953,8.789
1532484649.152,9.277,32.715,25.391,3.418,-26.855
1532484649.156,16.113,26.367,25.391,6.348,34.668
1532484649.160,11.719,21.973,23.438,2.930,79.102
1532484649.164,9.766,23.926,24.414,-3.906,30.762
1532484649.168,15.137,29.297,26.855,1.465,-49.316
1532484649.172,17.578,28.320,25.391,13.672,60.547
1532484649.176,19.043,14.648,27.344,14.648,74.219
1532484649.180,18.066,19.043,27.344,0.977,-36.133
1532484649.184,19.043,29.785,28.809,12.695,-41.016
1532484649.188,21.973,28.320,31.250,27.832,43.457
1532484649.192,25.391,28.809,33.691,24.902,158.691
1532484649.195,25.391,25.391,35.645,12.207,88.867
1532484649.199,17.090,21.484,34.668,14.648,-21.484
1532484649.203,16.113,22.461,32.227,26.855,-40.527
1532484649.207,17.090,22.461,30.273,29.297,46.875
1532484649.211,10.742,22.461,29.785,22.949,156.250
1532484649.215,7.812,26.367,27.832,9.766,6.836
1532484649.219,15.625,33.203,26.855,12.207,-147.949
1532484649.223,22.949,31.738,25.879,20.996,40.039
1532484649.227,25.391,27.344,25.879,18.555,166.016
1532484649.231,21.973,29.785,26.855,16.113,79.102
1532484649.234,20.996,30.762,25.879,19.043,-64.453
1532484649.238,26.855,33.691,26.855,23.926,-5.371
1532484649.242,25.391,32.227,25.391,16.602,140.137
1532484649.246,18.066,28.320,24.902,4.883,62.988
1532484649.250,17.578,34.668,23.438,6.348,-34.180
1532484649.254,18.555,35.645,24.902,8.789,-22.949
1532484649.258,14.160,32.227,25.879,10.254,-7.812
1532484649.262,11.230,35.156,24.902,13.672,38.086
1532484649.266,8.301,36.621,24.414,0.488,-13.672
1532484649.270,10.742,35.156,25.391,10.742,-34.668
1532484649.274,11.719,31.738,27.832,20.508,65.430
1532484649.277,3.906,30.273,26.855,10.254,105.469
1532484649.281,2.441,32.227,29.297,1.465,10.742
1532484649.285,9.766,33.203,31.738,6.836,-56.152
1532484649.289,13.184,27.832,30.273,24.414,56.152
1532484649.293,12.695,22.461,31.250,20.996,130.371
1532484649.297,7.812,25.391,33.691,8.301,2.930
1532484649.301,8.789,32.227,29.297,2.930,-104.004
1532484649.305,16.113,33.203,25.879,5.859,-41.992
1532484649.309,9.766,26.367,26.367,17.090,117.676
1532484649.313,1.465,23.438,27.344,17.090,126.465
1532484649.317,2.930,26.855,28.809,5.859,-126.953
1532484649.320,3.906,32.227,27.832,7.812,-118.652
1532484649.324,0.000,27.344,25.879,18.555,115.234
1532484649.328,-1.465,22.461,26.855,13.184,135.742
1532484649.332,2.441,30.762,27.344,1.465,17.578
1532484649.336,12.695,33.691,25.879,1.465,-63.477
1532484649.340,17.090,24.902,25.391,11.719,62.500
1532484649.344,13.672,20.020,25.391,9.277,116.211
1532484649.348,12.207,28.320,25.879,18.066,-31.738
1532484649.352,18.555,34.180,28.320,26.855,-69.824
1532484649.356,22.949,29.297,27.344,17.578,-9.766
1532484649.359,20.996,27.344,24.902,11.719,62.012
1532484649.363,17.090,28.809,28.320,14.160,75.195
1532484649.367,17.578,31.250,28.320,9.766,3.906
1532484649.371,24.414,33.203,26.855,12.695,59.570
1532484649.375,23.926,32.227,25.391,13.184,138.672
1532484649.379,17.090,29.785,23.438,11.230,110.352
1532484649.383,14.160,31.738,25.879,10.254,-28.809
1532484649.387,19.043,33.691,27.344,8.789,-30.762
1532484649.391,22.461,29.785,29.297,22.461,100.586
1532484649.395,16.602,24.902,31.738,16.113,91.309
1532484649.399,11.230,30.273,28.320,8.789,-99.121
1532484649.402,16.602,36.621,27.344,17.090,-83.008
1532484649.406,26.367,34.180,29.785,23.926,74.707
1532484649.410,27.832,32.227,27.832,22.461,144.531
1532484649.414,20.508,32.227,25.879,5.859,33.203
1532484649.418,19.531,32.227,24.902,5.859,-48.340
1532484649.422,26.855,31.250,28.320,11.230,48.340
1532484649.426,22.949,27.344,26.855,2.441,135.254
1532484649.430,17.578,26.855,25.879,10.742,78.613
1532484649.434,18.066,29.297,26.855,12.695,-51.270
1532484649.438,22.949,29.297,25.879,16.113,-45.410
1532484649.442,23.438,24.902,25.391,24.414,76.172
1532484649.445,20.996,23.926,25.391,11.230,68.848
1532484649.449,19.043,31.250,25.879,13.184,-3.906
1532484649.453,22.461,29.785,26.855,23.438,9.766
1532484649.457,23.438,23.438,27.344,24.414,-20.020
1532484649.461,18.555,27.832,31.738,22.949,56.152
1532484649.465,17.090,35.156,34.668,21.484,40.527
1532484649.469,20.508,37.598,30.273,23.926,-45.898
1532484649.473,23.926,37.109,28.809,28.320,54.688
1532484649.477,22.461,34.180,32.715,33.691,117.188
1532484649.481,20.020,37.109,29.785,28.320,48.828
1532484649.484,20.996,39.062,27.344,22.949,-63.477
1532484649.488,21.973,35.156,27.344,27.832,-38.574
1532484649.492,19.043,29.297,26.855,24.902,131.836
1532484649.496,13.184,21.973,27.832,13.672,-20.508
1532484649.500,16.113,33.691,25.879,6.348,-156.250
1532484649.504,18.066,35.156,25.391,13.184,8.789
1532484649.508,11.230,23.438,25.391,16.113,128.418
1532484649.512,5.371,23.926,25.391,8.789,120.117
1532484649.516,4.395,30.762,23.926,2.441,-36.621
1532484649.520,6.348,34.668,24.902,5.371,-53.711
1532484649.524,5.371,29.785,24.902,14.160,92.285
1532484649.527,2.441,23.438,26.855,18.555,138.672
1532484649.531,1.953,25.879,26.855,16.602,-1.953
1532484649.535,6.836,30.762,20.996,8.301,-147.461
1532484649.539,2.930,31.738,25.391,9.277,5.371
1532484649.543,-9.277,25.879,30.762,4.395,158.691
1532484649.547,-9.766,23.926,28.320,5.859,56.152
1532484649.551,2.441,29.785,25.879,3.906,-46.875
1532484649.555,11.719,32.227,26.367,4.395,-36.133
1532484649.559,13.184,26.367,27.344,14.648,20.508
1532484649.563,10.254,20.996,24.414,-1.953,51.270
1532484649.566,12.695,24.902,21.973,-1.465,-31.738
1532484649.570,18.555,29.297,24.902,20.020,-36.133
1532484649.574,20.996,28.809,27.832,26.367,82.031
1532484649.578,19.043,23.926,23.438,20.996,74.219
1532484649.582,18.555,26.367,21.484,12.695,-84.473
1532484649.586,25.879,33.203,25.879,9.277,-98.633
1532484649.590,29.785,33.691,27.344,25.391,101.562
1532484649.594,24.414,26.367,24.414,21.973,148.438
1532484649.598,22.461,25.391,25.391,7.812,-92.285
1532484649.602,28.320,33.691,22.949,12.695,-97.168
1532484649.606,36.621,32.715,22.949,20.508,44.922
1532484649.609,39.551,28.320,29.297,27.344,135.254
1532484649.613,34.668,28.320,31.738,26.367,60.547
1532484649.617,35.645,33.691,31.738,21.973,-68.359
1532484649.621,37.109,32.715,28.320,24.902,14.160
1532484649.625,32.227,26.367,25.879,32.227,113.281
1532484649.629,29.297,26.367,28.809,30.273,41.992
1532484649.633,25.879,30.273,30.762,24.414,-45.410
1532484649.637,30.762,30.273,32.227,33.691,-136.719
1532484649.641,30.273,32.715,33.691,33.203,8.301
1532484649.645,21.973,29.297,35.156,19.043,135.254
1532484649.649,25.391,31.250,35.645,24.902,21.973
1532484649.652,35.156,37.598,33.203,33.691,-10.742
1532484649.656,39.551,35.156,31.738,39.062,61.035
1532484649.660,37.598,26.855,30.762,35.156,119.629
1532484649.664,32.715,27.344,28.809,25.879,34.180
1532484649.668,31.250,31.250,26.855,21.484,-45.898
1532484649.672,38.574,29.297,30.273,23.438,32.715
1532484649.676,39.551,25.879,30.762,33.203,52.246
1532484649.680,34.180,30.762,26.855,26.855,-20.020
1532484649.684,32.715,33.203,24.414,6.836,-38.574
1532484649.688,38.574,31.250,23.438,13.672,12.695
1532484649.691,38.574,31.738,24.902,24.414,133.789
1532484649.695,33.691,30.762,25.391,17.090,86.426
1532484649.699,36.133,32.715,30.273,13.672,-30.273
1532484649.703,41.016,40.527,35.156,19.043,-19.043
1532484649.707,42.969,39.062,34.180,27.344,107.422
1532484649.711,38.086,34.668,34.668,26.367,129.395
1532484649.715,28.320,40.039,33.691,13.672,-37.109
1532484649.719,27.344,45.410,31.738,20.020,-77.148
1532484649.723,25.391,40.527,32.227,12.695,23.438
1532484649.727,20.508,31.250,34.180,5.371,83.496
1532484649.731,16.602,32.227,33.691,10.254,78.125
1532484649.734,14.160,33.691,27.832,-0.977,-42.480
1532484649.738,19.043,30.762,27.344,2.441,-85.938
1532484649.742,20.020,26.367,29.785,11.719,118.652
1532484649.746,14.160,26.855,31.250,4.883,102.539
1532484649.750,13.672,29.297,30.273,0.977,-30.273
1532484649.754,19.531,23.926,28.809,15.625,-31.250
1532484649.758,19.531,25.879,25.879,15.625,98.633
1532484649.762,16.113,28.320,24.414,0.488,138.672
1532484649.766,19.531,34.668,26.855,2.441,-26.367
1532484649.770,21.484,40.527,24.414,12.207,-81.543
1532484649.774,24.902,32.715,23.926,11.719,95.215
1532484649.777,26.855,27.344,28.809,2.930,35.156
1532484649.781,25.879,39.062,29.297,8.789,-44.434
1532484649.785,25.879,40.039,27.344,12.695,-45.410
1532484649.789,29.297,33.691,28.809,19.531,47.363
1532484649.793,28.809,33.691,33.203,24.902,152.832
1532484649.797,29.297,38.086,34.180,18.066,48.828
1532484649.801,35.645,42.969,28.809,19.043,-46.875
1532484649.805,39.062,41.504,27.832,20.996,21.484
1532484649.809,36.621,39.551,30.762,16.602,144.531
1532484649.813,29.785,34.668,31.738,14.648,85.938
1532484649.816,31.250,33.691,29.785,15.137,-137.207
1532484649.820,37.109,38.574,28.320,14.648,-86.914
1532484649.824,34.668,34.668,28.320,19.531,88.867
1532484649.828,28.809,29.785,28.809,17.090,100.586
1532484649.832,28.320,31.738,29.297,12.695,19.531
1532484649.836,34.180,34.180,28.320,19.531,-80.078
1532484649.840,32.227,31.250,26.855,24.902,52.734
1532484649.844,26.855,28.809,29.785,19.043,147.949
1532484649.848,25.879,34.180,28.320,-4.883,29.785
1532484649.852,27.832,32.715,24.902,6.836,-37.109
1532484649.856,34.180,26.855,25.879,28.320,4.395
1532484649.859,33.203,22.461,27.344,22.461,98.145
1532484649.863,21.973,21.973,24.902,17.090,40.527
1532484649.867,23.926,28.320,26.367,10.254,-79.590
1532484649.871,36.621,33.203,28.320,12.695,0.977
1532484649.875,34.668,27.832,25.391,20.508,96.191
1532484649.879,27.344,26.855,30.273,24.902,-4.883
1532484649.883,25.391,32.227,34.668,29.297,-39.062
1532484649.887,30.273,32.715,30.273,25.391,14.648
1532484649.891,29.785,23.926,30.762,20.996,118.652
1532484649.895,23.438,17.578,30.273,28.320,80.566
1532484649.898,23.438,30.273,26.855,20.996,-18.066
1532484649.902,27.832,36.133,26.855,10.254,-22.461
1532484649.906,32.715,29.297,27.832,29.297,51.270
1532484649.910,32.715,26.855,27.832,40.527,113.281
1532484649.914,28.320,28.320,27.344,24.902,-3.906
1532484649.918,33.691,33.691,26.367,23.438,-183.105
1532484649.922,40.527,33.691,24.902,33.203,4.395
1532484649.926,40.527,26.855,24.414,34.180,149.902
1532484649.930,34.668,27.832,24.414,27.832,68.848
1532484649.934,30.762,32.227,25.879,30.273,-50.293
1532484649.938,32.715,34.668,26.855,32.715,-24.902
1532484649.941,34.180,34.668,26.855,27.344,122.559
1532484649.945,31.250,33.203,29.785,23.438,104.004
1532484649.949,27.344,31.250,33.691,30.273,-0.488
1532484649.953,31.738,31.250,28.809,22.949,-20.020
1532484649.957,32.715,30.762,25.879,22.461,42.969
1532484649.961,25.879,25.879,25.879,20.508,74.219
1532484649.965,20.020,27.344,23.438,4.395,-10.742
1532484649.969,21.973,30.762,20.020,8.789,-26.855
1532484649.973,30.273,24.902,18.555,20.508,73.730
1532484649.977,30.273,18.066,21.484,24.414,7.324
1532484649.981,23.926,23.438,21.973,10.742,-31.738
1532484649.984,22.461,23.438,20.020,8.301,-42.480
1532484649.988,26.855,23.926,22.461,13.672,29.785
1532484649.992,27.832,25.879,22.461,11.230,146.973
1532484649.996,21.484,25.391,21.973,5.859,51.270
1532484650.000,20.996,31.738,21.973,2.930,-68.359
1532484650.004,24.902,36.621,21.973,18.555,-70.801
1532484650.008,26.855,36.133,26.855,25.391,84.473
1532484650.012,25.391,34.180,30.273,14.160,146.484
1532484650.016,25.391,34.668,27.832,1.953,-82.520
1532484650.020,28.320,35.156,24.902,13.184,-147.949
1532484650.023,28.809,30.273,24.902,17.578,89.355
1532484650.027,24.414,25.391,27.832,2.441,142.090
1532484650.031,19.531,26.855,30.273,2.930,10.254
1532484650.035,22.461,31.250,30.273,4.883,-104.492
1532484650.039,27.344,31.738,34.180,22.949,-1.953
1532484650.043,24.414,25.391,35.156,26.855,153.320
1532484650.047,18.555,23.926,28.320,8.789,44.922
1532484650.051,17.090,27.832,25.879,9.766,-95.703
1532484650.055,20.508,27.832,28.809,13.672,-56.152
1532484650.059,17.578,26.855,27.832,6.836,24.902
1532484650.063,12.207,28.320,28.809,7.812,83.496
1532484650.066,15.625,32.227,27.832,8.301,-3.906
1532484650.070,19.043,32.227,26.855,13.184,-15.137
1532484650.074,17.090,26.367,26.855,22.461,86.914
1532484650.078,15.625,28.809,26.367,14.648,97.168
1532484650.082,13.184,32.715,28.320,15.625,1.465
1532484650.086,15.137,34.180,30.273,22.949,-25.391
1532484650.090,16.602,28.809,30.762,15.137,104.004
1532484650.094,13.672,20.508,29.297,7.812,125.977
1532484650.098,12.207,22.461,27.344,8.789,-35.156
1532484650.102,16.113,26.367,27.344,18.066,-84.961
1532484650.106,21.484,28.320,29.297,19.043,18.555
1532484650.109,20.996,27.832,30.273,30.273,148.438
1532484650.113,18.066,24.414,31.250,21.484,93.262
1532484650.117,23.926,25.879,30.762,10.742,-172.363
1532484650.121,30.762,33.203,27.832,20.508,-61.035
1532484650.125,29.297,28.809,26.855,21.484,166.016
1532484650.129,21.484,27.832,30.273,19.531,106.445
1532484650.133,18.066,36.621,29.785,11.719,-13.184
1532484650.137,21.973,40.039,26.855,15.137,-56.641
1532484650.141,22.461,36.133,28.809,22.949,66.406
1532484650.145,16.602,31.738,28.809,17.578,61.035
1532484650.148,11.230,39.551,27.344,13.672,-16.113
1532484650.152,19.043,41.016,24.414,13.672,0.977
1532484650.156,26.855,29.785,26.367,10.742,-20.020
1532484650.160,19.043,28.320,27.344,16.602,67.383
1532484650.164,14.160,29.297,28.320,12.695,57.129
1532484650.168,19.531,33.203,31.738,7.324,-83.984
1532484650.172,24.902,37.598,30.273,16.113,18.555
1532484650.176,18.555,34.180,27.344,13.184,113.281
1532484650.180,18.555,34.668,26.855,9.277,75.195
1532484650.184,24.902,40.039,27.832,11.719,-31.738
1532484650.188,30.273,37.598,29.785,20.020,-58.594
1532484650.191,26.367,37.598,30.762,17.090,72.754
1532484650.195,22.461,35.156,33.203,4.883,27.344
1532484650.199,24.414,41.016,35.645,14.160,-135.254
1532484650.203,25.879,43.945,29.297,21.484,-59.570
1532484650.207,23.438,37.109,26.367,25.391,121.094
1532484650.211,12.695,31.738,26.855,19.043,145.508
1532484650.215,5.859,31.250,28.809,16.113,-30.762
1532484650.219,7.324,36.621,29.297,18.066,-66.406
1532484650.223,14.160,35.645,30.273,12.695,66.895
1532484650.227,15.137,32.227,31.250,10.742,137.207
1532484650.230,13.672,34.668,31.250,11.719,52.734
1532484650.234,20.020,35.156,32.715,17.090,-80.566
1532484650.238,13.672,29.785,29.297,17.090,-47.852
1532484650.242,-0.488,26.855,30.273,20.996,82.031
1532484650.246,14.648,27.832,35.645,23.926,63.477
1532484650.250,21.973,29.785,34.180,17.578,-22.461
1532484650.254,20.020,29.785,32.715,12.695,-36.621
1532484650.258,19.531,30.273,35.156,25.879,-34.180
1532484650.262,16.602,31.738,35.645,25.391,97.656
1532484650.266,17.578,31.738,32.715,9.277,57.617
1532484650.270,25.391,36.621,30.762,20.996,1.953
1532484650.273,26.855,34.180,30.762,27.344,89.844
1532484650.277,17.090,30.273,35.645,19.531,100.586
1532484650.281,8.301,32.715,35.645,9.766,-5.859
1532484650.285,10.254,34.668,33.203,8.789,-122.559
1532484650.289,18.066,33.691,34.180,17.090,10.742
1532484650.293,16.113,26.855,34.668,18.066,168.457
1532484650.297,10.742,25.879,35.645,10.254,-33.691
1532484650.301,12.207,36.621,35.156,10.742,-114.746
1532484650.305,16.113,39.062,34.180,15.625,35.156
1532484650.309,20.996,31.738,32.715,13.672,161.621
1532484650.313,9.277,29.785,35.156,16.113,133.789
1532484650.316,5.371,34.668,35.156,9.766,-49.316
1532484650.320,21.484,39.062,32.715,7.324,-22.949
1532484650.324,19.043,38.086,30.762,22.461,119.141
1532484650.328,12.207,30.762,29.785,12.695,97.656
1532484650.332,12.695,31.250,34.180,4.883,-17.578
1532484650.336,17.090,31.738,36.621,6.836,-125.000
1532484650.340,15.137,27.344,33.691,10.742,-43.945
1532484650.344,16.602,26.855,33.691,20.020,126.953
1532484650.348,17.578,30.273,33.691,12.695,60.547
1532484650.352,16.113,33.691,32.227,15.625,-34.180
1532484650.355,20.020,31.738,31.738,23.438,3.418
1532484650.359,18.555,28.809,31.738,28.320,118.164
1532484650.363,18.066,31.738,34.180,17.578,76.172
1532484650.367,18.066,33.691,33.203,11.230,-48.828
1532484650.371,12.207,33.691,33.691,20.020,-17.578
1532484650.375,19.043,30.273,35.156,21.973,75.684
1532484650.379,19.043,31.250,35.645,16.602,44.922
1532484650.383,8.789,34.180,36.133,10.254,-72.266
1532484650.387,5.371,31.738,33.203,12.695,-74.707
1532484650.391,11.719,28.320,28.320,18.066,103.027
1532484650.395,9.766,26.855,29.785,10.742,115.723
1532484650.398,11.719,31.738,32.715,12.695,-98.145
1532484650.402,16.602,34.180,31.250,18.066,-73.242
1532484650.406,19.043,30.273,29.785,28.320,85.449
1532484650.410,17.090,23.438,29.785,28.320,168.945
1532484650.414,11.230,23.438,33.691,13.184,35.645
1532484650.418,14.648,33.203,32.227,6.348,-76.660
1532484650.422,19.531,34.668,31.738,12.207,18.066
1532484650.426,17.578,27.832,30.762,15.137,92.285
1532484650.430,12.207,30.273,29.785,21.973,72.266
1532484650.434,17.090,37.109,31.250,21.484,-32.227
1532484650.438,23.926,34.668,30.762,12.207,-135.742
1532484650.441,23.438,32.715,29.785,15.625,65.430
1532484650.445,23.926,29.297,31.738,22.949,131.836
1532484650.449,22.949,36.133,32.715,18.555,18.066
1532484650.453,23.438,37.109,28.809,11.230,-12.695
1532484650.457,23.926,29.785,25.879,18.555,62.012
1532484650.461,21.484,27.344,26.367,22.949,123.047
1532484650.465,5.859,33.691,25.391,11.719,24.902
1532484650.469,6.348,33.203,25.879,10.742,-53.711
1532484650.473,22.949,31.738,30.762,19.043,37.598
1532484650.477,18.555,25.391,29.297,14.648,31.250
1532484650.480,11.719,32.227,24.902,10.742,-8.301
1532484650.484,9.766,38.086,23.926,2.441,-21.484
1532484650.488,8.789,35.156,21.973,2.930,29.297
1532484650.492,15.625,34.180,23.438,11.230,151.855
1532484650.496,10.742,32.227,24.414,-2.441,61.523
1532484650.500,3.418,34.180,21.973,-14.648,-45.898
1532484650.504,17.090,34.668,21.484,1.465,3.418
1532484650.508,25.879,33.691,24.902,9.277,131.836
1532484650.512,11.719,28.320,25.879,1.953,138.184
1532484650.516,9.766,29.785,23.926,3.906,-40.527
1532484650.520,16.113,33.691,21.973,10.742,-107.422
1532484650.523,16.602,33.203,21.973,13.672,36.133
1532484650.527,12.695,29.785,22.949,10.254,120.605
1532484650.531,7.324,28.809,20.996,3.418,55.664
1532484650.535,12.695,32.715,24.902,2.441,-85.938
1532484650.539,20.508,37.109,29.785,7.812,-81.543
1532484650.543,20.020,27.832,29.297,12.695,88.867
1532484650.547,14.648,24.414,27.344,8.301,57.617
1532484650.551,18.066,31.738,27.344,2.441,-57.129
1532484650.555,24.414,29.297,30.273,19.043,-50.781
1532484650.559,25.879,26.367,27.344,24.414,119.629
1532484650.563,22.461,19.043,26.855,3.906,99.609
1532484650.566,17.090,24.414,27.344,-0.977,-91.797
1532484650.570,22.949,29.785,26.367,14.160,-29.297
1532484650.574,30.273,24.414,29.785,20.996,93.750
1532484650.578,26.855,27.344,30.273,17.090,-13.672
1532484650.582,19.531,33.691,25.879,18.555,-36.133
1532484650.586,22.949,29.297,24.902,25.879,-22.949
1532484650.590,28.320,24.902,27.344,26.855,48.340
1532484650.594,24.902,21.973,28.320,22.949,115.234
1532484650.598,17.090,24.414,26.855,13.672,37.109
1532484650.602,19.531,28.809,27.832,18.555,-39.062
1532484650.605,24.414,28.809,28.809,18.555,24.902
1532484650.609,23.438,27.344,28.320,20.996,134.277
1532484650.613,23.926,29.785,28.320,15.137,64.941
1532484650.617,23.926,30.762,27.344,11.230,-153.320
1532484650.621,27.344,34.668,26.367,20.996,-62.500
1532484650.625,32.227,33.203,27.344,25.879,153.320
1532484650.629,27.344,24.902,30.273,19.531,130.371
1532484650.633,18.066,29.297,32.227,19.043,24.902
1532484650.637,20.996,33.203,30.762,21.973,-38.574
1532484650.641,26.855,29.297,29.297,23.438,92.285
1532484650.645,22.949,23.926,27.832,20.508,160.645
1532484650.648,20.996,26.367,28.809,16.602,40.039
1532484650.652,26.367,30.273,30.273,20.996,-33.691
1532484650.656,26.855,25.879,30.273,25.391,-5.859
1532484650.660,27.832,25.391,32.227,27.832,62.988
1532484650.664,31.738,30.273,32.715,15.625,16.113
1532484650.668,34.668,35.645,29.297,13.184,-57.129
1532484650.672,38.574,37.109,31.738,31.738,60.059
1532484650.676,37.109,30.762,31.738,27.344,100.586
1532484650.680,29.297,33.691,30.762,20.996,1.953
1532484650.684,28.320,37.598,32.715,20.020,-46.387
1532484650.687,31.250,33.691,32.715,13.672,-3.418
1532484650.691,29.785,29.297,34.180,28.320,125.000
1532484650.695,24.902,29.785,35.645,25.391,63.965
1532484650.699,18.555,35.156,31.738,14.648,-39.551
1532484650.703,18.555,30.273,29.297,18.066,-54.199
1532484650.707,22.461,29.785,31.250,23.438,21.484
1532484650.711,22.949,31.738,32.227,20.020,140.137
1532484650.715,20.020,28.809,31.738,13.184,29.297
1532484650.719,22.461,33.691,29.785,12.695,-139.648
1532484650.723,27.832,35.156,28.809,13.184,15.625
1532484650.727,27.344,34.668,32.715,20.996,161.133
1532484650.730,24.902,41.016,34.668,27.344,91.797
1532484650.734,24.414,38.574,31.738,27.832,-76.660
1532484650.738,29.297,33.691,29.297,30.273,-18.555
1532484650.742,34.180,33.203,31.250,33.203,174.316
1532484650.746,30.762,33.203,28.320,21.973,110.840
1532484650.750,30.273,37.598,26.855,26.855,-49.316
1532484650.754,32.715,38.086,30.273,24.414,-53.711
1532484650.758,31.250,36.133,33.203,18.555,-19.531
1532484650.762,28.320,38.086,34.180,34.668,99.121
1532484650.766,29.297,39.551,35.156,27.832,47.363
1532484650.770,34.668,42.480,35.645,24.902,-25.879
1532484650.773,36.133,37.109,34.180,37.109,80.566
1532484650.777,31.250,33.203,34.180,37.109,127.930
1532484650.781,27.832,36.133,34.180,27.344,38.574
1532484650.785,30.762,37.598,34.180,27.832,-37.109
1532484650.789,38.086,36.133,37.109,37.598,62.500
1532484650.793,39.551,30.762,38.086,44.922,159.180
1532484650.797,37.109,34.180,37.598,43.945,55.664
1532484650.801,36.621,41.016,36.621,31.250,-71.289
1532484650.805,38.086,39.551,34.668,32.715,-30.273
1532484650.809,36.133,39.062,35.156,39.551,121.582
1532484650.812,28.320,36.133,32.715,27.832,133.301
1532484650.816,30.273,31.738,31.738,11.719,-123.047
1532484650.820,35.645,33.203,34.180,23.438,-148.438
1532484650.824,29.785,32.227,31.738,33.203,71.777
1532484650.828,24.414,30.762,32.715,20.996,141.113
1532484650.832,22.949,36.133,33.203,10.742,22.949
1532484650.836,25.879,39.551,32.227,21.973,-99.609
1532484650.840,29.297,35.645,33.691,27.832,48.828
1532484650.844,27.832,31.250,33.691,15.625,113.770
1532484650.848,25.391,36.133,31.738,20.996,-38.574
1532484650.852,21.973,41.992,32.715,16.602,-77.637
1532484650.855,23.926,37.109,29.297,12.695,-20.508
1532484650.859,21.484,34.668,26.367,20.508,53.223
1532484650.863,16.602,34.180,29.297,13.672,73.730
1532484650.867,19.531,37.598,27.344,2.441,-12.695
1532484650.871,24.414,34.668,25.879,13.672,25.391
1532484650.875,25.391,29.297,31.738,17.090,111.328
1532484650.879,19.531,31.250,34.180,9.277,87.891
1532484650.883,19.043,30.273,34.180,12.207,-24.414
1532484650.887,26.855,27.832,31.738,17.578,-38.574
1532484650.891,24.902,25.879,27.832,21.973,88.379
1532484650.895,18.066,23.438,33.203,20.508,74.219
1532484650.898,15.625,28.809,32.715,10.254,-44.434
1532484650.902,20.508,31.738,29.297,7.324,-53.711
1532484650.906,25.879,25.879,31.738,7.812,54.688
1532484650.910,22.461,20.996,31.738,8.789,171.875
1532484650.914,18.555,21.973,30.762,10.254,58.105
1532484650.918,16.113,25.879,30.762,11.230,-155.273
1532484650.922,16.602,27.344,28.320,12.207,-12.695
1532484650.926,18.555,22.461,28.809,19.043,154.297
1532484650.930,15.625,20.996,30.762,22.949,99.609
1532484650.934,15.625,23.926,28.809,13.184,-43.945
1532484650.937,21.484,28.809,29.785,16.113,-67.871
1532484650.941,23.926,28.320,31.738,28.320,56.641
1532484650.945,19.531,25.391,33.203,21.484,68.359
1532484650.949,14.160,31.250,30.273,17.578,7.812
1532484650.953,15.625,31.250,30.273,20.996,-23.438
1532484650.957,20.996,26.367,34.180,26.367,-37.598
1532484650.961,20.020,27.832,34.180,23.438,60.059
1532484650.965,12.695,30.762,30.762,9.277,23.438
1532484650.969,13.672,32.227,28.809,11.230,-48.828
1532484650.973,15.625,24.902,29.297,18.066,43.945
1532484650.977,16.602,22.949,29.297,20.996,95.215
1532484650.980,12.695,29.785,28.809,13.184,67.383
1532484650.984,10.254,30.762,26.855,9.277,-67.383
1532484650.988,14.648,33.203,25.391,20.020,-50.293
1532484650.992,18.555,31.250,24.902,13.672,123.047
1532484650.996,17.090,26.855,24.902,-4.395,11.230
1532484651.000,14.648,37.598,24.902,10.742,-109.863
1532484651.004,20.508,41.504,24.414,22.949,-2.930
1532484651.008,20.996,35.156,24.902,11.719,116.699
1532484651.012,17.578,33.203,28.320,17.090,109.375
1532484651.016,15.137,38.574,27.832,10.254,-38.086
1532484651.019,18.066,43.457,25.879,12.695,-73.730
1532484651.023,20.020,36.133,25.391,24.414,74.219
1532484651.027,14.160,26.367,22.461,22.949,165.527
1532484651.031,13.184,28.809,23.438,10.742,51.758
1532484651.035,18.066,35.156,27.832,-4.883,-115.234
1532484651.039,18.066,36.621,25.879,17.090,-88.379
1532484651.043,11.230,28.809,24.902,30.762,125.488
1532484651.047,15.625,26.367,22.461,14.648,109.863
1532484651.051,20.020,30.273,20.508,4.883,-23.438
1532484651.055,23.926,28.809,24.414,10.742,-34.180
1532484651.059,24.414,26.367,25.879,20.996,88.379
1532484651.062,17.090,25.879,29.785,9.766,114.746
1532484651.066,11.719,30.273,30.273,10.254,-6.836
1532484651.070,17.578,30.273,27.832,21.484,-41.016
1532484651.074,22.949,26.367,30.273,25.391,51.758
1532484651.078,18.066,24.902,33.203,21.484,72.266
1532484651.082,13.672,29.785,33.203,16.602,-68.848
1532484651.086,19.043,33.203,33.203,19.531,-107.422
1532484651.090,24.902,30.273,34.668,27.832,66.895
1532484651.094,18.555,24.414,34.668,20.020,145.508
1532484651.098,13.672,27.344,33.691,14.160,-75.684
1532484651.102,18.066,35.645,33.691,17.578,-121.582
1532484651.105,21.973,33.203,31.738,26.367,10.254
1532484651.109,20.508,30.273,31.738,34.668,136.719
1532484651.113,16.602,28.809,33.203,25.391,93.262
1532484651.117,15.137,33.691,29.785,25.879,-79.102
1532484651.121,16.602,35.156,28.320,30.762,-24.414
1532484651.125,16.602,26.855,27.832,28.320,104.980
1532484651.129,15.625,28.809,27.344,23.926,75.195
1532484651.133,15.625,36.133,30.273,20.508,-4.883
1532484651.137,24.902,34.668,28.809,19.043,-138.672
1532484651.141,27.832,35.156,24.902,21.973,-0.977
1532484651.144,20.996,29.297,23.926,23.438,132.324
1532484651.148,17.578,27.832,24.414,15.137,20.508
1532484651.152,20.508,32.715,26.855,16.113,-14.160
1532484651.156,26.855,31.738,29.297,25.391,31.738
1532484651.160,22.461,28.320,26.855,26.367,124.512
1532484651.164,16.113,29.297,26.367,18.066,71.289
1532484651.168,15.625,31.738,26.855,18.555,-63.477
1532484651.172,13.184,28.320,26.855,21.973,1.465
1532484651.176,10.742,22.461,29.785,15.137,44.922
1532484651.180,8.789,26.367,30.273,15.625,-23.438
1532484651.184,13.184,31.738,30.762,7.324,-45.898
1532484651.187,16.602,28.320,27.832,9.766,-24.414
1532484651.191,14.160,22.461,25.391,24.902,107.422
1532484651.195,12.207,21.973,27.832,17.090,108.398
1532484651.199,15.137,27.832,28.320,9.766,-6.836
1532484651.203,22.949,33.203,27.832,8.789,-48.340
1532484651.207,28.320,32.227,27.832,11.719,63.477
1532484651.211,29.297,27.832,29.297,21.973,124.023
1532484651.215,23.926,27.832,29.785,16.602,-2.441
1532484651.219,20.020,32.715,26.855,3.418,-88.379
1532484651.223,21.973,32.715,27.832,19.043,-20.020
1532484651.227,18.066,31.250,30.762,27.832,69.824
1532484651.230,12.695,32.715,32.715,20.996,85.449
1532484651.234,14.160,35.645,28.320,9.277,-44.922
1532484651.238,22.949,38.086,25.391,15.625,-120.605
1532484651.242,29.785,37.598,30.762,36.621,93.750
1532484651.246,28.809,33.203,31.738,36.133,108.887
1532484651.250,28.320,35.645,30.762,27.344,-29.297
1532484651.254,34.180,38.086,32.227,32.227,-63.477
1532484651.258,36.133,40.039,34.180,38.086,69.824
1532484651.262,32.715,35.156,28.809,30.273,159.180
1532484651.266,31.250,32.227,26.367,32.715,-21.484
1532484651.269,36.133,40.039,33.203,30.273,-131.348
1532484651.273,36.621,41.016,34.668,33.203,37.598
1532484651.277,32.715,31.738,31.738,34.180,0.977
1532484651.281,32.227,39.062,31.250,17.090,-50.781
1532484651.285,34.180,45.410,34.180,19.531,-40.039
1532484651.289,33.691,40.039,34.180,37.109,23.438
1532484651.293,33.203,34.180,33.203,29.297,140.625
1532484651.297,30.762,35.156,32.227,24.902,54.199
1532484651.301,28.809,36.133,28.809,20.020,-55.664
1532484651.305,30.273,39.062,28.320,23.438,-7.324
1532484651.309,27.344,38.574,28.320,31.250,127.930
1532484651.312,24.902,33.691,27.832,20.508,100.098
1532484651.316,21.484,33.691,29.785,22.461,-123.535
1532484651.320,23.926,39.551,29.785,30.762,-131.348
1532484651.324,26.367,38.574,27.344,31.738,89.355
1532484651.328,23.438,32.715,27.344,19.531,134.277
1532484651.332,23.926,40.039,28.320,17.578,13.184
1532484651.336,24.414,42.969,27.344,26.855,-68.848
1532484651.340,27.344,34.180,29.785,25.391,29.785
1532484651.344,30.762,28.320,31.250,25.391,140.625
1532484651.348,26.367,29.785,29.785,24.414,73.730
1532484651.352,25.391,34.180,29.785,20.508,-43.457
1532484651.355,27.832,33.203,30.762,23.926,-24.902
1532484651.359,23.438,25.391,29.785,35.156,83.008
1532484651.363,17.578,25.391,30.273,29.785,14.648
1532484651.367,19.043,34.180,28.809,12.207,-95.215
1532484651.371,27.344,33.691,26.855,17.578,-6.836
1532484651.375,31.738,30.273,27.344,25.391,72.754
1532484651.379,24.414,30.762,25.879,16.113,-10.254
1532484651.383,18.555,33.203,23.926,16.113,-32.227
1532484651.387,22.461,35.645,20.996,22.949,-11.719
1532484651.391,28.320,32.227,17.578,31.250,97.168
1532484651.394,26.855,27.832,15.625,24.902,118.652
1532484651.398,20.996,31.738,17.090,6.348,8.789
1532484651.402,20.508,32.227,19.531,11.230,-16.602
1532484651.406,25.391,27.344,19.043,21.484,33.203
1532484651.410,22.949,22.461,21.484,16.602,98.145
1532484651.414,21.973,21.484,24.902,18.555,42.480
1532484651.418,27.344,31.250,22.949,19.531,-180.664
1532484651.422,30.762,37.109,25.391,21.973,-45.898
1532484651.426,29.297,32.227,25.879,28.809,164.551
1532484651.430,21.484,33.691,25.391,19.531,114.258
1532484651.434,15.625,34.668,26.367,6.348,-61.523
1532484651.437,14.648,36.133,26.367,16.113,-60.547
1532484651.441,14.160,33.691,24.902,23.438,122.070
1532484651.445,9.277,28.320,26.855,13.672,120.117
1532484651.449,9.766,30.762,30.273,11.230,2.441
1532484651.453,17.578,34.668,30.762,14.160,-22.461
1532484651.457,20.020,34.668,29.785,12.207,14.648
1532484651.461,11.719,30.273,27.344,11.719,86.426
1532484651.465,6.836,31.738,28.809,11.230,19.043
1532484651.469,11.230,32.715,29.297,10.254,-40.527
1532484651.473,15.625,30.273,26.367,8.301,67.871
1532484651.476,12.695,28.809,29.297,9.766,52.734
1532484651.480,8.789,31.250,34.180,3.418,9.277
1532484651.484,9.277,35.156,33.691,5.859,-49.316
1532484651.488,16.113,36.621,30.273,26.855,5.859
1532484651.492,18.066,36.621,28.320,22.461,145.508
1532484651.496,17.578,38.574,28.809,12.207,80.566
1532484651.500,19.043,39.551,31.738,13.184,-63.965
1532484651.504,25.391,38.574,31.738,13.184,-75.684
1532484651.508,32.715,35.645,30.762,18.555,89.844
1532484651.512,29.785,33.203,30.273,20.996,163.086
1532484651.516,25.879,30.762,32.227,5.859,-30.273
1532484651.519,30.762,36.133,30.273,10.742,-126.465
1532484651.523,32.227,37.109,28.809,18.555,56.641
1532484651.527,30.762,28.320,29.785,2.441,149.414
1532484651.531,24.414,28.809,28.320,3.906,68.359
1532484651.535,21.484,31.250,28.320,15.625,-88.379
1532484651.539,25.391,33.203,33.203,20.020,-9.766
1532484651.543,23.438,31.250,36.133,21.484,137.695
1532484651.547,17.090,28.809,33.203,18.555,41.992
1532484651.551,18.066,31.250,29.297,14.160,-90.820
1532484651.555,25.879,31.250,28.809,14.648,-38.574
1532484651.559,28.320,30.273,30.273,17.090,24.414
1532484651.562,24.414,31.738,32.227,19.043,83.984
1532484651.566,22.461,36.133,33.203,11.230,26.367
1532484651.570,29.785,34.180,35.645,19.043,-5.859
1532484651.574,34.180,25.879,37.598,29.297,74.707
1532484651.578,26.367,25.391,32.227,28.320,110.840
1532484651.582,20.996,29.297,28.809,21.973,7.324
1532484651.586,24.414,31.250,29.297,25.391,-76.172
1532484651.590,31.250,27.344,27.832,35.156,76.172
1532484651.594,33.691,18.555,29.785,28.809,127.441
1532484651.598,28.809,21.973,33.203,24.414,-33.203
1532484651.601,32.715,30.273,33.203,28.809,-81.055
1532484651.605,39.551,26.855,30.762,29.297,-7.324
1532484651.609,35.645,26.855,28.320,33.691,137.207
1532484651.613,31.250,28.320,31.738,30.273,101.562
1532484651.617,32.715,30.762,32.715,22.461,-153.809
1532484651.621,37.109,33.691,30.273,24.902,-66.895
1532484651.625,35.645,28.809,30.273,31.738,143.066
1532484651.629,33.203,27.344,30.762,28.320,140.625
1532484651.633,32.715,30.762,33.203,24.902,9.277
1532484651.637,32.227,31.738,33.691,26.367,-57.617
1532484651.641,30.273,25.879,32.227,27.832,52.734
1532484651.644,25.879,21.973,31.738,16.602,80.566
1532484651.648,25.879,29.785,31.250,5.371,-4.395
1532484651.652,27.344,35.156,28.809,7.324,-29.785
1532484651.656,28.809,33.203,28.320,11.230,-45.898
1532484651.660,24.414,35.156,31.738,16.602,35.156
1532484651.664,17.578,35.645,32.715,19.043,65.918
1532484651.668,23.926,38.086,27.832,21.973,-26.855
1532484651.672,28.809,38.574,24.902,18.066,37.598
1532484651.676,17.090,29.297,27.344,11.719,114.258
1532484651.680,8.789,25.391,30.273,6.836,81.543
1532484651.684,14.160,28.320,26.855,1.465,-3.906
1532484651.687,22.461,31.250,25.879,5.371,-23.438
1532484651.691,24.414,28.320,30.762,12.695,77.637
1532484651.695,21.973,25.879,34.180,12.207,36.621
1532484651.699,18.066,32.227,31.738,15.625,-117.188
1532484651.703,16.602,33.691,29.785,19.043,-61.523
1532484651.707,20.508,31.250,31.738,12.695,101.562
1532484651.711,20.020,28.320,30.273,15.137,149.902
1532484651.715,19.531,30.762,29.297,12.695,7.812
1532484651.719,23.438,37.109,28.809,0.488,-78.613
1532484651.723,31.738,35.645,30.273,18.066,35.645
1532484651.726,32.715,31.250,31.250,25.879,142.090
1532484651.730,22.461,32.715,26.855,11.230,72.754
1532484651.734,20.020,32.715,23.438,17.090,-71.777
1532484651.738,31.250,31.738,24.902,25.391,-61.035
1532484651.742,32.715,32.227,29.297,22.461,96.680
1532484651.746,27.344,30.762,29.297,16.113,90.332
1532484651.750,31.250,34.180,29.785,21.484,-20.996
1532484651.754,35.156,33.203,29.785,25.879,-35.156
1532484651.758,34.668,31.250,27.832,25.391,-64.453
1532484651.762,29.297,31.250,27.344,20.508,43.457
1532484651.766,26.367,27.832,28.809,16.602,14.160
1532484651.769,27.832,28.809,28.320,18.555,-48.340
1532484651.773,28.809,28.809,29.785,23.438,75.195
1532484651.777,25.391,25.391,31.738,31.250,114.746
1532484651.781,19.531,27.344,30.762,27.344,9.766
1532484651.785,18.066,31.250,29.297,17.578,-137.207
1532484651.789,21.973,35.645,29.297,23.926,-34.180
1532484651.793,21.973,31.738,30.762,26.855,142.090
1532484651.797,19.043,25.391,30.762,12.207,-45.898
1532484651.801,19.043,33.691,30.273,10.742,-131.836
1532484651.805,25.879,36.621,31.250,28.809,2.441
1532484651.808,29.297,33.691,30.273,34.668,115.234
1532484651.812,24.902,30.762,32.227,28.320,106.445
1532484651.816,21.973,33.691,32.227,25.391,-35.645
1532484651.820,20.020,33.691,26.855,19.043,-41.016
1532484651.824,20.020,26.855,25.879,20.508,102.539
1532484651.828,19.043,25.879,26.855,19.531,103.027
1532484651.832,17.090,34.180,26.367,12.695,-20.508
1532484651.836,20.996,32.227,25.391,4.395,-116.211
1532484651.840,23.926,28.809,25.879,5.371,-47.852
1532484651.844,21.973,32.227,26.367,14.160,124.512
1532484651.848,20.020,36.621,24.902,9.766,72.266
1532484651.851,21.973,38.086,26.855,8.789,-57.617
1532484651.855,24.414,36.621,28.320,13.184,-33.203
1532484651.859,26.367,34.668,29.785,24.902,122.070
1532484651.863,27.832,31.738,29.297,19.531,88.379
1532484651.867,27.344,35.156,27.344,12.207,-35.156
1532484651.871,30.273,36.621,26.855,8.789,1.953
1532484651.875,30.762,32.227,28.809,12.695,83.496
1532484651.879,19.043,31.250,30.762,10.742,55.176
1532484651.883,16.113,34.180,32.227,5.859,-36.621
1532484651.887,20.508,34.180,30.762,18.066,-78.613
1532484651.891,19.043,29.297,29.297,21.973,74.219
1532484651.894,14.648,24.414,31.250,12.695,115.234
1532484651.898,12.207,32.227,30.762,12.207,-99.609
1532484651.902,19.043,41.992,30.273,17.090,-94.727
1532484651.906,25.391,39.062,29.297,14.648,67.383
1532484651.910,22.949,36.133,31.738,23.926,168.457
1532484651.914,17.578,33.203,32.715,19.531,43.457
1532484651.918,18.555,36.133,33.203,14.160,-83.984
1532484651.922,25.391,35.645,34.180,22.461,-25.391
1532484651.926,25.879,31.250,35.645,26.367,71.777
1532484651.930,20.508,31.250,36.621,18.555,93.750
1532484651.933,18.066,31.250,37.109,16.602,-6.836
1532484651.937,23.438,30.762,36.133,25.391,-134.277
1532484651.941,25.391,34.668,34.668,31.250,40.039
1532484651.945,22.949,35.156,33.691,20.996,147.461
1532484651.949,20.996,37.109,33.691,14.648,26.855
1532484651.953,24.902,38.574,34.180,26.367,-25.391
1532484651.957,30.762,32.715,34.668,33.203,67.871
1532484651.961,28.809,29.785,35.645,27.832,133.789
1532484651.965,26.367,33.691,34.668,19.043,31.250
1532484651.969,32.227,37.109,33.203,27.344,-54.199
1532484651.973,36.621,35.645,34.668,32.715,9.277
1532484651.976,30.273,29.785,35.645,24.902,28.320
1532484651.980,23.926,33.691,32.715,21.973,2.930
1532484651.984,27.832,39.062,28.809,17.578,-29.785
1532484651.988,30.762,34.668,29.785,20.996,4.395
1532484651.992,24.414,31.738,31.738,24.414,158.203
1532484651.996,23.926,32.227,29.297,18.066,114.258
1532484652.000,22.949,36.133,24.902,21.484,-6.348
1532484652.004,28.320,37.109,27.344,27.344,-30.762
1532484652.008,28.809,30.273,27.832,24.414,99.609
1532484652.012,21.484,24.902,27.832,19.043,148.438
1532484652.016,21.484,28.809,30.762,12.207,-30.273
