timestamps,TP9,AF7,AF8,TP10,Right AUX
1532484568.124,21.973,31.250,31.250,15.137,27.344
1532484568.128,24.414,35.156,30.273,10.742,-15.625
1532484568.132,26.855,31.250,28.809,15.625,100.586
1532484568.136,21.973,23.926,32.227,13.184,138.672
1532484568.140,17.578,28.320,35.645,0.000,21.973
1532484568.143,29.297,35.156,36.621,6.836,-42.969
1532484568.147,28.809,32.227,35.645,11.230,46.387
1532484568.151,20.508,26.367,36.133,15.137,57.617
1532484568.155,20.020,28.809,36.133,16.113,-5.371
1532484568.159,23.438,30.762,34.668,11.719,-40.527
1532484568.163,25.391,27.832,32.227,16.113,18.555
1532484568.167,23.438,26.855,31.738,17.090,137.207
1532484568.171,18.555,30.762,34.668,16.602,80.566
1532484568.175,18.555,35.156,31.250,9.277,-85.449
1532484568.179,34.180,43.457,34.180,23.438,-60.059
1532484568.183,33.691,41.016,41.016,32.715,120.605
1532484568.186,14.648,22.461,34.668,8.301,124.512
1532484568.190,12.207,22.949,29.297,0.488,-62.012
1532484568.194,27.344,33.691,30.762,11.230,-130.371
1532484568.198,33.203,33.691,34.668,14.648,14.648
1532484568.202,27.832,30.273,36.621,13.672,103.027
1532484568.206,24.414,34.668,34.668,14.160,90.820
1532484568.210,26.367,33.203,35.156,10.742,-93.750
1532484568.214,25.879,32.227,37.109,19.043,-90.332
1532484568.218,20.508,27.344,38.574,20.508,134.277
1532484568.222,18.555,24.902,38.086,16.113,68.359
1532484568.226,19.043,30.273,36.621,14.160,-37.109
1532484568.230,22.461,31.738,38.574,22.949,-37.598
1532484568.233,22.461,30.762,41.504,30.273,52.734
1532484568.237,17.090,32.227,40.527,20.020,40.527
1532484568.241,16.602,38.574,39.062,12.207,-120.605
1532484568.245,25.391,41.016,41.016,15.137,-36.621
1532484568.249,30.273,34.668,45.410,28.809,53.711
1532484568.253,33.203,38.574,47.852,32.715,-25.391
1532484568.257,22.949,34.668,34.180,11.719,-31.250
1532484568.261,20.508,26.367,26.855,12.695,-65.430
1532484568.265,27.344,35.645,35.156,31.250,79.102
1532484568.269,24.414,33.691,39.551,28.320,143.555
1532484568.273,25.391,32.715,37.109,16.602,-14.648
1532484568.276,29.785,38.574,35.156,19.043,-70.801
1532484568.280,27.832,36.133,37.109,23.926,28.809
1532484568.284,25.391,36.621,37.109,24.414,151.367
1532484568.288,22.949,33.203,35.156,16.113,15.625
1532484568.292,20.996,36.133,34.668,8.301,-202.148
1532484568.296,22.949,39.551,36.621,18.066,-72.754
1532484568.300,26.367,34.180,38.574,26.367,101.562
1532484568.304,24.902,35.645,38.574,23.438,107.422
1532484568.308,24.414,39.062,38.574,16.113,-34.668
1532484568.312,32.715,40.039,36.621,22.949,-95.703
1532484568.316,27.344,37.109,36.133,35.156,63.965
1532484568.319,15.137,31.738,36.621,30.273,114.746
1532484568.323,25.391,36.621,34.668,20.020,15.137
1532484568.327,37.109,37.598,36.133,18.066,-79.102
1532484568.331,34.668,33.203,38.086,17.578,-18.066
1532484568.335,27.832,29.785,38.086,10.742,62.500
1532484568.339,23.438,28.809,35.156,9.277,-16.602
1532484568.343,28.320,36.621,34.668,15.625,-45.410
1532484568.347,32.715,32.227,36.621,17.090,77.148
1532484568.351,33.691,25.391,34.180,19.043,51.758
1532484568.355,29.785,30.762,39.062,22.461,-23.926
1532484568.359,25.879,33.691,41.504,16.602,-43.457
1532484568.363,31.250,32.227,40.039,25.391,0.977
1532484568.366,31.738,24.414,41.016,30.273,129.395
1532484568.370,27.832,24.902,42.480,20.996,81.543
1532484568.374,24.414,35.156,40.527,14.648,-24.902
1532484568.378,24.902,33.691,35.156,14.160,-63.477
1532484568.382,26.367,28.809,37.598,30.762,6.836
1532484568.386,24.902,29.785,41.016,31.250,181.152
1532484568.390,21.973,27.344,40.527,15.625,-21.973
1532484568.394,23.926,33.691,35.645,20.508,-216.309
1532484568.398,28.809,34.668,36.133,35.156,35.156
1532484568.402,23.926,28.809,38.086,32.715,151.367
1532484568.406,20.020,26.855,37.109,22.461,117.676
1532484568.409,28.320,28.320,33.691,27.832,-35.156
1532484568.413,32.715,29.297,32.715,31.738,-29.785
1532484568.417,25.391,23.438,36.621,28.809,134.277
1532484568.421,29.297,30.273,43.457,33.691,83.008
1532484568.425,28.320,38.086,42.969,27.344,1.953
1532484568.429,18.555,19.531,31.250,10.742,-74.707
1532484568.433,18.066,14.648,24.902,10.254,-53.711
1532484568.437,13.184,24.902,26.367,20.996,71.777
1532484568.441,12.207,23.926,32.227,17.578,-5.859
1532484568.445,16.602,21.484,32.227,14.160,21.973
1532484568.449,19.531,23.438,31.250,25.391,94.238
1532484568.452,17.578,29.297,32.227,21.484,101.562
1532484568.456,14.648,35.645,32.227,8.301,20.996
1532484568.460,23.438,37.598,32.227,8.301,-71.777
1532484568.464,22.461,36.621,34.180,16.602,68.848
1532484568.468,11.230,25.879,34.180,13.672,125.000
1532484568.472,11.230,23.438,30.273,1.465,-29.785
1532484568.476,16.602,32.227,27.344,-0.488,-128.906
1532484568.480,20.508,32.227,28.320,9.277,-75.195
1532484568.484,19.043,32.227,26.855,13.672,118.652
1532484568.488,15.137,25.879,25.879,-2.441,119.629
1532484568.492,19.531,26.367,27.832,-8.789,-145.020
1532484568.495,22.949,35.645,29.785,5.859,-110.840
1532484568.499,22.461,31.738,27.832,14.160,120.605
1532484568.503,18.066,31.250,21.973,6.348,181.641
1532484568.507,24.414,41.016,27.344,8.789,-1.465
1532484568.511,28.320,42.480,26.855,20.508,-106.445
1532484568.515,10.254,21.484,14.160,10.254,94.238
1532484568.519,6.836,14.160,23.438,0.488,140.625
1532484568.523,9.766,31.250,29.785,1.465,-3.418
1532484568.527,12.207,38.086,29.785,4.883,-18.555
1532484568.531,17.090,35.156,30.273,5.859,-24.902
1532484568.535,15.137,37.598,28.320,3.418,50.781
1532484568.539,12.695,37.598,27.832,5.371,82.031
1532484568.542,17.578,39.551,26.367,5.859,-28.809
1532484568.546,25.391,34.180,26.367,9.277,-7.812
1532484568.550,25.391,31.250,27.832,10.742,74.707
1532484568.554,18.555,36.621,29.297,8.789,104.004
1532484568.558,19.531,38.574,27.832,6.348,12.207
1532484568.562,26.855,38.574,27.832,11.230,0.488
1532484568.566,26.367,32.715,29.785,22.949,144.531
1532484568.570,22.461,21.973,28.809,20.020,58.594
1532484568.574,24.414,29.785,22.461,10.254,-105.469
1532484568.578,28.809,36.621,20.996,10.742,-65.430
1532484568.582,34.668,34.180,28.320,17.578,55.176
1532484568.585,32.227,28.809,31.738,17.578,171.387
1532484568.589,25.879,30.762,32.715,20.020,35.645
1532484568.593,32.227,41.016,31.738,20.508,-80.566
1532484568.597,39.062,35.156,29.785,22.461,33.203
1532484568.601,35.156,26.855,29.297,21.973,141.602
1532484568.605,31.738,31.738,30.762,18.555,114.258
1532484568.609,33.691,36.133,30.762,20.996,-30.762
1532484568.613,37.109,36.621,28.320,26.855,-61.035
1532484568.617,38.574,36.133,28.320,26.367,76.660
1532484568.621,38.574,27.344,28.809,11.719,111.328
1532484568.625,31.738,28.320,26.367,3.418,20.508
1532484568.628,29.297,29.785,26.367,-0.977,-48.828
1532484568.632,28.320,25.879,27.344,4.883,-23.438
1532484568.636,19.043,28.320,26.367,0.977,100.586
1532484568.640,15.625,31.738,21.973,-12.207,60.059
1532484568.644,18.066,32.227,20.020,-7.324,-20.020
1532484568.648,19.531,28.809,27.344,0.488,5.371
1532484568.652,18.555,30.762,30.762,5.859,74.219
1532484568.656,20.996,31.738,28.809,6.836,61.035
1532484568.660,26.367,32.715,25.391,8.789,-51.758
1532484568.664,30.762,33.691,26.855,11.719,-35.645
1532484568.668,26.367,27.344,26.855,8.789,97.656
1532484568.672,20.996,25.391,26.855,1.953,6.836
1532484568.675,21.973,37.109,28.809,9.277,-119.141
1532484568.679,25.879,36.621,32.715,23.438,-2.930
1532484568.683,23.438,26.855,35.156,21.973,135.742
1532484568.687,17.090,22.949,34.668,13.672,104.004
1532484568.691,11.719,27.344,31.738,13.184,-42.969
1532484568.695,12.695,32.227,31.738,15.625,-56.641
1532484568.699,18.555,29.297,35.156,20.996,102.539
1532484568.703,18.066,20.508,35.156,13.672,137.695
1532484568.707,12.207,21.973,32.715,6.836,49.316
1532484568.711,12.207,27.832,29.785,1.953,-140.625
1532484568.715,19.531,33.691,30.762,10.254,-117.676
1532484568.718,21.484,31.738,33.691,21.484,137.695
1532484568.722,15.625,25.391,33.691,15.625,104.004
1532484568.726,17.578,24.414,32.227,8.301,-58.594
1532484568.730,24.414,24.414,31.738,11.230,-50.293
1532484568.734,24.414,26.367,34.668,24.902,102.051
1532484568.738,17.090,24.902,36.621,19.043,115.234
1532484568.742,15.137,27.344,32.227,14.648,-37.598
1532484568.746,21.484,31.250,33.203,14.160,-39.062
1532484568.750,23.438,21.973,37.109,16.113,83.984
1532484568.754,17.090,17.090,36.621,25.879,52.734
1532484568.758,15.137,27.832,36.621,18.066,-60.059
1532484568.761,24.414,33.203,35.645,10.254,-50.781
1532484568.765,24.902,32.227,35.645,20.508,75.195
1532484568.769,14.648,25.391,36.133,14.648,77.637
1532484568.773,5.859,24.902,36.133,7.812,-84.961
1532484568.777,11.719,35.156,33.203,8.789,-83.984
1532484568.781,20.020,34.668,29.785,6.836,42.480
1532484568.785,20.508,29.297,30.273,6.348,137.695
1532484568.789,18.066,30.273,32.715,0.977,65.430
1532484568.793,19.043,32.227,32.715,0.000,-94.727
1532484568.797,25.879,30.762,31.738,7.324,-4.395
1532484568.801,26.855,26.855,34.668,13.672,165.527
1532484568.805,21.484,31.738,36.621,16.113,80.078
1532484568.808,17.090,41.504,34.180,6.836,-58.105
1532484568.812,23.926,41.016,34.180,6.836,-117.676
1532484568.816,27.344,37.598,36.133,11.230,28.320
1532484568.820,22.461,31.738,36.133,14.160,160.645
1532484568.824,21.484,31.250,31.738,11.230,4.395
1532484568.828,23.438,34.668,30.273,10.254,-135.254
1532484568.832,29.785,33.691,35.645,20.996,1.465
1532484568.836,27.832,29.297,34.668,16.113,152.344
1532484568.840,20.996,32.715,33.203,7.812,92.285
1532484568.844,25.391,42.480,34.668,8.789,-32.715
1532484568.848,29.785,40.527,32.227,10.254,-0.977
1532484568.851,24.414,32.227,32.715,11.719,29.785
1532484568.855,18.555,37.109,35.156,2.441,7.324
1532484568.859,18.066,40.039,32.715,-4.883,-8.301
1532484568.863,20.508,37.598,32.227,5.371,16.602
1532484568.867,21.973,28.809,33.203,12.695,120.117
1532484568.871,17.578,23.438,33.203,13.672,67.383
1532484568.875,14.160,34.668,32.227,7.324,-21.484
1532484568.879,16.113,34.668,33.203,8.301,-4.883
1532484568.883,17.578,28.320,36.621,17.090,56.152
1532484568.887,15.137,23.438,38.574,17.578,86.914
1532484568.891,9.766,29.297,35.156,11.230,-31.250
1532484568.894,15.137,30.762,35.645,9.277,-105.469
1532484568.898,16.113,28.320,36.133,14.648,-13.184
1532484568.902,12.207,28.320,34.180,21.973,65.430
1532484568.906,13.672,29.785,34.180,19.531,68.848
1532484568.910,15.625,31.738,34.180,2.441,-114.258
1532484568.914,20.996,34.180,36.621,6.836,-135.254
1532484568.918,18.066,32.227,35.156,28.320,145.508
1532484568.922,14.648,26.367,32.227,21.973,131.348
1532484568.926,15.625,29.785,32.227,15.137,-11.230
1532484568.930,21.973,33.691,33.203,23.926,-27.832
1532484568.934,24.902,35.156,34.668,27.344,83.008
1532484568.938,19.531,36.621,32.227,18.555,162.598
1532484568.941,18.066,40.527,30.273,11.230,-6.348
1532484568.945,24.414,43.945,33.691,25.391,-97.656
1532484568.949,30.762,39.062,36.133,26.367,1.953
1532484568.953,28.320,34.668,34.668,19.531,24.414
1532484568.957,24.414,40.527,31.250,19.043,42.480
1532484568.961,28.320,41.504,31.738,20.020,-19.531
1532484568.965,31.250,39.551,32.227,28.320,38.574
1532484568.969,26.367,35.645,32.227,25.879,141.113
1532484568.973,21.973,33.691,32.715,12.695,76.660
1532484568.977,20.996,43.457,32.715,5.371,-21.973
1532484568.981,19.531,42.480,30.762,14.648,-14.160
1532484568.984,20.508,23.926,33.691,25.879,115.234
1532484568.988,20.020,21.484,31.738,21.973,53.711
1532484568.992,16.602,35.156,28.809,12.695,-133.301
1532484568.996,20.020,39.062,36.133,22.461,-42.969
1532484569.000,22.949,30.762,37.109,22.461,110.352
1532484569.004,21.484,26.367,36.133,19.043,80.566
1532484569.008,18.066,30.273,32.715,20.020,-21.973
1532484569.012,22.949,34.180,32.715,7.812,-134.766
1532484569.016,28.320,33.203,33.203,21.973,9.766
1532484569.020,23.926,23.438,32.227,31.250,154.297
1532484569.024,20.996,24.414,31.738,20.020,38.574
1532484569.027,28.320,26.855,30.273,9.277,-90.332
1532484569.031,35.156,25.879,33.691,15.625,-37.598
1532484569.035,29.785,24.414,36.133,27.344,133.789
1532484569.039,21.484,20.508,34.668,19.531,51.758
1532484569.043,20.020,26.367,33.691,9.277,-102.051
1532484569.047,22.461,31.738,34.180,11.230,36.133
1532484569.051,21.973,23.926,34.668,11.719,64.941
1532484569.055,18.555,27.344,31.738,4.883,-13.184
1532484569.059,16.602,31.738,30.273,2.441,-20.996
1532484569.063,22.461,32.227,32.715,4.883,-65.430
1532484569.067,28.320,31.738,35.645,11.230,95.215
1532484569.071,24.414,27.832,33.691,15.625,129.883
1532484569.074,20.508,31.738,31.250,8.789,19.043
1532484569.078,24.414,31.250,32.715,7.812,-36.621
1532484569.082,28.320,31.250,35.156,21.484,-0.977
1532484569.086,24.902,30.273,36.133,19.043,118.652
1532484569.090,16.113,26.367,34.668,5.371,-10.254
1532484569.094,15.137,33.203,31.738,5.371,-172.363
1532484569.098,21.484,35.645,34.180,14.648,20.020
1532484569.102,16.113,28.320,36.133,16.113,142.090
1532484569.106,8.789,27.832,34.668,-0.488,104.492
1532484569.110,12.695,28.809,32.227,-12.207,-54.688
1532484569.114,14.648,27.832,32.715,-3.418,-34.180
1532484569.117,15.625,24.902,34.180,10.742,137.207
1532484569.121,13.672,27.832,38.086,12.695,112.793
1532484569.125,10.254,31.738,37.598,3.418,31.250
1532484569.129,16.113,32.715,33.691,8.789,-14.648
1532484569.133,22.461,36.133,33.691,19.043,27.344
1532484569.137,19.531,35.156,37.598,17.578,111.816
1532484569.141,14.648,36.133,38.574,12.207,35.156
1532484569.145,15.137,38.086,37.109,14.160,-11.719
1532484569.149,20.508,31.250,37.109,15.625,58.594
1532484569.153,20.996,27.832,35.156,11.719,58.105
1532484569.157,15.625,28.809,31.250,5.859,29.297
1532484569.160,19.043,27.832,30.762,5.371,-38.574
1532484569.164,26.855,30.273,30.273,15.625,9.277
1532484569.168,24.414,29.297,31.250,15.625,108.887
1532484569.172,17.578,31.738,33.691,8.301,83.496
1532484569.176,17.090,35.645,33.203,9.277,-5.371
1532484569.180,20.996,33.203,32.715,14.160,-72.266
1532484569.184,18.555,33.203,36.133,17.090,38.574
1532484569.188,13.672,31.250,34.180,9.277,151.855
1532484569.192,11.230,35.645,29.297,-1.465,-37.109
1532484569.196,15.137,39.551,27.344,1.465,-99.121
1532484569.200,17.090,33.203,27.344,5.371,92.773
1532484569.203,12.695,31.250,30.273,3.418,148.926
1532484569.207,9.277,33.203,31.738,2.441,61.523
1532484569.211,8.301,35.156,29.785,5.859,-58.105
1532484569.215,7.324,30.762,27.344,9.277,57.129
1532484569.219,7.324,22.461,28.320,-1.953,168.945
1532484569.223,7.812,25.879,30.762,-1.465,27.832
1532484569.227,7.324,34.668,28.809,3.418,-47.363
1532484569.231,16.113,32.715,26.855,0.000,-74.707
1532484569.235,20.508,30.762,28.320,11.719,19.043
1532484569.239,14.648,29.785,29.785,7.812,108.398
1532484569.243,18.066,30.762,27.832,-2.930,-51.758
1532484569.247,21.973,31.738,27.832,4.395,-6.836
1532484569.250,19.531,25.879,27.344,11.230,90.332
1532484569.254,15.137,28.320,28.320,9.277,129.395
1532484569.258,11.230,25.879,27.832,8.301,44.434
1532484569.262,14.648,26.367,27.344,7.812,-32.715
1532484569.266,20.996,29.785,31.250,8.789,107.422
1532484569.270,14.160,26.367,33.691,7.812,154.785
1532484569.274,7.324,30.273,34.180,0.977,33.691
1532484569.278,13.184,36.133,33.691,2.930,-57.129
1532484569.282,15.625,31.738,35.156,13.184,-24.414
1532484569.286,13.672,27.832,34.180,12.207,141.602
1532484569.290,13.672,29.785,33.691,7.812,97.168
1532484569.293,16.602,32.715,36.133,-0.977,-127.441
1532484569.297,20.508,35.156,36.133,4.883,-84.473
1532484569.301,26.367,27.832,37.598,17.090,83.496
1532484569.305,30.273,23.926,35.645,18.066,127.930
1532484569.309,21.484,25.879,35.645,20.996,-30.273
1532484569.313,22.461,31.738,35.645,19.531,-52.734
1532484569.317,33.203,29.785,33.203,21.484,92.285
1532484569.321,27.832,20.508,32.715,18.066,79.102
1532484569.325,25.391,20.020,32.227,6.348,-26.855
1532484569.329,31.738,23.926,30.762,9.766,-64.941
1532484569.333,34.668,29.297,31.738,17.578,-22.461
1532484569.336,24.902,37.109,36.133,14.648,83.008
1532484569.340,19.043,30.762,36.133,19.043,63.965
1532484569.344,27.832,23.926,30.762,18.066,-53.223
1532484569.348,33.691,25.879,28.809,18.066,-33.203
1532484569.352,33.691,31.250,34.180,25.391,100.098
1532484569.356,34.180,34.668,36.621,22.461,81.055
1532484569.360,31.250,33.691,36.133,15.137,-48.340
1532484569.364,27.832,28.809,35.645,16.602,-47.852
1532484569.368,28.320,25.391,38.086,15.625,86.426
1532484569.372,29.785,25.391,40.039,8.301,66.406
1532484569.376,25.391,31.738,38.086,3.906,-93.262
1532484569.380,27.344,36.133,35.645,9.766,-62.500
1532484569.383,27.832,33.691,33.203,16.113,92.773
1532484569.387,21.973,29.297,32.715,11.230,156.250
1532484569.391,21.973,33.203,34.668,6.836,11.719
1532484569.395,26.855,36.133,36.621,8.789,-82.520
1532484569.399,29.297,36.133,37.109,18.066,14.160
1532484569.403,25.879,36.133,37.109,19.531,128.906
1532484569.407,25.391,40.039,38.086,5.371,106.934
1532484569.411,33.203,44.434,36.621,-4.395,-44.922
1532484569.415,36.133,43.945,35.156,13.184,-72.266
1532484569.419,26.855,35.156,32.715,24.902,62.988
1532484569.423,20.996,29.785,29.297,9.766,49.316
1532484569.426,20.996,39.062,30.762,0.977,32.715
1532484569.430,26.855,38.574,32.715,9.766,7.324
1532484569.434,28.809,31.738,32.227,16.113,-17.090
1532484569.438,24.902,30.273,32.715,11.719,89.844
1532484569.442,25.879,33.691,29.785,2.930,17.090
1532484569.446,27.832,38.574,29.297,3.906,-30.273
1532484569.450,31.738,35.156,32.227,18.066,46.875
1532484569.454,35.645,29.297,30.762,28.809,118.164
1532484569.458,32.715,30.762,31.250,23.926,45.898
1532484569.462,32.227,36.133,32.715,11.230,-118.164
1532484569.466,31.250,36.133,30.762,15.137,16.113
1532484569.469,31.738,36.133,30.762,6.836,189.453
1532484569.473,31.250,31.250,28.809,-7.324,-4.883
1532484569.477,28.320,30.273,26.855,-0.977,-136.230
1532484569.481,32.227,31.250,29.785,8.301,1.953
1532484569.485,29.785,30.762,31.738,13.184,153.809
1532484569.489,23.926,30.273,31.250,12.207,120.605
1532484569.493,23.438,36.133,32.715,10.254,-45.410
1532484569.497,27.344,39.062,33.691,13.184,-69.336
1532484569.501,26.367,32.715,27.832,22.949,84.473
1532484569.505,20.996,24.414,25.879,18.555,124.023
1532484569.509,17.090,19.043,29.785,2.930,37.598
1532484569.513,19.531,20.508,31.738,-5.371,-100.586
1532484569.516,26.855,26.855,31.738,2.930,-41.504
1532484569.520,25.879,25.391,30.273,11.719,122.070
1532484569.524,18.555,27.344,33.203,6.348,39.551
1532484569.528,21.484,33.203,34.180,2.930,-40.527
1532484569.532,26.367,28.809,29.297,13.184,30.273
1532484569.536,23.926,21.973,29.785,19.043,114.258
1532484569.540,20.996,21.484,32.715,11.230,57.129
1532484569.544,23.438,29.297,33.203,16.602,-20.996
1532484569.548,23.438,31.250,33.203,23.438,29.297
1532484569.552,20.508,16.602,33.203,18.555,88.867
1532484569.556,17.578,16.113,34.668,15.137,36.621
1532484569.559,12.207,28.320,35.645,14.648,-32.715
1532484569.563,16.113,25.391,35.156,14.160,-50.293
1532484569.567,20.996,25.391,35.156,20.020,140.625
1532484569.571,16.113,18.066,38.086,19.531,144.043
1532484569.575,12.695,22.949,38.574,6.836,-81.055
1532484569.579,15.137,34.180,37.598,9.277,-52.734
1532484569.583,20.996,28.809,35.645,18.066,46.387
1532484569.587,20.508,22.949,35.156,14.648,179.199
1532484569.591,13.672,22.949,35.645,10.254,111.816
1532484569.595,18.555,30.273,35.645,10.742,-69.824
1532484569.599,26.367,33.203,35.156,10.254,0.977
1532484569.602,24.414,25.879,36.621,15.137,111.816
1532484569.606,21.484,25.879,36.621,14.648,106.445
1532484569.610,21.973,31.738,33.691,7.812,25.879
1532484569.614,28.809,26.367,34.180,12.207,-23.926
1532484569.618,34.180,26.855,32.227,24.902,118.652
1532484569.622,26.367,25.391,28.320,17.578,132.812
1532484569.626,19.043,33.691,33.691,4.395,24.902
1532484569.630,24.902,43.945,38.574,7.324,11.719
1532484569.634,25.879,34.668,34.180,14.648,56.152
1532484569.638,21.484,34.180,29.297,15.625,127.930
1532484569.642,23.926,36.133,29.297,8.789,78.125
1532484569.646,27.832,37.598,30.273,6.836,-35.156
1532484569.649,27.832,39.551,29.785,7.324,49.316
1532484569.653,26.855,32.715,27.832,10.254,67.871
1532484569.657,23.438,32.227,28.809,6.836,-38.574
1532484569.661,22.949,33.203,31.738,2.441,-55.664
1532484569.665,23.926,33.691,31.738,10.742,29.297
1532484569.669,24.414,28.809,32.227,19.531,159.668
1532484569.673,26.367,27.832,32.227,16.113,95.215
1532484569.677,28.320,28.320,34.180,9.277,-9.277
1532484569.681,32.715,22.949,34.180,14.160,-0.488
1532484569.685,31.738,21.484,33.203,13.672,116.211
1532484569.689,27.832,19.531,36.133,10.742,136.719
1532484569.692,27.832,27.832,34.180,11.230,-27.344
1532484569.696,32.227,32.715,34.180,9.766,-113.281
1532484569.700,37.109,31.738,37.598,14.648,39.062
1532484569.704,36.621,29.785,37.598,20.996,139.648
1532484569.708,26.367,30.273,36.133,13.184,134.766
1532484569.712,24.414,27.832,36.133,6.836,-47.852
1532484569.716,33.203,28.809,38.574,18.066,-94.727
1532484569.720,32.227,25.879,38.086,23.438,146.484
1532484569.724,28.320,26.855,37.109,12.695,117.676
1532484569.728,30.273,35.156,37.109,8.789,22.949
1532484569.732,36.621,25.879,36.621,19.531,-14.648
1532484569.735,36.621,20.508,38.574,27.832,83.984
1532484569.739,33.203,22.461,39.551,26.855,97.656
1532484569.743,31.250,28.320,36.133,22.461,-108.398
1532484569.747,32.715,34.668,33.691,22.461,-19.531
1532484569.751,36.621,23.926,33.691,21.484,90.332
1532484569.755,38.574,21.484,30.273,16.602,-15.625
1532484569.759,34.180,31.738,29.785,13.672,-7.812
1532484569.763,31.250,34.180,29.785,11.719,-49.805
1532484569.767,31.738,32.227,28.320,15.625,78.613
1532484569.771,30.273,25.391,28.809,20.508,136.719
1532484569.775,26.855,28.809,26.367,13.672,-19.531
1532484569.778,25.391,32.715,25.391,12.695,-84.473
1532484569.782,29.785,31.250,27.344,22.461,21.484
1532484569.786,29.297,26.855,29.297,27.832,155.762
1532484569.790,20.508,20.508,30.273,11.230,37.109
1532484569.794,19.531,30.762,29.785,-3.906,-181.152
1532484569.798,25.391,41.992,29.297,10.742,-79.590
1532484569.802,27.344,36.621,32.715,18.066,112.793
1532484569.806,21.973,33.203,35.156,2.441,127.441
1532484569.810,15.137,34.668,33.203,-2.930,-27.832
1532484569.814,18.555,36.133,30.273,3.906,-101.074
1532484569.818,17.578,31.738,28.320,7.324,87.402
1532484569.822,9.277,34.180,29.297,3.906,141.602
1532484569.825,6.836,42.480,30.273,0.000,31.250
1532484569.829,12.207,38.574,31.250,0.488,-71.289
1532484569.833,17.578,35.156,31.250,12.207,-12.207
1532484569.837,14.160,25.879,32.227,17.578,75.684
1532484569.841,6.348,21.484,31.250,7.812,2.930
1532484569.845,11.230,29.785,29.785,-0.977,-40.039
1532484569.849,14.160,31.738,23.926,8.301,55.176
1532484569.853,7.324,26.855,25.879,18.555,56.641
1532484569.857,11.230,31.250,34.668,13.184,22.949
1532484569.861,17.578,35.156,33.691,9.766,0.488
1532484569.865,19.531,38.086,33.203,19.043,25.879
1532484569.868,16.113,32.715,37.109,24.902,139.648
1532484569.872,13.672,28.320,40.039,20.020,99.121
1532484569.876,11.719,36.133,34.180,15.137,16.602
1532484569.880,14.648,33.203,30.762,12.695,-51.270
1532484569.884,17.578,28.809,36.133,21.484,2.930
1532484569.888,13.184,30.273,37.598,21.484,218.750
1532484569.892,11.719,27.832,36.133,13.184,15.625
1532484569.896,16.113,30.273,34.668,20.020,-207.031
1532484569.900,18.555,30.273,35.645,20.508,48.340
1532484569.904,18.555,25.391,37.598,10.742,186.035
1532484569.908,18.066,26.855,36.621,17.578,116.699
1532484569.911,19.531,32.715,34.668,15.625,-63.965
1532484569.915,21.484,37.598,31.738,6.836,-20.996
1532484569.919,21.973,33.691,33.203,17.090,146.973
1532484569.923,22.461,22.461,32.715,20.996,134.277
1532484569.927,24.414,24.414,28.809,16.602,21.484
1532484569.931,20.996,27.832,31.738,18.555,-89.355
1532484569.935,17.578,27.832,36.621,22.461,-19.043
1532484569.939,20.508,28.809,34.668,24.414,102.051
1532484569.943,24.902,28.809,35.156,12.207,-12.695
1532484569.947,22.949,28.809,36.621,8.301,-48.828
1532484569.951,24.414,25.391,36.133,26.367,43.945
1532484569.955,23.438,21.973,37.109,20.508,79.102
1532484569.958,17.578,24.414,37.598,11.230,35.156
1532484569.962,24.414,31.250,36.621,16.602,-36.133
1532484569.966,25.879,29.785,36.621,25.391,40.527
1532484569.970,22.461,25.879,37.598,25.879,115.234
1532484569.974,20.508,27.344,36.621,12.207,35.156
1532484569.978,23.438,38.574,33.203,10.742,-86.426
1532484569.982,31.250,42.480,31.250,19.531,-26.367
1532484569.986,27.832,31.250,33.691,18.066,149.414
1532484569.990,19.043,20.508,37.109,-0.488,146.973
1532484569.994,16.113,26.855,34.668,-10.742,-89.844
1532484569.998,21.484,33.691,31.250,-4.395,-124.023
1532484570.001,22.949,27.344,32.227,4.883,114.258
1532484570.005,15.625,22.461,33.203,8.789,183.594
1532484570.009,13.672,27.344,31.738,2.441,-29.297
1532484570.013,20.508,33.203,30.762,0.488,-134.277
1532484570.017,26.367,26.855,30.273,18.066,77.148
1532484570.021,25.391,20.996,30.762,22.949,147.949
1532484570.025,19.531,20.996,27.832,12.207,18.555
1532484570.029,19.531,24.902,28.320,1.953,-5.859
1532484570.033,25.879,26.855,28.809,-1.465,-41.504
1532484570.037,26.855,27.344,23.926,12.695,20.508
1532484570.041,22.461,27.344,20.996,13.184,87.402
1532484570.044,19.531,30.273,20.996,10.254,-1.465
1532484570.048,21.973,30.273,24.902,7.812,-2.930
1532484570.052,27.344,26.855,26.367,19.531,87.891
1532484570.056,25.391,27.344,24.902,19.531,126.953
1532484570.060,20.508,32.715,26.367,6.836,-10.742
1532484570.064,24.414,42.969,27.832,16.113,-52.734
1532484570.068,26.855,41.992,29.785,18.066,128.906
1532484570.072,24.902,25.879,34.180,17.578,88.867
1532484570.076,22.461,32.227,33.203,10.742,-84.961
1532484570.080,25.391,41.992,28.809,7.812,-59.082
1532484570.084,27.344,37.109,28.809,27.344,67.871
1532484570.088,20.996,27.832,32.715,27.832,171.387
1532484570.091,15.137,27.344,33.691,8.301,65.430
1532484570.095,18.066,41.016,34.180,1.953,-47.852
1532484570.099,22.461,42.969,34.180,10.254,17.090
1532484570.103,18.555,39.551,31.250,7.324,164.062
1532484570.107,18.066,34.180,32.715,5.371,132.324
1532484570.111,18.555,35.156,30.762,0.977,-46.387
1532484570.115,22.949,39.551,30.273,7.324,-73.730
1532484570.119,24.414,32.227,32.715,20.020,59.082
1532484570.123,15.137,23.438,31.738,4.395,138.184
1532484570.127,13.184,29.785,32.715,-6.836,40.527
1532484570.131,16.113,31.738,32.227,-4.395,-57.129
1532484570.134,18.555,26.855,30.273,10.254,-26.367
1532484570.138,16.602,28.320,29.297,14.160,104.980
1532484570.142,11.230,30.273,29.297,8.789,80.078
1532484570.146,16.113,29.785,31.250,3.418,-34.180
1532484570.150,21.484,24.902,29.297,4.395,1.465
1532484570.154,18.555,20.508,27.344,10.254,94.238
1532484570.158,14.160,24.902,27.344,0.488,92.773
1532484570.162,18.066,34.180,26.367,-2.441,-26.367
1532484570.166,22.949,34.668,27.832,12.695,-41.016
1532484570.170,19.531,29.785,28.320,18.066,110.352
1532484570.174,18.066,28.320,28.320,10.254,46.387
1532484570.177,18.555,34.668,27.344,4.883,-74.707
1532484570.181,21.484,41.504,27.832,11.719,14.160
1532484570.185,29.297,38.086,29.785,17.090,131.348
1532484570.189,29.785,28.809,30.762,9.766,105.957
1532484570.193,23.926,32.715,28.809,10.254,-18.066
1532484570.197,24.902,42.480,27.832,15.625,-25.879
1532484570.201,22.461,39.551,28.320,20.020,128.418
1532484570.205,14.648,28.809,29.297,23.438,206.543
1532484570.209,9.766,28.809,25.391,9.277,118.652
1532484570.213,14.160,37.109,22.949,-5.859,-94.238
1532484570.217,21.973,41.992,27.832,5.859,-63.965
1532484570.221,20.508,34.180,28.809,16.113,166.504
1532484570.224,15.625,32.227,29.297,5.371,102.051
1532484570.228,18.066,34.668,30.273,4.883,-16.113
1532484570.232,21.973,37.109,30.762,11.719,1.465
1532484570.236,21.484,38.574,30.273,10.254,124.512
1532484570.240,15.137,24.414,26.855,2.441,158.691
1532484570.244,13.184,29.297,28.320,1.465,5.371
1532484570.248,17.090,37.598,31.738,5.859,-76.660
1532484570.252,16.113,28.809,31.738,4.395,59.570
1532484570.256,11.230,25.391,30.762,2.441,130.859
1532484570.260,10.742,30.762,27.832,7.324,-6.348
1532484570.264,16.113,32.715,28.320,5.371,-75.684
1532484570.267,17.090,31.738,29.297,2.441,88.379
1532484570.271,14.160,22.461,26.855,17.090,123.047
1532484570.275,7.812,23.926,24.902,18.066,-78.125
1532484570.279,7.324,34.180,21.484,2.930,-61.523
1532484570.283,16.113,33.691,22.461,15.137,20.996
1532484570.287,14.648,31.738,24.902,25.879,119.629
1532484570.291,11.230,28.320,22.949,11.230,83.008
1532484570.295,14.648,34.180,23.926,4.883,-79.590
1532484570.299,19.043,38.574,27.832,12.695,22.949
1532484570.303,20.508,29.785,28.320,19.531,141.113
1532484570.307,16.602,26.367,26.367,13.672,75.684
1532484570.310,15.625,30.762,27.344,1.465,-48.340
1532484570.314,17.090,30.273,26.855,9.766,-139.648
1532484570.318,17.090,28.809,25.879,20.996,46.387
1532484570.322,15.625,25.879,26.367,12.695,148.926
1532484570.326,14.160,34.668,25.391,5.859,28.809
1532484570.330,16.602,36.133,25.391,7.812,-50.781
1532484570.334,23.926,35.156,28.320,16.602,-4.395
1532484570.338,22.461,33.203,29.297,18.555,137.207
1532484570.342,13.184,25.391,25.879,1.953,83.008
1532484570.346,16.113,32.715,26.367,-3.906,-34.180
1532484570.350,27.832,33.203,29.297,17.578,-2.930
1532484570.353,25.391,30.273,30.273,22.461,47.852
1532484570.357,16.602,28.320,30.273,12.695,65.430
1532484570.361,20.996,25.391,27.832,6.348,-21.484
1532484570.365,23.438,27.832,27.832,9.277,-74.707
1532484570.369,22.949,30.273,33.203,11.719,97.656
1532484570.373,21.973,25.391,34.180,-1.953,50.781
1532484570.377,19.531,32.715,32.715,-0.488,-104.980
1532484570.381,23.926,41.016,32.715,10.254,-52.734
1532484570.385,22.949,39.551,34.668,11.230,59.570
1532484570.389,16.113,34.668,35.645,12.207,146.484
1532484570.393,11.719,33.691,33.203,6.348,25.879
1532484570.397,14.648,37.598,31.738,-2.930,-75.195
1532484570.400,20.996,38.086,33.691,5.371,23.438
1532484570.404,19.531,29.785,34.180,13.672,109.375
1532484570.408,13.184,31.738,33.203,-0.488,119.141
1532484570.412,14.648,34.668,32.715,-3.906,-51.758
1532484570.416,19.531,37.598,31.250,11.719,-122.070
1532484570.420,21.484,36.621,31.250,20.508,160.156
1532484570.424,17.578,25.879,32.227,9.277,129.883
1532484570.428,17.090,30.762,30.762,3.418,-28.809
1532484570.432,23.926,32.227,31.738,6.348,-10.742
1532484570.436,22.461,26.367,35.156,14.648,85.938
1532484570.440,16.602,25.391,34.668,18.066,166.016
1532484570.443,13.672,30.762,32.715,1.953,14.648
1532484570.447,14.648,34.668,30.762,7.324,-71.777
1532484570.451,11.230,27.344,30.762,14.648,28.809
1532484570.455,12.695,22.461,30.762,9.766,32.715
1532484570.459,16.113,24.414,28.320,4.395,45.410
1532484570.463,19.043,26.367,28.320,3.418,-19.531
1532484570.467,25.391,32.715,29.297,19.531,39.062
1532484570.471,22.461,32.715,33.203,21.973,141.113
1532484570.475,14.648,32.715,35.645,11.719,65.918
1532484570.479,13.672,36.133,35.156,11.230,-11.719
1532484570.483,19.531,35.156,30.273,8.301,-34.180
1532484570.486,20.996,37.109,29.785,14.648,95.703
1532484570.490,16.602,34.180,31.738,13.672,97.656
1532484570.494,13.184,33.203,32.715,7.812,-87.891
1532484570.498,14.160,40.527,30.762,10.742,-61.523
1532484570.502,18.555,35.645,31.250,15.137,95.703
1532484570.506,11.719,29.297,31.738,17.090,143.555
1532484570.510,5.371,29.785,28.809,-0.977,64.453
1532484570.514,8.789,30.762,27.344,-6.836,-109.863
1532484570.518,7.812,32.715,27.832,-7.812,6.348
1532484570.522,5.859,24.902,30.762,-5.371,157.715
1532484570.526,4.883,28.809,31.738,-4.883,57.617
1532484570.530,13.672,34.180,24.902,-6.836,-39.551
1532484570.533,28.809,33.691,25.391,5.859,2.930
1532484570.537,17.090,28.809,33.203,12.695,156.738
1532484570.541,-4.395,16.602,32.715,-3.418,100.098
1532484570.545,-1.465,19.531,30.273,-3.418,-90.820
1532484570.549,13.672,33.691,28.809,12.207,3.906
1532484570.553,17.578,30.273,27.832,11.230,86.426
1532484570.557,10.742,30.273,25.879,0.977,37.598
1532484570.561,8.789,32.715,27.344,-0.977,26.855
1532484570.565,20.020,31.738,31.738,16.113,-49.316
1532484570.569,21.484,31.250,30.273,25.879,93.750
1532484570.573,16.113,23.438,30.762,17.090,156.738
1532484570.576,20.020,25.879,33.691,15.137,42.969
1532484570.580,23.438,29.785,33.203,16.602,-11.230
1532484570.584,23.926,30.273,31.250,14.160,41.016
1532484570.588,23.438,28.320,30.762,24.902,133.789
1532484570.592,18.555,22.461,30.762,21.973,32.227
1532484570.596,21.973,28.809,31.738,19.043,-133.789
1532484570.600,26.855,35.156,33.203,23.926,-18.066
1532484570.604,26.367,30.273,33.203,24.902,116.211
1532484570.608,21.973,30.273,31.738,21.973,111.328
1532484570.612,20.996,34.180,30.762,6.348,-40.527
1532484570.616,25.879,33.691,29.785,16.113,-14.160
1532484570.619,27.344,31.738,30.273,20.996,190.430
1532484570.623,21.484,24.414,32.227,10.742,191.406
1532484570.627,21.484,26.367,34.668,14.648,52.734
1532484570.631,23.926,36.621,37.109,14.648,-31.738
1532484570.635,24.414,32.227,35.645,16.113,46.387
1532484570.639,22.949,27.832,32.715,18.066,144.531
1532484570.643,22.461,32.227,33.691,15.137,74.707
1532484570.647,27.344,36.133,33.691,13.184,-3.906
1532484570.651,31.250,33.691,35.156,14.160,83.008
1532484570.655,29.297,28.320,36.621,17.578,109.863
1532484570.659,23.926,29.785,34.668,9.766,50.293
1532484570.663,23.438,35.645,34.180,10.254,-83.008
1532484570.666,30.273,41.504,34.668,25.879,-28.809
1532484570.670,33.203,35.156,38.086,31.738,139.648
1532484570.674,27.832,32.715,37.109,18.555,122.559
1532484570.678,24.414,34.668,34.180,1.465,6.348
1532484570.682,27.832,36.133,33.203,13.184,-74.219
1532484570.686,29.297,39.062,33.691,30.762,69.824
1532484570.690,27.344,28.320,34.180,19.531,228.027
1532484570.694,28.320,29.785,33.691,0.488,34.180
1532484570.698,34.668,36.621,35.645,11.230,-103.027
1532484570.702,39.551,28.809,35.645,21.973,104.492
1532484570.706,39.062,25.391,34.668,18.555,201.172
1532484570.709,34.668,27.832,33.691,18.555,74.707
1532484570.713,27.832,30.273,30.273,9.766,-66.406
1532484570.717,27.832,27.832,31.738,10.742,25.879
1532484570.721,27.832,24.414,35.645,20.508,142.090
1532484570.725,22.949,30.762,36.621,19.531,61.523
1532484570.729,21.973,34.180,35.645,16.602,-11.719
1532484570.733,22.949,22.949,31.738,9.277,-24.414
1532484570.737,22.949,24.414,32.227,6.348,16.602
1532484570.741,20.020,27.832,34.668,7.324,127.441
1532484570.745,20.020,29.785,34.668,16.113,0.977
1532484570.749,23.438,35.156,30.762,20.020,-15.137
1532484570.752,20.996,29.785,32.227,19.043,131.836
1532484570.756,14.648,21.973,36.133,14.160,148.438
1532484570.760,14.648,25.391,32.715,-2.441,34.180
1532484570.764,20.508,28.320,29.297,3.906,-48.340
1532484570.768,24.902,28.320,33.203,26.367,87.402
1532484570.772,24.414,28.320,35.156,22.949,174.316
1532484570.776,16.113,22.461,32.715,9.277,24.902
1532484570.780,15.625,29.297,33.203,10.254,-97.656
1532484570.784,20.996,33.691,32.227,14.160,-40.527
1532484570.788,16.602,30.762,32.227,7.812,125.977
1532484570.792,10.254,26.367,34.180,4.395,161.133
1532484570.796,11.719,24.902,34.668,-2.930,-86.426
1532484570.799,16.602,34.668,31.250,2.441,-116.211
1532484570.803,16.113,34.180,30.762,15.137,112.793
1532484570.807,11.230,32.227,33.203,3.418,158.203
1532484570.811,9.277,39.062,33.203,-5.859,19.531
1532484570.815,8.301,35.645,29.785,1.953,-32.715
1532484570.819,13.672,31.250,27.344,6.348,76.172
1532484570.823,14.648,31.738,31.250,1.953,87.891
1532484570.827,8.301,34.180,30.762,-0.488,0.488
1532484570.831,14.648,37.109,29.297,3.418,0.000
1532484570.835,23.438,38.574,25.391,15.137,47.363
1532484570.839,10.254,33.691,20.020,0.977,65.918
1532484570.842,2.930,29.785,22.461,-6.348,31.738
1532484570.846,13.184,32.715,25.879,8.301,-35.645
1532484570.850,19.043,31.250,28.809,11.230,3.418
1532484570.854,16.602,27.344,28.320,14.160,131.836
1532484570.858,14.160,21.484,29.297,9.277,85.938
1532484570.862,13.184,27.344,27.344,2.930,-41.016
1532484570.866,12.207,30.273,22.461,10.254,-68.359
1532484570.870,14.648,29.785,23.926,18.066,82.520
1532484570.874,16.602,32.227,24.902,15.625,95.703
1532484570.878,16.602,36.621,24.902,3.906,-95.703
1532484570.882,19.531,38.574,22.461,12.695,-66.895
1532484570.885,22.461,33.203,25.391,25.879,86.914
1532484570.889,21.973,25.391,32.227,13.184,168.457
1532484570.893,16.602,27.344,33.691,6.348,69.824
1532484570.897,17.578,31.738,30.762,0.977,-68.848
1532484570.901,19.531,26.855,28.320,13.184,-12.207
1532484570.905,14.648,23.438,29.785,21.973,153.809
1532484570.909,12.695,26.855,30.273,17.578,145.508
1532484570.913,16.113,28.320,26.855,8.301,-1.465
1532484570.917,23.926,31.250,26.855,0.488,-47.852
1532484570.921,24.414,30.762,31.250,15.625,113.281
1532484570.925,16.602,23.438,33.691,19.043,132.812
1532484570.929,12.695,27.344,30.273,12.695,29.785
1532484570.932,19.531,29.297,28.809,11.230,-11.719
1532484570.936,25.391,25.879,29.297,14.160,-7.812
1532484570.940,20.996,22.461,31.250,18.555,88.867
1532484570.944,16.602,22.461,33.203,10.742,18.555
1532484570.948,19.531,31.738,34.180,3.418,-32.715
1532484570.952,26.367,27.344,37.109,11.719,67.871
1532484570.956,22.461,23.438,36.621,16.602,118.164
1532484570.960,15.137,27.832,32.715,8.301,15.137
1532484570.964,19.043,36.133,30.762,5.371,-130.371
1532484570.968,22.461,39.062,30.273,17.090,-37.598
1532484570.972,15.137,30.762,28.809,11.230,173.828
1532484570.975,15.137,26.367,31.250,-7.324,35.645
1532484570.979,20.508,35.645,31.250,5.371,-110.352
1532484570.983,24.414,34.668,29.785,21.484,-5.859
1532484570.987,23.438,26.855,30.762,20.020,135.742
1532484570.991,15.137,23.438,31.250,17.090,126.465
1532484570.995,11.719,28.320,29.785,10.254,-46.875
1532484570.999,20.020,31.738,29.297,17.090,-70.801
1532484571.003,23.438,29.297,32.715,19.043,91.797
1532484571.007,19.531,24.902,35.156,18.555,102.539
1532484571.011,17.090,28.809,36.133,12.207,13.184
1532484571.015,18.555,34.668,34.668,4.883,-105.957
1532484571.018,21.484,32.227,30.273,18.555,-70.801
1532484571.022,18.066,22.949,28.320,20.508,145.020
1532484571.026,15.625,23.926,30.762,9.277,79.590
1532484571.030,19.531,28.320,33.203,10.254,-29.785
1532484571.034,25.391,27.832,30.762,16.602,-13.672
1532484571.038,27.344,29.297,30.273,20.508,111.816
1532484571.042,22.949,25.879,33.691,20.020,103.516
1532484571.046,23.438,27.832,34.180,18.066,-30.273
1532484571.050,33.203,30.762,34.668,18.066,-5.371
1532484571.054,36.133,23.438,34.668,13.184,78.125
1532484571.058,32.227,20.996,37.109,11.230,53.223
1532484571.061,27.344,27.832,35.645,15.137,-56.641
1532484571.065,25.391,33.203,34.668,19.043,-76.172
1532484571.069,25.879,33.203,34.180,17.578,136.719
1532484571.073,20.508,20.508,33.691,6.348,108.887
1532484571.077,15.137,24.414,35.645,9.766,-93.262
1532484571.081,19.531,34.668,36.621,8.789,-57.617
1532484571.085,22.461,30.273,36.621,7.812,32.227
1532484571.089,14.648,25.391,34.180,10.254,182.617
1532484571.093,10.742,21.973,37.109,4.883,92.285
1532484571.097,10.254,30.762,39.551,4.883,-75.684
1532484571.101,16.602,30.762,37.109,8.789,-14.648
1532484571.105,20.508,18.066,35.156,15.625,62.500
1532484571.108,18.066,24.414,33.691,12.207,137.695
1532484571.112,15.137,29.785,31.738,-2.930,25.879
1532484571.116,24.414,31.738,30.273,-6.348,-151.367
1532484571.120,26.367,33.691,33.203,5.859,40.039
1532484571.124,12.207,24.414,31.738,16.602,140.137
1532484571.128,16.602,27.344,27.832,8.301,47.363
1532484571.132,24.414,30.273,31.738,3.906,-26.367
1532484571.136,24.902,28.809,36.621,16.113,2.441
1532484571.140,21.973,32.715,36.133,25.391,128.418
1532484571.144,20.020,37.109,36.133,11.719,70.801
1532484571.148,24.902,40.039,36.133,16.113,-36.621
1532484571.151,29.297,34.180,33.691,25.879,33.691
1532484571.155,30.762,31.738,34.180,18.555,56.641
1532484571.159,27.344,40.527,33.691,10.742,30.273
1532484571.163,25.391,41.992,33.691,8.789,-40.527
1532484571.167,34.180,41.016,33.691,20.508,-0.488
1532484571.171,37.598,29.785,34.668,24.414,137.695
1532484571.175,29.297,22.949,36.621,11.719,76.172
1532484571.179,22.949,29.785,35.645,4.395,-11.719
1532484571.183,27.344,28.809,33.691,11.719,-34.668
1532484571.187,28.809,26.367,33.691,17.578,109.375
1532484571.191,19.043,19.531,34.180,12.695,161.621
1532484571.194,12.207,18.066,31.250,2.441,-40.527
1532484571.198,18.555,19.531,32.715,1.465,-129.883
1532484571.202,24.414,20.020,31.250,7.812,-9.766
1532484571.206,19.043,21.484,28.320,10.254,118.652
1532484571.210,16.602,23.926,32.715,6.836,155.273
1532484571.214,17.578,27.344,34.668,-2.930,-70.801
1532484571.218,21.484,30.762,33.203,-0.488,-143.066
1532484571.222,21.973,28.320,34.180,17.090,115.234
1532484571.226,16.113,30.762,32.227,3.906,114.258
1532484571.230,14.648,41.016,31.250,-6.348,56.152
1532484571.234,22.949,34.180,31.738,12.207,38.574
1532484571.238,17.578,30.273,29.297,13.184,106.934
1532484571.241,6.348,28.809,30.762,3.906,144.531
1532484571.245,17.578,30.273,32.715,10.254,-52.246
1532484571.249,28.809,41.016,31.738,9.277,21.973
1532484571.253,29.297,32.715,33.203,7.812,102.539
1532484571.257,25.879,24.902,36.621,7.324,-29.785
1532484571.261,19.531,32.227,34.180,8.789,-17.578
1532484571.265,20.996,31.738,29.785,7.324,-56.641
1532484571.269,28.320,38.086,32.715,12.695,79.590
1532484571.273,26.367,31.738,33.203,20.020,189.453
1532484571.277,21.484,20.508,29.297,2.930,71.289
1532484571.281,22.461,30.762,29.297,-1.465,-35.645
1532484571.284,31.738,37.109,33.203,13.672,7.812
1532484571.288,33.691,32.715,34.668,12.207,166.504
1532484571.292,27.344,30.762,32.715,-0.977,102.539
1532484571.296,22.949,35.156,31.250,-4.395,-150.879
1532484571.300,23.438,40.039,30.273,0.488,-81.055
1532484571.304,26.367,30.762,31.250,6.348,140.625
1532484571.308,22.949,27.344,33.691,6.836,165.039
1532484571.312,18.555,34.668,38.086,3.906,0.488
1532484571.316,18.066,35.156,38.574,2.441,-85.449
1532484571.320,20.508,27.344,36.133,7.324,91.309
1532484571.324,17.578,23.438,37.598,11.230,170.898
1532484571.327,12.207,27.832,36.621,10.254,93.262
1532484571.331,10.742,29.297,31.738,11.719,-21.484
1532484571.335,15.625,29.785,32.227,16.113,0.488
1532484571.339,16.113,32.715,30.273,21.484,91.309
1532484571.343,10.742,35.156,25.391,2.441,27.344
1532484571.347,10.254,40.039,26.367,-5.371,-56.641
1532484571.351,12.695,41.504,27.832,7.812,48.340
1532484571.355,15.137,34.668,29.785,9.766,65.918
1532484571.359,10.742,25.391,29.297,-2.930,17.578
1532484571.363,4.883,29.297,27.344,-15.137,2.930
1532484571.367,9.277,39.062,27.344,0.488,20.508
1532484571.371,14.648,31.250,27.832,13.672,140.137
1532484571.374,11.230,26.367,28.809,14.160,111.328
1532484571.378,8.789,32.715,29.785,4.395,7.324
1532484571.382,14.160,34.668,31.250,2.441,-37.598
1532484571.386,20.020,36.133,32.715,11.230,22.461
1532484571.390,18.066,31.250,34.180,12.207,194.336
1532484571.394,16.113,24.414,35.156,5.859,29.785
1532484571.398,19.531,33.203,35.645,-5.371,-177.734
1532484571.402,21.973,32.715,32.227,0.977,13.672
1532484571.406,20.508,26.367,30.273,15.625,181.641
1532484571.410,15.625,24.902,33.691,7.812,155.762
1532484571.414,17.578,26.367,33.691,2.441,-47.852
1532484571.417,20.996,32.715,33.691,7.324,-23.926
1532484571.421,20.020,26.855,37.109,12.695,146.973
1532484571.425,17.090,26.367,36.133,8.789,132.812
1532484571.429,14.160,32.715,34.668,11.230,22.461
1532484571.433,16.113,22.461,37.109,12.695,-58.594
1532484571.437,18.066,20.996,36.621,9.277,-24.414
1532484571.441,16.602,23.926,31.738,3.418,117.676
1532484571.445,13.672,25.879,30.762,-1.465,63.477
1532484571.449,17.578,38.086,30.762,6.836,-1.465
1532484571.453,21.484,35.156,30.762,15.625,90.820
1532484571.457,20.020,28.809,30.273,18.555,154.297
1532484571.460,19.043,33.203,30.273,9.277,81.055
1532484571.464,19.043,35.645,28.320,8.789,-19.043
1532484571.468,23.926,33.203,28.320,17.090,41.504
1532484571.472,23.438,29.297,31.738,17.090,134.766
1532484571.476,20.508,28.809,33.691,15.137,70.312
1532484571.480,25.879,35.645,32.227,13.184,-59.570
1532484571.484,31.250,36.621,31.250,16.113,2.930
1532484571.488,27.832,31.250,33.203,23.926,178.223
1532484571.492,27.344,24.414,32.715,15.137,176.270
1532484571.496,26.855,27.344,30.762,8.789,-49.805
1532484571.500,29.297,38.086,30.762,13.184,-85.938
1532484571.504,33.203,36.133,30.762,16.602,140.137
1532484571.507,26.367,28.320,33.203,18.555,189.453
1532484571.511,23.926,30.762,35.156,17.578,20.508
1532484571.515,27.832,38.086,33.203,15.625,-83.496
1532484571.519,31.250,36.133,32.227,22.461,62.500
1532484571.523,28.320,31.738,33.691,24.902,177.246
1532484571.527,21.973,35.156,33.203,13.672,37.598
1532484571.531,22.461,32.715,32.227,6.348,-16.602
1532484571.535,27.832,30.273,34.668,14.648,-12.207
1532484571.539,26.367,33.203,34.668,23.926,44.922
1532484571.543,23.926,28.809,32.227,20.020,141.113
1532484571.547,21.973,25.391,31.250,16.602,28.809
1532484571.550,27.344,29.785,34.668,21.973,-35.645
1532484571.554,31.250,30.762,35.156,23.926,80.078
1532484571.558,23.926,30.762,32.227,17.578,160.645
1532484571.562,20.020,34.668,29.297,6.348,34.180
1532484571.566,23.926,36.621,31.250,6.836,-41.504
1532484571.570,28.809,36.621,31.250,11.719,122.070
1532484571.574,29.785,31.250,31.738,15.625,96.680
1532484571.578,24.902,37.598,28.809,8.789,-96.680
1532484571.582,20.996,45.898,25.391,1.465,-22.461
1532484571.586,22.461,36.621,28.320,12.207,96.680
1532484571.590,22.949,34.668,30.762,16.602,201.660
1532484571.593,18.066,33.691,29.785,4.883,111.328
1532484571.597,18.555,36.133,29.297,0.977,-66.895
1532484571.601,25.879,39.551,29.785,10.742,-3.906
1532484571.605,23.438,31.738,31.738,16.113,166.992
1532484571.609,20.508,29.297,34.180,11.230,121.582
1532484571.613,23.926,37.598,33.691,8.301,-48.340
1532484571.617,29.785,34.668,35.156,17.578,-79.102
1532484571.621,29.297,30.762,35.156,23.438,60.059
1532484571.625,24.414,28.809,33.203,13.184,147.461
1532484571.629,26.855,36.133,31.738,4.883,38.086
1532484571.633,31.738,36.621,29.785,6.836,-2.441
1532484571.636,29.297,28.320,28.809,14.160,14.160
1532484571.640,25.879,28.809,30.273,18.066,96.191
1532484571.644,22.461,29.785,31.250,8.789,69.336
1532484571.648,21.973,34.668,32.227,4.883,-42.969
1532484571.652,26.855,33.691,31.738,16.602,14.648
1532484571.656,23.438,30.273,30.273,27.344,122.070
1532484571.660,15.625,30.762,27.832,13.184,102.051
1532484571.664,12.695,30.762,28.320,5.859,-23.926
1532484571.668,17.578,31.250,30.273,19.531,-52.246
1532484571.672,13.184,25.391,29.297,11.230,111.816
1532484571.676,6.348,22.461,29.297,0.977,45.898
1532484571.680,7.324,32.715,31.250,5.859,-99.121
1532484571.683,13.672,35.156,33.203,4.395,8.301
1532484571.687,17.090,31.250,33.691,14.160,109.375
1532484571.691,14.160,25.391,34.668,17.090,103.516
1532484571.695,7.812,22.949,34.668,-7.324,-20.020
1532484571.699,13.672,32.715,34.668,-7.324,-44.922
1532484571.703,19.043,34.668,34.180,15.137,95.703
1532484571.707,18.066,31.250,34.180,20.020,184.082
1532484571.711,14.160,33.691,32.227,8.789,147.949
1532484571.715,13.184,33.203,33.203,-1.465,-86.914
1532484571.719,15.137,38.086,35.156,12.695,-87.402
1532484571.723,10.742,33.691,32.227,12.695,191.895
1532484571.726,6.836,27.344,33.691,4.395,112.305
1532484571.730,10.742,32.227,31.738,6.348,-31.738
1532484571.734,20.508,31.738,30.273,1.953,-3.418
1532484571.738,24.902,30.273,35.156,8.301,112.305
1532484571.742,24.414,30.273,39.551,14.648,173.828
1532484571.746,19.043,33.691,38.574,-2.441,23.438
1532484571.750,22.949,41.016,36.621,6.836,-26.855
1532484571.754,29.297,39.062,36.621,25.391,105.957
1532484571.758,27.344,30.762,36.621,18.066,133.301
1532484571.762,22.949,34.180,34.180,9.766,30.273
1532484571.766,25.391,36.621,33.691,4.883,-67.383
1532484571.769,32.715,37.598,35.645,20.020,86.914
1532484571.773,30.762,28.320,36.621,21.973,190.430
1532484571.777,23.438,18.066,35.156,4.395,-33.203
1532484571.781,21.484,24.414,35.645,9.277,-76.172
1532484571.785,21.973,27.832,34.668,13.184,1.953
1532484571.789,22.949,30.273,33.691,15.137,87.402
1532484571.793,19.531,34.668,35.156,13.184,87.891
1532484571.797,11.230,34.668,33.203,6.836,-61.523
1532484571.801,12.695,35.645,33.691,12.207,5.859
1532484571.805,16.602,27.344,38.086,15.137,131.836
1532484571.809,14.160,26.367,37.598,6.348,71.777
1532484571.813,9.766,32.227,35.156,0.000,4.883
1532484571.816,14.160,33.203,34.180,1.953,-105.469
1532484571.820,19.043,34.180,34.180,8.789,-0.488
1532484571.824,15.625,31.738,34.668,12.695,146.484
1532484571.828,12.207,38.574,34.668,19.043,58.594
1532484571.832,16.602,38.086,32.715,14.648,-58.105
1532484571.836,22.461,34.668,35.645,6.348,-6.836
1532484571.840,20.508,35.156,37.598,4.395,157.227
1532484571.844,18.555,29.785,36.133,2.441,97.656
1532484571.848,22.949,31.250,36.133,8.301,-96.191
1532484571.852,22.461,38.086,36.133,14.648,-9.277
1532484571.856,14.648,34.668,33.691,8.789,67.383
1532484571.859,7.324,34.668,35.156,5.859,44.922
1532484571.863,5.859,37.598,34.180,12.207,-10.742
1532484571.867,12.207,42.969,30.762,8.789,-38.574
1532484571.871,11.719,30.762,32.227,7.324,122.559
1532484571.875,6.348,20.508,33.203,0.000,120.605
1532484571.879,9.277,32.227,33.203,-7.812,29.785
1532484571.883,16.602,34.668,33.691,5.859,-25.391
1532484571.887,18.066,30.762,34.668,20.020,58.594
1532484571.891,16.113,26.367,31.738,16.602,186.035
1532484571.895,14.160,31.738,29.785,5.371,64.453
1532484571.899,12.207,35.156,32.227,7.324,-75.684
1532484571.902,15.137,30.762,32.715,10.254,-14.648
1532484571.906,13.672,27.344,30.762,9.766,54.688
1532484571.910,5.371,27.344,30.273,-4.395,85.449
1532484571.914,5.859,23.926,30.762,-11.230,-51.758
1532484571.918,11.719,27.832,32.227,8.789,-136.230
1532484571.922,10.742,33.203,32.715,13.672,104.004
1532484571.926,7.812,24.414,33.203,5.859,120.605
1532484571.930,2.930,27.832,30.273,-3.418,19.043
1532484571.934,5.371,36.133,29.297,1.953,-29.785
1532484571.938,13.672,38.086,34.180,20.508,50.293
1532484571.942,11.230,34.668,33.691,13.184,148.438
1532484571.946,5.859,35.645,30.762,-0.977,-5.371
1532484571.949,10.742,41.992,30.273,6.348,-75.195
1532484571.953,19.043,34.668,31.738,14.160,38.086
1532484571.957,15.625,26.855,32.715,12.695,39.062
1532484571.961,11.719,34.668,34.180,14.648,18.555
1532484571.965,18.066,36.133,34.180,18.555,-77.148
1532484571.969,24.414,35.156,32.715,26.855,-24.414
1532484571.973,21.484,31.250,35.645,22.949,123.535
1532484571.977,14.160,31.250,32.715,15.625,68.848
1532484571.981,13.672,36.621,31.250,20.996,-15.625
1532484571.985,20.996,40.527,32.715,24.902,-10.254
1532484571.989,22.461,36.621,29.785,28.809,123.047
1532484571.992,17.578,26.367,31.250,18.066,97.656
1532484571.996,13.672,30.273,32.715,4.883,-79.590
1532484572.000,15.137,38.574,31.738,4.883,-59.082
1532484572.004,21.484,35.645,31.250,8.789,80.566
1532484572.008,24.902,31.250,32.227,5.371,124.023
1532484572.012,20.020,27.832,29.297,0.000,61.035
1532484572.016,21.484,26.855,25.879,4.395,-73.242
1532484572.020,27.832,40.527,29.297,12.695,17.578
1532484572.024,22.949,37.598,33.203,10.742,139.160
1532484572.028,14.648,31.250,30.273,-3.418,35.156
1532484572.032,13.672,34.668,28.809,-3.418,-79.102
1532484572.035,17.090,36.621,29.297,15.625,-15.625
1532484572.039,19.531,33.691,28.809,19.531,171.387
1532484572.043,18.066,27.344,31.250,5.371,68.848
1532484572.047,14.160,37.598,27.344,0.000,-72.754
1532484572.051,12.695,41.992,23.438,0.977,50.293
1532484572.055,16.602,32.715,24.902,3.418,93.262
1532484572.059,17.090,32.227,26.367,1.465,52.246
1532484572.063,16.113,36.133,24.902,-3.418,6.836
1532484572.067,19.043,38.086,22.949,-1.953,-88.379
1532484572.071,18.555,35.156,23.438,1.465,99.609
1532484572.075,13.184,29.297,25.879,4.883,158.203
1532484572.079,7.324,32.227,26.855,4.883,37.598
1532484572.082,10.742,32.227,27.832,11.719,-60.547
1532484572.086,15.137,27.832,28.809,22.461,-15.625
1532484572.090,9.277,25.391,28.809,19.531,140.137
1532484572.094,5.859,22.949,29.297,12.695,65.430
1532484572.098,11.230,26.367,31.250,10.742,-131.348
1532484572.102,15.625,31.738,32.227,19.043,-43.457
1532484572.106,12.695,25.879,32.227,23.926,134.766
1532484572.110,9.277,25.879,31.738,5.859,151.367
1532484572.114,12.695,31.738,33.691,-5.859,0.977
1532484572.118,20.020,32.715,37.109,5.859,-37.109
1532484572.122,25.879,31.250,38.086,16.113,117.188
1532484572.125,20.996,26.855,36.133,11.719,131.836
1532484572.129,16.113,32.227,32.715,11.230,15.137
1532484572.133,25.879,38.086,31.738,19.043,-57.617
1532484572.137,32.715,36.621,32.715,26.367,21.484
1532484572.141,26.367,30.762,33.203,20.996,76.172
1532484572.145,20.996,29.297,31.738,9.766,-8.789
1532484572.149,25.391,36.621,32.715,14.648,-61.523
1532484572.153,30.273,32.715,33.203,20.996,34.180
1532484572.157,26.855,26.855,30.273,16.113,84.473
1532484572.161,19.043,31.738,30.762,20.996,15.625
1532484572.165,20.508,33.691,32.227,17.578,-41.504
1532484572.168,26.855,42.969,33.203,16.602,29.785
1532484572.172,23.926,37.598,33.691,25.879,139.648
1532484572.176,16.602,27.344,31.250,13.672,115.234
1532484572.180,12.695,35.645,29.297,3.418,-23.926
1532484572.184,13.672,36.621,30.762,6.348,-96.680
1532484572.188,14.160,31.250,31.738,9.277,60.059
1532484572.192,10.254,29.297,28.809,2.441,202.148
1532484572.196,11.230,34.180,27.344,-14.160,1.465
1532484572.200,20.020,41.016,24.902,-0.488,-178.223
1532484572.204,20.996,38.086,23.926,12.207,6.348
1532484572.208,15.625,31.738,22.949,-3.906,153.809
1532484572.212,14.160,32.227,21.973,-7.812,91.309
1532484572.215,17.090,36.621,20.996,-10.254,-36.133
1532484572.219,20.508,35.645,22.461,-9.277,21.973
1532484572.223,20.508,30.273,25.879,2.930,164.062
1532484572.227,17.578,31.250,25.391,4.883,100.098
1532484572.231,16.113,40.039,23.926,8.789,-14.160
1532484572.235,23.438,40.039,26.367,15.625,-38.574
1532484572.239,28.320,30.762,28.809,17.090,21.973
1532484572.243,25.391,27.832,28.320,11.719,115.234
1532484572.247,21.973,32.227,27.832,10.254,-2.930
1532484572.251,26.855,39.062,28.320,10.254,-26.855
1532484572.255,28.809,34.668,32.227,17.090,91.797
1532484572.258,21.973,25.391,33.691,18.066,144.531
1532484572.262,21.973,27.832,30.762,9.277,0.000
1532484572.266,28.809,40.527,28.320,8.789,-103.516
1532484572.270,31.250,38.574,27.832,15.625,73.730
1532484572.274,30.273,28.809,29.297,19.531,180.176
1532484572.278,26.855,28.809,31.738,15.625,19.531
1532484572.282,29.297,37.109,28.320,11.230,-88.867
1532484572.286,38.574,38.574,25.879,9.277,-20.508
1532484572.290,33.691,36.133,29.785,21.484,142.578
1532484572.294,24.902,34.180,32.715,15.137,154.297
1532484572.298,24.414,31.250,33.203,7.812,-93.750
1532484572.301,31.738,37.109,32.715,20.020,-80.078
1532484572.305,34.668,34.180,30.273,24.902,89.844
1532484572.309,26.367,30.273,33.203,21.973,125.488
1532484572.313,23.926,32.715,38.574,22.949,19.531
1532484572.317,32.715,30.273,39.062,34.180,-45.898
1532484572.321,35.645,28.809,36.133,34.180,27.832
1532484572.325,30.273,30.273,36.133,30.273,53.711
1532484572.329,25.879,33.691,34.668,25.879,1.465
1532484572.333,31.250,37.598,32.715,23.926,-8.789
1532484572.337,40.527,37.598,35.645,26.855,-45.898
1532484572.341,40.039,41.016,39.551,23.926,53.711
1532484572.344,33.691,33.691,36.621,20.020,81.543
1532484572.348,34.180,35.645,36.133,24.414,-44.922
1532484572.352,38.086,39.062,38.086,31.738,-18.066
1532484572.356,36.621,34.180,40.527,22.949,78.613
1532484572.360,31.738,31.738,41.016,11.230,103.516
1532484572.364,27.344,31.738,34.668,13.184,20.508
1532484572.368,28.809,30.762,32.227,14.160,-40.039
1532484572.372,29.785,27.832,37.109,15.625,91.797
1532484572.376,29.785,23.926,40.039,12.207,102.051
1532484572.380,28.809,32.227,39.062,12.695,-110.840
1532484572.384,33.203,39.551,38.086,20.508,-68.359
1532484572.388,36.133,32.227,34.668,23.926,69.336
1532484572.391,29.297,23.438,31.738,11.230,187.012
1532484572.395,26.367,24.414,37.109,6.836,86.914
1532484572.399,25.879,32.227,37.598,15.137,-66.406
1532484572.403,30.273,36.621,34.668,21.484,15.137
1532484572.407,30.762,31.250,36.133,25.879,105.469
1532484572.411,22.949,29.297,33.203,7.812,123.535
1532484572.415,23.438,31.738,32.715,3.418,-11.719
1532484572.419,28.320,33.691,33.203,29.297,-100.586
1532484572.423,25.879,31.250,30.762,31.738,72.266
1532484572.427,19.531,24.414,34.180,24.902,92.285
1532484572.431,15.137,32.227,35.645,11.719,10.254
1532484572.434,15.625,33.203,32.715,1.465,-2.441
1532484572.438,21.973,25.391,34.180,16.113,-8.789
1532484572.442,30.762,21.973,36.621,26.855,76.172
1532484572.446,25.391,28.809,35.645,14.160,31.250
1532484572.450,17.090,37.598,28.320,-6.348,-15.625
1532484572.454,26.367,37.598,22.461,5.371,74.219
1532484572.458,30.762,32.715,24.902,16.602,144.043
1532484572.462,20.020,30.762,26.367,5.371,49.316
1532484572.466,13.184,33.691,26.367,2.930,-114.258
1532484572.470,17.578,37.598,27.832,9.766,-8.301
1532484572.474,20.996,30.762,30.762,16.602,196.777
1532484572.477,17.578,23.926,32.227,12.207,20.508
1532484572.481,17.090,33.203,32.715,6.348,-123.047
1532484572.485,24.902,30.762,32.715,13.672,-17.578
1532484572.489,24.414,32.715,30.273,18.066,114.258
1532484572.493,19.531,36.621,28.809,5.371,149.902
1532484572.497,17.090,36.621,28.809,0.000,-33.203
1532484572.501,15.625,41.016,27.832,10.254,-92.773
1532484572.505,20.508,39.551,27.344,19.531,98.145
1532484572.509,21.484,33.691,30.273,14.160,124.023
1532484572.513,20.020,35.156,31.738,2.441,61.523
1532484572.517,24.902,35.156,33.691,4.883,-88.379
1532484572.521,25.391,37.109,34.180,6.836,-86.914
1532484572.524,22.461,32.715,33.691,8.789,146.484
1532484572.528,22.461,27.832,30.273,9.277,95.215
1532484572.532,18.066,29.297,26.855,1.953,-22.949
1532484572.536,18.066,30.273,25.391,8.789,-19.043
1532484572.540,18.555,34.180,25.879,18.066,113.281
1532484572.544,11.719,29.297,26.855,9.766,106.934
1532484572.548,11.230,26.855,25.391,3.418,-25.391
1532484572.552,20.508,31.250,28.809,6.348,18.066
1532484572.556,21.973,27.832,30.762,7.324,99.121
1532484572.560,17.578,29.297,30.762,14.648,46.875
1532484572.564,20.020,39.551,31.738,8.301,-64.453
1532484572.567,26.855,39.551,31.250,9.277,-67.383
1532484572.571,31.738,37.598,30.762,28.809,144.043
1532484572.575,32.227,37.109,31.250,28.809,169.434
1532484572.579,29.785,34.668,30.273,20.020,-15.625
1532484572.583,31.738,39.551,29.297,17.578,-60.547
1532484572.587,35.645,39.062,32.715,21.484,15.625
1532484572.591,34.180,39.551,34.668,26.367,218.262
1532484572.595,36.621,34.180,33.203,16.602,82.031
1532484572.599,39.551,40.527,31.738,18.555,-187.500
1532484572.603,44.922,47.363,31.250,29.297,-48.828
1532484572.607,44.434,32.227,31.250,29.785,44.922
1532484572.610,37.109,34.180,33.691,26.855,104.492
1532484572.614,31.738,39.551,31.738,14.648,0.977
1532484572.618,28.809,38.574,28.809,8.789,-160.645
1532484572.622,27.344,42.480,29.785,16.602,54.199
1532484572.626,25.391,34.668,29.297,10.742,169.434
1532484572.630,20.996,35.156,29.297,7.812,71.777
1532484572.634,22.949,42.480,30.762,8.301,-30.273
1532484572.638,25.879,35.156,29.297,10.254,33.691
1532484572.642,22.949,24.902,29.785,16.113,166.504
1532484572.646,18.066,29.297,33.203,14.160,68.848
1532484572.650,17.090,43.457,32.715,1.465,-15.625
1532484572.654,21.484,41.016,34.668,-5.859,24.902
1532484572.657,17.578,28.809,36.621,13.672,21.973
1532484572.661,8.301,33.691,34.180,7.812,6.836
1532484572.665,3.418,39.062,31.250,-11.230,-42.480
1532484572.669,7.812,36.621,30.762,-7.812,-2.930
1532484572.673,12.695,27.832,31.738,-3.418,127.441
1532484572.677,3.418,24.414,31.250,-12.695,61.035
1532484572.681,0.488,28.809,29.297,-8.789,-34.180
1532484572.685,12.695,30.762,27.832,2.930,-40.527
1532484572.689,16.113,30.273,30.273,10.254,93.750
1532484572.693,14.648,24.902,31.738,2.930,164.062
1532484572.697,12.207,27.832,33.203,-6.348,-23.438
1532484572.700,11.719,35.645,32.227,-1.465,-104.492
1532484572.704,13.184,33.691,28.809,0.000,13.672
1532484572.708,9.277,23.926,28.809,-4.395,134.277
1532484572.712,2.441,19.043,27.832,-10.742,132.324
1532484572.716,7.324,25.391,26.855,-4.395,-82.031
1532484572.720,18.066,28.320,28.809,5.371,-79.102
1532484572.724,19.531,25.879,32.715,10.254,131.348
1532484572.728,14.648,30.762,32.227,6.836,118.652
1532484572.732,14.648,38.574,30.762,5.859,45.898
1532484572.736,21.484,37.598,32.715,4.883,-73.730
1532484572.740,24.902,36.133,31.250,7.324,11.719
1532484572.743,18.066,34.180,30.273,10.742,113.770
1532484572.747,17.578,37.598,32.227,6.836,-39.551
1532484572.751,26.855,38.086,34.180,6.348,-0.488
1532484572.755,31.738,26.367,37.109,17.578,65.918
1532484572.759,23.926,20.020,37.109,14.648,17.578
1532484572.763,15.137,24.414,37.598,10.254,14.160
1532484572.767,14.648,23.438,34.180,12.207,-34.180
1532484572.771,20.996,22.949,28.320,16.113,80.566
1532484572.775,20.020,18.555,29.297,15.625,155.762
1532484572.779,12.695,21.484,33.203,11.230,61.523
1532484572.783,13.184,26.367,33.691,8.301,-41.016
1532484572.787,20.996,22.949,32.715,6.836,0.488
1532484572.790,22.461,20.020,35.645,12.695,157.715
1532484572.794,16.602,21.484,35.156,10.742,104.492
1532484572.798,17.578,38.574,35.156,10.254,-87.402
1532484572.802,24.414,43.457,34.668,10.742,-55.664
1532484572.806,27.832,29.297,32.227,16.602,132.324
1532484572.810,24.902,26.855,31.250,18.066,167.480
1532484572.814,23.438,30.273,31.250,6.836,-9.277
1532484572.818,24.414,32.715,30.273,0.488,-88.379
1532484572.822,23.438,29.785,29.297,1.953,55.664
1532484572.826,20.996,29.297,32.227,4.883,139.160
1532484572.830,20.020,27.344,33.691,1.465,57.129
1532484572.833,19.531,29.785,31.738,0.977,-99.609
1532484572.837,21.484,37.109,29.785,8.789,-76.660
1532484572.841,20.996,35.156,30.273,8.301,40.527
1532484572.845,16.113,32.715,29.785,1.465,27.344
1532484572.849,15.625,41.504,28.320,-3.906,-38.574
1532484572.853,18.555,37.109,28.809,-4.395,30.762
1532484572.857,20.996,26.855,28.809,5.371,41.504
1532484572.861,16.113,29.785,26.367,-3.906,-6.836
1532484572.865,13.184,29.785,27.832,-14.648,-31.250
1532484572.869,16.602,34.180,30.273,6.836,-7.324
1532484572.873,17.090,33.691,33.203,19.043,131.348
1532484572.876,11.230,28.809,35.156,16.602,121.582
1532484572.880,8.789,37.109,33.691,12.695,27.832
1532484572.884,20.020,42.969,32.715,12.207,-68.359
1532484572.888,27.344,38.574,32.715,10.742,-6.836
1532484572.892,20.020,35.156,36.621,1.465,190.430
1532484572.896,13.184,30.762,40.039,-0.977,23.438
1532484572.900,16.113,32.227,39.062,-0.488,-178.711
1532484572.904,20.508,34.180,35.645,7.324,-13.672
1532484572.908,17.578,30.273,35.156,18.555,127.441
1532484572.912,10.742,34.668,37.598,8.789,100.098
1532484572.916,11.230,41.992,37.109,4.395,-61.035
1532484572.919,19.043,38.086,33.203,18.066,-57.129
1532484572.923,20.020,36.621,33.203,20.508,110.840
1532484572.927,8.301,35.156,35.156,12.695,150.879
1532484572.931,10.742,30.273,35.645,4.883,13.672
1532484572.935,24.414,29.785,33.691,14.648,-99.121
1532484572.939,26.367,28.809,31.250,24.902,-47.852
1532484572.943,20.020,30.762,33.691,21.484,87.402
1532484572.947,16.113,34.180,35.156,13.672,60.547
1532484572.951,18.555,40.527,31.250,7.324,-25.391
1532484572.955,18.066,39.062,30.273,18.066,2.441
1532484572.959,17.578,35.156,33.691,15.625,88.379
1532484572.963,16.602,34.180,35.156,1.953,51.758
1532484572.966,17.578,32.227,34.668,2.441,-34.180
1532484572.970,23.438,37.598,33.691,7.324,-31.738
1532484572.974,25.879,35.645,35.645,20.996,47.363
1532484572.978,23.438,24.902,37.109,14.160,55.664
1532484572.982,22.461,26.367,34.180,10.742,-76.660
1532484572.986,28.809,32.227,33.691,23.438,-63.477
1532484572.990,29.785,30.762,33.203,27.832,99.121
1532484572.994,21.973,23.438,28.320,22.949,155.273
1532484572.998,18.066,26.367,25.879,9.277,-32.715
1532484573.002,23.438,31.738,28.320,10.742,-125.000
1532484573.006,30.273,32.715,33.203,24.902,75.195
1532484573.009,27.832,21.973,31.250,28.320,175.293
1532484573.013,25.391,17.090,28.809,18.066,23.926
1532484573.017,32.227,27.832,26.367,18.066,-134.766
1532484573.021,36.621,35.156,26.855,25.879,11.230
1532484573.025,34.668,34.668,30.762,29.297,172.363
1532484573.029,35.156,30.762,30.273,25.391,41.992
1532484573.033,36.621,38.086,26.855,11.719,-57.617
1532484573.037,39.062,38.574,26.367,17.578,-80.078
1532484573.041,39.551,33.691,30.273,35.156,0.977
1532484573.045,34.668,30.762,32.715,22.461,109.375
1532484573.049,33.203,35.645,33.691,12.207,-4.883
1532484573.052,34.668,38.086,33.691,18.555,-15.625
1532484573.056,34.180,30.273,36.133,22.461,76.172
1532484573.060,29.785,29.785,39.551,27.344,125.000
1532484573.064,24.902,32.715,38.086,27.344,43.457
1532484573.068,28.320,33.691,35.645,25.879,-41.992
1532484573.072,30.762,32.715,35.645,24.414,80.566
1532484573.076,27.344,25.391,34.180,17.090,61.523
1532484573.080,22.949,32.227,31.738,8.789,-97.168
1532484573.084,24.902,46.387,33.203,10.254,-37.598
1532484573.088,34.180,37.598,35.156,16.113,27.832
1532484573.092,30.273,38.574,33.691,18.555,103.027
1532484573.096,20.508,41.016,31.738,3.906,87.891
1532484573.099,21.973,36.621,30.762,-5.371,-49.805
1532484573.103,27.832,40.039,30.273,6.348,-13.672
1532484573.107,28.809,35.156,31.250,13.184,121.094
1532484573.111,24.414,33.203,35.645,15.137,130.371
1532484573.115,20.508,42.480,35.156,6.836,-0.977
1532484573.119,26.367,46.875,34.668,3.418,-76.172
1532484573.123,35.156,43.945,37.598,14.160,40.527
1532484573.127,30.762,38.086,37.598,9.277,103.027
1532484573.131,22.461,38.574,34.180,1.953,35.156
1532484573.135,25.391,37.109,33.691,1.953,-17.090
1532484573.139,32.715,30.762,31.738,2.930,-52.246
1532484573.142,28.809,29.785,27.832,14.648,66.406
1532484573.146,24.902,28.809,28.320,16.602,74.219
1532484573.150,23.926,33.203,30.273,9.766,-68.848
1532484573.154,28.809,39.551,31.250,22.949,-37.109
1532484573.158,32.715,34.668,32.227,26.367,104.980
1532484573.162,24.414,29.785,30.273,11.719,110.352
1532484573.166,26.367,33.691,28.320,18.555,-43.457
1532484573.170,32.227,38.086,26.855,20.996,-114.746
1532484573.174,30.762,37.598,27.832,16.113,103.027
1532484573.178,25.879,23.438,30.273,9.766,68.848
1532484573.182,19.531,26.367,28.320,10.742,-92.773
1532484573.185,22.461,36.621,25.391,16.113,-34.668
1532484573.189,26.855,35.645,25.879,21.484,105.957
1532484573.193,24.414,30.762,26.855,22.461,147.461
1532484573.197,24.414,36.133,26.855,8.301,3.418
1532484573.201,29.785,49.316,26.367,7.812,-11.719
1532484573.205,34.180,41.992,29.297,17.090,83.984
1532484573.209,29.785,29.785,31.250,19.531,120.605
1532484573.213,22.949,36.621,28.320,7.324,107.910
1532484573.217,27.344,40.039,32.227,1.953,-96.680
1532484573.221,33.691,42.969,33.691,11.230,-120.117
1532484573.225,28.320,36.133,32.227,25.879,148.438
1532484573.229,26.367,32.715,33.203,17.090,119.629
1532484573.232,28.809,38.574,32.715,9.766,17.090
1532484573.236,34.180,38.574,33.691,21.484,-19.531
1532484573.240,36.621,37.109,34.668,24.902,100.098
1532484573.244,29.297,29.785,32.715,12.695,171.875
1532484573.248,23.926,28.809,32.227,2.441,22.461
1532484573.252,24.414,28.809,31.250,8.789,-28.809
1532484573.256,24.414,31.250,29.297,18.066,69.824
1532484573.260,19.531,25.391,28.809,8.789,102.051
1532484573.264,14.648,27.832,29.785,2.930,27.344
1532484573.268,21.484,37.109,31.250,11.230,-90.820
1532484573.272,24.902,35.645,30.762,11.230,12.695
1532484573.275,18.066,28.320,29.297,8.301,142.090
1532484573.279,11.230,27.344,28.320,1.953,-33.203
1532484573.283,10.254,40.039,28.320,2.930,-39.551
1532484573.287,14.160,35.156,26.367,11.719,36.621
1532484573.291,15.625,29.785,26.367,15.137,127.441
1532484573.295,14.160,29.297,31.250,1.465,114.258
1532484573.299,7.324,31.738,31.738,1.953,-24.414
1532484573.303,11.230,34.668,28.809,9.766,9.277
1532484573.307,18.555,30.273,29.297,6.348,100.098
1532484573.311,10.254,24.902,28.809,4.883,96.680
1532484573.315,8.789,29.785,28.320,0.000,-56.152
1532484573.318,15.137,39.062,29.785,2.441,-130.859
1532484573.322,20.020,38.574,28.809,8.301,83.008
1532484573.326,20.508,36.621,31.250,12.207,164.551
1532484573.330,17.090,35.156,31.250,15.137,-0.977
1532484573.334,18.555,31.738,29.785,11.719,-70.312
1532484573.338,23.438,32.227,31.738,9.277,-61.523
1532484573.342,21.484,34.180,33.691,18.066,65.918
1532484573.346,17.090,32.227,34.180,15.137,114.746
1532484573.350,17.090,35.645,33.203,11.230,-28.809
1532484573.354,19.531,37.598,33.691,11.230,0.488
1532484573.358,20.020,32.715,34.668,14.648,54.199
1532484573.362,13.672,32.715,31.250,12.695,93.262
1532484573.365,15.137,35.645,27.344,-2.441,26.367
1532484573.369,20.996,40.527,32.227,9.766,-55.664
1532484573.373,15.625,33.691,34.180,23.926,110.352
1532484573.377,9.766,24.414,33.691,9.766,157.227
1532484573.381,8.789,35.156,33.691,-0.488,62.988
1532484573.385,14.160,40.039,32.227,6.348,-17.090
1532484573.389,19.531,37.109,35.645,14.648,7.812
1532484573.393,16.602,30.762,36.133,9.277,140.625
1532484573.397,11.230,27.832,35.156,0.000,79.102
1532484573.401,14.648,39.062,35.645,3.418,-41.016
1532484573.405,21.973,46.387,31.738,3.418,6.836
1532484573.408,21.973,31.738,29.785,9.766,106.934
1532484573.412,16.602,22.461,33.203,20.996,169.922
1532484573.416,16.602,30.273,32.715,11.719,6.836
1532484573.420,20.020,34.668,27.832,15.137,-91.309
1532484573.424,21.484,33.691,30.273,25.391,134.766
1532484573.428,20.508,29.785,34.668,18.066,161.621
1532484573.432,17.578,33.691,34.180,10.742,49.805
1532484573.436,23.926,33.203,33.691,3.418,-12.695
1532484573.440,29.785,29.297,32.227,12.695,86.426
1532484573.444,25.879,23.438,32.715,27.832,165.039
1532484573.448,20.996,25.391,32.715,18.555,9.766
1532484573.451,19.531,34.180,29.785,18.555,-88.379
1532484573.455,22.461,31.738,31.250,17.090,1.953
1532484573.459,22.461,33.203,35.156,14.648,76.172
1532484573.463,20.508,36.621,34.668,21.484,57.617
1532484573.467,24.902,30.762,32.227,11.719,-31.738
1532484573.471,30.762,36.621,31.250,11.719,18.555
1532484573.475,31.738,33.691,32.715,23.438,145.020
1532484573.479,27.832,25.391,32.715,21.484,101.562
1532484573.483,27.832,31.738,33.203,23.438,-18.555
1532484573.487,35.156,40.527,34.668,29.785,-41.016
1532484573.491,36.621,42.969,36.133,31.738,104.004
1532484573.494,25.391,32.715,37.598,28.809,152.344
1532484573.498,20.020,34.180,39.062,16.113,-72.754
1532484573.502,20.996,44.922,38.574,19.531,-125.000
1532484573.506,20.508,42.969,36.621,29.785,38.086
1532484573.510,16.113,37.598,36.621,29.297,140.625
1532484573.514,9.766,35.156,36.133,21.484,53.223
1532484573.518,15.625,40.039,33.691,4.883,-77.637
1532484573.522,20.508,41.504,33.203,10.254,37.598
1532484573.526,13.672,38.574,35.645,21.484,135.742
1532484573.530,7.812,38.574,34.668,9.766,86.914
1532484573.534,7.324,34.668,31.738,4.883,-43.457
1532484573.538,14.648,38.574,31.738,10.254,-57.129
1532484573.541,18.066,37.109,33.203,11.230,93.750
1532484573.545,9.766,25.879,31.738,-0.488,81.543
1532484573.549,6.348,33.691,30.762,-7.812,-63.477
1532484573.553,10.254,41.504,29.297,0.000,11.230
1532484573.557,12.207,27.832,31.738,7.812,73.242
1532484573.561,13.672,20.020,35.156,7.812,6.836
1532484573.565,9.277,31.250,33.203,11.719,-36.621
1532484573.569,8.789,36.621,31.738,8.301,-71.289
1532484573.573,17.578,35.645,34.668,10.742,92.285
1532484573.577,19.043,27.832,35.156,13.672,160.156
1532484573.581,17.090,25.879,35.156,1.465,37.598
1532484573.584,21.484,31.738,36.133,6.836,-51.270
1532484573.588,27.344,36.133,31.738,19.531,-17.090
1532484573.592,22.461,34.668,30.273,21.484,109.375
1532484573.596,13.184,28.809,32.227,17.090,94.727
1532484573.600,12.695,30.762,31.250,5.859,-131.348
1532484573.604,21.484,40.039,30.273,15.137,-69.336
1532484573.608,25.879,36.133,31.738,20.508,127.930
1532484573.612,19.531,28.320,33.203,10.254,155.273
1532484573.616,17.578,31.738,33.691,8.789,54.688
1532484573.620,26.367,38.086,32.227,12.695,4.883
1532484573.624,28.809,32.715,31.738,22.949,75.195
1532484573.627,20.020,19.531,32.227,19.531,106.445
1532484573.631,18.066,25.391,30.762,4.395,43.945
1532484573.635,24.902,36.621,28.809,10.742,-27.344
1532484573.639,29.785,38.086,28.320,22.949,23.438
1532484573.643,27.344,36.621,29.785,19.043,126.465
1532484573.647,22.461,35.156,31.738,9.277,74.219
1532484573.651,24.414,38.086,32.227,3.418,-23.926
1532484573.655,31.738,34.668,34.668,18.555,64.453
1532484573.659,28.809,26.855,32.227,21.484,90.332
1532484573.663,16.113,27.344,28.809,6.836,32.715
1532484573.667,15.137,32.715,27.832,7.324,-22.949
1532484573.671,23.926,36.133,24.902,11.719,-29.785
1532484573.674,23.438,27.344,24.414,8.301,76.172
1532484573.678,17.090,22.461,23.438,2.441,99.609
1532484573.682,12.695,33.691,24.414,3.906,-18.555
1532484573.686,16.602,36.133,28.809,16.602,-113.770
1532484573.690,17.578,29.785,28.809,20.996,0.000
1532484573.694,10.254,31.250,32.227,8.301,166.016
1532484573.698,8.789,31.250,33.691,-3.906,12.207
1532484573.702,15.137,33.203,31.738,-1.465,-135.254
1532484573.706,19.043,30.273,34.180,3.906,35.156
1532484573.710,19.043,30.273,34.668,13.672,147.461
1532484573.714,19.531,31.738,32.715,7.324,97.168
1532484573.717,22.949,33.203,28.809,-0.488,-32.227
1532484573.721,25.879,32.227,27.832,15.137,-26.855
1532484573.725,24.902,23.926,29.785,16.113,123.535
1532484573.729,18.555,19.043,30.273,3.906,83.496
1532484573.733,14.160,30.762,28.809,-5.859,-23.926
1532484573.737,19.531,31.738,27.344,-4.395,-40.527
1532484573.741,25.391,24.414,28.320,8.789,-43.457
1532484573.745,20.020,26.855,28.809,10.254,70.312
1532484573.749,20.020,25.391,27.344,9.277,18.555
1532484573.753,31.250,24.902,28.320,5.859,-13.672
1532484573.757,35.156,25.879,28.809,16.113,98.145
1532484573.760,32.715,27.344,30.762,33.691,153.809
1532484573.764,24.414,28.809,35.645,25.391,66.895
1532484573.768,27.832,33.691,35.645,19.531,-51.758
1532484573.772,36.133,38.574,30.273,29.297,82.520
1532484573.776,31.250,30.273,29.785,32.715,192.383
1532484573.780,22.461,24.414,32.227,15.625,28.809
1532484573.784,21.484,32.715,31.250,12.695,-60.059
1532484573.788,28.320,34.668,30.762,24.414,14.160
1532484573.792,29.297,29.785,29.785,26.855,166.992
1532484573.796,22.461,23.926,28.320,19.043,209.473
1532484573.800,18.066,24.902,30.273,11.230,-62.988
1532484573.804,19.531,35.645,31.250,18.066,-128.906
1532484573.807,22.949,35.156,31.738,24.414,94.238
1532484573.811,18.555,32.715,31.738,16.113,154.785
1532484573.815,12.207,33.203,30.762,0.488,31.250
1532484573.819,20.020,36.133,30.273,4.883,-69.336
1532484573.823,28.320,34.668,28.809,13.184,32.715
1532484573.827,21.973,26.367,30.273,3.418,70.312
1532484573.831,18.066,31.738,30.762,0.000,34.668
1532484573.835,21.973,33.691,28.320,2.441,41.992
1532484573.839,28.320,32.715,28.809,13.184,-1.465
1532484573.843,28.809,34.180,31.250,22.949,59.570
1532484573.847,23.926,33.203,34.668,20.020,101.562
1532484573.850,22.461,40.527,34.668,12.695,-21.484
1532484573.854,23.926,32.227,32.227,10.742,16.113
1532484573.858,26.855,19.531,31.738,14.160,86.426
1532484573.862,21.973,25.879,32.715,6.836,55.664
1532484573.866,22.461,37.109,32.227,3.906,5.859
1532484573.870,30.762,36.621,31.250,12.207,-65.430
1532484573.874,29.785,31.250,29.785,17.578,91.797
1532484573.878,24.414,25.879,28.320,6.836,114.746
1532484573.882,21.973,34.180,31.738,2.930,-95.703
1532484573.886,27.832,49.805,33.203,18.066,-60.547
1532484573.890,30.273,45.898,28.809,21.484,60.059
1532484573.893,23.926,34.180,27.832,12.207,187.500
1532484573.897,16.113,32.227,29.297,5.371,107.422
1532484573.901,18.555,36.621,28.320,1.465,-38.086
1532484573.905,27.344,36.621,25.391,2.441,16.602
1532484573.909,28.809,37.109,26.367,4.883,128.906
1532484573.913,21.973,32.715,29.785,9.766,164.062
1532484573.917,18.066,32.715,31.250,2.441,17.578
1532484573.921,23.926,36.621,31.738,11.230,-91.309
1532484573.925,26.367,33.203,32.227,24.414,39.062
1532484573.929,23.438,31.738,31.738,10.254,82.520
1532484573.933,20.020,40.039,31.250,7.812,43.457
1532484573.937,21.973,36.133,30.762,3.418,-30.273
1532484573.940,25.391,30.273,29.785,1.465,-45.898
1532484573.944,25.879,33.691,30.273,5.859,90.820
1532484573.948,24.902,27.344,31.250,7.812,37.598
1532484573.952,27.344,29.785,28.809,12.695,-17.578
1532484573.956,32.227,34.180,30.762,18.066,26.855
1532484573.960,31.738,32.715,34.180,22.461,135.254
1532484573.964,30.762,31.738,35.645,12.695,104.980
1532484573.968,30.762,38.086,35.156,4.395,-104.492
1532484573.972,36.621,46.387,35.156,16.602,-20.508
1532484573.976,38.086,37.598,34.180,20.508,170.410
1532484573.980,33.691,29.297,32.227,8.301,21.484
1532484573.983,35.645,44.922,34.668,4.883,-103.516
1532484573.987,40.039,45.410,36.621,18.555,-22.461
1532484573.991,37.598,33.203,35.156,24.414,107.910
1532484573.995,27.832,30.273,32.227,15.625,119.141
1532484573.999,23.438,40.039,34.668,20.020,-23.926
1532484574.003,34.668,48.828,37.109,14.648,-42.480
1532484574.007,39.062,42.969,39.551,12.207,94.238
1532484574.011,31.250,40.039,41.504,18.555,156.250
1532484574.015,25.391,40.527,38.574,11.719,87.402
1532484574.019,26.367,41.016,34.668,13.672,-111.328
1532484574.023,32.227,42.969,36.133,21.484,-82.520
1532484574.026,26.855,35.645,39.062,18.066,150.391
1532484574.030,26.855,37.109,38.574,8.301,121.094
1532484574.034,30.273,49.805,37.109,9.277,17.578
1532484574.038,33.203,49.805,39.551,13.672,-44.434
1532484574.042,27.832,40.527,40.527,15.625,76.660
1532484574.046,21.973,36.621,39.551,17.578,141.602
1532484574.050,25.879,44.922,39.062,16.113,24.902
1532484574.054,28.809,48.340,38.086,9.766,39.551
1532484574.058,27.344,40.039,40.039,20.020,68.848
1532484574.062,21.484,39.062,38.086,22.949,69.824
1532484574.066,20.996,41.992,36.621,18.555,33.203
1532484574.070,25.391,38.574,37.109,16.113,-55.176
1532484574.073,26.855,40.527,37.598,15.625,128.418
1532484574.077,25.879,31.738,36.133,17.578,148.438
1532484574.081,18.066,23.438,34.180,2.930,-74.707
1532484574.085,16.113,32.715,34.668,1.953,-40.039
1532484574.089,21.973,28.809,35.645,13.184,37.109
1532484574.093,18.066,19.043,35.156,17.090,191.895
1532484574.097,17.578,20.508,37.109,18.555,126.953
1532484574.101,23.926,33.203,36.621,10.254,-57.129
1532484574.105,26.855,32.715,34.668,17.578,-32.227
1532484574.109,25.391,29.297,34.180,19.043,37.598
1532484574.113,20.996,35.645,35.156,12.695,154.785
1532484574.116,20.020,32.715,36.133,2.441,54.688
1532484574.120,26.367,28.809,33.203,0.488,-131.836
1532484574.124,29.785,26.855,31.250,15.137,42.480
1532484574.128,24.902,19.531,32.715,16.602,139.648
1532484574.132,19.531,26.367,30.762,4.883,65.918
1532484574.136,24.414,33.203,32.715,4.883,-24.902
1532484574.140,31.250,29.785,37.109,11.719,-5.859
1532484574.144,27.832,25.391,35.156,12.695,127.441
1532484574.148,24.902,27.832,34.180,5.859,83.496
1532484574.152,28.320,35.645,32.715,6.836,-18.555
1532484574.156,36.621,31.250,31.738,21.973,0.488
1532484574.159,39.062,26.855,34.180,23.926,27.832
1532484574.163,31.738,33.691,34.668,16.113,26.367
1532484574.167,30.273,38.574,34.668,11.719,-2.441
1532484574.171,39.551,42.480,35.156,16.113,8.789
1532484574.175,38.574,36.133,34.180,21.484,100.098
1532484574.179,30.273,32.715,34.668,9.766,98.145
1532484574.183,25.879,34.180,34.180,2.441,28.320
1532484574.187,30.273,34.668,32.715,16.602,-34.180
1532484574.191,31.250,37.598,34.180,31.250,97.168
1532484574.195,25.879,30.273,35.645,32.715,181.641
1532484574.199,25.879,31.250,34.668,19.043,18.555
1532484574.202,27.832,38.086,34.180,14.648,-118.652
1532484574.206,33.203,36.133,36.621,26.367,-34.180
1532484574.210,32.227,32.715,38.086,26.855,131.836
1532484574.214,28.809,35.156,35.156,9.766,144.043
1532484574.218,31.738,34.180,30.762,9.277,-105.469
1532484574.222,35.645,38.086,31.738,17.578,-166.016
1532484574.226,34.668,37.109,32.715,20.996,112.305
1532484574.230,31.738,26.367,31.738,14.648,143.066
1532484574.234,29.297,35.645,30.762,10.254,25.879
1532484574.238,28.320,34.668,30.273,9.766,-45.898
1532484574.242,25.879,31.738,31.738,17.090,88.379
1532484574.246,24.414,33.203,33.203,19.531,165.039
1532484574.249,21.973,33.691,34.668,11.230,-1.953
1532484574.253,26.367,42.969,34.668,10.254,-15.625
1532484574.257,34.180,39.062,32.227,12.207,51.270
1532484574.261,30.273,31.738,33.203,7.324,12.207
1532484574.265,25.391,41.504,30.762,6.348,46.875
1532484574.269,27.832,44.434,28.320,15.625,14.160
1532484574.273,31.250,41.016,31.250,24.414,45.898
1532484574.277,27.832,38.086,35.645,24.414,118.652
1532484574.281,19.531,36.621,37.109,16.113,75.684
1532484574.285,20.508,41.992,36.133,16.113,-27.832
1532484574.289,32.715,43.457,40.039,26.855,14.648
1532484574.292,31.738,37.109,42.969,25.391,143.066
1532484574.296,25.879,29.297,43.945,12.695,104.004
1532484574.300,21.484,30.273,44.434,18.066,-99.609
1532484574.304,20.020,39.551,41.992,21.484,-104.492
1532484574.308,23.438,36.133,40.039,26.367,111.328
1532484574.312,23.438,32.715,41.992,21.484,178.223
1532484574.316,20.508,34.668,41.992,11.719,64.453
1532484574.320,20.996,37.598,40.527,12.695,-72.266
1532484574.324,24.902,34.180,43.945,19.043,20.508
1532484574.328,24.414,28.320,42.480,18.066,177.734
1532484574.332,18.066,30.762,38.574,6.836,90.332
1532484574.335,22.949,31.738,41.504,8.789,-103.027
1532484574.339,30.273,35.156,39.551,25.391,-65.918
1532484574.343,30.273,30.273,39.062,25.391,78.613
1532484574.347,25.879,28.809,39.551,7.812,87.402
1532484574.351,25.391,36.621,35.645,15.625,-7.812
1532484574.355,30.273,36.133,37.109,23.438,24.902
1532484574.359,32.227,31.250,40.527,18.555,44.434
1532484574.363,27.832,36.133,40.039,20.020,20.996
1532484574.367,24.902,40.039,39.062,9.766,32.715
1532484574.371,30.762,41.016,38.574,3.906,-14.648
1532484574.375,29.785,34.668,41.016,22.461,85.449
1532484574.379,23.926,25.391,40.039,20.020,104.492
1532484574.382,20.996,35.645,38.086,8.301,43.945
1532484574.386,26.367,42.480,37.109,8.789,-8.789
1532484574.390,29.297,36.621,35.156,18.066,-8.789
1532484574.394,23.926,34.668,34.180,11.230,136.719
1532484574.398,20.508,30.762,34.180,1.465,36.621
1532484574.402,23.438,35.645,38.574,12.695,-161.133
1532484574.406,29.785,38.574,42.480,22.461,6.348
1532484574.410,30.273,33.691,40.527,16.602,126.465
1532484574.414,23.926,35.156,36.133,8.789,104.980
1532484574.418,19.531,27.344,33.203,11.230,-36.133
1532484574.422,24.414,29.297,33.691,12.695,-64.941
1532484574.425,27.344,30.762,36.133,21.484,134.766
1532484574.429,20.996,24.414,39.551,14.160,171.387
1532484574.433,14.648,29.785,41.016,9.766,29.785
1532484574.437,20.020,30.762,39.062,6.836,-72.754
1532484574.441,28.809,29.785,39.551,6.836,-40.527
1532484574.445,25.879,32.715,39.551,13.672,137.695
1532484574.449,20.020,28.809,35.645,11.719,110.840
1532484574.453,24.414,34.180,37.598,4.395,-63.477
1532484574.457,30.273,41.016,38.574,10.742,-7.324
1532484574.461,26.367,34.668,35.645,17.578,119.629
1532484574.465,21.973,32.227,35.156,9.766,89.355
1532484574.468,20.996,35.645,34.668,7.812,-7.324
1532484574.472,22.949,37.109,34.180,15.625,-1.953
1532484574.476,27.344,42.480,38.574,21.973,91.797
1532484574.480,23.926,37.598,39.551,20.020,76.172
1532484574.484,22.461,35.645,36.133,8.301,-43.945
1532484574.488,30.762,43.945,36.621,3.906,-35.645
1532484574.492,34.668,41.992,38.086,21.973,110.840
1532484574.496,31.738,35.645,38.086,26.855,188.965
1532484574.500,31.738,34.668,37.598,15.137,-17.578
1532484574.504,37.598,41.504,35.645,14.648,-113.281
1532484574.508,39.551,41.992,35.156,27.344,119.141
1532484574.512,32.715,32.227,38.574,26.367,174.805
1532484574.515,21.484,30.762,37.109,14.648,24.414
1532484574.519,19.531,37.598,38.086,8.301,-86.914
1532484574.523,26.855,39.551,38.574,10.742,19.531
1532484574.527,22.949,28.809,36.133,17.090,152.344
1532484574.531,16.113,25.391,34.668,16.602,50.781
1532484574.535,18.066,36.133,32.227,1.953,3.906
1532484574.539,26.367,33.203,34.180,-2.930,-48.828
1532484574.543,27.832,32.227,34.668,16.113,7.324
1532484574.547,23.438,37.109,33.203,7.812,147.949
1532484574.551,21.484,39.551,31.738,3.906,36.621
1532484574.555,23.926,37.598,30.762,11.230,9.766
1532484574.558,25.879,32.227,29.297,-1.953,79.102
1532484574.562,23.438,28.809,26.855,2.441,144.531
1532484574.566,20.508,32.227,26.855,4.395,95.703
1532484574.570,26.855,33.203,28.809,2.930,-62.500
1532484574.574,32.227,33.691,28.809,11.719,7.812
1532484574.578,32.227,27.344,31.250,7.812,78.125
1532484574.582,27.832,28.809,34.180,8.301,-45.898
1532484574.586,22.949,39.551,32.227,18.555,-29.785
1532484574.590,28.320,41.016,34.180,23.438,5.859
1532484574.594,26.855,36.621,31.738,12.207,158.691
1532484574.598,22.461,31.250,26.855,4.395,120.117
1532484574.601,22.461,35.645,28.320,0.000,-71.777
1532484574.605,22.461,36.621,32.715,13.184,20.508
1532484574.609,28.809,33.203,32.227,21.973,138.184
1532484574.613,31.250,30.273,31.250,6.836,145.996
1532484574.617,23.438,36.133,30.762,6.348,33.691
1532484574.621,27.344,38.086,29.785,15.625,-77.148
1532484574.625,33.203,34.668,33.691,22.461,47.852
1532484574.629,32.715,29.297,38.086,27.344,137.207
1532484574.633,12.695,28.320,41.016,15.625,28.809
1532484574.637,-1.953,28.809,40.527,2.441,-30.273
1532484574.641,12.695,27.344,35.156,14.648,-32.715
1532484574.645,23.926,28.320,33.691,18.555,108.887
1532484574.648,19.043,26.855,35.156,9.766,114.746
1532484574.652,21.973,33.203,35.645,15.625,-42.969
1532484574.656,31.250,27.344,36.621,22.949,-31.250
1532484574.660,33.203,22.461,37.109,14.160,98.633
1532484574.664,33.691,30.273,36.133,13.672,162.109
1532484574.668,34.668,33.203,34.668,21.973,-0.977
1532484574.672,38.574,33.691,37.109,27.832,-125.000
1532484574.676,37.109,33.691,39.062,30.762,56.641
1532484574.680,32.715,28.809,38.574,20.996,62.988
1532484574.684,30.273,35.156,38.086,14.160,-56.152
1532484574.688,33.203,38.574,35.645,19.531,-32.715
1532484574.691,35.645,31.250,36.621,26.367,42.480
1532484574.695,32.227,29.297,40.527,24.414,157.227
1532484574.699,28.809,35.156,39.062,18.066,72.754
1532484574.703,27.832,37.109,32.227,12.207,-3.418
1532484574.707,30.762,38.086,33.203,16.113,55.664
1532484574.711,30.762,36.133,33.203,20.996,136.719
1532484574.715,23.926,38.086,29.785,21.973,164.062
1532484574.719,24.414,37.109,30.762,7.324,-72.266
1532484574.723,32.227,36.621,29.785,8.301,-153.809
1532484574.727,32.227,31.738,29.297,15.137,97.168
1532484574.731,28.320,32.227,32.715,16.602,116.211
1532484574.734,23.438,40.039,31.738,10.742,13.184
1532484574.738,24.902,33.203,30.762,8.301,-57.617
1532484574.742,27.344,33.203,30.762,15.625,60.059
1532484574.746,27.344,34.180,30.273,7.812,147.461
1532484574.750,30.762,40.527,33.691,14.160,-12.695
1532484574.754,34.180,46.387,35.645,20.996,-73.730
1532484574.758,33.203,42.969,33.691,26.367,50.293
1532484574.762,34.180,33.203,35.645,27.832,120.605
1532484574.766,26.367,28.809,36.133,22.461,7.812
1532484574.770,22.949,35.645,33.691,17.578,-105.957
1532484574.774,33.203,41.504,35.645,21.484,-0.488
1532484574.777,31.738,31.738,34.180,20.996,142.090
1532484574.781,24.414,27.832,30.762,14.648,39.551
1532484574.785,21.973,31.738,29.297,6.836,-53.711
1532484574.789,24.414,20.996,30.273,16.113,-25.879
1532484574.793,27.344,24.414,32.227,20.020,123.047
1532484574.797,27.344,25.391,33.691,18.066,145.020
1532484574.801,24.902,25.879,33.203,20.996,-4.395
1532484574.805,28.320,29.297,33.203,20.020,-15.625
1532484574.809,29.297,25.879,33.203,22.949,52.734
1532484574.813,23.926,25.391,35.645,16.602,77.148
1532484574.817,21.973,38.086,37.109,12.207,25.879
1532484574.821,26.367,41.504,35.156,12.695,-133.301
1532484574.824,24.902,26.367,33.203,19.043,-46.875
1532484574.828,22.949,20.020,32.715,18.555,139.648
1532484574.832,26.855,28.809,33.691,22.461,106.934
1532484574.836,26.367,35.156,33.691,20.020,-38.086
1532484574.840,26.367,38.574,30.273,16.602,-39.062
1532484574.844,26.367,33.691,29.785,23.926,122.559
1532484574.848,24.414,32.715,33.203,20.020,84.473
1532484574.852,22.461,41.016,33.691,9.766,-39.551
1532484574.856,24.414,41.504,32.227,13.184,31.738
1532484574.860,25.391,31.738,29.297,11.230,47.852
1532484574.864,22.461,32.227,29.785,15.625,64.941
1532484574.867,21.484,30.762,34.668,8.301,26.367
1532484574.871,25.391,29.785,33.203,5.859,-73.242
1532484574.875,28.320,30.273,30.762,25.879,76.172
1532484574.879,22.461,24.414,29.297,20.996,128.418
1532484574.883,19.043,26.855,27.344,6.348,67.383
1532484574.887,25.879,27.832,27.344,3.418,-8.301
1532484574.891,25.391,28.809,27.344,3.906,29.785
1532484574.895,20.996,24.414,26.855,9.277,150.879
1532484574.899,17.578,26.855,28.809,4.395,93.262
1532484574.903,18.066,36.621,33.203,1.953,-37.598
1532484574.907,24.902,38.086,30.762,13.184,-55.664
1532484574.910,26.855,37.598,29.785,9.766,78.613
1532484574.914,26.367,34.180,32.715,5.859,185.059
1532484574.918,31.738,27.832,32.227,8.301,-15.137
1532484574.922,30.273,40.039,31.738,8.789,-126.953
1532484574.926,20.020,43.457,28.809,5.859,83.008
1532484574.930,13.672,30.762,26.367,11.719,122.070
1532484574.934,12.695,38.086,27.344,11.719,58.594
1532484574.938,15.625,41.016,29.297,-2.930,-37.598
1532484574.942,16.113,41.504,30.762,10.742,39.551
1532484574.946,16.602,34.180,31.250,16.602,159.668
1532484574.950,13.672,33.203,29.297,3.906,39.062
1532484574.954,14.648,42.969,25.879,11.230,-102.539
1532484574.957,17.090,41.504,30.273,10.254,-18.555
1532484574.961,12.207,35.156,33.691,7.812,78.613
1532484574.965,5.371,34.668,32.227,6.836,57.129
1532484574.969,4.395,37.598,30.762,5.371,-29.785
1532484574.973,9.766,47.363,30.762,2.930,5.859
1532484574.977,8.789,36.621,31.738,1.953,118.164
1532484574.981,1.953,22.461,30.273,-1.465,120.117
1532484574.985,4.883,31.738,29.297,-12.207,13.184
1532484574.989,13.184,34.668,31.250,-5.371,-58.594
1532484574.993,11.719,29.297,31.250,0.977,67.871
1532484574.997,5.859,24.414,29.297,-1.465,158.691
1532484575.000,1.953,30.273,30.762,-2.441,8.301
1532484575.004,10.254,38.086,34.180,2.441,-68.359
1532484575.008,17.090,33.691,34.180,13.184,47.852
1532484575.012,12.207,31.250,31.738,7.812,138.184
1532484575.016,12.207,24.902,30.273,7.812,113.770
1532484575.020,18.066,23.438,30.762,13.672,-74.219
1532484575.024,28.320,38.086,30.273,16.113,-57.129
1532484575.028,29.297,31.250,27.832,20.996,122.070
1532484575.032,18.066,24.902,26.855,5.859,128.906
1532484575.036,18.555,30.273,28.320,5.371,-17.090
1532484575.040,28.809,34.180,27.344,17.090,-67.383
1532484575.043,34.668,37.109,28.809,22.949,76.660
1532484575.047,31.738,32.715,31.250,24.414,106.445
1532484575.051,27.832,32.227,29.297,20.508,-43.945
1532484575.055,32.715,39.551,28.809,15.625,-31.250
1532484575.059,35.645,37.109,31.250,19.531,59.570
1532484575.063,34.668,33.691,30.273,27.344,28.809
1532484575.067,34.668,37.109,29.297,18.066,20.996
1532484575.071,31.738,40.039,29.297,15.137,-39.551
1532484575.075,33.203,36.621,27.832,23.438,82.031
1532484575.079,29.297,28.809,29.785,21.973,175.293
1532484575.083,20.996,29.297,30.762,8.301,81.543
1532484575.087,23.438,34.180,28.809,8.301,-22.461
1532484575.090,29.785,38.086,26.855,25.391,-24.414
1532484575.094,27.344,38.574,26.855,23.438,129.883
1532484575.098,21.973,33.691,27.832,19.043,144.043
1532484575.102,25.391,37.109,26.855,14.160,-102.051
1532484575.106,28.320,44.434,27.344,11.230,-75.684
1532484575.110,25.879,31.250,28.809,19.043,95.703
1532484575.114,23.926,30.273,26.855,18.066,145.996
1532484575.118,22.949,38.086,27.832,7.812,44.434
1532484575.122,24.414,39.062,29.297,11.719,-67.383
1532484575.126,28.320,38.574,27.832,22.949,61.035
1532484575.130,27.344,29.297,29.297,24.414,163.574
1532484575.133,20.020,30.762,29.297,22.461,62.988
1532484575.137,22.949,33.691,28.320,12.695,-60.547
1532484575.141,31.738,34.668,29.785,15.625,-76.660
1532484575.145,29.785,32.715,28.809,9.766,57.617
1532484575.149,21.484,28.320,28.320,3.418,74.707
1532484575.153,21.484,33.691,30.273,14.160,-47.363
1532484575.157,23.438,34.180,32.227,11.719,13.672
1532484575.161,17.578,27.832,31.250,8.789,53.223
1532484575.165,16.602,34.668,30.273,6.836,19.043
1532484575.169,14.648,37.598,31.250,5.371,-33.691
1532484575.173,18.066,33.203,31.250,10.742,-41.992
1532484575.176,24.414,32.227,32.227,8.789,71.289
1532484575.180,18.066,30.762,33.203,16.602,96.191
1532484575.184,13.672,36.133,33.203,8.789,-21.484
1532484575.188,19.043,38.086,34.180,0.977,-118.164
1532484575.192,26.367,36.133,32.715,16.602,9.766
1532484575.196,25.391,29.785,32.227,18.066,211.426
1532484575.200,20.508,25.879,34.668,9.766,33.203
1532484575.204,20.020,32.227,31.738,5.859,-178.223
1532484575.208,24.902,31.738,32.227,17.578,0.488
1532484575.212,25.391,32.227,36.621,30.273,142.578
1532484575.216,24.414,30.762,37.109,11.719,144.043
1532484575.220,28.809,25.391,39.062,8.301,-12.207
1532484575.223,31.250,32.715,38.574,11.230,-84.961
1532484575.227,31.250,33.203,37.598,17.578,88.379
1532484575.231,26.855,25.879,37.109,22.461,118.164
1532484575.235,20.020,29.297,34.668,9.277,22.949
1532484575.239,24.414,27.344,33.203,14.160,-75.195
1532484575.243,24.414,25.391,32.227,22.461,-75.195
1532484575.247,18.066,31.738,35.645,23.438,119.141
1532484575.251,15.625,31.250,36.133,15.625,42.480
1532484575.255,19.043,38.086,33.691,20.508,-36.133
1532484575.259,22.949,37.598,36.621,23.438,38.574
1532484575.263,20.996,25.879,36.133,19.531,90.820
1532484575.266,17.090,29.297,34.668,15.137,55.664
1532484575.270,19.043,34.180,34.668,5.371,-62.500
1532484575.274,24.902,32.715,35.156,17.578,7.324
1532484575.278,24.902,28.809,32.715,27.832,124.512
1532484575.282,24.414,20.996,32.227,14.648,18.066
1532484575.286,26.855,28.320,32.715,7.812,-73.242
1532484575.290,27.832,33.691,31.738,11.719,-35.156
1532484575.294,23.438,33.691,33.203,16.113,117.188
1532484575.298,17.578,28.320,35.156,12.695,167.480
1532484575.302,14.160,27.832,34.180,-4.395,-64.941
1532484575.306,14.160,36.133,31.250,-1.465,-105.957
1532484575.309,18.555,32.227,30.762,10.742,53.711
1532484575.313,17.090,28.809,30.273,12.207,145.020
1532484575.317,11.230,28.809,28.320,0.000,62.500
1532484575.321,20.508,31.738,28.809,5.371,-80.078
1532484575.325,24.414,32.227,27.344,15.137,-26.367
1532484575.329,20.020,27.832,28.320,16.113,79.590
1532484575.333,16.113,28.809,30.762,11.719,54.199
1532484575.337,15.137,36.621,28.809,-2.441,48.828
1532484575.341,22.949,34.180,27.832,0.488,-48.340
1532484575.345,22.949,29.785,28.809,12.695,1.953
1532484575.349,13.672,29.297,30.762,11.230,126.465
1532484575.352,17.578,32.227,28.320,2.930,5.371
1532484575.356,25.879,35.645,29.785,9.277,-24.902
1532484575.360,29.297,34.180,30.762,18.066,56.641
1532484575.364,25.879,28.809,28.809,13.672,102.051
1532484575.368,19.043,33.691,30.273,13.672,-3.906
1532484575.372,26.367,36.621,31.250,13.672,-121.582
1532484575.376,29.297,33.203,31.250,15.625,39.062
1532484575.380,23.438,27.344,34.668,9.766,61.035
1532484575.384,15.137,30.273,35.645,1.465,-96.680
1532484575.388,15.625,38.086,32.715,6.836,-25.879
1532484575.392,23.926,36.621,36.133,12.695,41.992
1532484575.396,20.508,36.133,36.133,12.207,208.984
1532484575.399,18.066,31.738,31.738,8.789,127.930
1532484575.403,20.020,35.645,32.227,4.395,-87.891
1532484575.407,26.367,36.621,33.691,2.930,-15.137
1532484575.411,28.320,20.996,31.738,10.742,109.375
1532484575.415,22.949,20.508,28.809,12.207,184.570
1532484575.419,23.438,27.344,28.809,1.953,45.898
1532484575.423,26.855,28.809,30.762,5.859,-112.305
1532484575.427,28.320,30.762,28.809,18.066,29.297
1532484575.431,23.926,28.809,30.762,20.508,138.184
1532484575.435,22.949,34.668,32.227,10.742,105.469
1532484575.439,26.855,33.203,28.809,5.859,-22.949
1532484575.442,28.320,26.367,28.809,11.230,-104.004
1532484575.446,28.320,29.785,28.809,18.555,72.266
1532484575.450,28.809,32.715,29.785,16.113,85.449
1532484575.454,30.273,36.133,30.762,15.625,19.043
1532484575.458,31.738,31.738,31.250,12.207,2.441
1532484575.462,34.180,31.250,36.133,14.160,45.410
1532484575.466,34.668,34.180,36.621,26.855,60.547
1532484575.470,33.203,38.086,33.691,25.391,-100.098
1532484575.474,35.645,34.668,34.668,19.531,-47.852
1532484575.478,34.180,24.902,34.180,13.672,119.141
1532484575.482,27.344,25.879,34.180,17.578,28.809
1532484575.485,21.973,34.668,33.203,14.648,-78.613
1532484575.489,25.391,35.645,30.273,12.695,-40.527
1532484575.493,28.320,38.574,32.227,17.578,101.074
1532484575.497,24.414,30.762,37.598,17.578,135.742
1532484575.501,21.484,28.320,38.086,16.602,-0.977
1532484575.505,23.926,37.109,35.156,20.996,-78.125
1532484575.509,26.855,34.668,34.180,26.855,20.996
1532484575.513,25.879,28.320,32.715,25.879,139.160
1532484575.517,19.043,27.832,29.297,3.418,92.773
1532484575.521,22.949,34.668,31.250,-3.418,-125.488
1532484575.525,33.203,38.086,35.156,15.625,-119.141
1532484575.529,27.344,30.762,36.621,21.973,120.117
1532484575.532,16.602,33.691,35.645,20.996,119.629
1532484575.536,19.043,39.062,33.203,13.672,8.301
1532484575.540,24.902,35.645,33.691,15.137,-46.387
1532484575.544,24.902,28.320,34.180,21.973,74.219
1532484575.548,23.926,24.414,34.668,16.113,126.953
1532484575.552,24.414,35.645,35.156,13.672,17.578
1532484575.556,27.344,40.039,36.621,13.672,-25.391
1532484575.560,25.879,35.645,35.645,23.926,22.461
1532484575.564,20.996,35.645,36.133,22.949,44.434
1532484575.568,15.625,36.133,34.668,3.418,12.695
1532484575.572,14.648,36.621,32.227,1.953,-58.594
1532484575.575,21.973,36.621,31.738,19.043,41.016
1532484575.579,23.926,27.344,29.297,15.137,85.938
1532484575.583,15.137,25.879,27.344,2.441,-47.852
1532484575.587,12.207,39.551,27.344,1.465,-48.340
1532484575.591,18.066,43.457,32.227,11.230,14.648
1532484575.595,22.461,38.574,34.180,20.508,141.602
1532484575.599,18.066,28.320,33.203,12.207,106.934
1532484575.603,16.602,32.227,32.227,6.348,-11.719
1532484575.607,22.461,41.992,30.762,10.254,-52.734
1532484575.611,26.855,41.992,32.715,23.926,5.371
1532484575.615,25.391,41.504,35.645,25.391,119.141
1532484575.618,19.531,37.598,36.133,13.672,24.902
1532484575.622,25.391,31.250,33.203,15.625,-160.156
1532484575.626,30.762,36.621,32.715,20.996,-38.086
1532484575.630,29.297,38.086,33.203,19.531,152.832
1532484575.634,28.320,35.645,36.133,20.996,93.262
1532484575.638,28.320,40.527,35.156,18.066,-81.055
1532484575.642,30.273,42.969,30.762,13.184,-29.297
1532484575.646,27.344,37.598,32.227,12.695,125.488
1532484575.650,22.461,36.133,32.715,14.648,121.094
1532484575.654,23.926,35.645,28.809,3.906,16.602
1532484575.658,27.344,35.156,28.320,1.465,-19.043
1532484575.662,29.297,37.109,32.227,11.719,41.016
1532484575.665,28.809,35.645,33.203,11.230,51.270
1532484575.669,21.973,31.738,31.250,11.719,13.184
1532484575.673,24.414,35.156,29.785,11.719,-20.996
1532484575.677,30.273,34.180,30.273,20.020,57.617
1532484575.681,25.879,30.273,31.738,19.531,96.680
1532484575.685,21.973,37.598,30.762,12.207,33.203
1532484575.689,28.809,42.480,31.738,15.625,-35.645
1532484575.693,28.320,38.086,35.156,15.625,81.055
1532484575.697,24.902,31.250,35.645,9.277,164.062
1532484575.701,22.949,28.809,35.645,15.625,1.953
1532484575.705,21.484,36.621,33.691,14.160,-114.258
1532484575.708,27.344,41.504,34.668,16.113,-15.137
1532484575.712,30.762,38.574,38.574,29.297,161.621
1532484575.716,22.949,37.109,36.621,7.812,195.801
1532484575.720,21.973,35.645,35.156,-3.906,-68.359
1532484575.724,32.715,38.086,35.645,24.414,-158.203
1532484575.728,33.691,41.504,36.621,35.156,108.398
1532484575.732,31.250,33.691,35.645,27.832,161.133
1532484575.736,26.855,29.785,33.691,19.531,78.125
1532484575.740,29.297,36.133,33.691,17.578,-1.465
1532484575.744,35.156,37.109,33.691,27.344,56.152
1532484575.748,34.668,33.691,35.156,26.367,127.441
1532484575.751,36.133,33.691,35.645,21.973,-5.371
1532484575.755,38.086,41.016,33.691,16.602,-92.773
1532484575.759,38.574,40.527,33.691,7.324,-27.832
1532484575.763,33.691,29.785,33.203,16.602,8.789
1532484575.767,25.879,33.691,32.715,19.043,48.340
1532484575.771,28.320,37.598,32.227,9.766,-14.648
1532484575.775,37.598,38.574,36.621,22.461,20.508
1532484575.779,33.691,33.691,38.574,32.715,134.277
1532484575.783,25.391,27.344,34.180,20.996,86.914
1532484575.787,25.879,31.250,33.691,21.973,-20.508
1532484575.791,31.738,35.645,35.645,26.855,-10.254
1532484575.795,32.227,32.227,35.156,29.297,96.191
1532484575.798,27.344,27.832,35.645,23.438,99.609
1532484575.802,23.926,31.738,33.691,4.883,-68.848
1532484575.806,27.344,40.039,32.715,6.836,-90.332
1532484575.810,27.344,37.109,34.180,12.695,134.277
1532484575.814,19.531,24.902,34.180,13.672,178.223
1532484575.818,18.066,21.484,34.180,14.648,8.301
1532484575.822,21.484,27.832,31.738,5.859,-89.355
1532484575.826,25.391,33.203,33.691,13.672,8.301
1532484575.830,28.809,29.785,37.109,25.391,144.531
1532484575.834,28.320,21.973,32.715,19.531,108.398
1532484575.838,30.273,24.902,33.691,15.137,-32.227
1532484575.841,33.203,27.344,39.062,8.789,-70.312
1532484575.845,29.297,22.949,37.109,20.020,30.273
1532484575.849,20.996,21.484,34.668,27.344,90.820
1532484575.853,18.066,33.203,39.062,18.555,-14.160
1532484575.857,24.414,40.039,39.062,20.996,2.930
1532484575.861,28.809,34.180,37.598,17.578,35.156
1532484575.865,22.949,30.762,37.598,9.277,0.488
1532484575.869,15.625,34.668,35.645,0.488,15.625
1532484575.873,20.020,32.227,34.180,11.719,-66.406
1532484575.877,27.344,29.297,33.203,22.949,2.930
1532484575.881,28.320,31.250,31.738,20.508,111.328
1532484575.884,23.926,36.621,30.762,17.090,88.867
1532484575.888,31.250,39.551,27.832,17.578,-12.695
1532484575.892,36.621,38.574,27.832,20.996,-50.293
1532484575.896,29.297,36.621,29.785,18.066,160.645
1532484575.900,23.926,29.297,32.715,2.441,76.660
1532484575.904,22.949,35.645,31.250,1.465,-152.344
1532484575.908,25.879,41.016,31.738,12.207,-0.488
1532484575.912,25.391,28.809,36.621,14.648,125.000
1532484575.916,23.438,30.273,37.109,19.531,166.992
1532484575.920,22.949,32.227,36.621,15.137,30.273
1532484575.924,26.367,36.621,35.156,9.766,-66.895
1532484575.928,25.879,37.109,36.621,16.113,98.633
1532484575.931,20.020,33.691,37.109,11.719,155.762
1532484575.935,18.555,37.109,34.180,7.812,27.344
1532484575.939,26.855,39.551,34.180,12.207,-91.797
1532484575.943,29.297,41.016,36.133,22.949,-75.684
1532484575.947,22.949,36.133,37.598,19.043,110.840
1532484575.951,19.043,30.273,33.691,9.766,91.309
1532484575.955,21.484,36.133,33.691,12.695,-50.781
1532484575.959,29.785,37.598,37.598,13.184,-8.789
1532484575.963,26.855,34.180,36.621,14.160,108.887
1532484575.967,20.508,32.227,35.156,11.230,133.789
1532484575.971,22.949,34.668,36.621,3.906,-32.227
1532484575.974,27.832,36.621,36.133,6.836,-50.781
1532484575.978,25.879,30.273,33.203,22.949,108.887
1532484575.982,19.531,20.020,32.227,22.949,95.703
1532484575.986,15.137,24.414,33.691,17.090,-46.387
1532484575.990,18.555,32.227,34.180,18.066,-69.824
1532484575.994,23.926,32.227,33.203,19.043,37.598
1532484575.998,22.461,33.203,34.180,16.602,160.645
1532484576.002,22.461,36.133,37.109,11.230,1.465
1532484576.006,26.855,35.645,38.574,15.137,-125.977
1532484576.010,32.227,31.738,34.668,18.066,31.250
1532484576.014,31.738,30.273,33.691,17.578,147.461
1532484576.017,22.461,26.367,34.180,20.020,89.844
1532484576.021,19.043,33.691,33.691,8.301,-77.637
1532484576.025,25.879,43.457,35.645,9.277,26.367
1532484576.029,25.879,31.250,36.621,27.344,169.922
1532484576.033,20.508,28.809,37.598,21.484,62.012
1532484576.037,18.555,40.527,38.574,6.348,34.180
1532484576.041,24.414,39.062,36.621,8.789,-57.129
1532484576.045,27.344,37.598,36.133,13.184,-23.926
1532484576.049,23.926,28.809,35.156,12.207,166.992
1532484576.053,21.973,31.250,33.203,7.324,14.160
1532484576.057,22.461,35.156,32.227,4.883,-74.219
1532484576.060,26.367,28.809,32.715,10.254,46.387
1532484576.064,27.344,32.715,35.156,18.066,142.578
1532484576.068,22.461,34.668,35.645,15.137,96.680
1532484576.072,25.879,38.574,37.598,10.254,-52.734
1532484576.076,29.297,38.574,38.086,15.137,20.020
1532484576.080,28.320,26.367,38.574,22.461,44.922
1532484576.084,26.367,30.273,41.016,14.160,-75.195
1532484576.088,24.902,40.527,37.109,-3.418,-35.645
1532484576.092,31.738,45.898,36.621,12.695,24.902
1532484576.096,33.691,44.922,37.598,39.551,138.184
1532484576.100,32.227,33.203,36.621,21.484,130.371
1532484576.104,32.715,41.504,38.574,3.418,-19.043
1532484576.107,34.668,50.293,37.109,14.160,1.465
1532484576.111,36.133,41.992,36.133,24.414,75.684
1532484576.115,28.320,36.133,36.133,8.789,91.797
1532484576.119,25.391,41.992,34.668,8.301,26.367
1532484576.123,33.203,44.922,34.668,22.461,-85.938
1532484576.127,37.598,39.551,34.180,17.578,26.367
1532484576.131,33.691,33.203,35.156,10.254,139.648
1532484576.135,29.297,39.551,36.133,18.555,81.543
1532484576.139,34.180,40.527,35.645,11.719,-13.184
1532484576.143,37.109,41.016,36.133,4.395,-68.359
1532484576.147,31.250,41.992,35.645,14.160,84.961
1532484576.150,26.855,28.809,34.668,10.742,125.488
1532484576.154,27.832,33.203,36.133,7.324,-35.156
1532484576.158,30.762,35.645,39.062,11.230,-55.176
1532484576.162,30.762,28.809,36.621,19.531,59.570
1532484576.166,24.414,26.367,33.691,13.672,136.719
1532484576.170,20.020,28.809,35.156,5.859,-15.137
1532484576.174,25.391,33.203,37.109,11.230,-132.812
1532484576.178,30.762,33.203,35.645,21.484,65.918
1532484576.182,28.320,26.855,33.203,10.742,76.172
1532484576.186,21.973,30.273,34.668,0.977,-33.203
1532484576.190,25.391,30.762,35.645,14.648,-38.086
1532484576.193,26.367,29.785,31.738,13.672,27.344
1532484576.197,21.973,25.879,31.738,3.418,155.273
1532484576.201,22.461,26.855,36.133,8.789,54.199
1532484576.205,22.461,34.668,34.668,2.930,-8.789
1532484576.209,24.414,26.855,31.250,0.488,46.387
1532484576.213,25.391,24.414,29.785,4.395,117.676
1532484576.217,20.996,32.715,30.762,9.766,156.250
1532484576.221,20.996,39.551,31.250,5.859,-74.707
1532484576.225,24.902,40.039,29.297,-0.977,-135.254
1532484576.229,23.438,29.785,29.297,4.883,123.047
1532484576.233,20.508,29.785,33.203,6.836,122.559
1532484576.237,19.531,40.039,36.621,1.953,45.410
1532484576.240,21.973,38.086,37.109,8.301,-31.738
1532484576.244,24.414,30.273,32.715,11.230,75.684
1532484576.248,24.414,29.297,32.227,15.137,161.133
1532484576.252,19.531,34.668,36.133,13.672,43.457
1532484576.256,20.020,37.109,35.645,10.742,-0.977
1532484576.260,21.973,34.180,35.645,28.320,56.641
1532484576.264,18.555,31.250,34.668,28.320,140.137
1532484576.268,16.602,29.785,37.109,12.207,62.988
1532484576.272,18.555,24.414,36.621,9.766,-70.801
1532484576.276,20.996,21.484,35.156,15.137,6.348
1532484576.280,21.484,22.461,37.109,17.090,104.980
1532484576.283,14.648,22.461,37.109,20.996,92.285
1532484576.287,11.719,26.367,36.621,12.695,2.930
1532484576.291,21.973,28.809,38.086,14.648,-110.352
1532484576.295,24.414,33.203,40.039,28.809,26.855
1532484576.299,18.555,27.344,41.504,20.508,166.016
1532484576.303,19.531,25.391,40.039,9.277,-34.180
1532484576.307,24.902,37.598,38.086,18.066,-97.168
1532484576.311,30.762,33.203,38.086,17.090,22.949
1532484576.315,33.691,31.738,38.574,25.391,74.219
1532484576.319,28.320,35.645,40.527,30.762,89.355
1532484576.323,29.785,33.203,38.574,15.625,-93.750
1532484576.326,31.738,34.668,37.598,21.484,-67.871
1532484576.330,27.832,29.297,39.062,34.668,140.137
1532484576.334,23.438,31.250,36.621,32.227,98.145
1532484576.338,23.926,32.715,33.691,14.648,-48.340
1532484576.342,29.297,26.855,32.227,13.184,-51.758
1532484576.346,27.832,27.832,33.691,31.738,103.516
1532484576.350,24.902,28.320,35.645,23.438,72.754
1532484576.354,22.461,30.273,32.227,17.578,-44.434
1532484576.358,27.344,32.715,30.762,21.973,-20.020
1532484576.362,33.203,29.785,34.180,20.996,34.668
1532484576.366,27.344,31.738,31.738,17.578,78.613
1532484576.370,22.461,34.668,30.762,10.254,36.133
1532484576.373,23.438,39.062,33.203,13.672,-69.336
1532484576.377,27.832,40.527,31.738,22.461,60.547
1532484576.381,29.297,28.809,34.180,28.809,142.578
1532484576.385,26.367,31.738,36.133,20.020,33.691
1532484576.389,26.367,39.062,36.133,19.043,-48.828
1532484576.393,29.785,39.062,38.086,27.344,-1.953
1532484576.397,29.297,32.227,38.086,24.902,145.020
1532484576.401,23.926,29.785,37.598,23.926,104.492
1532484576.405,21.973,36.133,36.133,16.602,-32.227
1532484576.409,27.344,36.133,36.133,12.207,-53.711
1532484576.413,27.344,33.203,37.598,15.137,83.496
1532484576.416,22.949,35.156,36.621,15.137,180.664
1532484576.420,19.043,36.133,36.621,17.090,11.230
1532484576.424,26.367,36.133,37.598,24.414,-152.344
1532484576.428,30.273,37.598,37.598,26.367,12.207
1532484576.432,22.461,30.273,38.086,20.508,132.324
1532484576.436,21.973,26.855,36.621,10.742,43.945
1532484576.440,27.344,33.203,36.133,16.602,-40.039
1532484576.444,28.809,32.715,36.621,16.113,27.344
1532484576.448,20.020,30.762,35.156,14.648,150.391
1532484576.452,13.184,31.738,33.691,12.695,69.824
1532484576.456,16.602,37.109,34.668,5.371,-97.656
1532484576.459,22.461,41.504,35.156,7.812,6.348
1532484576.463,21.973,34.180,35.645,10.742,99.121
1532484576.467,16.113,24.414,35.645,6.348,43.945
1532484576.471,14.648,26.855,32.227,5.859,-53.711
1532484576.475,19.531,35.645,30.762,15.137,-32.227
1532484576.479,20.508,33.691,29.785,19.043,111.816
1532484576.483,19.043,30.273,32.715,17.090,130.859
1532484576.487,16.602,33.691,34.668,12.207,11.719
1532484576.491,19.531,33.691,33.203,14.648,-32.715
1532484576.495,23.926,32.715,34.668,27.344,92.773
1532484576.499,17.090,29.297,36.133,23.926,179.199
1532484576.503,8.789,25.391,37.598,8.789,-3.906
1532484576.506,12.207,32.715,39.062,7.812,-134.277
1532484576.510,19.043,40.039,38.086,17.578,15.625
1532484576.514,20.508,31.250,37.598,12.207,156.738
1532484576.518,17.578,21.973,38.086,5.371,114.258
1532484576.522,21.484,30.273,36.133,5.371,-61.035
1532484576.526,31.250,35.156,34.180,10.254,-75.195
1532484576.530,30.273,27.344,35.156,12.695,65.918
1532484576.534,27.344,28.809,37.598,13.672,108.887
1532484576.538,24.414,33.203,37.598,1.953,10.254
1532484576.542,26.367,30.762,35.645,0.488,-20.508
1532484576.546,26.367,30.273,33.203,12.207,81.055
1532484576.549,20.508,27.344,31.738,11.719,74.219
1532484576.553,17.090,28.809,31.738,11.230,-53.711
1532484576.557,19.043,40.527,33.691,8.789,-7.812
1532484576.561,26.367,32.715,36.621,3.418,75.195
1532484576.565,21.484,19.531,35.156,1.953,60.547
1532484576.569,14.160,28.320,31.738,3.906,65.430
1532484576.573,16.113,28.320,29.297,0.977,-50.781
1532484576.577,20.020,30.273,28.320,4.395,43.457
1532484576.581,20.508,32.227,32.227,6.836,186.035
1532484576.585,21.973,28.809,36.621,-0.488,49.316
1532484576.589,25.879,35.156,35.645,9.277,-54.199
1532484576.592,28.320,37.109,33.691,14.648,-37.598
1532484576.596,26.855,33.203,36.133,11.719,84.961
1532484576.600,18.555,26.855,31.738,0.977,153.320
1532484576.604,16.602,26.855,27.832,-9.277,-107.910
1532484576.608,26.367,38.086,30.762,3.418,-125.488
1532484576.612,29.297,26.367,31.250,8.301,79.102
1532484576.616,19.043,21.484,29.785,-0.488,160.156
1532484576.620,12.207,32.227,31.250,-0.977,64.941
1532484576.624,16.602,34.668,33.691,6.836,-65.918
1532484576.628,24.414,35.156,35.645,22.949,24.902
1532484576.632,25.391,25.879,33.203,18.555,147.461
1532484576.635,20.996,28.320,31.738,10.254,108.398
1532484576.639,20.508,38.086,34.180,10.742,-25.391
1532484576.643,24.414,33.691,34.180,12.695,-64.453
1532484576.647,25.391,26.367,32.227,21.484,67.383
1532484576.651,22.949,28.320,35.156,11.230,82.031
1532484576.655,22.461,36.133,38.086,11.230,-33.203
1532484576.659,25.879,36.133,36.621,11.719,35.156
1532484576.663,31.250,36.133,36.133,13.184,64.941
1532484576.667,27.832,34.180,33.691,13.184,58.594
1532484576.671,23.926,32.227,31.738,3.906,18.555
1532484576.675,24.902,41.016,30.762,9.766,-48.828
1532484576.679,27.344,35.156,32.715,14.160,76.660
1532484576.682,25.879,28.320,35.645,10.254,150.391
1532484576.686,19.043,30.762,36.133,3.906,49.316
1532484576.690,24.902,34.180,36.133,12.695,-98.145
1532484576.694,32.715,40.039,35.645,23.926,1.465
1532484576.698,35.156,33.203,35.156,21.973,188.477
1532484576.702,32.715,29.297,34.668,20.020,77.148
1532484576.706,31.738,39.062,33.691,11.719,-63.477
1532484576.710,36.133,39.551,32.715,11.230,15.137
1532484576.714,33.203,32.227,33.691,23.926,88.379
1532484576.718,26.855,30.762,34.180,26.367,186.035
1532484576.722,27.832,34.180,36.621,20.508,-14.160
1532484576.725,28.809,34.180,39.062,22.461,-169.922
1532484576.729,27.344,36.621,38.574,28.320,117.676
1532484576.733,25.391,32.715,39.062,25.879,136.230
1532484576.737,19.531,41.504,37.109,16.113,12.695
1532484576.741,23.926,41.504,37.109,8.789,-96.680
1532484576.745,32.715,36.133,39.062,18.555,-95.703
1532484576.749,29.297,38.086,37.109,25.879,135.254
1532484576.753,21.484,38.086,36.621,17.090,86.914
1532484576.757,20.020,40.039,38.574,14.160,-10.742
1532484576.761,25.879,36.133,37.109,23.438,24.414
1532484576.765,28.320,36.133,36.133,21.973,63.477
1532484576.768,24.414,35.645,37.109,7.812,57.129
1532484576.772,23.926,36.621,35.645,8.789,-26.367
1532484576.776,24.902,40.527,32.715,13.672,23.926
1532484576.780,27.344,33.691,34.668,28.320,123.535
1532484576.784,24.902,26.367,38.574,29.297,37.598
1532484576.788,23.438,35.645,39.062,17.578,-71.289
1532484576.792,29.785,44.434,37.109,15.625,-50.293
1532484576.796,32.227,46.875,37.109,21.973,111.328
1532484576.800,29.785,30.273,40.039,19.043,167.969
1532484576.804,22.949,25.879,40.039,4.395,-79.102
1532484576.808,24.902,41.504,37.109,15.137,-125.488
1532484576.812,34.180,39.551,38.574,25.391,78.613
1532484576.815,32.715,35.156,36.133,22.949,176.270
1532484576.819,29.785,33.691,35.645,27.832,75.684
1532484576.823,32.227,37.109,36.133,25.879,-90.820
1532484576.827,34.180,37.109,35.645,28.320,-49.316
1532484576.831,32.715,28.809,39.551,30.273,44.922
1532484576.835,27.344,29.297,39.062,23.438,41.992
1532484576.839,28.809,33.203,37.109,10.254,18.555
1532484576.843,34.180,33.203,38.574,16.113,-83.008
1532484576.847,31.250,29.785,39.062,38.574,-3.418
1532484576.851,30.273,33.691,39.551,33.203,126.465
1532484576.855,27.344,41.992,36.621,21.973,31.250
1532484576.858,30.273,37.109,36.621,26.367,-19.043
1532484576.862,35.645,35.156,36.133,34.668,40.527
1532484576.866,30.273,34.180,35.645,32.715,127.930
1532484576.870,24.414,32.715,36.133,20.996,48.340
1532484576.874,27.832,36.621,35.156,11.719,-62.012
1532484576.878,36.621,38.574,37.109,21.484,63.965
1532484576.882,34.180,29.297,37.598,23.438,84.473
1532484576.886,22.461,31.250,33.691,9.277,-55.664
1532484576.890,18.555,37.109,35.645,11.230,-51.270
1532484576.894,25.879,34.180,36.621,31.250,23.926
1532484576.898,27.832,26.855,35.156,29.785,186.523
1532484576.901,20.020,20.020,34.668,15.137,104.492
1532484576.905,17.090,30.762,33.203,6.836,-59.082
1532484576.909,22.461,31.250,32.227,3.418,-18.066
1532484576.913,25.391,30.273,31.250,17.090,89.844
1532484576.917,22.949,27.832,31.250,10.742,185.059
1532484576.921,20.508,24.902,32.715,0.488,26.367
1532484576.925,23.438,35.645,32.227,7.324,-129.395
1532484576.929,23.926,37.109,30.273,18.555,36.621
1532484576.933,21.973,31.738,31.250,13.184,110.840
1532484576.937,20.996,38.086,30.762,9.277,104.980
1532484576.941,19.531,32.227,29.297,8.301,7.812
1532484576.945,23.926,28.320,30.273,9.766,-95.703
1532484576.948,23.926,33.203,30.762,17.090,88.867
1532484576.952,17.090,29.785,30.273,13.672,96.680
1532484576.956,18.555,33.691,28.809,0.977,-14.648
1532484576.960,24.902,35.645,28.809,0.977,10.254
1532484576.964,22.949,29.297,32.227,20.996,121.582
1532484576.968,17.090,24.902,31.738,13.184,116.211
1532484576.972,18.066,36.133,35.156,0.488,-62.012
1532484576.976,22.461,37.598,33.203,9.277,-21.484
1532484576.980,23.438,32.227,28.320,10.254,146.973
1532484576.984,20.996,32.715,29.785,7.324,48.340
1532484576.988,14.160,39.062,27.832,10.254,-71.777
1532484576.991,15.625,38.574,26.855,13.672,-52.734
1532484576.995,21.973,38.574,27.344,19.531,72.266
1532484576.999,20.020,33.691,31.738,18.555,137.695
1532484577.003,11.719,36.133,33.203,7.324,3.906
1532484577.007,12.207,43.945,31.250,10.254,-45.898
1532484577.011,16.113,38.086,30.762,14.648,59.570
1532484577.015,15.137,31.250,30.273,16.113,176.270
1532484577.019,13.672,32.715,33.691,15.137,139.648
1532484577.023,13.184,37.109,31.738,5.859,-116.211
1532484577.027,17.578,42.969,30.273,11.719,-166.992
1532484577.031,15.625,41.016,33.203,15.625,101.074
1532484577.034,11.719,39.062,35.156,10.742,161.133
1532484577.038,16.602,42.969,36.133,7.324,28.320
1532484577.042,22.461,35.645,36.621,9.277,-60.547
1532484577.046,19.531,33.203,34.180,11.719,57.617
1532484577.050,17.578,32.227,34.668,20.020,136.719
1532484577.054,20.020,34.180,33.691,16.602,62.988
1532484577.058,21.484,35.645,29.785,11.230,-34.668
1532484577.062,25.391,31.738,29.785,19.043,-30.273
1532484577.066,27.832,31.250,34.668,20.020,48.828
1532484577.070,24.902,35.156,37.598,2.930,34.668
1532484577.074,24.902,43.457,35.645,5.859,-30.762
1532484577.078,28.809,45.410,33.203,26.367,45.898
1532484577.081,28.320,33.691,35.645,26.367,135.254
1532484577.085,27.344,34.668,35.156,18.066,2.930
1532484577.089,27.344,45.898,34.180,14.648,-47.363
1532484577.093,29.297,39.062,35.645,14.160,-12.695
1532484577.097,28.320,36.621,36.133,16.113,129.395
1532484577.101,21.484,31.738,35.645,20.020,151.855
1532484577.105,18.555,33.691,29.785,8.789,-1.465
1532484577.109,22.949,40.527,30.273,4.395,-49.316
1532484577.113,29.297,39.062,35.156,13.672,62.500
1532484577.117,25.391,35.645,33.691,19.043,171.875
1532484577.121,20.020,33.203,34.180,12.207,49.316
1532484577.124,23.926,35.645,34.180,3.906,-149.414
1532484577.128,28.809,38.574,34.180,11.230,-21.973
1532484577.132,27.832,25.391,32.715,20.020,152.832
1532484577.136,25.879,21.484,31.738,17.090,59.570
1532484577.140,25.391,34.668,34.668,18.555,-78.125
1532484577.144,32.227,34.180,34.180,23.926,-37.109
1532484577.148,30.762,30.273,32.227,17.090,132.324
1532484577.152,22.949,36.621,33.203,19.043,161.621
1532484577.156,20.508,40.039,33.203,19.043,12.207
1532484577.160,22.461,34.180,31.250,14.648,-24.414
1532484577.164,23.926,33.691,31.250,23.438,38.086
1532484577.167,19.043,34.668,31.738,20.020,70.312
1532484577.171,14.648,33.691,32.227,3.906,33.691
1532484577.175,20.508,36.621,34.668,6.348,-49.316
1532484577.179,26.855,33.691,36.133,24.414,28.320
1532484577.183,24.902,29.785,34.668,21.484,107.422
1532484577.187,25.879,38.086,34.180,10.254,55.664
1532484577.191,30.762,38.574,34.180,9.277,-8.789
1532484577.195,34.180,35.645,32.227,17.090,50.293
1532484577.199,30.273,33.203,32.227,16.602,136.719
1532484577.203,25.391,33.691,31.250,16.113,61.035
1532484577.207,25.391,31.250,28.320,17.578,-110.840
1532484577.211,27.832,27.344,28.809,12.207,-74.219
1532484577.214,27.832,34.180,31.250,11.230,103.027
1532484577.218,20.996,35.645,32.715,16.113,182.129
1532484577.222,18.555,34.668,35.645,0.488,-25.879
1532484577.226,24.414,37.109,37.109,-4.883,-152.344
1532484577.230,25.391,35.645,35.156,14.648,103.516
1532484577.234,20.996,22.461,33.691,19.531,175.781
1532484577.238,16.602,27.344,32.715,16.113,11.230
1532484577.242,19.531,37.598,32.715,14.160,-119.629
1532484577.246,23.926,37.598,32.227,16.602,41.016
1532484577.250,22.949,36.621,33.203,14.160,174.316
1532484577.254,19.531,38.086,33.203,6.836,0.000
1532484577.257,18.066,42.969,33.203,4.395,-44.922
1532484577.261,23.438,41.016,33.203,9.277,30.762
1532484577.265,26.367,31.738,35.645,12.207,29.785
1532484577.269,25.391,31.250,39.062,15.137,101.562
1532484577.273,29.297,35.645,35.645,8.789,14.160
