timestamps,TP9,AF7,AF8,TP10,Right AUX
1532384907.474,15.625,19.531,38.086,22.949,57.617
1532384907.478,14.160,18.555,37.109,30.273,62.012
1532384907.482,15.137,20.508,34.668,30.273,55.664
1532384907.486,16.602,20.020,32.715,28.320,38.574
1532384907.490,11.230,20.020,38.574,23.438,53.223
1532384907.494,15.625,24.414,44.434,20.508,49.316
1532384907.497,22.461,23.926,47.852,22.461,41.016
1532384907.501,28.809,20.508,37.109,24.902,56.152
1532384907.505,32.715,19.531,28.320,25.879,87.891
1532384907.509,29.297,20.508,37.109,21.484,52.246
1532384907.513,35.645,29.297,43.457,23.438,20.996
1532384907.517,32.715,23.926,34.180,25.879,42.480
1532384907.521,28.809,18.066,30.762,24.414,62.500
1532384907.525,26.855,21.973,37.598,24.902,80.078
1532384907.529,21.484,19.531,41.992,25.391,51.270
1532384907.533,20.508,19.531,43.457,25.879,40.527
1532384907.537,23.438,20.020,41.504,31.738,55.664
1532384907.540,24.414,21.973,36.133,28.320,62.988
1532384907.544,30.273,26.855,30.762,25.879,53.223
1532384907.548,33.203,30.273,33.203,34.180,33.203
1532384907.552,31.250,31.738,37.109,33.691,16.113
1532384907.556,32.715,28.320,34.668,32.715,30.273
1532384907.560,41.504,24.414,31.738,37.598,52.734
1532384907.564,41.992,24.414,33.691,33.203,28.809
1532384907.568,28.320,27.344,37.109,29.297,49.316
1532384907.572,32.715,27.344,33.691,33.203,38.086
1532384907.576,42.480,27.832,38.574,37.598,24.902
1532384907.579,40.039,31.738,41.016,39.062,38.086
1532384907.583,25.879,26.367,29.297,28.809,10.254
1532384907.587,25.391,17.578,29.785,24.414,16.602
1532384907.591,24.902,21.973,32.715,24.414,18.066
1532384907.595,14.648,28.809,33.691,19.043,27.832
1532384907.599,17.090,25.391,35.645,26.367,28.320
1532384907.603,24.414,27.344,33.691,31.738,33.691
1532384907.607,19.043,28.320,32.715,21.484,78.613
1532384907.611,11.719,24.902,35.645,10.254,45.898
1532384907.615,12.207,32.227,41.992,17.090,30.273
1532384907.619,18.066,31.738,41.504,23.438,60.059
1532384907.622,23.438,31.250,38.574,20.508,50.781
1532384907.626,20.508,31.250,37.598,23.926,41.504
1532384907.630,15.137,26.855,40.039,22.461,24.902
1532384907.634,17.090,27.832,34.668,15.625,29.297
1532384907.638,25.391,29.297,30.273,17.578,42.969
1532384907.642,27.344,35.645,38.086,28.320,19.531
1532384907.646,18.555,31.738,31.250,27.832,29.785
1532384907.650,13.184,24.414,24.902,19.043,44.922
1532384907.654,16.113,26.367,31.738,10.742,27.344
1532384907.658,16.602,27.344,33.691,9.766,55.664
1532384907.662,13.184,32.227,29.297,16.113,67.383
1532384907.665,13.184,29.785,27.832,18.555,43.457
1532384907.669,15.137,22.949,34.668,21.973,36.621
1532384907.673,13.184,22.949,35.645,19.531,44.434
1532384907.677,20.020,26.855,32.715,11.230,42.480
1532384907.681,33.691,37.109,29.297,10.254,18.555
1532384907.685,33.691,37.598,22.461,6.348,11.719
1532384907.689,34.180,31.250,27.832,1.465,38.086
1532384907.693,34.668,30.762,35.645,2.930,26.855
1532384907.697,33.691,34.668,33.203,10.254,13.672
1532384907.701,45.410,35.645,35.156,28.809,30.762
1532384907.704,34.668,29.785,34.668,32.715,32.227
1532384907.708,19.043,26.855,34.180,27.344,19.531
1532384907.712,28.320,28.320,32.227,34.180,0.000
1532384907.716,27.832,32.227,30.273,35.156,-15.625
1532384907.720,12.695,36.133,30.273,37.598,12.207
1532384907.724,9.766,33.691,33.691,41.992,20.508
1532384907.728,8.789,35.156,35.645,34.668,29.785
1532384907.732,5.859,34.668,33.691,24.902,23.438
1532384907.736,4.395,33.691,35.645,16.602,1.953
1532384907.740,5.371,32.227,33.691,18.555,59.082
1532384907.744,6.836,28.809,34.180,20.020,67.871
1532384907.747,9.766,25.391,37.598,20.508,45.410
1532384907.751,17.090,25.391,33.691,27.832,8.789
1532384907.755,20.508,30.273,30.762,30.273,-11.719
1532384907.759,31.250,36.621,38.086,31.738,7.812
1532384907.763,36.133,38.086,38.086,33.203,-4.395
1532384907.767,20.508,31.738,29.785,20.508,16.602
1532384907.771,18.555,35.645,31.250,12.695,39.062
1532384907.775,21.484,38.574,33.203,9.766,14.160
1532384907.779,27.344,32.227,35.645,13.184,17.090
1532384907.783,27.832,33.203,34.180,20.020,31.250
1532384907.786,23.926,39.551,33.203,15.137,29.297
1532384907.790,19.043,40.039,36.133,13.672,43.457
1532384907.794,20.508,34.180,35.156,16.602,11.230
1532384907.798,23.926,31.250,33.203,21.484,-14.160
1532384907.802,24.414,29.297,29.785,28.809,10.254
1532384907.806,30.273,32.715,30.273,30.762,41.992
1532384907.810,35.156,33.203,35.645,29.785,39.551
1532384907.814,38.086,27.344,37.109,29.785,10.254
1532384907.818,36.621,32.715,39.551,31.738,6.836
1532384907.822,28.809,37.598,36.133,25.391,16.113
1532384907.826,27.344,30.273,26.855,20.508,49.316
1532384907.829,28.809,21.973,29.785,19.531,47.852
1532384907.833,22.461,23.926,32.227,14.160,1.953
1532384907.837,21.484,27.832,31.250,17.090,6.836
1532384907.841,23.926,30.273,36.133,20.508,51.270
1532384907.845,27.832,36.133,39.551,22.949,25.879
1532384907.849,27.344,33.691,39.062,24.414,-12.207
1532384907.853,25.391,25.879,39.062,24.414,14.160
1532384907.857,28.320,22.949,38.574,24.902,26.855
1532384907.861,29.297,30.273,35.645,27.344,14.160
1532384907.865,32.715,32.227,37.109,27.832,-9.766
1532384907.869,32.227,23.438,36.621,29.785,-12.695
1532384907.872,28.809,29.785,31.250,22.949,22.461
1532384907.876,31.738,41.992,32.715,19.531,54.688
1532384907.880,29.297,39.551,40.039,29.785,38.086
1532384907.884,21.973,25.391,37.598,19.531,-10.742
1532384907.888,12.207,18.066,31.738,7.324,9.277
1532384907.892,3.906,25.879,32.715,7.812,27.344
1532384907.896,10.742,29.785,34.180,9.766,20.020
1532384907.900,20.020,26.855,34.668,12.695,20.996
1532384907.904,25.879,29.785,34.668,20.020,13.184
1532384907.908,23.926,32.715,36.133,22.461,41.016
1532384907.911,20.996,25.879,38.574,17.578,36.133
1532384907.915,17.090,23.438,40.039,8.301,1.465
1532384907.919,17.090,31.738,39.551,5.371,-15.625
1532384907.923,20.508,33.691,37.109,17.090,20.020
1532384907.927,24.414,31.738,37.109,20.508,70.801
1532384907.931,24.414,30.762,39.551,15.625,28.809
1532384907.935,18.555,30.762,39.062,18.066,-3.906
1532384907.939,19.043,31.250,37.109,16.602,45.410
1532384907.943,26.855,28.809,36.621,17.578,58.105
1532384907.947,22.461,17.090,35.645,19.043,49.805
1532384907.951,11.230,19.531,37.109,11.230,54.688
1532384907.954,12.695,24.902,32.715,10.742,52.734
1532384907.958,10.254,21.484,27.344,17.090,58.594
1532384907.962,7.324,23.438,34.180,21.973,44.922
1532384907.966,15.137,30.273,39.062,28.809,34.668
1532384907.970,25.879,34.668,39.062,34.668,50.781
1532384907.974,32.715,36.133,40.527,35.156,58.594
1532384907.978,29.297,43.945,49.316,32.715,45.898
1532384907.982,31.250,41.504,48.828,33.203,42.480
1532384907.986,32.227,34.180,47.363,26.367,45.898
1532384907.990,23.438,29.785,44.922,17.578,48.828
1532384907.994,22.461,34.668,34.180,16.113,20.020
1532384907.997,27.832,39.551,33.691,17.090,-1.465
1532384908.001,27.832,36.621,36.133,19.043,18.555
1532384908.005,30.762,41.992,38.574,29.297,30.762
1532384908.009,28.809,38.574,34.668,29.785,40.527
1532384908.013,16.113,24.902,29.785,17.090,-1.465
1532384908.017,17.578,20.020,24.902,15.137,-44.922
1532384908.021,20.020,15.625,23.438,19.043,26.367
1532384908.025,13.184,17.090,30.762,17.090,64.453
1532384908.029,17.090,18.555,31.250,14.648,42.480
1532384908.033,19.531,19.531,31.738,20.020,4.395
1532384908.036,13.672,27.344,31.250,20.996,13.672
1532384908.040,13.184,30.273,26.855,20.508,37.598
1532384908.044,7.324,20.996,29.297,20.020,28.809
1532384908.048,1.465,14.648,31.738,14.648,23.926
1532384908.052,1.953,19.043,30.273,10.742,14.648
1532384908.056,0.977,20.996,29.297,9.766,40.039
1532384908.060,0.488,15.625,28.809,11.719,61.035
1532384908.064,4.883,14.648,24.414,13.184,33.203
1532384908.068,16.113,24.902,25.391,19.531,32.227
1532384908.072,22.949,27.344,35.156,20.508,35.156
1532384908.076,18.066,12.207,34.180,16.602,20.996
1532384908.079,14.648,8.301,32.715,16.113,20.020
1532384908.083,19.043,12.207,33.691,14.648,23.926
1532384908.087,13.184,15.137,31.250,19.043,48.340
1532384908.091,13.184,21.973,35.645,20.508,64.453
1532384908.095,15.137,21.484,37.598,23.438,35.645
1532384908.099,8.301,18.555,33.691,22.949,7.324
1532384908.103,9.766,19.043,38.574,20.508,18.066
1532384908.107,8.301,13.672,35.645,17.578,58.105
1532384908.111,7.324,12.207,29.785,18.555,56.152
1532384908.115,17.578,16.602,33.203,20.020,-2.930
1532384908.119,13.184,19.043,29.785,20.508,-0.488
1532384908.122,7.324,18.555,28.320,21.973,37.598
1532384908.126,16.602,18.066,35.645,19.531,32.715
1532384908.130,15.137,21.973,38.086,25.391,8.789
1532384908.134,16.113,26.855,39.551,29.297,15.625
1532384908.138,24.414,24.902,40.039,26.855,42.480
1532384908.142,20.020,16.602,32.715,18.066,63.477
1532384908.146,20.020,16.602,34.180,16.602,53.711
1532384908.150,21.484,16.602,36.621,21.973,8.789
1532384908.154,23.926,14.160,33.691,23.438,10.742
1532384908.158,21.973,13.184,33.691,26.367,52.246
1532384908.161,20.996,16.602,33.203,23.438,44.434
1532384908.165,28.809,24.902,31.250,24.902,40.039
1532384908.169,26.367,24.902,30.762,26.367,45.898
1532384908.173,23.926,19.043,28.809,19.043,37.598
1532384908.177,22.949,22.461,29.785,16.602,18.066
1532384908.181,14.648,27.344,29.297,19.043,4.883
1532384908.185,12.695,24.414,25.879,17.578,36.133
1532384908.189,20.020,25.391,22.949,18.066,55.664
1532384908.193,27.832,31.250,29.785,23.926,58.594
1532384908.197,31.250,21.484,33.691,22.461,41.992
1532384908.201,26.367,12.695,27.832,15.625,3.418
1532384908.204,18.066,18.066,25.391,12.207,24.902
1532384908.208,17.578,18.555,26.367,9.766,42.969
1532384908.212,17.578,23.926,27.832,11.719,32.715
1532384908.216,19.531,27.344,26.855,14.160,28.320
1532384908.220,19.043,27.344,27.832,16.113,42.480
1532384908.224,14.160,28.320,26.855,13.672,65.918
1532384908.228,9.766,27.344,26.367,10.254,57.617
1532384908.232,8.789,27.832,30.762,12.207,12.695
1532384908.236,12.207,31.250,30.273,8.789,-7.324
1532384908.240,4.883,28.320,25.879,7.324,39.062
1532384908.243,1.465,21.484,25.879,9.277,69.824
1532384908.247,1.465,16.602,28.809,5.859,51.758
1532384908.251,1.465,21.484,37.598,7.324,10.742
1532384908.255,0.000,25.391,32.227,12.207,9.766
1532384908.259,-1.465,15.137,21.973,9.766,50.781
1532384908.263,-0.977,11.230,20.508,0.977,41.992
1532384908.267,-3.418,21.484,24.414,0.000,42.480
1532384908.271,1.465,21.973,32.227,5.859,45.898
1532384908.275,4.883,16.602,31.250,4.883,41.992
1532384908.279,4.883,16.602,26.855,2.930,39.062
1532384908.283,5.371,18.066,25.391,4.395,27.832
1532384908.286,7.812,17.090,25.391,3.418,36.621
1532384908.290,9.766,20.508,25.879,0.000,24.414
1532384908.294,8.789,21.484,21.484,-3.906,23.926
1532384908.298,1.953,20.020,19.043,-1.953,30.762
1532384908.302,1.465,22.949,23.438,4.883,23.438
1532384908.306,0.000,19.531,23.926,3.906,41.504
1532384908.310,-3.418,14.160,25.391,-4.395,47.852
1532384908.314,-2.441,15.625,28.320,-0.488,13.672
1532384908.318,-0.488,18.066,26.367,3.418,-7.324
1532384908.322,-3.418,18.555,24.902,0.488,23.438
1532384908.326,-4.883,16.602,24.902,6.348,53.223
1532384908.329,-3.418,11.719,24.414,8.301,44.434
1532384908.333,-2.441,13.672,30.762,8.301,28.809
1532384908.337,12.695,25.879,37.109,20.020,41.016
1532384908.341,12.695,23.438,26.855,18.555,51.270
1532384908.345,-2.930,17.578,17.578,4.395,53.223
1532384908.349,-6.836,14.648,18.555,1.953,3.906
1532384908.353,-5.371,14.648,19.531,3.418,-29.297
1532384908.357,-2.441,15.625,23.926,1.953,-10.742
1532384908.361,-3.906,15.137,26.855,0.488,15.625
1532384908.365,-2.930,19.531,25.879,3.418,22.461
1532384908.368,-0.488,24.414,20.996,5.859,-2.930
1532384908.372,-2.441,26.367,19.531,5.859,-5.371
1532384908.376,2.930,22.949,23.926,6.836,16.602
1532384908.380,1.953,20.020,25.879,8.789,34.668
1532384908.384,4.395,14.160,29.785,12.207,40.039
1532384908.388,7.812,13.672,30.762,16.602,43.457
1532384908.392,2.441,18.066,26.855,12.695,18.555
1532384908.396,3.418,17.578,26.855,5.371,-22.949
1532384908.400,5.371,24.414,29.297,5.371,-16.602
1532384908.404,6.348,31.250,29.297,5.859,20.020
1532384908.408,2.930,28.320,23.926,3.418,19.043
1532384908.411,-2.441,20.508,20.508,0.000,0.488
1532384908.415,6.836,23.926,29.785,11.719,-5.859
1532384908.419,13.672,28.809,34.180,15.625,7.812
1532384908.423,13.672,21.484,26.855,7.812,48.828
1532384908.427,13.184,22.949,25.879,12.207,57.617
1532384908.431,5.371,22.461,28.320,10.254,4.883
1532384908.435,8.789,19.043,28.320,11.230,-14.648
1532384908.439,11.719,22.949,31.250,13.672,24.902
1532384908.443,6.836,23.438,28.320,9.277,64.941
1532384908.447,5.371,19.043,21.484,9.277,46.387
1532384908.451,4.883,21.484,27.344,1.465,-26.367
1532384908.454,5.859,26.855,25.879,-4.395,-23.926
1532384908.458,11.719,27.344,20.020,0.977,11.719
1532384908.462,18.555,26.367,24.902,1.953,26.367
1532384908.466,20.508,26.367,29.297,0.000,6.348
1532384908.470,25.391,24.414,32.715,-6.348,-2.930
1532384908.474,32.227,25.391,33.691,-9.277,17.578
1532384908.478,33.691,29.297,34.668,-1.953,-10.742
1532384908.482,33.691,32.227,39.062,11.230,-2.930
1532384908.486,23.438,25.879,39.062,13.184,9.277
1532384908.490,13.184,7.324,32.715,12.695,23.438
1532384908.493,7.812,8.789,27.344,12.695,-2.441
1532384908.497,1.953,27.832,27.344,14.160,-14.160
1532384908.501,1.465,31.250,29.785,23.438,17.090
1532384908.505,-1.953,29.785,35.156,23.926,26.367
1532384908.509,-1.465,27.344,38.574,24.414,22.461
1532384908.513,6.836,20.996,37.598,22.949,10.742
1532384908.517,8.789,25.391,38.086,19.531,2.441
1532384908.521,9.766,32.715,38.574,18.555,-7.324
1532384908.525,8.789,35.156,39.062,17.090,11.719
1532384908.529,8.789,37.109,37.109,20.996,19.043
1532384908.533,9.766,26.855,35.156,23.438,-22.949
1532384908.536,11.230,21.484,32.227,18.066,-1.465
1532384908.540,23.438,35.156,32.715,25.879,37.109
1532384908.544,26.367,37.109,40.527,26.855,26.367
1532384908.548,19.531,25.391,39.062,15.625,17.090
1532384908.552,12.207,20.508,36.621,9.277,20.996
1532384908.556,6.348,21.484,35.645,7.812,42.969
1532384908.560,6.836,21.973,36.133,7.324,58.594
1532384908.564,8.789,20.508,36.621,12.207,33.691
1532384908.568,9.766,21.973,36.621,17.090,29.785
1532384908.572,12.695,23.438,36.133,20.996,48.828
1532384908.576,14.160,24.902,33.691,23.926,42.480
1532384908.579,9.277,20.508,34.668,17.090,16.602
1532384908.583,10.254,17.578,36.133,13.672,-5.371
1532384908.587,11.230,22.461,33.691,12.207,7.324
1532384908.591,7.324,23.926,33.691,12.207,36.133
1532384908.595,3.418,21.973,33.203,15.137,57.129
1532384908.599,5.859,23.438,35.645,9.277,30.273
1532384908.603,9.766,27.344,41.992,10.742,0.977
1532384908.607,18.555,33.203,46.387,25.391,6.836
1532384908.611,21.484,31.250,43.945,22.461,6.348
1532384908.615,12.695,30.762,39.062,17.090,-13.672
1532384908.618,14.160,32.715,38.574,22.461,-12.695
1532384908.622,16.602,35.156,44.434,26.855,38.086
1532384908.626,20.996,37.109,49.805,34.180,50.293
1532384908.630,27.344,30.762,47.852,34.180,-6.348
1532384908.634,27.832,23.926,44.922,28.320,-15.137
1532384908.638,25.391,27.832,47.363,33.691,29.785
1532384908.642,22.949,34.180,47.363,33.691,46.875
1532384908.646,30.762,36.133,52.246,38.574,37.598
1532384908.650,31.250,37.109,53.223,43.945,14.648
1532384908.654,34.668,35.645,47.363,38.574,12.695
1532384908.658,41.992,35.156,51.270,41.016,55.664
1532384908.661,36.133,36.621,52.246,41.992,63.477
1532384908.665,34.668,39.062,52.246,35.156,55.664
1532384908.669,34.180,35.645,52.246,31.250,26.855
1532384908.673,40.527,40.039,56.152,39.062,14.648
1532384908.677,43.457,40.527,50.781,38.086,44.434
1532384908.681,33.203,30.762,45.410,24.902,32.715
1532384908.685,25.391,33.203,46.387,22.461,18.555
1532384908.689,23.926,33.691,41.992,21.484,19.531
1532384908.693,29.785,31.250,43.945,26.855,6.836
1532384908.697,33.691,30.762,46.387,32.715,34.668
1532384908.700,34.668,38.086,48.828,30.273,26.367
1532384908.704,31.738,45.898,49.316,30.273,15.137
1532384908.708,32.715,42.969,46.387,33.691,56.152
1532384908.712,31.738,36.621,47.852,31.738,26.855
1532384908.716,24.414,37.109,49.316,24.902,-24.902
1532384908.720,31.738,37.109,48.340,25.879,-10.254
1532384908.724,35.645,35.156,44.922,28.320,30.273
1532384908.728,25.391,36.133,44.434,24.414,41.016
1532384908.732,29.785,41.016,50.293,27.344,22.461
1532384908.736,40.527,43.457,52.246,33.691,29.785
1532384908.740,35.156,36.133,43.457,28.320,47.852
1532384908.743,26.855,35.156,37.109,26.367,33.203
1532384908.747,25.391,37.109,37.109,24.414,31.250
1532384908.751,27.832,38.574,37.598,19.531,16.602
1532384908.755,25.391,41.016,46.875,26.855,27.344
1532384908.759,24.902,33.691,52.246,28.320,75.195
1532384908.763,28.320,26.367,49.316,25.391,45.898
1532384908.767,24.902,36.621,51.270,27.344,24.902
1532384908.771,20.020,43.945,55.664,26.367,46.875
1532384908.775,14.160,37.598,54.688,20.996,27.832
1532384908.779,17.090,31.250,53.223,28.320,24.414
1532384908.783,20.020,27.832,52.246,33.203,31.250
1532384908.786,18.555,30.273,49.805,33.203,37.109
1532384908.790,25.879,39.062,53.223,42.480,27.344
1532384908.794,25.391,35.156,52.734,36.133,49.316
1532384908.798,23.438,31.738,48.340,28.320,71.289
1532384908.802,31.738,41.504,50.781,32.715,34.668
1532384908.806,36.621,39.062,51.758,36.621,23.438
1532384908.810,31.738,35.645,53.711,35.156,37.598
1532384908.814,30.273,38.086,58.105,28.320,7.324
1532384908.818,31.250,34.180,59.082,30.762,14.648
1532384908.822,30.273,41.504,53.711,34.180,38.086
1532384908.825,28.809,50.781,52.246,28.809,43.945
1532384908.829,25.879,47.852,53.223,20.020,40.039
1532384908.833,31.250,46.875,54.199,23.438,35.156
1532384908.837,33.203,47.363,53.711,32.715,63.477
1532384908.841,25.879,42.480,50.293,25.391,88.867
1532384908.845,29.785,40.039,54.199,26.855,71.777
1532384908.849,36.133,40.527,55.176,36.621,67.383
1532384908.853,28.809,36.621,49.316,26.855,68.848
1532384908.857,25.391,33.691,50.781,23.438,79.102
1532384908.861,22.949,33.203,53.223,23.438,59.570
1532384908.865,19.531,32.715,56.641,21.973,28.809
1532384908.868,19.531,37.109,55.176,27.344,27.832
1532384908.872,17.090,40.527,56.152,22.461,14.648
1532384908.876,13.672,33.691,61.523,17.578,30.273
1532384908.880,16.113,26.855,62.988,23.438,41.016
1532384908.884,23.926,37.598,61.523,28.809,14.648
1532384908.888,28.809,44.434,57.129,30.762,26.367
1532384908.892,29.785,37.109,59.570,29.785,51.270
1532384908.896,29.297,31.250,62.988,30.273,40.039
1532384908.900,31.250,34.668,57.129,33.203,25.391
1532384908.904,27.832,35.156,55.664,29.297,47.363
1532384908.908,34.180,44.922,62.988,31.250,91.309
1532384908.911,44.434,50.293,63.965,34.668,36.133
1532384908.915,28.320,33.691,61.523,16.602,-27.344
1532384908.919,18.555,32.227,57.617,13.672,4.883
1532384908.923,21.973,33.691,48.828,21.484,35.645
1532384908.927,26.855,24.902,49.805,25.879,20.996
1532384908.931,26.367,27.832,48.340,28.809,24.414
1532384908.935,25.879,31.738,47.363,25.879,42.969
1532384908.939,34.668,28.320,56.641,29.297,38.574
1532384908.943,35.645,34.180,60.547,29.785,41.504
1532384908.947,26.367,37.598,59.570,25.391,40.039
1532384908.950,25.879,34.668,57.129,21.484,32.227
1532384908.954,26.367,40.527,54.199,17.578,19.043
1532384908.958,24.414,40.527,49.805,20.020,37.109
1532384908.962,33.203,40.527,55.176,27.832,44.434
1532384908.966,25.391,41.504,53.223,25.391,39.062
1532384908.970,17.578,25.879,43.945,21.484,40.527
1532384908.974,21.973,20.508,43.945,22.949,47.363
1532384908.978,22.461,28.320,43.457,19.043,51.758
1532384908.982,21.484,28.809,44.434,19.043,35.156
1532384908.986,19.531,29.785,42.969,19.531,40.039
1532384908.990,21.973,32.227,43.945,23.438,59.082
1532384908.993,27.344,31.738,44.922,26.855,80.078
1532384908.997,24.414,27.832,40.527,21.484,69.336
1532384909.001,17.090,26.367,43.457,18.066,28.809
1532384909.005,17.090,30.762,51.270,17.578,39.062
1532384909.009,13.672,26.855,49.805,15.137,54.688
1532384909.013,12.695,26.855,47.363,13.184,34.668
1532384909.017,20.020,31.738,47.852,15.137,35.645
1532384909.021,20.020,24.902,44.434,18.066,42.969
1532384909.025,19.043,20.020,38.574,20.508,36.621
1532384909.029,31.738,23.926,50.293,31.738,34.180
1532384909.033,28.320,21.484,57.129,33.203,11.230
1532384909.036,15.625,22.461,41.016,25.879,-8.789
1532384909.040,19.043,24.902,40.527,23.926,47.852
1532384909.044,20.996,22.949,45.410,22.461,53.223
1532384909.048,24.902,27.832,36.133,24.902,37.598
1532384909.052,28.320,31.738,37.598,24.902,28.320
1532384909.056,30.762,33.203,52.734,25.879,-1.465
1532384909.060,26.367,29.785,53.711,24.902,3.906
1532384909.064,20.996,24.902,49.316,23.438,-2.930
1532384909.068,19.043,20.020,52.734,24.902,-4.395
1532384909.072,19.531,12.695,50.781,24.902,-3.418
1532384909.075,21.973,20.020,45.898,25.879,7.812
1532384909.079,27.344,30.762,46.387,31.738,7.324
1532384909.083,24.902,28.809,47.363,26.855,30.273
1532384909.087,21.973,25.879,44.922,17.090,49.805
1532384909.091,20.020,25.391,45.410,13.672,34.180
1532384909.095,21.484,26.855,48.340,17.090,0.488
1532384909.099,33.691,26.367,46.875,24.902,-7.812
1532384909.103,24.902,28.320,42.969,19.531,39.062
1532384909.107,20.020,32.715,50.293,14.160,56.152
1532384909.111,24.414,32.715,49.316,9.766,51.270
1532384909.115,25.391,33.691,48.340,10.742,35.156
1532384909.118,27.344,34.180,48.828,16.113,10.254
1532384909.122,15.625,26.855,37.109,8.301,23.926
1532384909.126,9.766,20.020,39.551,5.859,22.949
1532384909.130,16.113,19.531,48.340,7.324,20.508
1532384909.134,19.531,25.391,38.574,9.766,20.996
1532384909.138,20.508,33.203,36.621,17.578,43.457
1532384909.142,19.531,28.809,45.898,17.578,78.613
1532384909.146,32.227,27.832,47.363,29.785,55.176
1532384909.150,39.551,33.691,44.922,41.992,23.438
1532384909.154,25.879,29.785,37.109,25.391,24.902
1532384909.158,24.902,29.297,47.363,20.996,32.715
1532384909.161,23.438,30.762,66.895,28.809,45.410
1532384909.165,20.020,36.621,64.453,22.949,46.875
1532384909.169,25.391,37.109,63.477,20.996,28.320
1532384909.173,21.973,34.668,68.359,20.996,42.480
1532384909.177,23.926,32.227,55.664,18.555,23.926
1532384909.181,33.691,26.367,39.551,24.414,-12.207
1532384909.185,24.414,26.367,40.039,28.320,-0.488
1532384909.189,26.367,26.855,50.781,27.832,30.762
1532384909.193,31.738,22.949,54.199,28.809,26.367
1532384909.197,27.344,26.855,57.129,33.691,22.949
1532384909.200,28.320,33.691,63.965,38.086,30.273
1532384909.204,25.391,29.785,61.035,29.297,22.949
1532384909.208,21.973,23.438,57.617,24.902,8.789
1532384909.212,20.996,23.438,56.152,24.414,1.465
1532384909.216,20.508,25.879,45.410,19.043,16.113
1532384909.220,23.926,27.344,38.574,21.484,28.809
1532384909.224,27.344,24.902,49.316,24.414,34.180
1532384909.228,25.391,20.996,53.711,22.461,29.785
1532384909.232,24.902,26.367,50.293,21.484,8.789
1532384909.236,23.438,32.715,47.852,20.020,-3.906
1532384909.240,19.043,21.484,45.410,19.531,42.480
1532384909.243,19.043,18.555,49.316,19.043,30.273
1532384909.247,22.461,25.879,55.176,24.414,-0.977
1532384909.251,17.090,28.809,57.617,25.391,5.859
1532384909.255,10.254,28.809,49.316,18.066,24.902
1532384909.259,15.137,19.043,41.992,18.066,48.828
1532384909.263,17.090,14.648,45.410,18.066,30.273
1532384909.267,22.461,31.250,53.711,20.508,7.324
1532384909.271,25.391,39.551,50.293,18.555,40.039
1532384909.275,22.461,30.762,41.992,8.301,61.523
1532384909.279,22.949,28.320,44.922,1.953,41.016
1532384909.282,30.762,25.879,43.945,-1.465,31.250
1532384909.286,38.086,26.855,40.527,0.488,41.504
1532384909.290,33.691,28.320,36.621,0.977,73.242
1532384909.294,27.344,26.367,40.527,7.812,51.758
1532384909.298,21.484,28.320,45.898,22.949,2.441
1532384909.302,10.742,27.344,39.062,30.273,32.715
1532384909.306,1.465,21.973,38.086,28.320,54.199
1532384909.310,4.883,20.020,45.410,33.691,56.641
1532384909.314,8.301,25.391,47.852,38.574,32.227
1532384909.318,0.977,26.855,40.039,34.668,41.016
1532384909.322,-0.977,30.762,40.039,37.109,67.383
1532384909.325,10.254,27.832,43.457,33.203,59.570
1532384909.329,1.953,16.113,34.668,18.555,53.223
1532384909.333,-4.883,16.113,31.250,15.137,-4.395
1532384909.337,4.883,20.996,24.414,16.602,2.930
1532384909.341,5.371,23.438,19.043,14.648,57.129
1532384909.345,4.395,22.949,29.297,14.648,26.367
1532384909.349,9.766,20.508,30.273,16.602,16.602
1532384909.353,10.742,17.090,29.785,20.020,20.508
1532384909.357,9.277,20.020,33.203,21.484,12.695
1532384909.361,12.695,25.391,33.203,21.973,17.090
1532384909.365,17.090,26.367,27.832,27.832,21.973
1532384909.368,20.020,21.484,16.602,31.250,40.039
1532384909.372,22.949,21.973,23.438,28.809,23.438
1532384909.376,29.297,29.297,31.738,28.809,16.113
1532384909.380,28.320,26.367,24.414,27.832,51.758
1532384909.384,22.949,18.066,18.555,23.438,58.105
1532384909.388,19.531,17.578,19.043,20.996,59.082
1532384909.392,12.695,19.043,17.578,13.672,51.270
1532384909.396,10.742,14.160,13.184,5.371,36.621
1532384909.400,10.742,11.719,10.742,1.953,42.969
1532384909.404,6.836,9.277,12.695,-1.465,66.895
1532384909.407,17.090,18.555,18.555,0.000,74.707
1532384909.411,16.602,27.344,19.043,0.000,45.410
1532384909.415,0.000,18.555,16.113,-5.371,36.133
1532384909.419,3.418,12.207,17.578,-5.371,34.180
1532384909.423,5.371,24.414,9.277,-1.953,48.828
1532384909.427,7.812,25.391,10.742,7.812,77.637
1532384909.431,13.184,12.695,16.113,14.160,26.367
1532384909.435,14.648,18.555,13.672,21.484,-10.742
1532384909.439,13.672,29.785,18.555,20.508,16.602
1532384909.443,15.137,25.879,21.484,16.113,26.367
1532384909.447,21.484,22.949,23.438,26.855,25.391
1532384909.450,21.973,26.367,24.902,28.809,17.578
1532384909.454,24.902,33.203,22.949,26.855,7.812
1532384909.458,30.273,34.668,16.602,27.832,41.504
1532384909.462,20.508,27.344,8.301,17.578,39.551
1532384909.466,12.695,30.273,13.672,6.836,7.812
1532384909.470,12.695,23.438,18.555,0.977,28.320
1532384909.474,13.672,21.973,12.695,-3.906,25.391
1532384909.478,19.531,23.926,11.230,-5.859,18.066
1532384909.482,25.879,22.949,25.391,-6.348,18.555
1532384909.486,20.508,29.785,39.551,-10.254,17.578
1532384909.490,10.742,28.809,47.363,-14.160,29.297
1532384909.493,13.184,28.320,53.711,-12.695,8.301
1532384909.497,21.484,35.645,53.711,-5.371,4.395
1532384909.501,20.996,27.832,59.082,1.465,31.738
1532384909.505,23.926,23.926,79.102,14.160,41.016
1532384909.509,28.320,26.855,86.426,20.508,36.133
1532384909.513,19.531,22.949,84.473,12.695,11.719
1532384909.517,22.461,33.203,91.309,20.508,-5.371
1532384909.521,28.809,36.133,96.191,31.250,12.207
1532384909.525,25.879,24.414,106.445,24.902,41.504
1532384909.529,26.855,25.879,110.840,23.926,47.852
1532384909.532,25.391,34.180,107.910,21.973,14.648
1532384909.536,19.043,32.227,110.352,12.207,22.949
1532384909.540,24.902,26.855,115.723,21.484,41.992
1532384909.544,27.344,29.785,114.258,27.832,51.758
1532384909.548,20.508,33.691,115.234,22.461,50.293
1532384909.552,18.555,30.273,116.699,18.555,35.156
1532384909.556,20.020,31.250,114.258,11.230,31.250
1532384909.560,28.809,37.109,114.258,11.230,25.879
1532384909.564,37.598,38.086,118.652,16.602,36.133
1532384909.568,30.273,31.738,125.000,7.812,42.480
1532384909.572,20.996,29.785,122.070,7.812,24.414
1532384909.575,20.020,27.832,120.605,14.648,37.598
1532384909.579,24.902,24.902,123.535,11.719,42.480
1532384909.583,21.973,25.879,126.465,11.719,10.254
1532384909.587,15.137,25.879,131.836,17.090,2.441
1532384909.591,16.602,27.832,129.883,18.555,18.555
1532384909.595,14.160,22.949,125.977,15.625,11.719
1532384909.599,11.719,18.066,128.418,18.555,11.719
1532384909.603,8.301,26.367,127.441,20.020,23.926
1532384909.607,14.648,28.809,124.023,18.555,35.645
1532384909.611,12.695,26.855,127.930,16.113,22.949
1532384909.615,6.348,31.250,125.488,16.602,43.457
1532384909.618,15.625,32.715,126.465,25.879,58.105
1532384909.622,16.113,28.320,136.719,28.320,44.922
1532384909.626,9.766,25.879,133.301,25.879,39.062
1532384909.630,7.812,27.344,127.930,23.438,36.133
1532384909.634,3.906,27.344,128.906,20.020,12.207
1532384909.638,8.301,23.926,130.859,29.297,42.480
1532384909.642,16.602,23.438,129.883,34.180,64.453
1532384909.646,15.625,31.250,129.395,28.809,16.113
1532384909.650,17.090,33.203,128.906,30.273,3.418
1532384909.654,15.137,18.066,129.883,28.320,-15.625
1532384909.657,14.160,11.719,129.883,28.809,-2.441
1532384909.661,22.461,28.320,134.766,42.480,33.203
1532384909.665,17.578,39.062,130.371,41.016,32.715
1532384909.669,12.207,32.715,122.070,27.344,22.461
1532384909.673,14.648,26.855,122.559,20.996,33.203
1532384909.677,14.160,23.438,117.676,22.461,38.574
1532384909.681,16.602,20.508,112.305,22.949,19.531
1532384909.685,19.043,23.438,113.770,19.043,21.484
1532384909.689,20.020,29.785,119.141,23.438,27.832
1532384909.693,25.879,33.203,118.164,23.926,24.414
1532384909.697,30.273,32.227,112.305,21.973,13.184
1532384909.700,29.297,30.273,113.770,24.414,14.648
1532384909.704,30.273,25.879,118.652,24.902,48.340
1532384909.708,30.762,31.250,118.652,28.809,44.434
1532384909.712,32.227,35.645,113.770,28.809,13.672
1532384909.716,33.691,33.203,112.793,27.344,23.926
1532384909.720,31.250,34.668,113.770,26.855,45.410
1532384909.724,20.508,28.809,109.863,17.090,68.848
1532384909.728,16.602,22.949,106.934,13.184,78.613
1532384909.732,18.066,24.902,109.863,12.695,14.648
1532384909.736,17.578,28.809,103.027,11.719,-20.020
1532384909.739,17.090,30.762,107.910,19.531,22.949
1532384909.743,27.344,40.527,130.859,27.832,21.484
1532384909.747,39.062,51.270,132.324,30.273,12.207
1532384909.751,40.527,54.688,128.418,35.156,-6.348
1532384909.755,45.410,59.570,135.742,46.875,20.508
1532384909.759,51.758,66.895,137.207,53.711,64.453
1532384909.763,56.152,68.848,144.043,58.594,71.777
1532384909.767,72.266,76.172,160.645,69.336,56.152
1532384909.771,81.055,84.473,161.133,74.219,39.551
1532384909.775,80.078,84.961,161.133,74.219,51.758
1532384909.779,81.543,87.402,167.969,79.102,49.805
1532384909.782,89.844,90.332,172.363,81.543,32.715
1532384909.786,96.191,94.727,175.293,85.938,23.438
1532384909.790,104.004,98.145,169.922,96.191,14.648
1532384909.794,110.840,102.539,174.316,101.562,2.930
1532384909.798,108.398,107.910,186.523,101.074,-6.348
1532384909.802,107.910,108.398,187.988,97.656,20.508
1532384909.806,95.215,95.215,176.758,82.031,27.344
1532384909.810,77.637,83.008,165.527,65.918,25.391
1532384909.814,71.777,85.449,156.250,63.965,36.621
1532384909.818,73.730,80.566,154.297,69.336,38.086
1532384909.822,65.918,64.453,147.461,60.059,53.711
1532384909.825,50.781,57.617,131.836,43.945,45.898
1532384909.829,42.969,60.059,120.117,40.527,49.805
1532384909.833,38.574,52.246,111.816,42.480,31.250
1532384909.837,37.598,47.363,111.328,38.086,-2.441
1532384909.841,40.039,48.828,114.746,35.156,47.363
1532384909.845,37.109,44.434,114.258,32.715,84.473
1532384909.849,31.738,42.480,110.840,26.367,30.273
1532384909.853,27.344,39.551,106.445,19.531,-18.555
1532384909.857,21.484,31.250,98.145,16.602,24.902
1532384909.861,21.484,30.273,94.238,18.555,56.641
1532384909.864,20.020,28.320,95.703,18.066,15.137
1532384909.868,17.090,25.879,91.309,17.578,11.719
1532384909.872,16.602,29.785,93.262,20.996,20.996
1532384909.876,14.648,26.855,91.797,17.090,17.578
1532384909.880,10.742,17.090,82.031,9.766,24.902
1532384909.884,8.301,8.301,82.031,14.648,15.625
1532384909.888,8.789,12.207,89.355,14.160,-1.953
1532384909.892,7.324,23.926,87.402,5.371,-17.578
1532384909.896,3.906,27.832,83.008,-0.977,-0.488
1532384909.900,1.953,23.438,83.984,-0.977,26.855
1532384909.904,3.906,18.066,80.078,5.859,41.016
1532384909.907,10.254,20.508,71.777,10.742,48.828
1532384909.911,11.719,20.020,68.359,5.859,59.570
1532384909.915,10.254,18.555,67.383,-0.977,48.828
1532384909.919,15.625,21.484,71.777,3.906,51.270
1532384909.923,20.996,22.461,82.520,10.254,65.918
1532384909.927,18.555,11.719,76.660,9.277,60.059
1532384909.931,10.742,9.277,69.824,3.906,30.273
1532384909.935,9.766,16.113,72.266,2.930,-5.371
1532384909.939,10.254,13.184,71.777,5.371,15.625
1532384909.943,4.883,14.648,68.359,2.930,24.414
1532384909.947,7.324,18.555,64.941,1.465,36.133
1532384909.950,4.883,12.207,63.965,-4.395,42.480
1532384909.954,0.488,11.719,61.523,-9.277,20.996
1532384909.958,1.953,12.207,64.453,-5.859,38.574
1532384909.962,0.000,11.230,65.430,-0.488,32.227
1532384909.966,-0.977,14.160,65.918,3.906,21.484
1532384909.970,7.324,23.926,72.266,6.836,31.738
1532384909.974,10.254,23.926,76.172,14.160,36.133
1532384909.978,4.395,15.625,71.289,16.602,56.641
1532384909.982,6.836,19.043,62.988,12.207,49.316
1532384909.986,11.230,20.508,62.988,10.254,20.020
1532384909.989,13.184,20.020,72.266,16.113,28.809
1532384909.993,20.020,22.461,72.754,13.672,15.625
1532384909.997,17.578,18.555,66.895,13.184,-4.883
1532384910.001,8.301,15.625,66.406,10.254,3.418
1532384910.005,10.742,26.855,68.359,5.371,32.715
1532384910.009,19.531,27.344,65.430,6.348,44.434
1532384910.013,16.602,21.973,70.801,7.812,19.531
1532384910.017,8.789,22.949,71.777,11.230,19.043
1532384910.021,8.301,22.461,66.895,9.277,44.922
1532384910.025,3.906,20.996,71.289,4.883,45.898
1532384910.029,12.695,23.926,78.125,8.301,40.527
1532384910.032,21.484,27.832,75.195,11.230,11.230
1532384910.036,26.367,20.508,68.848,7.812,-13.184
1532384910.040,30.273,20.508,67.871,10.254,24.414
1532384910.044,30.762,23.926,67.383,8.789,38.086
1532384910.048,32.715,21.973,71.777,4.395,22.949
1532384910.052,32.227,19.043,72.266,11.719,7.324
1532384910.056,35.156,24.414,74.219,23.926,17.090
1532384910.060,41.992,28.809,82.520,30.273,50.293
1532384910.064,41.992,28.320,86.914,36.133,51.270
1532384910.068,33.203,34.180,85.449,38.086,42.969
1532384910.072,31.738,37.598,85.938,32.227,27.344
1532384910.075,27.832,40.527,86.426,28.320,7.812
1532384910.079,17.090,40.039,87.402,33.691,43.457
1532384910.083,12.695,35.156,82.520,33.691,34.180
1532384910.087,18.066,37.109,85.449,36.621,23.438
1532384910.091,14.648,34.668,90.332,34.668,42.480
1532384910.095,6.836,25.879,83.984,23.926,39.062
1532384910.099,10.742,26.367,84.961,23.438,41.016
1532384910.103,14.160,28.809,85.938,26.855,51.758
1532384910.107,9.766,23.438,80.566,19.043,49.316
1532384910.111,15.625,26.855,78.613,13.184,38.086
1532384910.114,23.926,28.320,77.637,17.090,32.715
1532384910.118,30.273,23.926,81.543,25.879,28.809
1532384910.122,37.598,16.602,83.984,36.133,29.785
1532384910.126,39.551,23.926,80.566,35.645,33.691
1532384910.130,44.434,39.551,85.938,26.855,26.855
1532384910.134,36.133,33.203,83.984,18.066,21.973
1532384910.138,21.973,27.832,74.707,8.301,27.344
1532384910.142,17.090,33.203,72.266,1.465,26.367
1532384910.146,17.578,33.203,73.730,1.953,23.926
1532384910.150,17.578,30.273,76.172,4.395,15.137
1532384910.154,20.996,26.367,75.684,4.395,-13.184
1532384910.157,24.902,25.879,76.172,12.207,11.230
1532384910.161,22.949,18.066,79.102,22.461,52.246
1532384910.165,26.855,20.020,74.707,26.855,26.855
1532384910.169,33.691,29.785,73.242,27.344,10.254
1532384910.173,31.250,27.832,75.195,25.879,25.879
1532384910.177,18.066,18.066,77.637,28.809,57.617
1532384910.181,20.508,12.695,78.613,28.320,38.086
1532384910.185,20.996,20.508,79.102,21.973,3.906
1532384910.189,8.301,19.531,79.102,15.625,29.297
1532384910.193,13.672,26.855,83.008,20.508,31.250
1532384910.196,18.066,31.250,77.148,16.113,28.320
1532384910.200,-0.977,20.020,64.941,5.859,8.301
1532384910.204,-1.953,18.555,69.336,8.789,17.578
1532384910.208,5.859,22.949,67.383,13.184,67.383
1532384910.212,11.230,25.391,63.477,12.695,38.086
1532384910.216,20.508,27.832,68.848,14.160,-5.371
1532384910.220,22.461,31.250,72.266,17.578,7.812
1532384910.224,19.043,25.879,74.707,18.066,35.156
1532384910.228,21.973,17.090,78.613,19.531,34.668
1532384910.232,26.855,24.902,76.660,21.973,-5.859
1532384910.236,25.391,27.344,71.289,20.508,-21.484
1532384910.239,20.996,23.438,68.359,13.672,-13.184
1532384910.243,27.344,31.738,75.684,16.113,10.742
1532384910.247,36.621,36.621,79.102,20.996,45.898
1532384910.251,28.320,28.809,66.406,13.672,24.414
1532384910.255,24.414,17.090,57.617,5.859,20.020
1532384910.259,20.020,15.625,62.988,7.812,50.781
1532384910.263,16.113,25.879,69.336,10.742,23.926
1532384910.267,19.531,27.344,70.801,10.254,7.324
1532384910.271,20.020,21.973,70.801,7.324,11.230
1532384910.275,23.926,21.484,68.848,2.930,21.484
1532384910.279,19.043,29.297,66.406,7.812,29.785
1532384910.282,16.602,29.785,69.336,16.602,25.391
1532384910.286,19.043,21.484,69.336,13.184,13.184
1532384910.290,15.625,20.996,62.012,8.301,30.762
1532384910.294,20.020,26.367,62.988,11.230,42.480
1532384910.298,23.926,29.785,60.547,13.672,21.973
1532384910.302,22.461,29.785,63.965,18.555,5.371
1532384910.306,25.391,32.715,80.078,21.973,36.621
1532384910.310,16.113,30.273,79.590,18.066,61.035
1532384910.314,4.883,17.090,70.801,10.254,0.488
1532384910.318,4.395,17.578,71.777,8.789,-2.930
1532384910.321,13.184,23.438,73.242,15.137,15.625
1532384910.325,12.695,17.090,71.289,17.578,26.367
1532384910.329,7.324,20.996,66.895,17.578,32.227
1532384910.333,6.348,24.902,66.406,18.555,5.371
1532384910.337,10.742,23.438,72.754,18.555,19.043
1532384910.341,13.672,30.762,71.289,23.438,39.551
1532384910.345,19.531,35.645,67.383,21.484,28.320
1532384910.349,28.809,36.133,70.801,17.090,7.812
1532384910.353,33.691,36.133,71.289,23.926,13.184
1532384910.357,33.203,33.691,74.219,27.832,50.781
1532384910.361,29.297,30.762,73.242,26.855,56.641
1532384910.364,31.250,36.621,75.684,31.250,44.922
1532384910.368,37.598,43.945,85.449,36.133,43.457
1532384910.372,34.668,41.016,73.730,31.250,31.738
1532384910.376,25.391,36.133,67.871,27.832,48.828
1532384910.380,23.926,31.250,73.242,27.344,46.875
1532384910.384,26.855,21.973,67.871,24.414,33.691
1532384910.388,28.320,23.926,65.918,25.879,34.668
1532384910.392,30.273,32.227,70.312,20.020,5.859
1532384910.396,26.367,33.203,76.660,16.113,-11.719
1532384910.400,18.555,31.250,76.172,25.391,26.855
1532384910.404,13.672,32.227,72.266,21.484,25.391
1532384910.407,19.043,33.203,74.707,24.414,50.781
1532384910.411,21.484,32.715,80.078,27.344,56.641
1532384910.415,19.043,36.621,72.266,18.066,6.348
1532384910.419,22.461,36.133,67.383,19.531,8.301
1532384910.423,24.414,31.250,74.219,25.391,21.484
1532384910.427,20.020,34.180,71.777,24.414,33.691
1532384910.431,17.090,34.668,67.383,19.043,22.461
1532384910.435,19.043,37.109,73.242,17.578,0.977
1532384910.439,15.625,40.527,79.102,23.926,24.902
1532384910.443,8.789,33.203,76.660,22.461,50.781
1532384910.446,5.371,28.320,74.707,23.926,22.949
1532384910.450,10.742,27.832,73.242,29.297,-0.488
1532384910.454,17.090,29.297,73.730,25.879,-5.371
1532384910.458,19.531,24.902,73.242,24.902,9.766
1532384910.462,20.996,23.926,70.801,27.344,34.668
1532384910.466,23.926,31.738,67.383,28.809,3.906
1532384910.470,28.320,39.062,64.453,25.879,-17.090
1532384910.474,25.879,38.574,64.453,23.438,45.898
1532384910.478,26.855,36.133,66.895,21.484,49.316
1532384910.482,30.273,38.574,63.477,19.531,31.250
1532384910.486,22.949,39.062,66.895,15.625,37.598
1532384910.489,23.438,32.715,70.801,11.230,18.555
1532384910.493,23.926,25.391,64.453,3.418,-6.348
1532384910.497,24.902,29.297,66.895,7.812,-36.621
1532384910.501,34.668,38.086,68.359,20.508,-5.859
1532384910.505,37.598,39.551,57.617,20.508,22.461
1532384910.509,34.668,36.133,57.617,20.020,26.367
1532384910.513,30.273,37.598,63.477,21.973,22.461
1532384910.517,31.250,42.480,70.801,28.809,11.230
1532384910.521,36.133,41.992,73.242,29.297,-4.395
1532384910.525,28.320,36.621,66.406,21.973,38.086
1532384910.529,23.438,38.574,63.965,22.461,53.711
1532384910.532,29.785,44.922,71.289,25.391,17.090
1532384910.536,23.438,44.434,73.730,24.414,14.648
1532384910.540,26.367,40.039,71.289,23.438,20.508
1532384910.544,33.203,40.039,70.312,24.414,39.551
1532384910.548,23.438,40.527,72.266,28.320,60.059
1532384910.552,22.949,35.645,72.266,25.391,28.809
1532384910.556,27.832,40.527,70.801,22.949,51.270
1532384910.560,33.691,49.805,73.242,29.785,95.703
1532384910.564,31.738,46.875,69.824,24.902,68.359
1532384910.568,28.320,37.109,68.848,21.484,61.035
1532384910.571,30.762,38.086,66.895,20.996,62.500
1532384910.575,38.086,37.109,64.941,21.484,33.691
1532384910.579,40.039,27.344,69.824,26.855,36.133
1532384910.583,41.016,33.691,71.289,26.855,35.645
1532384910.587,39.551,38.574,63.965,23.438,8.789
1532384910.591,38.086,31.250,63.477,25.879,22.949
1532384910.595,39.062,32.715,64.941,20.020,18.555
1532384910.599,39.062,40.527,62.500,17.090,-9.277
1532384910.603,38.086,42.480,65.918,33.203,20.996
1532384910.607,34.668,39.062,62.988,34.180,45.898
1532384910.611,36.621,37.109,60.547,26.855,57.129
1532384910.614,32.715,34.668,64.941,26.855,59.082
1532384910.618,25.879,31.738,63.477,29.785,59.570
1532384910.622,27.832,40.039,63.965,32.715,56.152
1532384910.626,36.621,43.457,69.824,40.039,47.852
1532384910.630,32.715,35.156,68.848,37.598,31.738
1532384910.634,27.832,28.320,66.895,27.832,14.648
1532384910.638,38.574,26.367,66.406,31.250,35.156
1532384910.642,36.133,27.832,62.988,37.598,39.551
1532384910.646,31.250,33.691,65.430,38.574,19.531
1532384910.650,34.668,36.621,71.777,39.551,6.836
1532384910.654,31.250,32.227,75.195,34.668,-11.719
1532384910.657,33.203,27.344,74.219,35.645,17.090
1532384910.661,35.645,24.902,71.777,40.527,37.109
1532384910.665,34.180,33.203,69.824,39.062,12.695
1532384910.669,36.621,39.062,72.266,36.133,22.461
1532384910.673,33.691,34.180,74.219,31.250,34.180
1532384910.677,32.715,31.738,73.730,31.738,40.527
1532384910.681,38.086,36.133,80.078,40.039,36.133
1532384910.685,34.668,32.715,73.730,35.645,15.137
1532384910.689,21.973,27.344,61.035,24.414,42.480
1532384910.693,26.367,28.320,64.453,22.461,48.828
1532384910.696,31.250,31.250,75.684,23.926,45.410
1532384910.700,23.926,27.344,74.707,22.461,45.898
1532384910.704,27.832,21.484,66.406,20.996,38.574
1532384910.708,35.645,27.832,68.848,28.320,59.570
1532384910.712,31.738,37.109,73.242,27.832,35.645
1532384910.716,31.738,39.551,74.707,29.297,-0.977
1532384910.720,32.227,39.551,71.289,38.574,36.133
1532384910.724,32.715,41.504,73.242,39.551,56.152
1532384910.728,34.668,37.109,78.613,36.621,52.734
1532384910.732,26.367,36.621,71.777,27.344,24.414
1532384910.736,31.250,40.039,69.824,26.855,-4.883
1532384910.739,44.434,35.156,78.613,38.574,31.738
1532384910.743,30.762,35.156,72.754,36.621,69.824
1532384910.747,20.020,35.156,65.918,30.762,63.477
1532384910.751,20.508,28.809,74.707,27.344,19.531
1532384910.755,21.484,20.508,78.125,25.879,25.391
1532384910.759,22.949,23.438,71.777,26.367,63.965
1532384910.763,26.367,29.785,69.824,31.250,35.645
1532384910.767,23.926,29.297,65.918,32.715,16.113
1532384910.771,20.996,34.180,64.453,31.738,43.457
1532384910.775,27.832,37.109,69.824,31.250,38.086
1532384910.778,26.367,34.668,71.289,30.762,9.766
1532384910.782,17.090,35.645,69.336,25.391,2.930
1532384910.786,20.996,36.621,67.871,26.855,17.578
1532384910.790,17.578,30.762,66.406,27.832,18.066
1532384910.794,12.695,23.438,62.012,15.137,16.113
1532384910.798,16.602,23.926,60.059,14.160,-20.020
1532384910.802,21.973,22.949,64.453,15.625,-22.949
1532384910.806,17.578,17.090,60.547,8.301,41.504
1532384910.810,13.672,21.484,51.270,1.953,45.410
1532384910.814,22.949,21.973,53.711,2.930,32.227
1532384910.818,36.621,15.625,57.617,7.324,17.578
1532384910.821,38.086,27.344,55.176,1.953,9.277
1532384910.825,42.480,39.062,50.293,-1.465,23.926
1532384910.829,46.875,29.297,49.316,-1.465,21.973
1532384910.833,40.527,21.973,51.270,3.418,18.066
1532384910.837,35.645,27.344,54.688,13.672,27.832
1532384910.841,23.926,29.297,53.223,16.113,24.902
1532384910.845,16.602,23.926,51.758,16.113,-9.766
1532384910.849,11.719,14.160,58.105,15.625,20.020
1532384910.853,3.418,20.508,62.500,10.254,24.414
1532384910.857,8.789,26.855,67.383,14.160,8.301
1532384910.861,9.277,15.137,62.012,16.113,56.641
1532384910.864,-5.371,18.555,52.246,8.789,59.570
1532384910.868,-4.883,17.090,45.898,10.742,20.020
1532384910.872,5.371,19.531,46.387,11.719,9.277
1532384910.876,4.883,24.414,53.711,6.836,6.836
1532384910.880,8.301,19.531,53.223,8.301,9.766
1532384910.884,12.695,19.531,49.805,10.742,42.480
1532384910.888,9.277,22.461,50.781,13.184,52.734
1532384910.892,7.324,19.531,55.176,14.648,60.547
1532384910.896,4.395,9.766,54.688,7.812,52.246
1532384910.900,9.277,20.996,55.664,9.766,32.715
1532384910.903,23.926,34.668,58.594,21.973,11.719
1532384910.907,24.414,23.438,47.852,18.555,39.062
1532384910.911,15.625,17.578,36.133,7.324,49.316
1532384910.915,15.137,22.461,40.527,5.859,11.230
1532384910.919,21.973,26.855,48.828,9.277,15.137
1532384910.923,23.926,27.832,49.316,9.277,45.898
1532384910.927,17.578,21.973,48.828,11.719,59.570
1532384910.931,19.043,18.555,48.340,8.301,10.742
1532384910.935,19.531,21.973,48.828,5.371,-24.902
1532384910.939,16.113,20.996,53.711,9.277,20.020
1532384910.943,16.602,16.602,55.664,8.789,40.527
1532384910.946,15.137,18.555,47.363,11.230,29.785
1532384910.950,18.555,28.320,47.852,14.160,7.324
1532384910.954,22.949,29.785,55.176,20.020,12.695
1532384910.958,28.809,25.391,57.129,23.926,45.898
1532384910.962,24.414,23.438,57.617,11.230,50.781
1532384910.966,9.766,16.113,47.852,3.906,24.414
1532384910.970,8.789,11.719,43.457,4.395,1.465
1532384910.974,6.836,19.043,49.805,2.930,1.953
1532384910.978,4.883,18.066,53.711,4.883,32.227
1532384910.982,7.324,14.648,51.758,8.789,26.367
1532384910.986,10.254,18.066,50.293,12.695,16.602
1532384910.989,13.672,17.090,43.457,16.602,49.316
1532384910.993,12.695,15.625,43.457,12.207,27.344
1532384910.997,9.766,10.254,51.758,9.277,18.555
1532384911.001,13.184,5.371,43.945,16.113,34.180
1532384911.005,19.043,4.883,41.992,16.602,40.039
1532384911.009,27.832,15.625,49.805,17.090,47.363
1532384911.013,22.949,25.391,52.246,11.719,11.230
1532384911.017,11.719,25.391,51.270,1.953,6.348
1532384911.021,15.625,22.949,49.316,3.418,41.016
1532384911.025,20.020,24.414,46.387,8.789,49.316
1532384911.028,25.391,31.250,49.316,12.695,41.992
1532384911.032,19.043,20.508,48.340,5.859,15.137
1532384911.036,16.113,9.277,43.945,6.348,33.203
1532384911.040,17.090,14.160,44.922,7.812,34.668
1532384911.044,21.484,17.578,43.945,11.719,17.578
1532384911.048,22.949,19.043,45.410,13.184,17.578
1532384911.052,10.742,23.438,51.758,6.348,-1.953
1532384911.056,16.113,25.391,50.781,11.719,23.438
1532384911.060,23.438,20.020,45.410,14.648,62.012
1532384911.064,17.578,22.461,44.434,7.812,68.359
1532384911.068,14.160,23.438,41.016,4.883,21.484
1532384911.071,14.648,23.438,46.387,7.324,16.113
1532384911.075,22.949,30.762,60.059,13.184,56.152
1532384911.079,18.066,24.414,53.711,8.789,43.945
1532384911.083,6.836,12.695,41.992,3.906,2.441
1532384911.087,10.254,11.230,42.969,4.395,14.160
1532384911.091,7.812,17.090,43.945,7.812,28.320
1532384911.095,5.859,20.508,44.434,7.324,3.418
1532384911.099,7.324,17.090,46.875,5.859,17.090
1532384911.103,5.371,17.090,47.852,15.137,23.438
1532384911.107,10.742,18.555,46.875,18.555,51.758
1532384911.111,15.137,13.184,42.969,18.066,63.965
1532384911.114,20.996,14.160,41.016,20.020,17.090
1532384911.118,23.438,23.438,41.992,21.973,22.949
1532384911.122,20.996,25.879,48.828,18.555,54.688
1532384911.126,21.484,22.949,54.199,16.113,60.059
1532384911.130,16.602,19.531,48.340,17.578,43.945
1532384911.134,11.230,17.090,45.898,10.254,20.996
1532384911.138,20.020,29.297,60.059,19.531,39.062
1532384911.142,26.855,34.180,60.059,27.832,52.246
1532384911.146,20.996,24.902,44.434,12.207,54.688
1532384911.150,24.414,23.438,42.480,15.137,37.598
1532384911.153,30.273,27.344,47.852,21.973,13.672
1532384911.157,35.156,30.762,58.105,26.855,31.250
1532384911.161,36.621,26.855,64.453,31.250,61.035
1532384911.165,31.738,23.438,62.988,32.227,41.016
1532384911.169,33.691,27.344,60.059,30.762,17.578
1532384911.173,32.227,31.250,59.570,25.879,44.434
1532384911.177,24.414,27.344,58.105,23.438,63.477
1532384911.181,22.461,25.879,56.641,21.484,30.273
1532384911.185,19.043,30.273,59.570,23.926,13.672
1532384911.189,16.113,34.668,56.152,29.297,40.527
1532384911.193,15.137,31.250,55.176,22.461,4.883
1532384911.196,14.648,22.949,57.129,20.020,1.953
1532384911.200,16.602,28.320,54.199,25.879,26.367
1532384911.204,16.113,30.273,54.199,23.926,19.043
1532384911.208,22.949,30.762,63.965,30.762,41.504
1532384911.212,28.809,32.227,70.801,37.109,32.715
1532384911.216,25.391,25.879,62.988,28.320,-3.906
1532384911.220,22.461,20.996,56.641,30.762,28.320
1532384911.224,27.832,20.020,50.781,30.273,65.430
1532384911.228,35.645,21.973,50.293,27.344,60.059
1532384911.232,35.156,24.902,58.594,32.227,22.461
1532384911.235,32.227,25.391,64.453,31.738,24.414
1532384911.239,32.227,23.438,62.012,28.320,66.406
1532384911.243,35.156,20.996,58.105,24.414,58.105
1532384911.247,34.668,27.344,59.082,19.531,42.480
1532384911.251,40.039,28.809,62.012,24.902,15.137
1532384911.255,41.992,17.090,62.500,27.344,-0.977
1532384911.259,47.363,22.949,60.547,25.391,42.480
1532384911.263,39.551,32.715,59.082,24.902,38.086
1532384911.267,24.902,30.273,57.129,23.926,43.457
1532384911.271,29.297,31.250,62.012,31.250,44.922
1532384911.275,27.832,25.879,62.500,29.297,34.180
1532384911.278,22.461,16.602,59.570,23.438,33.691
1532384911.282,20.508,16.602,60.059,24.414,26.855
1532384911.286,25.391,21.973,59.082,20.508,13.184
1532384911.290,24.414,21.973,63.477,19.531,5.859
1532384911.294,26.367,19.531,66.895,20.020,24.902
1532384911.298,29.785,17.090,67.383,27.344,13.672
1532384911.302,19.531,18.555,65.430,24.902,-0.488
1532384911.306,19.043,22.949,62.988,20.996,2.930
1532384911.310,25.879,20.996,62.500,26.367,24.414
1532384911.314,24.414,14.160,59.570,25.879,19.531
1532384911.318,20.508,16.602,55.664,28.320,25.391
1532384911.321,25.391,26.855,62.500,35.645,41.504
1532384911.325,31.250,26.367,68.848,43.945,26.367
1532384911.329,33.691,12.695,62.500,34.180,38.086
1532384911.333,34.180,14.160,63.477,19.531,35.645
1532384911.337,25.879,19.043,71.777,22.461,39.551
1532384911.341,21.484,20.020,74.219,28.809,42.480
1532384911.345,18.555,24.414,69.824,27.832,37.109
1532384911.349,16.113,20.020,64.941,19.531,46.875
1532384911.353,22.461,18.555,61.035,13.184,14.648
1532384911.357,23.926,19.531,63.477,13.184,29.297
1532384911.360,22.949,18.066,66.895,15.137,92.285
1532384911.364,30.273,20.020,63.477,14.160,54.199
1532384911.368,26.367,24.414,56.641,11.230,17.090
1532384911.372,23.438,24.902,56.152,13.184,44.922
1532384911.376,23.926,21.973,62.012,13.184,32.227
1532384911.380,23.926,16.113,63.477,16.113,6.348
1532384911.384,20.996,13.184,60.547,16.602,-7.812
1532384911.388,25.391,19.531,62.012,19.043,10.742
1532384911.392,35.156,28.809,69.336,27.344,25.879
1532384911.396,28.809,20.996,66.406,16.113,13.672
1532384911.400,19.043,3.906,60.547,12.695,31.738
1532384911.403,20.020,11.719,64.941,17.578,43.945
1532384911.407,26.367,26.367,62.988,12.207,44.922
1532384911.411,22.461,25.879,61.035,12.207,37.109
1532384911.415,13.672,26.855,63.477,10.254,26.367
1532384911.419,13.672,25.879,63.477,13.672,29.785
1532384911.423,17.578,23.926,64.453,18.555,40.039
1532384911.427,20.020,24.414,65.918,19.043,54.688
1532384911.431,16.113,15.137,65.918,13.672,41.016
1532384911.435,19.531,18.555,63.965,9.277,0.488
1532384911.439,20.020,25.391,59.082,14.648,-19.531
1532384911.443,21.484,24.414,63.477,21.973,18.555
1532384911.446,30.762,23.926,66.406,21.973,32.227
1532384911.450,32.715,26.855,61.035,24.414,3.418
1532384911.454,40.039,26.367,63.477,25.879,29.297
1532384911.458,38.574,19.043,63.965,22.461,64.453
1532384911.462,37.598,23.438,59.570,26.367,51.270
1532384911.466,45.410,32.227,62.988,34.668,4.883
1532384911.470,36.133,26.367,64.453,30.762,22.949
1532384911.474,28.809,20.508,59.082,20.020,35.156
1532384911.478,25.391,24.414,54.199,16.113,21.973
1532384911.482,23.438,28.809,56.641,15.137,22.949
1532384911.485,22.949,27.344,62.012,16.113,19.043
1532384911.489,23.438,16.602,59.570,20.020,38.574
1532384911.493,25.391,14.648,53.223,13.184,29.297
1532384911.497,26.367,20.508,48.828,9.277,26.855
1532384911.501,26.367,23.926,52.246,19.043,34.668
1532384911.505,26.855,27.832,56.641,26.855,46.387
1532384911.509,30.762,26.367,58.594,29.785,52.246
1532384911.513,32.227,30.273,54.688,31.250,39.551
1532384911.517,29.297,27.832,50.293,30.273,29.297
1532384911.521,30.273,21.973,55.176,28.320,22.461
1532384911.525,30.762,24.414,59.570,28.320,25.879
1532384911.528,25.391,23.926,56.152,29.297,16.602
1532384911.532,32.715,29.297,59.570,39.551,2.930
1532384911.536,31.738,29.785,63.477,35.645,59.082
1532384911.540,19.043,19.043,55.664,15.625,69.824
1532384911.544,21.973,20.020,51.270,19.043,44.922
1532384911.548,19.043,20.996,51.270,21.484,46.387
1532384911.552,11.230,19.531,53.711,19.043,10.742
1532384911.556,21.973,26.367,48.340,20.508,-1.953
1532384911.560,27.832,31.250,47.363,22.461,35.156
1532384911.564,16.113,30.273,53.223,24.902,50.781
1532384911.568,10.742,30.762,52.246,25.391,51.758
1532384911.571,12.207,32.227,49.805,20.508,22.461
1532384911.575,19.043,36.133,50.781,19.531,41.016
1532384911.579,20.508,36.621,52.734,20.996,62.012
1532384911.583,19.043,32.715,56.152,18.555,37.109
1532384911.587,20.508,36.621,56.152,19.531,26.367
1532384911.591,24.902,31.250,52.246,19.043,21.484
1532384911.595,25.391,27.832,48.828,12.207,21.973
1532384911.599,19.043,40.039,51.270,14.648,41.992
1532384911.603,10.254,41.992,52.734,19.531,24.902
1532384911.607,15.137,43.945,55.664,22.461,67.871
1532384911.610,27.344,42.969,59.570,27.832,82.520
1532384911.614,22.949,30.273,48.828,17.090,-3.906
1532384911.618,16.602,33.203,41.016,7.812,-1.953
1532384911.622,21.484,36.621,45.410,11.719,39.062
1532384911.626,29.297,31.738,40.527,13.672,48.340
1532384911.630,35.156,37.109,40.039,6.836,13.672
1532384911.634,37.109,39.062,48.340,0.488,-20.996
1532384911.638,48.828,41.016,48.340,4.883,37.598
1532384911.642,50.781,44.922,44.922,7.324,81.055
1532384911.646,34.668,33.203,44.434,8.301,48.340
1532384911.650,30.273,34.668,44.434,17.578,17.090
1532384911.653,20.508,35.156,40.039,18.555,24.414
1532384911.657,6.836,25.391,44.922,17.090,63.477
1532384911.661,15.625,28.809,56.152,29.297,91.797
1532384911.665,14.648,31.738,49.316,27.832,44.434
1532384911.669,9.277,36.133,43.945,20.020,-9.277
1532384911.673,16.113,36.133,46.875,22.461,18.066
1532384911.677,16.602,31.250,37.598,26.367,47.852
1532384911.681,15.625,33.203,33.203,26.855,33.203
1532384911.685,16.113,36.621,44.922,22.949,19.531
1532384911.689,19.531,36.133,48.828,21.484,43.457
1532384911.693,22.949,34.668,47.852,25.391,77.148
1532384911.696,24.902,30.762,48.828,23.438,62.988
1532384911.700,23.926,32.227,44.434,16.113,40.527
1532384911.704,26.855,31.738,45.410,13.672,45.898
1532384911.708,22.461,34.668,42.480,10.742,65.430
1532384911.712,21.973,38.086,39.062,15.137,43.945
1532384911.716,30.762,28.809,43.457,20.508,-26.855
1532384911.720,21.484,21.973,41.992,12.207,-25.391
1532384911.724,13.672,29.785,38.086,8.789,36.621
1532384911.728,19.043,31.738,36.133,8.301,52.246
1532384911.732,19.043,29.297,39.551,8.301,19.043
1532384911.735,15.137,22.949,45.410,10.742,4.395
1532384911.739,18.555,29.785,48.340,15.625,50.293
1532384911.743,26.367,41.016,42.969,19.531,41.016
1532384911.747,27.832,33.203,36.621,14.160,31.738
1532384911.751,16.113,24.902,41.992,13.672,28.809
1532384911.755,12.207,26.367,42.480,18.066,23.438
1532384911.759,18.555,30.273,39.551,18.066,44.434
1532384911.763,20.508,25.879,40.527,19.531,25.879
1532384911.767,19.043,25.879,44.434,21.973,11.230
1532384911.771,18.555,29.785,46.387,16.113,22.949
1532384911.775,16.602,27.344,41.992,11.230,13.672
1532384911.778,18.555,40.527,44.922,20.020,32.227
1532384911.782,22.949,40.039,44.434,20.996,9.277
1532384911.786,20.020,23.438,39.551,17.090,2.441
1532384911.790,17.090,21.484,37.109,19.531,33.691
1532384911.794,18.066,23.926,36.133,19.531,50.293
1532384911.798,18.066,31.250,36.621,19.531,37.109
1532384911.802,21.484,31.250,34.180,18.555,12.695
1532384911.806,23.926,26.367,39.551,13.672,34.180
1532384911.810,19.043,26.367,45.410,11.719,55.176
1532384911.814,16.602,27.344,46.875,13.184,26.855
1532384911.817,18.555,26.367,47.852,12.695,2.930
1532384911.821,16.113,24.414,42.480,14.160,24.902
1532384911.825,19.043,27.344,41.504,13.184,35.156
1532384911.829,26.367,30.762,43.457,13.184,22.949
1532384911.833,20.996,28.809,40.039,15.137,-3.906
1532384911.837,20.996,20.508,40.527,12.695,-1.953
1532384911.841,21.973,25.879,43.945,12.695,38.574
1532384911.845,11.719,32.227,45.410,9.766,47.363
1532384911.849,19.531,35.645,51.270,16.602,38.086
1532384911.853,28.320,39.551,51.270,20.508,28.809
1532384911.857,18.555,25.391,39.551,7.812,29.297
1532384911.860,13.672,19.531,34.668,5.371,44.434
1532384911.864,16.602,21.973,36.133,12.207,55.176
1532384911.868,18.066,22.949,33.203,11.230,41.016
1532384911.872,24.902,27.344,28.809,9.766,33.203
1532384911.876,29.297,30.273,38.574,21.973,46.387
1532384911.880,20.508,29.297,45.898,20.020,49.805
1532384911.884,17.578,29.297,44.922,10.742,37.598
1532384911.888,15.137,30.273,40.527,10.254,35.645
1532384911.892,9.277,31.250,41.504,3.906,31.738
1532384911.896,8.301,38.086,41.504,2.930,24.902
1532384911.900,14.648,40.527,43.945,13.184,15.625
1532384911.903,16.113,35.645,45.898,16.602,10.254
1532384911.907,19.531,28.320,39.551,14.648,63.477
1532384911.911,30.762,29.297,49.316,23.926,45.410
1532384911.915,23.438,30.273,52.246,22.461,-42.480
1532384911.919,17.090,23.926,41.504,15.137,-28.320
1532384911.923,21.484,23.438,41.992,20.508,0.977
1532384911.927,27.344,29.297,48.340,23.926,33.691
1532384911.931,28.809,30.762,42.480,23.926,30.762
1532384911.935,29.297,25.879,41.992,22.949,16.113
1532384911.939,31.738,26.855,48.340,21.484,62.988
1532384911.942,30.762,30.273,43.945,19.531,72.266
1532384911.946,31.250,26.855,48.828,26.367,62.500
1532384911.950,36.621,28.320,55.176,30.762,47.852
1532384911.954,32.227,33.691,49.316,23.926,19.531
1532384911.958,25.879,27.832,43.457,22.461,38.086
1532384911.962,25.391,22.461,45.410,24.414,45.898
1532384911.966,25.391,20.508,44.922,27.832,60.547
1532384911.970,28.320,31.250,47.852,33.203,47.852
1532384911.974,29.785,44.922,53.223,37.598,54.688
1532384911.978,24.414,30.762,50.293,31.738,51.758
1532384911.982,19.531,17.090,49.316,28.320,-2.930
1532384911.985,13.184,23.926,44.434,27.832,7.324
1532384911.989,8.301,25.391,46.875,25.879,28.320
1532384911.993,13.184,20.020,48.828,29.297,43.457
1532384911.997,19.531,23.926,45.898,27.344,56.152
1532384912.001,20.508,31.250,44.434,24.902,43.945
1532384912.005,17.578,28.809,45.898,20.996,37.598
1532384912.009,12.207,21.484,50.293,15.137,55.176
1532384912.013,11.230,15.625,49.316,15.137,27.344
1532384912.017,14.160,11.719,52.246,17.090,-29.785
1532384912.021,16.113,13.184,53.223,17.090,-8.301
1532384912.025,17.578,28.320,50.293,18.066,45.898
1532384912.028,21.484,34.180,44.434,22.461,35.156
1532384912.032,19.531,22.461,45.898,22.949,34.180
1532384912.036,21.973,27.344,55.176,22.949,56.152
1532384912.040,26.855,35.645,52.246,25.391,46.875
1532384912.044,21.484,32.227,41.504,17.578,65.918
1532384912.048,18.066,30.273,40.039,13.184,60.547
1532384912.052,21.973,22.949,39.551,16.113,29.297
1532384912.056,27.832,21.973,39.551,19.531,51.270
1532384912.060,21.973,24.414,43.457,19.531,79.102
1532384912.064,15.137,25.391,41.504,16.602,62.500
1532384912.067,18.555,28.320,40.527,17.578,54.199
1532384912.071,16.602,29.785,41.016,13.672,77.637
1532384912.075,10.254,28.320,35.156,8.789,72.754
1532384912.079,16.113,29.785,35.156,11.230,50.293
1532384912.083,25.391,31.250,37.598,12.207,33.203
1532384912.087,20.020,29.785,37.109,11.719,6.836
1532384912.091,20.508,25.391,41.992,9.277,23.926
1532384912.095,29.785,20.508,45.898,12.695,46.875
1532384912.099,19.043,17.090,48.828,16.602,29.297
1532384912.103,11.230,20.020,45.410,12.207,26.855
1532384912.107,25.879,25.879,46.387,19.531,55.664
1532384912.110,29.297,22.461,48.340,24.902,40.039
1532384912.114,13.184,19.043,40.527,10.254,-2.441
1532384912.118,9.766,21.973,40.527,3.418,22.461
1532384912.122,12.207,22.461,40.527,4.883,61.035
1532384912.126,14.160,14.160,38.086,5.859,72.266
1532384912.130,18.555,15.625,38.574,10.742,47.852
1532384912.134,9.277,24.414,39.551,11.230,19.043
1532384912.138,5.859,20.508,36.133,8.789,29.785
1532384912.142,16.113,23.438,34.668,10.742,48.340
1532384912.146,16.113,28.809,37.109,12.695,46.387
1532384912.150,12.207,23.926,37.598,10.742,28.320
1532384912.153,13.672,24.414,34.668,6.348,-6.836
1532384912.157,15.137,25.391,33.691,6.348,14.160
1532384912.161,23.926,22.949,40.039,10.254,40.039
1532384912.165,20.996,24.414,41.016,10.254,22.461
1532384912.169,20.020,31.250,39.551,12.207,13.672
1532384912.173,25.391,35.156,41.504,18.066,45.410
1532384912.177,21.973,28.320,36.133,16.602,62.012
1532384912.181,21.973,25.879,31.250,15.137,42.480
1532384912.185,19.531,28.809,30.762,16.602,30.762
1532384912.189,20.996,28.320,35.156,20.996,41.504
1532384912.192,18.555,26.855,35.156,16.602,50.781
1532384912.196,19.043,24.902,33.691,10.742,20.020
1532384912.200,20.508,20.020,40.039,14.160,29.297
1532384912.204,17.090,21.973,37.109,17.578,49.316
1532384912.208,17.578,27.832,31.738,19.043,65.430
1532384912.212,15.625,29.785,37.598,18.555,66.406
1532384912.216,20.020,25.879,37.109,22.461,36.133
1532384912.220,23.926,19.531,33.203,26.367,33.203
1532384912.224,17.090,18.555,40.039,21.484,32.227
1532384912.228,15.137,18.066,42.969,18.066,41.504
1532384912.232,17.578,25.391,39.551,19.531,27.344
1532384912.235,18.555,34.180,42.969,19.043,5.371
1532384912.239,15.625,24.902,41.992,17.090,26.855
1532384912.243,11.230,13.672,33.203,11.230,56.641
1532384912.247,18.066,22.461,35.645,9.277,59.082
1532384912.251,20.996,26.855,39.062,11.230,37.109
1532384912.255,17.090,21.973,37.598,8.789,37.109
1532384912.259,14.648,15.137,38.086,12.207,39.551
1532384912.263,16.113,18.555,38.086,15.137,41.992
1532384912.267,20.020,25.879,38.574,14.648,40.527
1532384912.271,22.461,22.461,40.039,16.113,21.973
1532384912.274,35.156,25.879,37.109,13.184,10.254
1532384912.278,36.621,27.344,33.691,7.812,7.324
1532384912.282,27.344,22.949,38.086,14.648,26.855
1532384912.286,28.809,22.461,38.086,23.438,33.691
1532384912.290,28.809,15.625,37.598,25.879,32.227
1532384912.294,27.832,13.672,40.039,25.391,21.484
1532384912.298,37.109,25.879,46.875,31.250,5.371
1532384912.302,37.598,27.832,52.246,36.621,19.043
1532384912.306,23.438,11.719,37.598,23.438,36.133
1532384912.310,18.555,13.672,34.180,14.160,57.617
1532384912.314,26.367,29.297,47.363,22.461,33.691
1532384912.317,28.809,34.668,45.898,26.855,18.555
1532384912.321,25.391,27.344,43.945,23.438,16.113
1532384912.325,25.391,19.531,51.270,27.344,41.504
1532384912.329,25.879,26.367,47.363,33.203,74.707
1532384912.333,26.367,31.738,46.387,25.879,26.855
1532384912.337,25.879,27.344,50.293,22.949,23.438
1532384912.341,28.320,31.250,47.852,28.809,60.547
1532384912.345,30.273,37.598,44.922,23.926,68.359
1532384912.349,29.297,32.715,41.504,21.973,46.875
1532384912.353,34.180,27.832,46.875,23.926,25.391
1532384912.357,30.273,28.320,53.223,23.438,36.133
1532384912.360,24.902,26.855,50.293,19.043,45.410
1532384912.364,24.414,21.484,47.852,19.043,50.293
1532384912.368,27.832,21.973,45.410,22.949,35.645
1532384912.372,37.109,32.227,41.992,26.855,20.996
1532384912.376,40.527,33.691,41.016,31.250,25.391
1532384912.380,34.668,24.414,40.039,29.785,31.250
1532384912.384,34.668,17.090,44.922,28.320,31.250
1532384912.388,29.297,18.066,43.945,29.785,62.500
1532384912.392,16.602,28.320,36.621,30.762,77.637
1532384912.396,18.555,31.250,30.762,28.320,43.457
1532384912.399,22.461,25.391,27.832,25.391,5.859
1532384912.403,20.020,23.438,31.250,29.785,7.812
1532384912.407,21.973,22.461,28.809,36.133,46.875
1532384912.411,27.344,21.484,26.367,33.691,59.082
1532384912.415,25.879,17.578,22.949,27.344,20.508
1532384912.419,28.320,16.113,22.949,27.832,38.574
1532384912.423,28.320,23.438,22.461,29.785,66.895
1532384912.427,22.461,22.949,24.414,27.832,64.941
1532384912.431,28.320,16.113,23.926,28.809,28.809
1532384912.435,30.273,22.949,20.508,30.762,-2.930
1532384912.439,24.414,29.785,24.902,23.926,51.270
1532384912.442,26.367,30.273,31.738,24.414,86.914
1532384912.446,28.320,25.391,22.949,27.344,56.152
1532384912.450,22.949,19.043,6.348,17.578,14.160
1532384912.454,17.578,17.090,6.348,12.695,0.488
1532384912.458,17.578,13.184,6.836,14.160,27.344
1532384912.462,20.996,16.113,3.906,1.953,36.621
1532384912.466,25.879,19.531,2.441,-3.906,26.855
1532384912.470,33.691,14.648,-3.418,3.906,9.277
1532384912.474,43.945,20.020,-16.113,7.324,22.949
1532384912.478,40.527,28.809,-25.391,13.672,65.430
1532384912.482,27.344,22.461,-26.855,22.949,62.012
1532384912.485,22.461,22.461,-35.645,29.297,57.129
1532384912.489,21.484,23.438,-46.387,29.785,64.453
1532384912.493,18.555,14.160,-49.316,27.832,52.246
1532384912.497,17.090,12.207,-55.664,28.809,26.855
1532384912.501,13.184,24.414,-66.406,27.832,19.531
1532384912.505,22.949,31.250,-60.547,37.109,57.129
1532384912.509,22.949,17.090,-61.035,39.062,41.016
1532384912.513,6.348,10.254,-79.102,22.461,15.137
1532384912.517,6.836,22.461,-87.891,20.996,8.789
1532384912.521,14.648,19.531,-91.309,25.391,10.742
1532384912.524,14.648,17.578,-101.074,21.484,57.617
1532384912.528,13.672,26.367,-108.398,22.949,69.824
1532384912.532,21.484,24.414,-109.863,24.414,34.180
1532384912.536,23.438,18.066,-121.094,20.996,21.484
1532384912.540,22.949,18.555,-126.953,19.531,46.387
1532384912.544,24.902,20.020,-127.441,19.531,46.875
1532384912.548,17.578,19.043,-134.277,14.648,47.852
1532384912.552,14.160,21.484,-139.160,15.137,50.293
1532384912.556,18.066,23.438,-140.625,20.996,52.734
1532384912.560,16.602,21.973,-140.625,20.996,48.828
1532384912.564,15.625,20.996,-142.090,20.508,20.020
1532384912.567,21.973,20.508,-146.484,26.855,14.648
1532384912.571,24.902,15.625,-147.461,26.367,21.484
1532384912.575,15.625,18.555,-154.297,16.602,40.039
1532384912.579,14.648,30.273,-161.621,15.137,36.621
1532384912.583,18.066,30.762,-161.621,16.113,6.836
1532384912.587,15.137,27.344,-162.109,13.184,31.250
1532384912.591,18.555,28.809,-162.598,14.160,31.738
1532384912.595,21.973,27.344,-163.086,15.137,27.832
1532384912.599,26.855,24.414,-168.945,15.625,37.109
1532384912.603,34.668,22.949,-170.898,20.996,28.320
1532384912.607,37.109,20.996,-167.480,24.902,42.480
1532384912.610,35.645,24.414,-173.828,20.508,48.828
1532384912.614,36.133,13.184,-175.781,14.160,20.996
1532384912.618,40.527,12.207,-176.270,17.578,18.555
1532384912.622,37.598,28.320,-178.711,21.973,68.359
1532384912.626,27.344,19.531,-174.805,20.996,93.262
1532384912.630,30.273,17.090,-166.016,23.438,31.250
1532384912.634,30.273,22.949,-163.574,20.020,3.418
1532384912.638,18.066,25.391,-169.922,14.648,29.785
1532384912.642,10.254,23.926,-173.828,14.160,64.453
1532384912.646,6.836,22.461,-175.293,14.160,83.984
1532384912.649,1.465,20.020,-174.316,15.137,42.480
1532384912.653,-2.930,15.625,-170.898,11.230,11.719
1532384912.657,2.441,14.160,-172.363,11.719,38.574
1532384912.661,8.789,7.812,-173.340,11.719,54.688
1532384912.665,13.184,4.883,-164.551,14.160,36.133
1532384912.669,21.484,15.137,-163.574,17.090,16.602
1532384912.673,33.203,24.902,-170.410,19.043,20.996
1532384912.677,38.574,26.367,-175.781,23.438,25.879
1532384912.681,44.922,21.484,-169.434,27.344,34.180
1532384912.685,50.293,20.020,-156.738,30.762,8.789
1532384912.689,42.480,21.973,-166.016,27.344,-2.441
1532384912.692,43.457,24.902,-174.805,22.461,39.551
1532384912.696,48.340,22.461,-166.016,18.555,29.785
1532384912.700,50.781,22.461,-154.785,23.926,23.438
1532384912.704,47.852,29.297,-158.203,29.297,41.016
1532384912.708,42.480,24.414,-164.062,28.320,55.664
1532384912.712,40.039,23.926,-159.668,27.344,40.527
1532384912.716,34.668,27.832,-156.250,21.973,-2.441
1532384912.720,30.273,27.344,-160.645,23.926,9.277
1532384912.724,27.832,23.438,-165.039,27.344,50.781
1532384912.728,29.785,23.438,-163.574,29.785,46.387
1532384912.731,26.367,28.809,-159.668,28.809,10.254
1532384912.735,19.531,26.855,-157.715,19.043,3.418
1532384912.739,21.484,22.461,-147.949,19.043,41.016
1532384912.743,26.855,24.414,-138.672,28.320,62.500
1532384912.747,27.832,23.926,-145.020,25.879,51.758
1532384912.751,23.926,16.602,-155.762,12.695,1.465
1532384912.755,24.902,17.578,-157.715,15.625,-3.418
1532384912.759,29.785,24.414,-153.809,23.438,39.062
1532384912.763,33.691,33.691,-149.414,27.344,31.250
1532384912.767,36.133,32.715,-148.926,24.414,10.254
1532384912.771,33.203,26.855,-151.367,28.320,28.320
1532384912.774,31.738,26.367,-145.508,30.762,72.754
1532384912.778,27.832,21.973,-139.160,17.090,61.523
1532384912.782,29.297,29.297,-143.066,13.184,40.039
1532384912.786,33.203,33.203,-145.996,24.414,53.223
1532384912.790,26.367,25.879,-146.484,29.785,55.664
1532384912.794,19.043,23.438,-149.414,18.066,23.438
1532384912.798,16.113,24.902,-145.020,12.207,10.254
1532384912.802,19.531,27.832,-138.184,16.113,26.367
1532384912.806,20.020,22.949,-137.695,15.625,29.297
1532384912.810,16.113,17.578,-139.648,17.090,57.129
1532384912.814,20.020,26.367,-135.254,23.926,57.617
1532384912.817,18.555,36.133,-135.742,15.625,28.809
1532384912.821,14.648,31.738,-141.113,4.395,52.734
1532384912.825,18.555,26.855,-140.137,3.906,78.613
1532384912.829,20.020,29.785,-142.090,2.441,40.039
1532384912.833,21.484,34.180,-142.578,7.812,23.926
1532384912.837,24.902,32.227,-135.742,10.254,50.781
1532384912.841,27.344,32.227,-130.859,9.766,67.871
1532384912.845,32.715,20.508,-124.512,16.602,71.777
1532384912.849,30.273,15.625,-124.512,15.625,39.551
1532384912.853,21.484,29.297,-123.535,12.695,4.395
1532384912.856,25.879,35.645,-120.605,17.090,25.391
1532384912.860,28.320,33.203,-119.629,17.578,48.340
1532384912.864,21.973,35.156,-117.676,19.531,19.043
1532384912.868,21.973,34.180,-119.629,21.973,14.648
1532384912.872,25.391,24.414,-115.723,19.531,20.996
1532384912.876,21.973,27.344,-114.746,13.672,21.973
1532384912.880,15.625,29.297,-116.699,9.766,44.434
1532384912.884,22.461,27.832,-110.840,11.719,26.367
1532384912.888,22.461,28.809,-106.445,10.742,20.020
1532384912.892,15.625,22.949,-111.816,4.395,24.414
1532384912.896,12.695,18.066,-117.676,0.000,5.859
1532384912.899,6.348,17.578,-118.652,-3.418,20.996
1532384912.903,10.742,22.949,-111.328,0.488,22.461
1532384912.907,18.066,25.391,-106.445,3.418,39.551
1532384912.911,20.996,28.809,-108.398,4.883,42.969
1532384912.915,24.414,31.250,-109.863,6.836,-11.719
1532384912.919,23.438,25.879,-107.910,9.766,-14.648
1532384912.923,22.461,27.832,-103.027,15.137,37.109
1532384912.927,23.438,27.344,-103.516,16.602,77.148
1532384912.931,23.438,21.484,-104.004,18.066,48.828
1532384912.935,31.738,31.738,-100.586,21.484,16.113
1532384912.939,36.621,33.203,-95.215,26.367,51.270
1532384912.942,22.949,25.879,-100.586,21.484,59.082
1532384912.946,19.531,27.832,-103.516,14.648,37.598
1532384912.950,24.414,32.715,-98.145,12.695,28.809
1532384912.954,34.668,40.039,-93.262,17.578,19.043
1532384912.958,38.086,33.691,-90.332,22.461,31.738
1532384912.962,18.066,17.090,-89.355,9.277,20.508
1532384912.966,14.160,15.625,-88.379,4.883,0.488
1532384912.970,22.949,24.902,-85.449,8.301,25.391
1532384912.974,18.066,30.762,-82.520,7.324,38.086
1532384912.978,24.902,35.156,-88.867,12.695,44.922
1532384912.981,34.180,32.227,-87.402,17.578,32.227
1532384912.985,36.621,23.926,-80.566,26.855,23.926
1532384912.989,31.250,16.113,-78.613,26.855,61.523
1532384912.993,29.297,17.578,-77.637,20.020,48.828
1532384912.997,30.762,28.320,-75.195,20.508,-1.953
1532384913.001,24.414,29.297,-75.195,20.508,20.996
1532384913.005,20.508,25.391,-74.219,20.996,30.762
1532384913.009,24.414,20.020,-73.242,21.484,22.949
1532384913.013,21.973,19.043,-79.590,16.602,26.855
1532384913.017,24.902,28.809,-72.266,22.461,8.789
1532384913.021,32.715,31.738,-61.523,31.738,4.395
1532384913.024,24.414,22.461,-71.777,19.531,33.691
1532384913.028,19.043,23.926,-72.266,14.160,23.926
1532384913.032,25.391,23.926,-65.430,21.973,1.953
1532384913.036,31.738,25.391,-67.383,25.391,13.184
1532384913.040,25.391,24.902,-68.848,23.438,48.340
1532384913.044,27.344,17.578,-69.336,22.949,44.434
1532384913.048,25.879,16.113,-78.125,25.391,2.930
1532384913.052,17.090,20.996,-76.660,20.996,-9.766
1532384913.056,20.996,25.391,-66.406,18.066,4.395
1532384913.060,27.344,25.391,-66.895,23.926,28.320
1532384913.064,28.809,29.297,-70.801,25.391,18.555
1532384913.067,26.855,32.715,-67.871,23.438,19.043
1532384913.071,28.320,33.691,-66.895,24.414,6.348
1532384913.075,29.785,37.109,-68.848,17.090,27.832
1532384913.079,27.832,35.156,-71.777,15.625,49.316
1532384913.083,24.902,34.180,-71.289,17.578,42.969
1532384913.087,30.273,41.016,-64.453,17.578,56.152
1532384913.091,31.738,40.039,-68.848,11.719,43.457
1532384913.095,24.414,32.715,-70.312,5.371,32.715
1532384913.099,17.578,26.855,-66.895,7.812,33.203
1532384913.103,21.484,24.414,-68.848,9.277,19.531
1532384913.106,26.855,28.320,-72.754,12.695,46.387
1532384913.110,21.973,29.785,-73.730,19.531,61.035
1532384913.114,20.020,29.297,-67.871,18.066,16.602
1532384913.118,25.879,27.832,-57.617,20.996,4.883
1532384913.122,25.879,23.438,-58.105,24.902,34.668
1532384913.126,26.367,25.391,-59.570,22.461,56.641
1532384913.130,27.832,29.785,-60.059,20.996,36.133
1532384913.134,23.438,30.762,-65.918,17.090,-15.625
1532384913.138,23.438,38.086,-62.012,21.484,21.484
1532384913.142,26.367,38.086,-55.664,29.785,52.734
1532384913.146,26.367,29.297,-59.570,25.879,23.926
1532384913.149,32.227,32.227,-58.105,31.250,14.160
1532384913.153,36.621,39.062,-52.734,38.086,-2.441
1532384913.157,30.273,28.809,-52.246,37.109,47.363
1532384913.161,29.297,22.949,-51.270,36.621,52.734
1532384913.165,31.738,16.113,-58.105,36.621,18.066
1532384913.169,31.250,4.883,-58.594,36.133,18.066
1532384913.173,32.227,19.043,-52.246,39.551,29.785
1532384913.177,24.414,35.156,-55.176,38.574,60.547
1532384913.181,21.973,31.738,-50.293,31.738,44.922
1532384913.185,27.344,30.273,-42.480,31.738,7.324
1532384913.189,28.809,31.250,-45.898,31.250,62.012
1532384913.192,26.855,28.809,-52.246,26.367,78.613
1532384913.196,24.414,21.973,-51.758,22.949,56.152
1532384913.200,27.344,17.578,-50.293,24.414,35.645
1532384913.204,23.926,22.461,-53.223,22.461,11.230
1532384913.208,26.367,23.438,-43.945,31.738,38.086
1532384913.212,44.922,23.438,-30.762,49.316,41.016
1532384913.216,38.086,28.320,-45.410,31.250,-13.184
1532384913.220,24.902,27.344,-60.547,10.742,-29.785
1532384913.224,26.367,23.438,-54.688,16.602,32.227
1532384913.228,26.855,31.250,-48.340,22.949,51.758
1532384913.231,22.949,33.691,-45.410,24.414,17.578
1532384913.235,19.043,27.344,-41.016,21.973,41.016
1532384913.239,25.879,25.879,-42.480,26.855,80.566
1532384913.243,36.621,20.996,-43.945,31.250,63.477
1532384913.247,36.133,16.602,-37.598,21.484,41.016
1532384913.251,36.133,20.020,-35.645,14.648,11.719
1532384913.255,43.457,22.949,-41.992,15.137,21.484
1532384913.259,41.016,24.414,-43.457,13.184,66.406
1532384913.263,30.762,24.414,-39.062,17.090,49.316
1532384913.267,26.855,21.484,-33.691,24.414,37.598
1532384913.271,19.043,21.973,-31.250,25.879,45.410
1532384913.274,15.625,28.320,-28.809,34.180,50.293
1532384913.278,15.137,31.250,-24.902,40.039,54.199
1532384913.282,7.324,20.508,-22.461,36.621,27.344
1532384913.286,6.836,16.113,-19.531,34.668,7.812
1532384913.290,6.836,21.973,-17.578,33.203,31.250
1532384913.294,6.836,22.461,-15.137,31.738,37.109
1532384913.298,11.230,22.461,-15.625,29.785,22.461
1532384913.302,15.625,25.879,-16.113,25.391,18.066
1532384913.306,20.996,25.391,-10.254,26.367,14.160
1532384913.310,21.973,24.902,-4.395,29.785,34.180
1532384913.313,21.973,25.879,0.977,25.879,28.320
1532384913.317,27.344,29.785,3.906,29.297,-0.488
1532384913.321,33.203,28.320,8.301,37.598,25.391
1532384913.325,38.574,25.391,8.301,34.180,57.129
1532384913.329,39.551,28.809,10.742,30.762,46.387
1532384913.333,35.156,37.109,15.137,30.762,21.484
1532384913.337,39.551,50.781,20.020,34.668,25.391
1532384913.341,41.992,50.293,20.996,33.203,32.715
1532384913.345,39.551,37.109,20.508,24.902,53.711
1532384913.349,37.598,31.250,25.879,24.414,71.289
1532384913.353,38.086,37.109,25.879,27.344,13.672
1532384913.356,43.945,42.969,27.344,22.949,-14.648
1532384913.360,41.992,41.992,32.227,26.855,26.855
1532384913.364,35.645,41.504,33.691,33.691,27.832
1532384913.368,39.062,41.992,33.691,33.691,28.809
1532384913.372,39.062,37.109,33.691,34.180,59.082
1532384913.376,34.180,33.691,34.668,29.785,67.871
1532384913.380,36.133,30.273,29.297,28.809,55.176
1532384913.384,40.039,32.227,26.367,31.738,26.855
1532384913.388,41.016,43.457,30.762,33.203,26.367
1532384913.392,41.992,48.340,35.645,30.762,33.203
1532384913.396,45.898,45.898,39.551,32.227,33.691
1532384913.399,52.734,48.340,42.480,40.039,28.320
1532384913.403,49.316,41.016,40.527,36.621,32.227
1532384913.407,45.410,31.738,29.297,32.715,45.410
1532384913.411,45.410,37.109,25.391,30.273,23.438
1532384913.415,43.457,34.668,25.879,25.391,-13.672
1532384913.419,42.480,34.180,20.996,32.715,-2.930
1532384913.423,42.969,34.668,17.578,35.645,17.578
1532384913.427,44.922,31.738,20.996,34.180,48.828
1532384913.431,44.922,37.598,25.391,38.574,58.105
1532384913.435,42.480,47.852,25.879,37.109,20.020
1532384913.438,40.039,46.875,30.273,36.133,32.715
1532384913.442,39.551,39.062,22.949,34.668,55.664
1532384913.446,40.527,34.668,10.254,34.668,25.391
1532384913.450,47.852,34.180,14.160,41.016,3.418
1532384913.454,59.082,39.062,29.297,41.016,-18.066
1532384913.458,54.199,41.992,27.832,37.598,0.977
1532384913.462,41.992,38.574,16.113,31.738,39.062
1532384913.466,40.039,35.156,16.113,25.391,20.996
1532384913.470,43.457,34.180,23.926,25.391,-5.859
1532384913.474,46.875,34.180,23.438,25.879,12.695
1532384913.478,41.504,33.203,17.578,20.996,64.453
1532384913.481,41.992,37.109,14.648,21.973,37.109
1532384913.485,48.340,32.227,15.137,29.785,-7.324
1532384913.489,50.293,27.832,20.020,31.738,35.156
1532384913.493,45.898,36.133,23.438,27.832,55.664
1532384913.497,41.504,41.016,20.020,25.879,33.203
1532384913.501,41.016,42.480,15.137,28.809,17.090
1532384913.505,39.551,36.133,15.137,26.855,47.852
1532384913.509,39.062,28.809,9.766,29.785,77.148
1532384913.513,37.598,23.438,9.277,25.391,14.160
1532384913.517,38.086,29.297,21.973,28.809,-15.625
1532384913.521,42.969,37.598,28.320,36.133,23.926
1532384913.524,35.156,31.738,17.090,31.250,48.828
1532384913.528,32.715,29.297,10.254,30.762,48.828
1532384913.532,33.203,25.879,9.766,25.879,36.621
1532384913.536,25.391,31.738,10.254,27.344,37.598
1532384913.540,24.902,27.344,11.719,27.832,21.484
1532384913.544,32.227,20.996,11.719,24.902,16.602
1532384913.548,30.762,36.133,13.184,26.855,3.418
1532384913.552,30.273,38.086,17.090,29.297,-19.531
1532384913.556,30.762,26.367,19.043,31.250,-14.648
1532384913.560,25.879,29.785,10.742,28.809,35.156
1532384913.563,29.297,34.180,10.742,27.832,22.461
1532384913.567,31.250,29.297,16.113,26.855,4.883
1532384913.571,30.273,28.320,15.625,23.926,47.852
1532384913.575,33.203,33.203,16.602,26.367,52.246
1532384913.579,33.203,35.645,14.648,33.203,28.809
1532384913.583,27.344,32.715,2.930,25.391,3.418
1532384913.587,31.738,28.809,2.441,20.996,18.066
1532384913.591,31.250,22.461,9.766,23.926,25.391
1532384913.595,26.855,28.809,8.789,23.926,15.137
1532384913.599,32.715,41.992,3.418,23.926,50.781
1532384913.603,32.227,38.574,1.953,26.367,40.527
1532384913.606,32.715,41.016,3.418,29.785,32.715
1532384913.610,44.434,49.316,4.395,35.645,70.801
1532384913.614,49.316,52.246,7.324,38.574,49.805
1532384913.618,46.387,50.293,10.742,36.133,41.504
1532384913.622,47.852,45.898,13.672,41.016,52.246
1532384913.626,40.527,49.805,13.184,39.062,44.434
1532384913.630,39.551,54.199,15.137,36.133,36.621
1532384913.634,41.992,42.480,8.789,33.203,18.555
1532384913.638,41.504,40.039,4.395,32.715,41.992
1532384913.642,48.828,44.434,13.672,43.945,72.754
1532384913.646,48.340,41.016,16.113,37.598,37.109
1532384913.649,36.133,40.039,3.418,24.902,-3.906
1532384913.653,32.715,35.156,-0.977,22.461,-6.348
1532384913.657,29.297,35.156,5.859,23.926,33.691
1532384913.661,25.391,43.945,3.418,23.926,57.617
1532384913.665,32.227,41.504,0.977,23.438,35.645
1532384913.669,34.180,40.039,4.883,34.668,39.551
1532384913.673,27.344,41.016,9.766,27.344,64.453
1532384913.677,30.762,32.227,5.371,18.555,30.762
1532384913.681,40.039,26.855,-1.465,25.879,27.832
1532384913.685,32.715,19.043,0.977,19.043,35.156
1532384913.688,23.438,15.137,0.977,19.531,41.016
1532384913.692,25.391,27.832,-1.465,18.066,56.641
1532384913.696,26.367,33.691,-1.953,16.113,42.969
1532384913.700,31.738,35.156,-5.371,25.391,45.410
1532384913.704,38.574,40.527,1.465,32.227,43.945
1532384913.708,29.785,33.203,-1.465,24.414,45.410
1532384913.712,23.926,24.414,-17.090,20.020,13.184
1532384913.716,25.879,18.066,-13.184,26.367,2.930
1532384913.720,23.926,24.414,-1.953,24.414,29.297
1532384913.724,22.949,28.320,-1.953,20.020,42.480
1532384913.728,24.902,16.602,-1.953,22.949,42.480
1532384913.731,21.973,21.484,-1.953,20.996,11.230
1532384913.735,21.973,33.203,-4.395,16.602,-21.973
1532384913.739,26.855,32.227,-3.418,24.414,27.832
1532384913.743,28.809,31.738,-2.930,25.391,55.176
1532384913.747,31.250,29.785,-4.395,29.297,42.480
1532384913.751,25.879,25.391,-6.348,29.785,43.945
1532384913.755,25.391,20.508,-10.742,25.391,37.598
1532384913.759,28.809,22.949,-9.277,28.809,34.180
1532384913.763,31.738,26.367,-2.930,30.762,39.551
1532384913.767,24.902,16.602,-3.418,22.949,27.832
1532384913.770,19.043,8.301,-6.348,20.020,20.996
1532384913.774,23.926,20.996,-9.766,24.414,52.734
1532384913.778,23.438,33.691,-12.207,21.973,49.316
1532384913.782,21.484,33.691,-13.672,19.043,16.602
1532384913.786,22.949,31.250,-12.695,19.043,32.715
1532384913.790,27.344,23.926,-13.672,23.438,57.129
1532384913.794,30.762,25.879,-15.625,20.508,48.828
1532384913.798,30.273,28.809,-6.836,20.508,20.996
1532384913.802,31.738,31.250,0.000,26.855,22.949
1532384913.806,34.668,30.273,4.883,25.879,64.453
1532384913.810,30.273,25.391,3.418,25.879,62.012
1532384913.813,29.785,24.902,0.000,24.414,11.230
1532384913.817,36.133,27.832,-6.836,23.926,-4.395
1532384913.821,42.480,29.297,-10.742,27.832,25.391
1532384913.825,48.340,30.762,3.418,34.180,53.711
1532384913.829,42.480,26.855,5.371,34.668,34.180
1532384913.833,37.109,26.855,-7.324,23.438,-26.367
1532384913.837,38.086,31.250,-8.789,23.438,-23.438
1532384913.841,32.227,31.738,-8.301,26.367,47.852
1532384913.845,28.320,31.250,-11.719,22.949,81.055
1532384913.849,28.809,28.809,-11.719,24.902,47.852
1532384913.853,32.715,31.738,-10.742,26.367,-11.719
1532384913.856,31.250,27.832,-12.695,26.367,0.488
1532384913.860,26.855,24.414,-14.648,24.414,38.574
1532384913.864,24.902,23.926,-14.648,22.461,31.738
1532384913.868,29.785,29.785,-16.113,21.973,-0.488
1532384913.872,34.180,32.715,-15.137,20.508,-7.324
1532384913.876,33.691,24.902,-10.254,20.996,2.930
1532384913.880,36.621,28.809,-17.090,25.879,25.879
1532384913.884,36.621,33.691,-30.273,22.949,26.367
1532384913.888,35.645,36.621,-20.020,27.344,41.016
1532384913.892,40.527,35.156,-10.254,32.715,46.387
1532384913.895,33.203,25.391,-22.461,24.414,43.945
1532384913.899,23.438,22.949,-26.367,22.949,38.574
1532384913.903,24.902,21.973,-23.926,25.879,22.949
1532384913.907,31.738,25.879,-20.508,28.809,57.129
1532384913.911,26.855,29.297,-16.113,25.879,50.781
1532384913.915,22.949,22.949,-15.137,22.949,-5.859
1532384913.919,25.879,21.484,-18.555,20.996,-4.395
1532384913.923,25.391,15.625,-21.973,19.531,40.039
1532384913.927,24.902,10.254,-18.066,24.902,39.551
1532384913.931,22.461,22.949,-18.066,21.973,17.578
1532384913.935,16.113,30.273,-20.508,12.207,-17.090
1532384913.938,14.160,32.227,-18.066,16.602,-2.441
1532384913.942,16.602,29.297,-17.090,21.484,55.176
1532384913.946,18.555,22.461,-20.996,20.020,59.570
1532384913.950,24.414,24.902,-17.090,25.391,-1.465
1532384913.954,30.273,31.250,-9.277,30.762,-12.207
1532384913.958,26.367,25.879,-14.648,26.855,38.574
1532384913.962,21.484,14.648,-22.461,20.996,31.250
1532384913.966,22.461,10.742,-19.531,25.879,8.789
1532384913.970,22.949,20.508,-14.160,27.832,29.297
1532384913.974,21.484,27.344,-18.555,20.996,4.883
1532384913.978,23.438,22.949,-25.879,20.996,11.230
1532384913.981,26.855,20.996,-25.391,24.414,35.645
1532384913.985,25.391,26.367,-23.438,25.391,32.227
1532384913.989,24.414,28.809,-18.555,26.855,37.109
1532384913.993,21.973,25.879,-14.648,17.090,30.273
1532384913.997,20.508,23.438,-19.531,15.137,28.320
1532384914.001,25.879,23.926,-24.414,21.484,13.672
1532384914.005,26.367,26.367,-25.391,23.438,41.504
1532384914.009,26.855,29.297,-18.066,24.902,59.082
1532384914.013,33.691,26.367,-15.625,26.367,-3.418
1532384914.017,35.645,20.020,-18.555,23.926,-27.832
1532384914.020,31.738,31.738,-9.766,21.973,7.812
1532384914.024,40.039,42.480,-4.395,24.414,62.012
1532384914.028,41.992,35.156,-13.184,21.484,62.988
1532384914.032,39.551,27.832,-12.695,12.207,-0.488
1532384914.036,45.898,25.879,-13.184,7.812,-18.555
1532384914.040,45.410,27.344,-19.531,8.789,26.855
1532384914.044,43.945,28.320,-16.113,13.672,53.223
1532384914.048,39.062,26.855,-13.184,17.578,21.973
1532384914.052,32.715,24.414,-15.625,25.879,25.391
1532384914.056,28.320,24.414,-15.625,34.668,41.992
1532384914.060,26.855,22.461,-10.254,29.297,47.363
1532384914.063,29.297,20.020,-7.812,29.785,25.391
1532384914.067,25.879,22.949,-10.254,33.203,8.301
1532384914.071,21.973,23.438,-6.348,32.715,-10.254
1532384914.075,20.020,20.508,-4.395,27.344,3.418
1532384914.079,13.672,20.508,-4.883,20.020,17.578
1532384914.083,16.602,21.484,-0.977,27.344,10.742
1532384914.087,21.484,14.648,-3.906,30.762,3.906
1532384914.091,16.113,9.766,-12.695,15.137,23.438
1532384914.095,13.672,12.207,-5.371,10.742,39.062
1532384914.099,13.672,11.230,2.441,20.020,15.137
1532384914.103,15.137,9.277,-3.906,23.926,10.742
1532384914.106,15.625,19.531,-7.324,19.531,26.855
1532384914.110,20.508,29.297,-4.883,19.531,39.551
1532384914.114,29.297,28.320,-1.465,26.855,33.691
1532384914.118,25.879,21.484,-2.441,29.297,37.598
1532384914.122,22.461,15.625,-4.395,25.879,25.391
1532384914.126,24.902,13.184,-2.441,25.391,31.738
1532384914.130,24.902,18.066,0.488,24.902,41.504
1532384914.134,26.855,24.902,-0.977,19.043,1.953
1532384914.138,42.480,25.391,2.441,23.926,10.254
1532384914.142,47.852,24.902,4.883,31.250,62.500
1532384914.145,39.062,23.926,1.953,23.926,51.270
1532384914.149,26.367,20.508,-3.906,18.066,1.953
1532384914.153,26.367,24.414,1.465,15.625,2.930
1532384914.157,33.691,34.180,13.184,20.020,45.898
1532384914.161,28.320,24.414,7.812,19.531,66.406
1532384914.165,23.438,15.625,1.465,14.160,36.621
1532384914.169,25.391,21.484,2.441,16.602,5.859
1532384914.173,29.785,22.949,2.930,17.578,-0.977
1532384914.177,25.879,24.902,2.441,15.625,-0.977
1532384914.181,21.484,29.297,3.418,16.602,18.066
1532384914.185,27.832,25.391,7.324,20.508,28.320
1532384914.188,31.738,17.578,9.277,21.484,24.414
1532384914.192,28.809,14.648,1.953,15.137,54.199
1532384914.196,22.461,15.137,0.488,10.742,38.574
1532384914.200,25.391,17.090,3.418,14.160,17.090
1532384914.204,29.297,22.949,5.859,21.973,30.762
1532384914.208,29.785,27.832,10.254,19.531,49.316
1532384914.212,33.203,28.809,10.254,15.137,29.785
1532384914.216,36.133,31.250,7.812,20.020,6.348
1532384914.220,36.133,30.273,5.371,20.020,24.902
1532384914.224,42.480,27.344,9.766,27.832,49.805
1532384914.227,44.922,27.344,6.836,30.273,40.527
1532384914.231,31.738,24.414,2.930,23.438,30.762
1532384914.235,30.762,23.926,8.789,25.391,28.809
1532384914.239,36.133,21.973,8.301,27.832,40.527
1532384914.243,35.156,20.020,6.836,26.367,46.875
1532384914.247,28.809,21.973,10.742,22.949,30.762
1532384914.251,18.555,20.508,10.254,13.672,18.555
1532384914.255,12.207,25.391,10.742,6.348,7.324
1532384914.259,8.789,25.391,8.789,10.254,39.062
1532384914.263,13.184,22.461,7.812,15.137,20.508
1532384914.267,18.555,25.879,10.254,19.043,-4.395
1532384914.270,19.531,30.273,9.766,16.602,1.465
1532384914.274,17.578,26.855,11.719,15.137,41.992
1532384914.278,20.020,18.555,13.672,20.508,71.289
1532384914.282,26.855,20.996,14.648,21.973,46.387
1532384914.286,33.203,30.273,14.648,23.438,12.207
1532384914.290,30.762,27.832,13.184,20.996,25.879
1532384914.294,30.762,26.855,14.648,18.066,36.133
1532384914.298,39.551,31.738,18.555,28.320,23.926
1532384914.302,42.480,21.484,17.578,34.668,29.785
1532384914.306,36.621,17.090,11.230,27.344,30.273
1532384914.310,30.762,26.367,8.301,26.855,27.832
1532384914.313,27.344,24.414,8.789,30.762,30.273
1532384914.317,29.297,22.949,12.207,31.250,18.066
1532384914.321,27.344,19.531,18.066,28.320,27.344
1532384914.325,13.672,15.137,20.020,19.043,65.918
1532384914.329,8.789,20.508,22.461,16.113,64.453
1532384914.333,6.836,20.996,20.020,14.648,20.508
1532384914.337,1.953,16.602,16.602,14.648,25.879
1532384914.341,4.883,15.625,20.996,17.090,62.012
1532384914.345,13.184,18.066,22.949,20.020,50.781
1532384914.349,16.602,24.902,26.367,20.996,24.414
1532384914.352,13.184,28.809,28.320,20.996,12.695
1532384914.356,14.648,22.461,22.949,22.949,53.711
1532384914.360,30.273,21.973,21.973,28.320,82.520
1532384914.364,36.621,29.297,27.344,32.715,46.875
1532384914.368,22.461,21.484,27.344,29.785,39.551
1532384914.372,14.160,20.508,27.832,23.926,61.523
1532384914.376,16.602,21.973,26.855,20.020,41.992
1532384914.380,22.461,20.996,22.949,21.973,43.945
1532384914.384,23.438,20.508,23.926,24.902,41.992
1532384914.388,20.996,23.926,25.879,27.832,2.930
1532384914.392,19.531,27.344,25.879,19.531,1.953
1532384914.395,10.742,26.855,24.414,12.695,22.461
1532384914.399,12.695,28.809,23.438,22.949,21.484
1532384914.403,16.602,25.879,21.484,28.809,8.301
1532384914.407,14.648,21.973,22.461,24.902,43.945
1532384914.411,22.461,31.738,21.484,27.832,54.199
1532384914.415,28.809,32.715,18.066,34.668,37.109
1532384914.419,32.227,26.855,19.043,32.227,24.902
1532384914.423,36.621,31.738,13.184,27.832,33.203
1532384914.427,39.551,34.668,7.324,25.879,74.219
1532384914.431,44.922,42.480,7.812,31.250,41.992
1532384914.435,41.992,43.457,8.301,28.809,-6.348
1532384914.438,34.668,26.855,11.230,21.973,43.457
1532384914.442,32.227,18.555,8.301,23.926,71.777
1532384914.446,31.738,24.414,3.418,25.879,58.105
1532384914.450,35.156,29.785,0.488,22.949,31.738
1532384914.454,28.320,32.227,1.953,20.020,18.066
1532384914.458,21.484,33.203,3.418,21.973,44.434
1532384914.462,28.809,30.762,1.953,22.949,44.922
1532384914.466,27.832,28.320,-3.906,24.902,39.062
1532384914.470,21.973,29.297,-5.859,23.926,24.414
1532384914.474,22.949,34.180,-6.836,20.996,38.574
1532384914.477,30.762,32.227,-9.277,21.973,67.871
1532384914.481,36.133,30.762,-10.254,18.066,51.270
1532384914.485,38.574,35.645,-6.348,16.602,38.574
1532384914.489,47.363,35.645,-1.953,22.461,49.316
1532384914.493,52.734,41.016,1.465,25.879,21.973
1532384914.497,45.410,41.992,0.000,20.996,30.273
1532384914.501,34.180,36.621,-8.301,10.742,22.461
1532384914.505,34.668,34.180,-6.348,11.719,25.391
1532384914.509,35.156,30.762,-5.371,16.113,72.754
1532384914.513,30.273,32.227,-6.836,9.277,20.996
1532384914.517,29.785,26.855,-10.742,8.789,-18.066
1532384914.520,29.785,16.113,-13.672,12.207,21.973
1532384914.524,23.926,24.902,-2.441,11.230,31.738
1532384914.528,19.043,36.621,6.348,15.137,42.969
1532384914.532,17.578,33.691,2.930,17.578,16.602
1532384914.536,14.160,28.320,0.000,16.113,-1.953
1532384914.540,18.555,29.785,2.441,22.461,33.691
1532384914.544,22.949,34.180,8.789,25.879,55.664
1532384914.548,24.902,32.715,12.207,22.461,42.480
1532384914.552,24.414,29.785,12.207,23.926,6.348
1532384914.556,26.367,27.832,20.508,31.250,32.715
1532384914.560,30.273,31.738,21.973,30.762,91.309
1532384914.563,22.461,25.879,12.695,15.625,55.176
1532384914.567,17.090,21.484,13.184,13.672,14.648
1532384914.571,19.043,21.973,20.020,17.578,5.859
1532384914.575,23.926,21.973,20.996,16.113,9.277
1532384914.579,24.902,31.250,19.043,21.484,40.527
1532384914.583,23.926,32.227,17.578,24.902,14.160
1532384914.587,21.973,26.367,15.625,23.438,27.344
1532384914.591,21.973,32.715,11.719,23.438,55.176
1532384914.595,25.879,39.551,12.207,25.391,47.363
1532384914.599,26.855,30.273,18.555,25.391,31.250
1532384914.602,28.320,27.344,21.973,23.926,35.645
1532384914.606,33.691,33.691,22.949,29.785,75.684
1532384914.610,24.414,34.668,20.020,27.832,60.059
1532384914.614,18.555,34.668,24.414,26.855,15.137
1532384914.618,24.414,39.551,25.391,34.668,26.855
1532384914.622,25.391,40.527,20.020,31.250,36.621
1532384914.626,26.367,35.156,20.020,25.879,45.410
1532384914.630,24.414,28.320,19.531,22.949,20.996
1532384914.634,20.996,22.461,16.113,17.090,-15.137
1532384914.638,24.414,33.203,17.578,18.555,14.648
1532384914.642,25.879,43.457,19.531,22.461,56.152
1532384914.645,28.320,39.551,20.508,22.949,62.012
1532384914.649,37.109,39.062,21.973,27.832,30.273
1532384914.653,42.480,36.133,20.996,28.320,11.719
1532384914.657,41.992,31.738,18.066,28.320,22.461
1532384914.661,37.109,35.156,17.578,27.832,32.715
1532384914.665,34.668,33.691,17.090,26.855,23.438
1532384914.669,36.133,29.297,15.625,27.344,7.324
1532384914.673,34.668,30.762,17.578,21.484,-10.742
1532384914.677,39.551,38.574,23.926,20.508,8.301
1532384914.681,37.598,34.180,23.926,20.508,55.176
1532384914.685,31.738,17.090,20.508,18.066,23.438
1532384914.688,42.480,25.879,26.367,23.926,22.461
1532384914.692,51.758,51.758,28.809,27.832,49.805
1532384914.696,50.293,60.059,31.250,34.180,40.039
1532384914.700,53.711,60.547,40.527,38.574,23.926
1532384914.704,55.176,62.500,44.922,44.434,40.039
1532384914.708,57.129,58.594,48.340,50.293,65.430
1532384914.712,58.594,57.617,50.293,45.898,73.730
1532384914.716,54.199,53.223,44.922,42.480,54.688
1532384914.720,51.758,50.781,44.922,44.922,38.086
1532384914.724,48.828,49.805,42.969,40.039,62.012
1532384914.727,42.480,47.363,37.109,34.668,72.266
1532384914.731,41.992,41.016,32.715,32.227,39.551
1532384914.735,39.551,36.133,33.691,30.273,-2.930
1532384914.739,34.668,48.340,37.109,40.527,24.414
1532384914.743,43.457,52.246,41.016,37.109,81.055
1532384914.747,42.480,40.039,37.109,22.949,63.965
1532384914.751,29.297,31.250,32.715,24.414,24.902
1532384914.755,29.297,30.762,31.738,29.785,40.039
1532384914.759,29.297,32.227,28.320,32.715,52.734
1532384914.763,26.855,29.297,22.949,30.273,38.574
1532384914.767,32.715,26.367,23.926,30.273,34.180
1532384914.770,33.203,25.879,29.297,32.227,29.297
1532384914.774,28.809,28.809,27.832,26.855,13.672
1532384914.778,26.855,34.668,28.320,26.367,17.090
1532384914.782,28.809,31.738,32.227,33.691,0.488
1532384914.786,34.180,26.367,35.645,36.621,-7.812
1532384914.790,28.320,32.227,30.762,31.250,33.691
1532384914.794,24.902,31.250,23.926,19.043,66.895
1532384914.798,29.297,35.156,29.785,16.602,54.688
1532384914.802,30.273,38.086,33.203,28.320,20.020
1532384914.806,22.461,33.691,28.320,22.949,11.719
1532384914.809,24.414,35.156,30.273,11.230,27.344
1532384914.813,26.367,26.367,29.785,11.719,34.180
1532384914.817,12.695,19.043,18.555,14.648,6.348
1532384914.821,12.695,24.902,21.973,9.766,7.324
1532384914.825,20.508,26.855,34.668,9.277,71.777
1532384914.829,16.113,28.809,37.109,13.184,72.266
1532384914.833,12.695,30.273,33.203,4.883,1.465
1532384914.837,20.996,28.320,27.832,-0.977,-15.137
1532384914.841,30.273,31.738,28.320,4.883,18.555
1532384914.845,37.109,39.551,31.250,5.859,49.316
1532384914.849,43.945,39.062,32.227,6.348,44.922
1532384914.852,47.852,31.250,32.715,6.836,1.953
1532384914.856,50.781,21.973,33.691,16.602,20.508
1532384914.860,47.363,25.879,33.203,30.762,27.832
1532384914.864,31.250,34.668,23.438,28.809,6.836
1532384914.868,22.461,34.180,23.926,27.344,3.418
1532384914.872,23.438,40.039,33.203,32.227,-39.551
1532384914.876,22.461,41.016,33.691,28.809,-47.363
1532384914.880,14.648,28.809,28.320,27.832,-13.672
1532384914.884,5.371,22.461,28.320,28.809,9.277
1532384914.888,10.254,27.344,32.715,25.879,15.625
1532384914.892,19.043,27.832,34.180,24.902,13.672
1532384914.895,22.949,22.461,34.180,25.879,27.832
1532384914.899,21.973,27.344,34.668,23.926,-3.906
1532384914.903,20.020,37.598,32.227,23.926,-25.391
1532384914.907,24.414,40.527,32.227,26.855,26.855
1532384914.911,26.855,37.109,35.156,26.855,36.621
1532384914.915,36.133,40.527,36.133,36.133,-36.621
1532384914.919,40.527,43.457,40.039,40.527,-31.738
1532384914.923,31.738,34.180,35.156,27.832,42.969
1532384914.927,24.902,29.297,25.879,20.996,28.320
1532384914.931,30.762,31.738,28.809,27.344,-5.859
1532384914.934,33.691,29.297,31.250,33.691,-8.789
1532384914.938,33.691,28.320,30.273,35.156,8.789
1532384914.942,39.551,29.785,29.785,30.762,42.969
1532384914.946,36.133,40.527,29.297,31.738,34.180
1532384914.950,33.203,50.781,33.691,34.668,4.395
1532384914.954,32.227,42.969,33.691,25.879,-3.418
1532384914.958,32.715,38.574,33.691,24.414,18.555
1532384914.962,36.133,42.969,35.156,27.832,56.152
1532384914.966,41.504,44.922,32.715,26.367,45.898
1532384914.970,39.062,42.480,34.180,29.297,12.207
1532384914.974,31.738,38.086,31.738,28.809,34.668
1532384914.977,31.250,39.062,33.203,26.367,61.035
1532384914.981,38.574,39.551,44.434,33.203,33.203
1532384914.985,41.504,34.180,36.621,27.344,21.484
1532384914.989,34.668,37.598,27.832,22.461,38.574
1532384914.993,31.738,39.551,27.344,18.066,47.852
1532384914.997,32.227,34.180,31.738,21.484,23.438
1532384915.001,34.668,30.273,35.645,30.273,10.742
1532384915.005,33.691,29.297,35.156,25.391,19.531
1532384915.009,26.855,26.855,33.691,21.973,51.758
1532384915.013,26.367,29.297,31.738,22.949,32.227
1532384915.017,27.832,34.180,32.227,22.461,-9.277
1532384915.020,26.367,35.156,32.715,24.414,23.926
1532384915.024,28.809,37.109,30.762,30.273,40.527
1532384915.028,27.832,29.297,33.203,31.250,18.555
1532384915.032,24.902,20.508,36.133,26.855,11.719
1532384915.036,22.461,29.297,31.250,21.973,18.066
1532384915.040,34.180,33.203,32.715,23.926,49.805
1532384915.044,41.016,37.598,42.969,30.273,66.895
1532384915.048,26.855,33.691,42.969,25.879,60.547
1532384915.052,23.438,27.832,35.645,19.043,27.832
1532384915.056,28.320,29.297,26.367,11.230,11.719
1532384915.059,31.738,26.855,22.949,12.695,50.293
1532384915.063,34.180,27.832,26.367,20.020,35.645
1532384915.067,37.598,26.367,24.414,24.414,18.066
1532384915.071,39.551,27.344,19.531,23.438,31.250
1532384915.075,33.691,25.879,17.090,18.555,49.316
1532384915.079,32.715,17.090,17.578,18.066,56.152
1532384915.083,36.133,31.250,25.391,18.555,49.316
1532384915.087,33.203,43.457,31.738,17.090,45.410
1532384915.091,27.344,38.086,27.832,16.113,29.297
1532384915.095,26.367,37.598,22.461,14.160,17.578
1532384915.099,35.156,45.410,24.902,20.020,21.973
1532384915.102,36.133,35.156,26.367,23.926,25.391
1532384915.106,23.926,16.602,18.555,17.090,57.129
1532384915.110,20.508,24.902,21.973,16.602,77.637
1532384915.114,24.902,36.621,25.879,17.578,22.461
1532384915.118,22.949,29.297,21.973,12.207,14.160
1532384915.122,21.484,25.391,24.414,11.719,39.062
1532384915.126,19.043,27.344,20.996,14.160,51.758
1532384915.130,21.484,25.879,17.578,10.742,40.527
1532384915.134,20.508,25.391,18.066,14.648,-4.395
1532384915.138,20.996,20.996,17.578,20.020,-0.977
1532384915.142,20.020,21.484,15.625,16.113,48.340
1532384915.145,18.066,26.855,17.578,15.137,52.246
1532384915.149,18.555,24.414,21.484,12.695,20.996
1532384915.153,14.160,21.484,21.973,11.719,3.418
1532384915.157,13.672,23.438,18.066,16.602,32.227
1532384915.161,21.973,31.738,23.926,22.461,41.504
1532384915.165,23.438,25.391,28.809,18.066,13.672
1532384915.169,15.625,9.766,22.461,10.254,2.441
1532384915.173,16.113,14.160,20.996,10.742,13.184
1532384915.177,10.742,13.672,20.996,6.836,37.109
1532384915.181,8.789,10.742,17.090,5.371,22.461
1532384915.184,15.137,14.648,12.207,8.789,2.441
1532384915.188,21.973,15.137,20.020,16.602,47.852
1532384915.192,19.531,17.578,22.461,16.113,48.828
1532384915.196,14.160,21.484,17.578,9.766,15.137
1532384915.200,9.766,25.879,23.926,10.742,25.391
1532384915.204,4.395,28.320,32.715,13.184,30.273
1532384915.208,5.371,25.391,32.227,13.184,71.289
1532384915.212,15.625,20.020,29.785,14.648,68.848
1532384915.216,10.254,19.043,27.832,12.695,18.066
1532384915.220,6.836,26.855,27.832,17.090,20.996
1532384915.224,20.996,34.180,32.227,24.414,64.941
1532384915.227,19.531,31.250,28.320,16.602,76.172
1532384915.231,17.090,29.785,22.949,11.230,8.789
1532384915.235,20.020,32.715,27.832,10.742,-30.762
1532384915.239,20.996,35.156,26.855,11.230,36.133
1532384915.243,20.508,35.645,27.344,18.555,59.570
1532384915.247,23.926,29.785,35.156,20.996,24.902
1532384915.251,28.320,21.484,36.133,21.484,12.695
1532384915.255,18.066,21.973,30.273,15.625,19.043
1532384915.259,15.625,27.832,29.785,16.113,48.340
1532384915.263,26.855,27.344,30.762,22.461,74.219
1532384915.266,26.367,28.320,36.621,21.484,52.246
1532384915.270,23.926,33.691,41.016,23.438,20.508
1532384915.274,33.691,40.039,41.016,33.203,9.277
1532384915.278,35.645,39.551,37.109,37.109,28.320
1532384915.282,28.809,29.297,25.879,26.855,33.691
1532384915.286,25.391,21.973,33.203,25.879,18.555
1532384915.290,29.297,26.367,42.969,30.273,22.949
1532384915.294,24.414,38.086,38.086,20.508,20.020
1532384915.298,24.414,38.574,33.203,19.043,24.902
1532384915.302,26.855,28.809,37.109,26.855,16.602
1532384915.306,19.043,27.832,39.551,24.902,18.555
1532384915.309,14.648,30.273,37.598,16.602,54.199
1532384915.313,15.625,31.738,30.762,17.090,41.504
1532384915.317,17.090,29.785,23.926,20.996,13.184
1532384915.321,26.855,24.902,32.715,23.926,41.016
1532384915.325,35.645,26.367,40.039,24.414,66.895
1532384915.329,24.902,24.902,30.762,18.555,37.109
1532384915.333,23.926,30.273,29.785,20.508,-7.812
1532384915.337,24.902,36.133,33.203,19.531,10.254
1532384915.341,20.020,29.297,23.926,11.719,59.570
1532384915.345,20.996,26.367,18.066,11.719,67.383
1532384915.349,18.066,20.996,15.625,12.207,42.969
1532384915.352,18.555,24.902,14.648,12.695,40.527
1532384915.356,29.785,30.762,20.508,17.090,79.590
1532384915.360,28.320,22.949,22.461,21.484,79.590
1532384915.364,22.461,20.508,18.555,19.043,48.828
1532384915.368,23.926,23.926,16.113,17.578,48.340
1532384915.372,23.926,27.832,18.555,25.391,23.926
1532384915.376,20.508,29.297,20.020,22.461,39.062
1532384915.380,18.555,21.484,13.672,18.066,39.551
1532384915.384,19.531,27.344,9.277,20.020,1.953
1532384915.388,28.320,37.598,6.836,25.391,10.742
1532384915.391,29.785,33.691,3.906,27.832,29.785
1532384915.395,19.043,28.809,3.418,24.902,25.879
1532384915.399,30.273,33.691,9.277,29.297,30.273
1532384915.403,38.574,41.016,7.812,34.668,52.246
1532384915.407,37.109,36.621,-2.930,26.367,72.266
1532384915.411,38.086,29.785,-4.395,26.367,42.969
1532384915.415,29.785,28.809,-2.441,29.297,-14.160
1532384915.419,25.879,25.391,-8.301,21.484,-16.113
1532384915.423,22.461,21.484,-12.695,17.090,29.297
1532384915.427,21.484,25.391,-10.254,15.625,44.922
1532384915.431,21.973,22.949,-11.230,16.602,8.789
1532384915.434,25.391,25.879,-17.090,7.812,-35.156
1532384915.438,23.926,29.297,-24.902,7.324,-21.484
1532384915.442,20.020,19.531,-27.832,15.625,32.227
1532384915.446,23.438,18.555,-21.484,15.137,33.691
1532384915.450,25.391,22.949,-19.043,11.719,-22.461
1532384915.454,20.508,19.043,-18.555,11.230,-29.297
1532384915.458,16.113,14.648,-21.973,9.766,28.320
1532384915.462,12.695,12.207,-26.855,12.695,35.645
1532384915.466,13.184,15.137,-25.391,10.254,-7.812
1532384915.470,16.113,21.484,-26.855,7.324,-25.391
1532384915.474,22.949,27.832,-22.949,14.648,0.977
1532384915.477,26.367,27.832,-16.113,20.020,34.668
1532384915.481,25.879,20.508,-20.508,19.531,12.695
1532384915.485,22.949,12.695,-25.391,19.531,-10.254
1532384915.489,23.438,18.066,-20.020,16.602,21.484
1532384915.493,28.320,24.414,-18.066,15.625,41.992
1532384915.497,20.020,25.879,-22.949,13.672,18.555
1532384915.501,9.766,28.809,-23.926,8.301,20.508
1532384915.505,12.207,23.926,-24.902,8.789,24.902
1532384915.509,15.625,18.555,-23.438,18.066,21.973
1532384915.513,17.578,18.066,-18.555,20.508,22.949
1532384915.516,16.602,24.414,-18.066,20.020,13.672
1532384915.520,17.578,28.320,-18.555,26.367,45.898
1532384915.524,17.090,26.367,-19.531,21.973,50.781
1532384915.528,12.207,28.809,-18.555,20.996,42.480
1532384915.532,20.996,31.250,-16.113,28.320,26.367
1532384915.536,32.227,36.133,-15.137,32.715,17.578
1532384915.540,37.598,39.062,-11.230,34.668,54.199
1532384915.544,37.109,33.203,-17.578,32.227,69.824
1532384915.548,32.227,30.273,-27.344,24.902,50.293
1532384915.552,32.227,31.250,-25.879,20.996,24.414
1532384915.556,34.180,32.715,-26.855,21.484,35.645
1532384915.559,35.645,27.832,-28.320,20.020,49.316
1532384915.563,37.598,27.344,-19.043,21.484,47.852
1532384915.567,38.574,26.855,-12.695,19.043,43.457
1532384915.571,38.086,26.367,-18.555,17.090,14.648
1532384915.575,40.527,34.180,-23.926,17.090,-4.883
1532384915.579,35.156,40.527,-17.090,20.996,20.020
1532384915.583,32.715,43.945,-14.160,26.855,14.160
1532384915.587,32.715,38.574,-17.090,24.414,-15.137
1532384915.591,34.668,37.109,-21.484,25.391,5.371
1532384915.595,37.109,32.227,-29.297,31.738,48.340
1532384915.599,32.227,25.879,-28.320,28.320,47.363
1532384915.602,24.414,33.203,-19.531,24.902,9.766
1532384915.606,22.461,35.645,-5.859,30.762,38.086
1532384915.610,28.809,37.109,-5.371,31.250,31.738
1532384915.614,23.926,35.645,-14.648,23.926,-15.625
1532384915.618,21.484,31.250,-19.043,24.414,13.184
1532384915.622,25.879,31.738,-23.926,26.367,42.969
1532384915.626,21.484,35.645,-19.531,26.855,42.480
1532384915.630,28.320,34.668,-17.090,28.320,20.020
1532384915.634,32.227,31.738,-20.508,27.344,-6.348
1532384915.638,28.320,35.645,-23.438,22.949,4.883
1532384915.641,38.086,37.109,-21.484,14.160,46.875
1532384915.645,46.387,35.156,-20.508,8.301,50.781
1532384915.649,45.410,40.527,-21.484,9.277,-12.695
1532384915.653,48.828,38.574,-19.531,12.207,-15.137
1532384915.657,52.734,36.621,-14.160,20.996,52.246
1532384915.661,37.598,41.016,-10.254,26.367,61.523
1532384915.665,22.461,34.180,-10.742,25.879,54.199
1532384915.669,25.391,32.227,-5.859,36.133,38.086
1532384915.673,25.391,41.016,-4.395,38.574,-0.977
1532384915.677,16.113,37.109,-6.348,29.297,8.789
1532384915.681,18.066,33.691,-9.277,29.785,36.621
1532384915.684,22.949,34.180,-12.207,25.879,18.066
1532384915.688,16.113,31.250,-5.371,28.320,17.090
1532384915.692,14.648,33.203,-1.953,34.668,46.387
1532384915.696,20.996,32.227,-11.719,32.715,38.086
1532384915.700,20.996,33.691,-10.742,23.438,18.555
1532384915.704,25.879,40.527,-8.789,21.973,13.184
1532384915.708,36.621,30.762,-19.531,29.297,54.688
1532384915.712,27.344,21.973,-11.719,25.391,47.363
1532384915.716,1.953,20.996,-1.465,14.648,12.207
1532384915.720,8.789,19.043,-4.883,20.508,32.227
1532384915.724,13.672,20.020,-2.930,21.973,51.758
1532384915.727,5.371,13.184,-5.371,16.113,52.246
1532384915.731,11.230,15.625,-6.836,19.043,34.668
1532384915.735,11.719,17.578,-5.371,20.020,28.809
1532384915.739,12.207,5.371,-8.301,14.160,48.340
1532384915.743,7.324,8.301,-10.254,3.418,49.316
1532384915.747,6.348,20.508,-13.672,6.348,17.090
1532384915.751,10.254,20.996,-20.996,6.836,-1.465
1532384915.755,14.160,15.137,-20.020,-3.906,13.184
1532384915.759,15.137,13.184,-15.137,5.371,34.180
1532384915.763,14.160,18.066,-15.625,16.113,53.223
1532384915.766,19.043,23.438,-11.230,17.090,56.152
1532384915.770,29.785,23.926,-6.348,20.508,38.086
1532384915.774,32.715,23.438,-6.348,23.926,51.270
1532384915.778,26.855,24.902,-7.812,23.926,59.082
1532384915.782,29.297,28.320,-8.789,21.484,52.734
1532384915.786,28.320,36.133,-7.324,20.996,40.527
1532384915.790,22.949,35.645,-4.395,20.508,27.832
1532384915.794,29.785,35.645,-1.953,21.484,45.410
1532384915.798,31.738,34.180,-3.418,19.043,41.504
1532384915.802,23.438,22.949,-10.742,12.207,29.297
1532384915.806,26.367,19.531,-15.625,13.184,41.504
1532384915.809,29.297,28.809,-12.695,15.137,44.922
1532384915.813,23.438,26.855,-10.742,8.301,13.672
1532384915.817,24.902,25.391,-9.277,9.277,-2.441
1532384915.821,31.738,32.715,-11.230,11.230,30.273
1532384915.825,25.391,28.320,-12.207,12.207,31.738
1532384915.829,24.902,24.902,-13.184,19.531,28.809
1532384915.833,31.250,29.785,-15.625,22.461,15.137
1532384915.837,36.133,29.297,-15.137,22.461,3.906
1532384915.841,36.133,22.949,-11.230,23.926,30.273
1532384915.845,30.273,26.855,-8.789,19.043,36.621
1532384915.848,22.461,22.949,-12.207,12.207,13.184
1532384915.852,30.762,19.531,-8.301,16.602,-27.344
1532384915.856,35.645,24.414,-4.883,21.973,-2.441
1532384915.860,26.855,21.484,-17.090,15.137,36.621
1532384915.864,25.879,26.367,-22.461,13.672,4.395
1532384915.868,26.855,27.832,-19.043,18.555,15.625
1532384915.872,32.227,20.996,-12.695,18.066,36.133
1532384915.876,31.738,17.578,-8.789,13.184,43.457
1532384915.880,26.855,22.461,-9.766,15.137,48.340
1532384915.884,24.902,24.414,-16.602,18.066,8.301
1532384915.888,32.227,23.926,-16.113,13.184,5.371
1532384915.891,26.855,18.555,-11.230,14.648,26.855
1532384915.895,9.277,10.742,-10.742,11.230,26.367
1532384915.899,13.672,9.766,-9.766,6.348,6.836
1532384915.903,18.555,9.766,-8.301,9.277,-8.789
1532384915.907,13.672,13.184,-7.812,11.230,38.086
1532384915.911,12.207,11.230,-7.812,8.789,26.367
1532384915.915,7.324,7.812,-9.277,1.953,-5.859
1532384915.919,7.324,18.555,-7.812,6.836,18.066
1532384915.923,13.672,26.855,-0.488,11.719,39.551
1532384915.927,8.301,17.090,-1.953,12.695,53.223
1532384915.931,2.930,5.371,-6.836,11.719,35.156
1532384915.934,18.555,4.883,-2.930,15.137,-1.953
1532384915.938,16.113,13.184,-8.301,13.184,6.348
1532384915.942,6.836,20.508,-14.160,-1.465,34.180
1532384915.946,7.324,20.508,-5.371,-2.441,43.457
1532384915.950,2.930,18.066,-1.465,-4.395,29.785
1532384915.954,1.953,20.508,-2.441,-8.301,13.184
1532384915.958,2.930,24.902,0.977,-5.371,42.969
1532384915.962,2.441,22.949,2.441,-3.418,46.875
1532384915.966,0.488,24.414,3.906,0.977,34.180
1532384915.970,4.883,23.438,3.906,9.277,8.789
1532384915.973,14.648,24.902,2.930,15.625,18.555
1532384915.977,14.648,26.855,0.488,12.695,35.645
1532384915.981,21.973,34.180,4.395,17.090,-4.395
1532384915.985,21.973,38.086,11.719,25.879,-10.742
1532384915.989,6.348,23.926,12.207,17.578,28.320
1532384915.993,4.883,17.090,10.742,6.348,29.297
1532384915.997,4.395,18.555,9.277,6.836,41.992
1532384916.001,8.301,14.648,12.207,9.277,63.477
1532384916.005,9.766,9.766,13.672,5.859,31.738
1532384916.009,6.348,11.230,12.695,11.230,54.688
1532384916.013,13.184,13.672,11.719,17.090,54.199
1532384916.016,12.695,17.578,13.184,11.719,36.133
1532384916.020,9.766,22.949,16.113,5.859,42.969
1532384916.024,15.625,32.227,16.602,12.695,12.695
1532384916.028,16.602,37.109,13.672,14.648,36.133
1532384916.032,13.672,26.367,14.648,2.930,30.273
1532384916.036,13.184,21.484,14.648,-2.930,-17.578
1532384916.040,15.137,24.902,16.113,3.906,-10.254
1532384916.044,13.672,22.949,18.555,10.742,6.348
1532384916.048,14.648,28.320,26.855,23.926,15.137
1532384916.052,16.602,30.762,27.832,21.973,-5.371
1532384916.056,10.742,21.973,19.043,4.395,6.348
1532384916.059,11.230,17.578,14.160,6.348,42.480
1532384916.063,9.277,18.555,17.578,9.277,35.645
1532384916.067,7.812,20.996,22.949,10.254,17.090
1532384916.071,12.207,17.090,17.578,10.742,4.883
1532384916.075,14.648,14.160,15.625,10.742,18.555
1532384916.079,14.648,14.648,16.602,18.555,26.855
1532384916.083,8.789,16.113,16.602,16.113,18.555
1532384916.087,10.254,14.648,15.137,12.695,9.277
1532384916.091,14.160,13.672,9.766,11.230,8.789
1532384916.095,15.137,16.113,7.812,9.766,22.461
1532384916.098,15.137,15.625,13.672,16.602,49.316
1532384916.102,13.184,13.184,17.578,11.719,29.297
1532384916.106,11.719,14.160,12.207,3.418,32.227
1532384916.110,12.695,20.996,12.695,3.906,46.875
1532384916.114,15.137,21.484,17.090,5.859,12.695
1532384916.118,16.602,23.438,19.043,12.207,11.719
1532384916.122,14.648,25.879,20.996,16.113,16.113
1532384916.126,3.906,13.672,11.230,5.859,39.062
1532384916.130,0.000,9.277,8.789,0.000,53.223
1532384916.134,9.766,12.695,13.672,1.953,20.020
1532384916.138,14.648,18.555,19.531,4.883,17.090
1532384916.141,11.230,24.902,20.020,12.207,34.668
1532384916.145,19.043,24.414,19.043,15.625,33.203
1532384916.149,27.344,25.879,25.391,15.625,1.465
1532384916.153,26.367,27.344,28.320,18.066,1.953
1532384916.157,22.461,27.344,24.414,18.555,19.531
1532384916.161,22.949,27.344,22.461,16.602,46.387
1532384916.165,23.438,21.973,25.391,17.090,46.387
1532384916.169,18.555,20.508,27.344,18.066,14.648
1532384916.173,18.066,19.531,27.832,9.277,0.977
1532384916.177,15.137,25.391,28.320,5.371,20.508
1532384916.181,20.508,38.086,28.809,15.625,28.320
1532384916.184,22.461,40.527,27.344,16.113,0.488
1532384916.188,12.695,33.203,26.855,9.277,32.227
1532384916.192,12.207,29.785,25.391,12.207,89.844
1532384916.196,28.809,32.227,31.738,20.996,73.242
1532384916.200,34.668,27.832,33.203,21.973,10.742
1532384916.204,16.113,24.902,25.391,20.020,11.719
1532384916.208,11.719,25.391,23.926,19.043,47.363
1532384916.212,22.461,23.438,30.762,19.043,16.113
1532384916.216,27.344,30.762,36.133,21.973,-15.137
1532384916.220,17.578,32.715,30.762,19.043,-16.113
1532384916.223,14.160,24.902,24.902,14.160,8.789
1532384916.227,19.531,23.926,25.879,14.160,41.992
1532384916.231,20.020,26.367,35.156,12.207,-6.348
1532384916.235,26.367,27.832,37.109,8.301,-59.082
1532384916.239,24.414,22.949,32.715,13.672,3.418
1532384916.243,8.789,20.508,30.762,17.578,72.266
1532384916.247,20.020,32.715,30.762,17.090,58.594
1532384916.251,23.438,34.180,32.715,14.160,27.832
1532384916.255,28.320,31.738,31.250,16.602,33.691
1532384916.259,38.086,30.273,31.738,21.484,28.809
1532384916.263,32.715,25.879,34.668,18.066,22.461
1532384916.266,28.809,28.809,30.762,14.648,27.832
1532384916.270,34.180,33.203,34.180,15.137,15.625
1532384916.274,32.715,35.645,43.457,16.602,11.719
1532384916.278,15.625,23.926,38.574,12.207,19.043
1532384916.282,10.742,18.066,29.297,11.719,18.066
1532384916.286,4.883,20.020,25.391,8.789,15.625
1532384916.290,1.953,17.578,28.809,6.348,25.391
1532384916.294,13.184,16.602,33.691,11.719,31.738
1532384916.298,12.695,17.578,36.621,15.625,25.391
1532384916.302,3.906,12.207,41.016,14.648,21.484
1532384916.305,6.348,7.812,40.527,15.625,24.902
1532384916.309,8.789,14.160,42.480,11.719,35.645
1532384916.313,5.371,20.996,41.016,7.812,18.555
1532384916.317,9.277,14.648,37.109,6.836,-6.836
1532384916.321,11.719,9.766,38.574,4.395,15.137
1532384916.325,13.672,22.461,43.457,6.348,46.387
1532384916.329,14.648,26.855,45.410,4.883,17.090
1532384916.333,14.648,23.926,43.457,-1.953,-5.859
1532384916.337,22.461,20.508,39.062,2.930,0.977
1532384916.341,27.832,20.020,43.945,14.648,21.973
1532384916.345,22.949,18.555,54.199,14.648,39.551
1532384916.348,19.043,16.113,57.617,11.719,25.391
1532384916.352,13.672,22.461,55.664,7.324,5.859
1532384916.356,13.672,22.461,58.594,8.789,37.109
1532384916.360,20.020,21.973,61.035,17.578,56.641
1532384916.364,22.461,33.691,54.688,20.508,53.711
1532384916.368,22.949,34.668,52.734,21.973,34.668
1532384916.372,16.113,24.414,58.105,20.020,-3.906
1532384916.376,17.578,25.391,62.500,18.066,43.457
1532384916.380,20.996,31.250,63.965,24.902,78.125
1532384916.384,18.066,33.203,66.895,24.902,35.156
1532384916.388,21.973,27.832,62.988,17.578,29.785
1532384916.391,23.926,33.691,57.129,16.602,64.453
1532384916.395,20.996,35.156,54.688,13.184,73.730
1532384916.399,19.531,23.926,54.199,15.625,29.785
1532384916.403,28.320,24.902,58.594,20.020,14.160
1532384916.407,26.855,22.461,45.898,9.766,69.336
1532384916.411,26.367,20.996,37.598,2.930,64.941
1532384916.415,37.109,31.250,41.992,-1.465,1.465
1532384916.419,39.551,32.227,39.062,4.395,14.648
1532384916.423,38.574,27.344,40.039,15.137,53.711
1532384916.427,36.621,21.484,44.434,18.066,61.523
1532384916.430,33.203,13.672,42.969,28.320,53.223
1532384916.434,34.668,10.742,43.945,32.715,43.945
1532384916.438,24.902,16.113,52.246,31.250,32.715
1532384916.442,11.719,15.625,49.316,32.715,51.270
1532384916.446,7.812,3.418,41.992,31.250,59.570
1532384916.450,6.836,7.324,47.363,25.391,44.922
1532384916.454,12.207,19.043,50.293,24.414,7.812
1532384916.458,14.648,15.137,47.363,29.785,19.531
1532384916.462,7.812,14.160,44.922,27.832,76.172
1532384916.466,6.348,15.625,49.805,21.484,45.410
1532384916.470,6.836,13.672,49.805,22.461,18.555
1532384916.473,13.672,18.066,46.875,25.879,47.852
1532384916.477,30.273,22.949,54.199,26.855,62.012
1532384916.481,17.090,22.949,53.711,21.484,36.133
1532384916.485,3.906,23.438,51.270,18.066,33.203
1532384916.489,7.324,20.020,56.641,17.578,36.621
1532384916.493,11.230,17.090,57.129,14.648,48.828
1532384916.497,18.066,18.555,51.758,15.137,48.340
1532384916.501,19.531,22.461,49.805,20.020,23.926
1532384916.505,25.391,26.367,58.594,26.855,28.320
1532384916.509,27.832,30.273,62.988,31.250,71.777
1532384916.513,27.344,31.738,60.059,24.902,34.668
1532384916.516,28.320,27.344,62.988,21.484,-12.695
1532384916.520,25.391,27.832,63.965,26.855,11.719
1532384916.524,22.949,34.180,62.500,27.832,24.414
1532384916.528,21.973,36.133,59.082,24.902,58.105
1532384916.532,15.625,30.273,59.570,21.484,29.297
1532384916.536,18.066,26.367,61.523,20.996,-5.371
1532384916.540,20.508,26.367,52.246,18.555,36.621
1532384916.544,22.949,25.879,53.223,19.531,51.758
1532384916.548,32.715,32.227,60.547,27.344,48.340
1532384916.552,22.461,26.367,49.805,17.090,21.484
1532384916.555,7.812,19.531,45.410,8.301,14.160
1532384916.559,3.906,20.020,51.270,14.648,70.312
1532384916.563,14.648,19.043,41.992,12.207,53.711
1532384916.567,20.996,16.602,41.016,7.812,21.973
1532384916.571,10.742,16.113,48.340,10.254,6.836
1532384916.575,12.695,22.461,40.527,11.230,43.945
1532384916.579,15.137,19.043,37.109,7.324,68.848
1532384916.583,19.531,6.348,40.039,3.418,21.973
1532384916.587,19.043,8.789,41.992,7.812,22.949
1532384916.591,20.996,21.973,37.598,12.207,39.551
1532384916.595,20.020,35.156,35.156,6.348,27.832
1532384916.598,12.207,39.062,41.504,7.812,13.184
1532384916.602,18.555,32.715,47.852,15.625,19.043
1532384916.606,22.461,26.367,53.223,13.672,33.203
1532384916.610,22.461,24.414,57.129,14.160,54.199
1532384916.614,29.785,25.391,54.199,17.578,48.340
1532384916.618,33.203,21.973,50.781,19.531,24.414
1532384916.622,32.227,20.020,49.805,22.461,22.949
1532384916.626,39.551,32.715,52.246,29.785,59.082
1532384916.630,40.039,35.156,53.711,25.879,49.316
1532384916.634,41.504,25.391,49.805,19.531,11.230
1532384916.638,30.762,24.414,45.898,18.066,3.418
1532384916.641,19.531,24.414,39.062,16.113,32.227
1532384916.645,22.949,24.414,36.621,18.066,50.293
1532384916.649,22.461,17.578,47.363,19.043,37.598
1532384916.653,21.973,16.602,52.246,13.184,-3.906
1532384916.657,18.066,20.508,48.340,8.301,18.555
1532384916.661,12.207,14.648,45.898,11.719,64.941
1532384916.665,14.648,10.742,44.434,17.578,51.758
1532384916.669,18.066,17.578,44.434,22.461,22.461
