timestamps,TP9,AF7,AF8,TP10,Right AUX
1532403922.284,13.672,35.645,46.875,29.297,56.152
1532403922.288,33.203,36.133,52.734,24.902,77.148
1532403922.292,76.172,40.527,54.688,29.785,44.922
1532403922.295,51.270,45.410,48.828,18.066,34.180
1532403922.299,28.809,45.410,49.316,1.953,34.668
1532403922.303,36.621,46.387,48.340,0.000,30.762
1532403922.307,35.156,57.617,48.828,27.832,24.414
1532403922.311,41.016,53.223,49.316,26.367,6.348
1532403922.315,27.344,41.504,49.805,37.109,11.719
1532403922.319,45.898,50.781,47.363,38.086,15.137
1532403922.323,73.242,60.059,41.016,7.324,31.738
1532403922.327,55.176,52.734,48.828,13.672,45.898
1532403922.331,36.621,51.758,47.852,25.391,28.809
1532403922.335,32.715,40.527,48.828,28.320,23.926
1532403922.338,40.527,39.551,51.270,28.809,44.922
1532403922.342,33.691,43.457,49.805,28.809,58.105
1532403922.346,32.227,37.109,56.152,33.203,38.086
1532403922.350,47.852,41.016,54.688,29.297,33.203
1532403922.354,49.805,50.781,49.316,28.320,51.758
1532403922.358,18.555,50.293,47.363,20.020,49.316
1532403922.362,-6.836,38.086,49.316,3.906,31.250
1532403922.366,25.879,33.691,52.734,13.672,57.617
1532403922.370,32.227,41.016,52.246,16.602,25.391
1532403922.374,39.062,41.992,49.316,9.766,-12.207
1532403922.377,35.645,45.898,44.922,17.090,26.367
1532403922.381,14.160,43.457,47.363,31.738,48.828
1532403922.385,43.457,38.086,52.734,37.109,53.223
1532403922.389,43.945,44.922,53.223,34.668,39.062
1532403922.393,33.203,39.551,51.270,26.855,13.184
1532403922.397,27.832,36.621,53.223,17.090,22.949
1532403922.401,25.391,43.945,57.617,44.434,28.320
1532403922.405,50.293,49.316,57.129,56.152,39.551
1532403922.409,31.250,50.293,50.293,24.414,5.859
1532403922.413,20.020,30.762,50.293,14.648,-40.527
1532403922.417,41.504,24.902,52.734,28.320,15.137
1532403922.420,45.898,41.504,46.387,24.902,41.016
1532403922.424,38.086,40.527,48.828,23.438,35.156
1532403922.428,15.137,38.086,56.152,24.414,33.203
1532403922.432,23.438,39.062,44.434,3.906,34.668
1532403922.436,34.180,43.457,40.039,-1.953,30.762
1532403922.440,31.250,38.086,53.223,33.691,26.367
1532403922.444,5.859,41.504,48.340,19.531,32.715
1532403922.448,-3.418,31.738,44.922,-23.926,35.156
1532403922.452,45.898,29.297,51.758,5.859,24.414
1532403922.456,44.434,43.457,51.270,35.156,31.738
1532403922.460,24.414,41.504,43.945,23.438,34.180
1532403922.463,10.254,38.574,45.410,18.555,39.062
1532403922.467,20.996,43.457,45.898,29.785,30.762
1532403922.471,38.574,43.457,43.945,15.625,13.672
1532403922.475,42.480,32.715,45.410,19.043,39.551
1532403922.479,38.086,36.133,42.969,39.062,34.668
1532403922.483,26.367,40.527,40.039,20.996,37.109
1532403922.487,-0.977,33.691,41.016,-0.488,59.570
1532403922.491,1.465,26.855,44.434,1.465,34.180
1532403922.495,18.555,30.273,41.992,0.000,12.207
1532403922.499,25.879,40.039,41.016,7.324,32.227
1532403922.502,24.902,48.828,37.109,6.836,46.875
1532403922.506,37.598,45.898,41.016,30.762,45.410
1532403922.510,40.527,33.203,43.457,39.062,0.977
1532403922.514,10.254,31.738,38.574,-7.324,-11.719
1532403922.518,15.625,50.293,36.621,4.883,20.020
1532403922.522,34.180,49.316,43.457,44.434,26.855
1532403922.526,33.203,47.852,42.480,28.809,25.879
1532403922.530,17.578,47.363,37.109,17.578,4.883
1532403922.534,5.859,39.551,35.645,8.301,20.508
1532403922.538,27.832,38.574,35.156,13.184,54.199
1532403922.542,36.621,39.062,43.457,28.320,41.016
1532403922.545,41.016,39.062,47.363,21.973,35.645
1532403922.549,38.086,38.086,41.016,0.977,13.184
1532403922.553,13.672,35.156,40.039,-1.465,-1.465
1532403922.557,2.930,32.227,42.480,0.977,31.250
1532403922.561,5.859,25.391,48.340,11.230,33.691
1532403922.565,13.184,31.738,44.434,12.207,21.484
1532403922.569,16.602,38.574,41.992,24.902,37.598
1532403922.573,19.531,39.551,39.551,20.020,34.668
1532403922.577,18.555,34.180,38.086,-10.742,15.625
1532403922.581,-2.441,28.320,45.410,31.250,22.949
1532403922.585,8.789,27.832,49.316,32.227,27.344
1532403922.588,34.668,33.691,46.387,7.812,18.066
1532403922.592,51.758,41.504,41.992,4.883,10.254
1532403922.596,50.781,36.133,41.992,6.836,0.000
1532403922.600,18.066,35.156,37.109,-7.812,21.973
1532403922.604,18.555,39.062,39.062,10.254,29.785
1532403922.608,20.508,38.574,44.434,20.020,50.781
1532403922.612,29.785,36.621,40.039,-2.441,44.434
1532403922.616,39.062,30.762,39.551,20.508,49.805
1532403922.620,26.367,36.133,45.898,23.926,80.566
1532403922.624,-45.410,26.367,41.016,-6.348,53.711
1532403922.627,-38.574,14.648,42.480,0.488,41.504
1532403922.631,30.762,31.250,47.363,36.621,26.855
1532403922.635,25.879,37.598,41.504,18.066,29.297
1532403922.639,31.250,38.574,41.992,-1.465,61.523
1532403922.643,38.086,42.480,44.434,22.461,41.992
1532403922.647,34.180,37.109,42.969,19.043,20.996
1532403922.651,21.973,38.086,44.434,9.277,4.883
1532403922.655,16.113,41.016,37.598,-6.836,10.742
1532403922.659,31.250,42.480,28.320,9.277,42.480
1532403922.663,47.852,40.527,34.668,24.414,28.320
1532403922.667,33.203,30.762,46.387,9.766,-3.418
1532403922.670,26.367,37.109,42.969,14.648,10.254
1532403922.674,30.273,38.086,41.016,19.531,27.832
1532403922.678,4.395,31.250,42.969,14.160,14.160
1532403922.682,-22.461,32.227,45.898,2.930,25.879
1532403922.686,0.977,23.926,52.246,8.301,27.344
1532403922.690,25.879,23.926,50.293,9.277,8.789
1532403922.694,23.926,29.785,43.457,-6.836,0.977
1532403922.698,27.832,29.297,42.969,0.977,29.785
1532403922.702,31.250,31.250,39.062,-12.207,39.062
1532403922.706,22.949,31.738,34.180,-23.438,25.391
1532403922.710,14.160,25.391,45.898,-4.395,16.602
1532403922.713,30.273,33.691,50.293,0.977,26.855
1532403922.717,27.344,35.156,43.945,-12.695,48.828
1532403922.721,6.348,25.391,40.527,-15.137,44.434
1532403922.725,9.277,19.531,40.039,1.953,35.156
1532403922.729,-2.930,21.973,38.086,-14.648,20.020
1532403922.733,-20.508,14.648,42.969,-28.320,12.207
1532403922.737,8.789,21.484,42.969,-4.395,43.457
1532403922.741,60.547,41.504,33.203,4.883,56.641
1532403922.745,30.762,41.504,26.855,-33.203,25.391
1532403922.749,11.230,38.574,33.203,-33.203,13.184
1532403922.752,47.852,33.203,42.480,1.465,21.973
1532403922.756,35.156,23.926,42.969,-0.977,31.738
1532403922.760,40.527,31.738,34.180,-13.184,18.066
1532403922.764,45.410,40.527,32.227,-9.277,19.043
1532403922.768,39.551,28.809,39.062,-0.488,28.320
1532403922.772,29.297,24.902,36.133,-16.602,19.043
1532403922.776,2.441,29.785,36.133,7.812,31.250
1532403922.780,-22.949,24.902,44.922,23.438,41.504
1532403922.784,6.836,24.414,42.480,17.090,39.062
1532403922.788,23.438,31.738,40.527,12.207,69.824
1532403922.792,-24.902,27.344,40.527,-9.277,37.598
1532403922.795,-4.883,24.414,36.621,13.184,17.578
1532403922.799,41.016,39.062,39.062,22.949,47.363
1532403922.803,35.156,37.598,41.016,15.137,61.035
1532403922.807,26.367,35.156,34.180,8.789,26.367
1532403922.811,26.367,36.133,33.691,-13.184,-8.789
1532403922.815,11.230,29.297,37.598,-7.324,14.160
1532403922.819,9.766,37.598,34.668,-15.625,28.809
1532403922.823,-14.160,38.086,35.156,-9.766,47.363
1532403922.827,14.160,31.738,39.551,5.371,27.344
1532403922.831,53.223,22.461,46.387,3.418,2.930
1532403922.834,33.203,23.438,44.922,15.625,9.277
1532403922.838,16.602,36.133,36.133,4.395,35.156
1532403922.842,26.367,35.156,38.086,-8.301,28.809
1532403922.846,11.719,41.504,39.551,8.789,7.324
1532403922.850,11.230,48.340,38.574,25.879,-6.348
1532403922.854,21.484,47.363,35.645,7.812,1.465
1532403922.858,20.508,41.016,37.109,2.441,39.551
1532403922.862,25.391,36.621,41.016,0.000,55.176
1532403922.866,12.695,35.645,40.039,-5.371,27.832
1532403922.870,33.691,41.504,36.133,2.441,17.578
1532403922.874,40.039,35.156,41.504,5.859,-3.906
1532403922.877,46.875,32.227,44.434,1.953,10.254
1532403922.881,19.043,43.457,41.992,10.742,27.832
1532403922.885,-15.137,44.434,42.480,3.906,30.273
1532403922.889,43.945,43.945,39.551,11.230,27.344
1532403922.893,61.523,41.504,43.945,42.969,26.367
1532403922.897,51.270,40.527,45.410,8.789,65.430
1532403922.901,48.340,38.574,41.504,-4.395,41.504
1532403922.905,20.508,41.016,44.922,4.883,39.062
1532403922.909,23.926,52.246,41.992,19.043,51.270
1532403922.913,24.414,43.457,41.504,16.113,36.621
1532403922.917,51.270,33.691,48.828,18.555,36.133
1532403922.920,30.762,40.527,48.828,19.043,48.828
1532403922.924,-2.930,32.715,44.922,-0.977,36.133
1532403922.928,15.625,35.156,42.969,10.742,6.348
1532403922.932,57.129,48.340,44.434,15.625,1.953
1532403922.936,54.199,54.688,46.875,18.066,17.578
1532403922.940,37.109,53.223,55.176,23.438,12.695
1532403922.944,58.105,57.617,61.035,43.945,27.344
1532403922.948,56.152,62.988,61.523,36.133,25.391
1532403922.952,44.922,57.129,65.430,19.531,26.855
1532403922.956,41.016,56.641,60.059,-5.371,41.992
1532403922.959,26.367,64.453,53.711,-15.625,17.090
1532403922.963,-6.836,63.477,61.035,0.000,27.832
1532403922.967,9.766,62.012,71.289,15.625,37.109
1532403922.971,18.555,65.918,77.637,-6.348,0.488
1532403922.975,0.488,72.754,84.473,-13.672,20.020
1532403922.979,-0.488,79.590,86.426,-3.906,50.781
1532403922.983,-34.180,74.219,93.262,-4.883,51.758
1532403922.987,-35.156,82.031,99.121,-11.719,62.988
1532403922.991,1.465,92.773,99.121,-24.902,61.035
1532403922.995,-9.766,84.961,91.309,-55.664,72.754
1532403922.999,-61.035,84.473,87.891,-56.152,46.387
1532403923.002,-48.340,91.797,96.191,-39.551,43.457
1532403923.006,-38.086,95.215,98.145,-47.852,63.477
1532403923.010,-44.922,98.633,101.074,-42.969,30.273
1532403923.014,-31.738,99.609,107.422,-48.828,20.508
1532403923.018,-56.641,103.027,101.074,-50.293,21.973
1532403923.022,-65.430,92.285,87.891,-74.707,41.016
1532403923.026,-65.918,78.613,89.844,-83.984,61.523
1532403923.030,-70.801,92.285,89.844,-66.895,44.434
1532403923.034,-50.781,105.469,84.473,-63.965,20.020
1532403923.038,-66.895,88.379,90.820,-67.383,46.875
1532403923.042,-25.879,94.238,89.844,-52.246,54.199
1532403923.045,-14.160,87.402,90.820,-24.414,32.715
1532403923.049,-26.855,74.219,92.773,-31.738,41.992
1532403923.053,-26.855,76.172,82.520,-33.203,63.477
1532403923.057,-38.574,64.941,77.148,-25.391,45.410
1532403923.061,1.953,61.035,82.031,-14.160,36.133
1532403923.065,-4.395,59.570,77.637,-17.090,42.480
1532403923.069,-0.977,65.430,62.012,-14.648,27.832
1532403923.073,11.719,63.477,63.477,10.742,20.508
1532403923.077,23.926,57.129,63.477,16.113,3.906
1532403923.081,26.367,50.781,58.105,18.066,23.438
1532403923.084,13.184,45.898,60.547,10.742,60.059
1532403923.088,21.973,47.852,54.688,23.438,47.852
1532403923.092,15.625,39.551,42.480,17.578,45.410
1532403923.096,41.504,27.344,45.898,4.395,42.480
1532403923.100,45.410,25.879,47.363,32.715,42.480
1532403923.104,47.852,33.691,49.316,63.477,73.730
1532403923.108,73.242,35.645,46.875,59.082,44.922
1532403923.112,68.848,29.785,38.086,38.086,-1.953
1532403923.116,50.293,33.203,35.645,45.898,3.906
1532403923.120,52.246,41.016,38.574,59.082,17.090
1532403923.124,65.430,24.902,42.969,45.898,38.574
1532403923.127,53.711,21.484,44.434,42.969,36.133
1532403923.131,60.059,36.133,43.945,66.895,31.250
1532403923.135,84.961,37.598,37.598,55.664,49.805
1532403923.139,76.172,32.227,34.668,43.945,49.316
1532403923.143,24.414,26.367,42.969,77.637,47.852
1532403923.147,56.641,26.367,40.527,85.449,48.340
1532403923.151,123.047,29.297,33.691,68.848,30.273
1532403923.155,99.121,29.785,37.109,66.406,32.227
1532403923.159,76.660,36.621,33.691,64.941,29.785
1532403923.163,52.734,23.926,31.250,51.270,6.348
1532403923.167,53.223,19.531,35.156,68.848,22.461
1532403923.170,69.336,26.367,32.227,55.176,65.430
1532403923.174,54.688,24.902,32.715,53.223,64.453
1532403923.178,63.965,23.926,35.156,63.965,8.789
1532403923.182,88.867,30.273,33.203,56.152,39.551
1532403923.186,76.660,28.320,30.273,41.992,81.055
1532403923.190,70.312,31.738,27.344,33.691,46.875
1532403923.194,64.941,24.414,36.621,51.758,37.598
1532403923.198,76.660,18.555,39.062,50.781,37.109
1532403923.202,91.797,34.180,30.273,57.617,28.809
1532403923.206,73.730,34.180,26.855,57.617,55.664
1532403923.209,56.152,21.484,29.785,41.016,44.922
1532403923.213,47.363,15.625,33.691,49.316,40.039
1532403923.217,48.828,19.531,28.320,63.477,43.457
1532403923.221,83.008,30.762,32.227,71.777,15.137
1532403923.225,96.191,37.109,38.574,55.176,27.832
1532403923.229,84.473,34.180,36.133,56.641,33.691
1532403923.233,69.824,35.645,38.574,68.359,34.180
1532403923.237,27.344,14.160,38.574,58.105,48.828
1532403923.241,42.480,18.066,36.621,53.223,38.086
1532403923.245,91.309,44.434,32.227,57.129,13.184
1532403923.249,63.965,34.668,33.203,55.664,10.742
1532403923.252,52.734,27.832,36.133,43.457,7.812
1532403923.256,83.008,31.250,33.691,43.945,26.367
1532403923.260,59.082,28.320,40.527,38.574,18.066
1532403923.264,47.363,34.668,39.551,28.320,20.996
1532403923.268,72.266,36.621,36.621,58.594,42.969
1532403923.272,75.195,33.691,39.551,59.082,39.062
1532403923.276,67.383,38.574,38.086,61.035,51.758
1532403923.280,68.848,41.016,39.062,53.711,39.062
1532403923.284,58.594,33.203,34.180,18.555,37.109
1532403923.288,54.688,28.809,28.809,22.949,66.406
1532403923.292,56.152,29.297,34.180,54.199,43.457
1532403923.295,31.250,29.785,41.016,68.848,22.461
1532403923.299,43.457,35.645,38.086,52.246,41.504
1532403923.303,58.105,39.551,38.574,48.340,39.551
1532403923.307,52.734,36.133,41.016,48.340,30.762
1532403923.311,64.941,32.715,35.156,32.227,24.902
1532403923.315,26.855,30.762,37.598,52.246,36.133
1532403923.319,26.367,30.762,43.457,44.434,44.922
1532403923.323,64.453,33.203,41.016,20.996,28.809
1532403923.327,59.082,27.832,37.598,47.363,14.648
1532403923.331,51.758,29.297,35.645,52.734,29.297
1532403923.334,49.316,39.062,36.133,25.879,22.949
1532403923.338,46.875,38.574,41.504,22.949,30.762
1532403923.342,42.969,31.250,42.480,44.922,18.555
1532403923.346,47.363,30.762,37.109,41.504,14.648
1532403923.350,48.828,33.691,38.574,33.691,14.160
1532403923.354,40.527,35.156,38.086,32.227,7.812
1532403923.358,34.180,30.273,38.086,20.996,39.551
1532403923.362,22.949,23.438,41.992,22.461,13.672
1532403923.366,52.246,25.391,42.969,29.785,-7.812
1532403923.370,50.293,37.598,43.945,35.645,27.832
1532403923.374,6.348,38.574,44.922,41.016,26.367
1532403923.377,26.855,31.250,41.992,53.223,24.414
1532403923.381,51.270,29.297,39.551,42.480,36.133
1532403923.385,16.113,27.832,41.504,29.297,36.133
1532403923.389,23.438,27.832,36.133,32.715,23.438
1532403923.393,57.129,21.484,42.480,29.297,4.395
1532403923.397,59.570,30.273,41.992,29.785,24.902
1532403923.401,33.691,27.832,41.504,29.785,21.973
1532403923.405,30.762,28.809,40.527,16.113,20.996
1532403923.409,37.598,38.574,37.598,14.648,38.574
1532403923.413,34.668,40.527,41.504,25.879,25.879
1532403923.417,26.367,32.715,44.434,20.508,27.832
1532403923.420,25.391,24.414,43.457,27.832,25.391
1532403923.424,49.316,30.273,36.133,37.109,24.902
1532403923.428,70.312,36.621,32.715,31.250,20.996
1532403923.432,56.641,36.133,30.762,22.461,-22.949
1532403923.436,30.762,29.297,31.738,6.836,-0.488
1532403923.440,28.320,25.879,27.832,20.020,46.875
1532403923.444,34.180,29.297,29.785,40.039,43.945
1532403923.448,22.461,36.621,36.133,13.184,24.902
1532403923.452,36.133,34.668,31.738,4.395,23.926
1532403923.456,45.898,32.227,31.738,11.719,35.156
1532403923.459,22.949,33.203,39.551,28.320,38.086
1532403923.463,34.180,22.949,39.062,27.832,41.016
1532403923.467,20.020,22.461,31.738,-4.395,27.832
1532403923.471,9.766,26.367,29.297,6.348,19.043
1532403923.475,31.738,23.438,32.715,38.086,5.371
1532403923.479,26.367,29.785,31.738,31.250,12.695
1532403923.483,15.137,20.020,40.527,33.691,19.531
1532403923.487,20.508,21.973,39.551,21.973,40.527
1532403923.491,20.508,31.250,31.738,14.160,15.137
1532403923.495,25.391,28.320,35.156,32.227,0.488
1532403923.499,37.598,32.227,34.668,39.062,33.203
1532403923.502,42.969,33.691,32.715,27.832,27.832
1532403923.506,25.391,32.715,37.598,16.602,34.180
1532403923.510,18.555,26.855,43.457,10.254,45.410
1532403923.514,3.418,24.902,32.715,-3.906,33.203
1532403923.518,4.883,36.133,22.461,-11.719,29.785
1532403923.522,30.762,35.645,31.250,28.320,30.273
1532403923.526,28.320,24.902,35.156,45.898,43.945
1532403923.530,21.973,20.508,35.156,26.367,27.832
1532403923.534,19.531,23.926,40.527,20.508,-0.977
1532403923.538,15.625,29.785,36.621,20.508,38.086
1532403923.541,18.555,32.227,37.598,26.367,60.059
1532403923.545,26.855,35.156,42.969,31.250,46.875
1532403923.549,22.461,27.832,37.109,34.180,41.016
1532403923.553,13.184,21.484,35.156,29.297,42.480
1532403923.557,3.418,29.297,36.621,20.508,43.945
1532403923.561,25.391,32.227,31.738,17.578,39.551
1532403923.565,41.016,23.438,32.715,23.438,46.387
1532403923.569,20.996,22.461,36.133,12.695,36.133
1532403923.573,25.879,28.320,32.227,-2.441,27.344
1532403923.577,5.859,28.809,27.344,-3.906,27.344
1532403923.581,-1.953,29.297,33.691,-10.254,21.973
1532403923.584,34.180,32.227,32.227,22.949,31.250
1532403923.588,29.785,28.809,27.344,38.086,19.043
1532403923.592,1.953,17.090,33.691,15.625,19.531
1532403923.596,4.883,29.785,23.926,8.301,21.973
1532403923.600,26.367,41.992,21.484,16.113,34.668
1532403923.604,46.387,39.551,29.785,21.973,54.688
1532403923.608,31.250,36.133,29.785,22.949,40.527
1532403923.612,28.809,27.832,32.715,25.391,28.320
1532403923.616,14.648,24.414,32.715,13.184,24.902
1532403923.620,-26.855,22.461,36.621,16.602,28.320
1532403923.624,4.395,21.484,35.645,23.438,36.621
1532403923.627,45.898,27.832,30.762,-3.418,17.090
1532403923.631,43.457,43.945,30.273,-4.395,-15.137
1532403923.635,24.902,36.621,29.785,3.906,16.602
1532403923.639,17.578,22.949,30.273,10.742,38.574
1532403923.643,37.109,30.273,25.391,10.254,27.832
1532403923.647,14.160,22.461,26.855,10.742,15.625
1532403923.651,16.113,17.090,35.156,30.273,16.113
1532403923.655,43.457,36.133,27.832,24.902,55.176
1532403923.659,38.086,36.621,24.414,1.465,70.312
1532403923.663,33.691,30.762,29.297,12.207,30.762
1532403923.666,27.344,36.133,35.645,41.992,44.922
1532403923.670,19.531,34.668,31.738,18.555,47.852
1532403923.674,-0.977,26.367,26.367,-4.883,4.883
1532403923.678,-37.598,15.625,28.809,11.719,32.227
1532403923.682,14.160,23.926,27.344,3.906,41.016
1532403923.686,53.223,36.621,31.738,4.395,36.133
1532403923.690,31.250,36.621,38.086,20.020,45.898
1532403923.694,25.391,34.180,36.133,19.043,32.715
1532403923.698,5.371,27.344,31.738,0.000,33.203
1532403923.702,20.508,25.391,35.645,-4.395,52.246
1532403923.706,41.016,33.203,36.133,4.883,39.551
1532403923.709,23.438,40.039,34.180,17.090,9.766
1532403923.713,33.203,39.551,33.691,32.715,2.441
1532403923.717,31.250,31.250,31.738,30.273,32.227
1532403923.721,5.859,25.879,29.297,31.738,41.992
1532403923.725,22.461,30.762,29.297,5.859,32.227
1532403923.729,33.203,38.574,27.832,-7.812,20.020
1532403923.733,-10.254,35.645,29.785,-3.418,7.812
1532403923.737,-20.508,20.508,39.062,8.301,18.066
1532403923.741,40.039,33.691,31.250,2.441,26.367
1532403923.745,51.758,39.551,26.855,0.000,34.668
1532403923.749,20.508,30.273,32.715,15.625,16.602
1532403923.752,9.766,40.039,31.250,-18.555,10.742
1532403923.756,17.090,41.992,26.855,-24.414,32.715
1532403923.760,-12.207,21.484,39.062,34.668,22.461
1532403923.764,20.020,28.320,37.109,41.016,44.434
1532403923.768,38.574,41.504,26.367,24.414,46.875
1532403923.772,42.480,38.574,27.344,1.953,-2.441
1532403923.776,15.137,35.645,28.809,0.000,-12.207
1532403923.780,-14.160,29.297,33.691,-6.836,8.301
1532403923.784,8.301,30.762,33.691,3.418,23.926
1532403923.788,34.668,41.016,29.785,16.113,40.039
1532403923.791,11.230,41.504,31.738,-4.395,39.062
1532403923.795,3.906,30.273,33.691,8.789,42.480
1532403923.799,32.715,36.133,30.273,30.273,33.203
1532403923.803,22.949,39.062,27.344,15.625,41.992
1532403923.807,5.859,26.855,33.691,-1.465,61.523
1532403923.811,21.484,37.109,32.715,2.441,-8.789
1532403923.815,-14.648,34.180,28.809,17.578,-25.879
1532403923.819,3.906,34.180,27.832,-6.836,19.531
1532403923.823,26.367,45.898,24.902,-12.695,42.480
1532403923.827,2.441,38.574,34.668,37.598,44.922
1532403923.831,44.922,41.992,33.203,18.555,-0.488
1532403923.834,17.090,38.086,28.809,-4.883,10.254
1532403923.838,12.695,34.180,33.691,20.508,28.320
1532403923.842,19.531,32.715,36.621,33.691,18.066
1532403923.846,33.691,34.668,38.574,26.855,26.855
1532403923.850,29.297,38.574,37.598,20.020,18.066
1532403923.854,32.227,34.180,36.621,23.926,24.902
1532403923.858,31.250,29.785,32.227,20.996,30.762
1532403923.862,13.672,32.227,24.414,-3.906,17.090
1532403923.866,34.668,35.156,28.809,13.672,15.137
1532403923.870,2.930,34.180,38.086,27.344,28.809
1532403923.874,7.812,44.434,37.598,13.672,40.527
1532403923.877,53.711,56.641,36.133,32.715,24.414
1532403923.881,33.691,50.781,29.297,16.113,11.719
1532403923.885,19.043,39.551,26.855,0.977,29.297
1532403923.889,13.672,40.039,35.156,25.391,22.949
1532403923.893,36.133,37.598,39.062,32.227,19.043
1532403923.897,49.316,37.598,33.691,0.000,28.320
1532403923.901,14.160,43.457,32.715,10.742,14.648
1532403923.905,7.324,32.715,35.645,32.227,32.715
1532403923.909,35.645,36.621,29.297,18.066,14.160
1532403923.913,26.367,40.039,30.762,16.602,-9.766
1532403923.916,20.996,40.039,33.203,20.996,24.414
1532403923.920,27.344,41.504,34.180,28.320,37.109
1532403923.924,14.160,38.574,32.715,16.113,38.574
1532403923.928,16.602,41.992,32.715,26.367,25.879
1532403923.932,26.855,45.410,35.156,41.016,28.809
1532403923.936,12.695,31.738,33.691,-0.977,47.363
1532403923.940,21.973,33.691,29.785,-9.277,56.152
1532403923.944,37.109,48.340,28.809,14.648,59.082
1532403923.948,55.664,48.828,28.320,25.879,15.137
1532403923.952,35.156,37.598,31.738,16.113,-18.066
1532403923.956,16.113,34.180,36.621,0.000,18.555
1532403923.959,25.391,46.875,33.691,8.301,49.805
1532403923.963,45.410,45.410,27.832,12.207,36.133
1532403923.967,43.457,36.133,30.762,29.297,18.066
1532403923.971,17.090,41.504,32.715,31.738,35.645
1532403923.975,21.973,43.945,35.156,31.250,50.781
1532403923.979,30.273,37.109,37.598,31.250,53.711
1532403923.983,41.504,34.668,37.598,29.785,44.434
1532403923.987,42.480,36.133,35.645,29.297,33.691
1532403923.991,-0.488,40.527,30.762,12.695,65.430
1532403923.995,3.418,40.039,36.133,8.789,46.875
1532403923.999,32.715,35.156,33.691,20.996,28.809
1532403924.002,31.250,40.527,24.902,23.926,60.059
1532403924.006,54.199,50.781,25.391,24.414,53.711
1532403924.010,41.992,49.316,26.855,3.418,-1.465
1532403924.014,-4.395,45.898,24.902,-22.461,0.488
1532403924.018,-7.324,37.598,22.461,-9.277,45.898
1532403924.022,16.602,42.480,23.438,16.602,56.152
1532403924.026,25.879,40.527,28.320,31.250,42.480
1532403924.030,23.438,38.086,29.297,32.227,30.762
1532403924.034,5.371,34.668,30.273,-12.207,41.992
1532403924.038,29.297,37.109,29.785,-24.414,54.688
1532403924.041,36.621,45.898,26.367,17.090,30.273
1532403924.045,6.348,37.598,35.156,27.344,24.414
1532403924.049,26.367,31.738,38.574,-14.648,-7.324
1532403924.053,18.555,34.668,35.645,-6.348,-12.695
1532403924.057,15.625,38.086,40.527,46.387,39.062
1532403924.061,14.160,34.668,32.715,24.902,47.852
1532403924.065,0.977,40.527,29.785,6.348,36.133
1532403924.069,20.020,46.875,30.762,14.160,3.418
1532403924.073,25.391,39.062,33.203,27.344,-14.160
1532403924.077,19.531,37.109,29.785,-2.930,19.043
1532403924.081,28.809,39.551,26.855,10.254,29.785
1532403924.084,23.926,33.691,37.109,36.621,34.668
1532403924.088,23.926,35.645,39.062,10.254,30.273
1532403924.092,40.527,33.203,32.227,4.883,23.926
1532403924.096,32.227,27.344,34.668,16.602,28.809
1532403924.100,25.391,36.133,35.645,22.461,38.086
1532403924.104,19.043,35.156,33.203,18.555,48.340
1532403924.108,17.578,35.645,34.180,18.066,18.066
1532403924.112,27.344,35.156,34.180,31.250,-3.418
1532403924.116,41.504,35.645,37.598,41.504,40.039
1532403924.120,21.484,42.480,35.645,37.598,62.988
1532403924.123,3.418,34.180,37.598,23.926,37.598
1532403924.127,4.883,32.227,31.738,16.602,9.766
1532403924.131,1.465,43.457,25.879,7.812,-14.648
1532403924.135,-6.836,42.969,34.668,12.207,-7.324
1532403924.139,1.953,37.109,37.598,16.113,29.785
1532403924.143,9.766,44.434,32.715,3.418,55.176
1532403924.147,14.160,44.434,30.762,0.977,39.551
1532403924.151,34.180,40.527,34.668,-6.348,50.293
1532403924.155,19.043,39.551,37.598,5.859,69.336
1532403924.159,5.371,33.203,38.574,34.668,54.199
1532403924.163,-10.742,30.762,39.062,13.672,44.922
1532403924.166,12.695,38.574,35.645,4.883,44.922
1532403924.170,30.762,38.086,36.621,38.086,29.297
1532403924.174,28.320,44.922,38.574,30.273,39.551
1532403924.178,34.180,48.828,35.645,22.461,37.109
1532403924.182,44.922,44.922,38.086,28.320,5.371
1532403924.186,39.551,49.316,41.016,16.113,21.484
1532403924.190,36.133,45.898,40.527,19.531,5.859
1532403924.194,40.039,43.945,37.109,20.508,-7.812
1532403924.198,-4.883,39.551,35.645,0.977,16.113
1532403924.202,8.301,31.250,42.480,9.277,34.668
1532403924.206,58.105,48.340,41.016,33.203,37.598
1532403924.209,22.461,47.363,39.062,13.672,16.113
1532403924.213,27.832,37.598,39.062,18.066,35.645
1532403924.217,55.664,49.805,33.691,19.043,38.086
1532403924.221,41.992,46.387,37.109,10.254,19.043
1532403924.225,20.996,37.109,43.457,46.875,26.367
1532403924.229,16.113,44.922,43.945,41.016,1.953
1532403924.233,21.484,43.945,42.969,11.230,-3.418
1532403924.237,17.090,44.922,36.133,-2.441,52.734
1532403924.241,31.738,45.410,34.668,9.766,54.688
1532403924.245,31.250,42.969,34.180,18.555,41.992
1532403924.248,31.250,46.387,35.156,9.766,47.852
1532403924.252,20.996,40.527,36.133,-2.441,37.598
1532403924.256,21.484,42.480,39.062,8.301,63.477
1532403924.260,38.086,52.246,39.551,26.855,48.340
1532403924.264,35.645,47.363,42.969,33.691,34.180
1532403924.268,22.461,54.199,42.480,16.113,30.273
1532403924.272,21.484,55.176,38.086,-1.953,24.902
1532403924.276,4.883,45.898,37.109,-0.977,44.434
1532403924.280,15.625,36.621,37.109,6.836,45.898
1532403924.284,41.504,32.227,44.434,25.391,24.414
1532403924.288,33.203,41.504,43.457,26.367,31.250
1532403924.291,30.273,40.527,36.621,-2.930,9.277
1532403924.295,39.062,42.480,37.598,4.395,8.301
1532403924.299,35.645,45.410,40.527,28.809,26.855
1532403924.303,33.203,42.969,41.016,26.855,35.645
1532403924.307,55.176,44.434,41.016,29.785,38.086
1532403924.311,51.270,50.293,45.898,29.785,0.000
1532403924.315,30.273,49.805,46.875,20.996,18.066
1532403924.319,18.066,40.527,47.363,11.230,71.777
1532403924.323,33.691,37.598,46.387,-10.742,60.547
1532403924.327,27.832,41.504,41.992,-4.883,35.645
1532403924.331,28.809,46.875,42.480,29.785,33.203
1532403924.334,21.973,49.805,39.551,19.043,29.785
1532403924.338,21.484,35.645,42.969,0.000,48.340
1532403924.342,-14.648,35.156,44.434,-5.859,50.781
1532403924.346,7.324,43.945,40.527,13.672,38.574
1532403924.350,60.547,50.293,45.410,45.410,38.086
1532403924.354,20.020,41.992,49.316,34.180,47.363
1532403924.358,18.066,37.109,45.898,19.043,57.129
1532403924.362,23.926,42.969,38.574,8.301,31.738
1532403924.366,31.738,42.480,40.527,12.695,0.000
1532403924.370,33.203,45.410,47.852,26.855,2.441
1532403924.373,5.371,37.598,53.711,24.414,-0.488
1532403924.377,-41.016,24.902,53.223,22.949,-25.391
1532403924.381,-5.859,33.203,45.410,18.555,-7.812
1532403924.385,78.613,49.805,37.109,18.066,42.480
1532403924.389,52.734,51.758,36.133,12.207,26.855
1532403924.393,28.320,41.504,40.039,7.812,20.508
1532403924.397,33.691,36.621,47.363,39.062,40.527
1532403924.401,43.945,42.969,42.480,40.527,43.457
1532403924.405,28.809,45.410,37.598,16.113,54.199
1532403924.409,27.344,46.875,42.480,20.020,46.875
1532403924.413,36.621,44.434,46.387,10.254,40.039
1532403924.416,22.461,42.480,44.922,11.230,44.434
1532403924.420,10.742,40.527,47.852,36.621,51.758
1532403924.424,-7.812,30.762,48.828,33.691,67.383
1532403924.428,10.254,45.898,41.992,21.973,20.020
1532403924.432,64.941,53.223,44.922,34.668,-19.043
1532403924.436,0.488,30.762,52.246,26.367,18.555
1532403924.440,-9.277,34.668,42.969,5.859,41.016
1532403924.444,62.500,45.898,43.945,30.762,37.598
1532403924.448,42.969,41.504,48.340,30.762,30.762
1532403924.452,34.668,41.992,41.992,23.926,48.828
1532403924.456,26.367,43.457,47.363,27.344,79.590
1532403924.459,20.508,44.922,45.410,15.625,45.898
1532403924.463,31.738,49.316,45.410,-2.441,15.137
1532403924.467,4.883,36.133,43.945,7.812,37.109
1532403924.471,30.762,36.621,44.922,62.988,42.480
1532403924.475,60.059,45.410,47.363,57.617,42.969
1532403924.479,45.898,37.109,44.434,32.715,51.758
1532403924.483,60.059,35.645,43.457,42.969,45.898
1532403924.487,0.000,34.180,44.922,36.621,42.969
1532403924.491,13.672,44.922,41.992,12.695,19.531
1532403924.495,15.137,40.039,41.504,10.254,16.113
1532403924.498,-5.859,37.109,36.621,19.043,35.645
1532403924.502,50.293,50.781,33.203,12.695,51.758
1532403924.506,32.715,46.387,43.457,8.301,34.668
1532403924.510,25.391,37.598,47.363,0.000,12.695
1532403924.514,13.672,37.598,41.504,13.184,22.949
1532403924.518,16.113,38.086,41.504,44.434,26.367
1532403924.522,40.039,40.527,41.992,50.293,19.043
1532403924.526,38.086,38.086,38.086,26.367,34.180
1532403924.530,17.578,33.203,40.039,3.418,24.902
1532403924.534,0.488,33.203,38.574,22.461,13.184
1532403924.538,0.488,30.762,38.086,13.672,57.617
1532403924.541,47.852,40.039,36.133,-16.113,52.734
1532403924.545,67.383,55.176,37.598,20.020,36.133
1532403924.549,20.020,51.758,36.133,30.762,21.973
1532403924.553,11.719,30.762,35.156,24.414,26.367
1532403924.557,33.203,28.320,37.598,31.250,17.578
1532403924.561,38.574,41.504,36.621,19.043,16.602
1532403924.565,38.574,42.480,37.109,5.859,39.551
1532403924.569,19.531,40.039,43.457,22.949,21.973
1532403924.573,0.488,35.645,42.969,39.551,9.277
1532403924.577,17.578,32.715,40.527,39.062,20.996
1532403924.581,58.105,42.969,32.715,27.832,21.973
1532403924.584,47.852,53.223,30.762,25.391,29.297
1532403924.588,12.695,48.340,35.156,10.254,43.945
1532403924.592,-14.160,39.062,33.203,0.488,42.480
1532403924.596,20.508,30.273,40.527,38.086,27.344
1532403924.600,69.336,39.062,45.410,35.156,20.508
1532403924.604,41.016,45.410,39.551,9.766,29.785
1532403924.608,25.879,41.504,35.645,18.555,36.621
1532403924.612,20.996,36.621,40.527,30.762,2.930
1532403924.616,22.461,38.086,39.062,24.414,4.395
1532403924.620,28.320,50.293,35.156,27.832,17.090
1532403924.623,38.574,49.805,44.922,34.180,3.906
1532403924.627,40.039,42.480,41.016,26.367,13.672
1532403924.631,19.043,39.062,38.086,28.809,33.203
1532403924.635,24.902,41.504,39.551,28.809,18.066
1532403924.639,10.742,36.621,39.062,16.602,23.438
1532403924.643,12.695,34.668,40.527,19.043,37.109
1532403924.647,32.715,44.922,34.668,17.578,17.090
1532403924.651,5.859,42.969,35.156,-3.418,6.836
1532403924.655,15.625,42.969,36.621,-10.742,21.973
1532403924.659,6.348,45.410,34.180,6.836,24.902
1532403924.663,1.953,46.387,31.738,9.277,20.020
1532403924.666,28.809,41.504,31.738,18.555,28.809
1532403924.670,7.812,43.457,34.180,19.531,17.090
1532403924.674,7.324,42.480,32.715,-4.395,24.414
1532403924.678,26.855,37.109,36.133,16.602,27.344
1532403924.682,12.207,38.574,37.109,24.414,32.227
1532403924.686,16.602,43.945,35.645,14.160,39.062
1532403924.690,34.668,46.875,35.645,20.020,51.758
1532403924.694,36.133,41.504,36.621,23.926,52.246
1532403924.698,11.719,35.645,43.945,22.461,11.719
1532403924.702,-48.828,20.508,40.039,-5.859,25.879
1532403924.705,19.043,32.715,35.156,30.762,51.758
1532403924.709,84.473,47.363,39.551,57.129,16.113
1532403924.713,38.574,32.715,42.480,38.574,-14.648
1532403924.717,21.484,34.668,39.062,12.207,-5.371
1532403924.721,15.625,42.480,38.086,2.441,30.762
1532403924.725,10.742,38.086,41.016,20.996,60.547
1532403924.729,8.789,32.715,38.086,24.902,38.086
1532403924.733,17.578,36.133,38.086,15.137,9.766
1532403924.737,33.203,38.086,41.016,15.137,51.270
1532403924.741,24.902,41.992,45.410,11.230,41.992
1532403924.745,22.461,45.898,38.574,-17.090,24.902
1532403924.748,7.324,41.992,28.809,-1.953,35.645
1532403924.752,30.273,39.062,33.691,22.949,16.113
1532403924.756,65.918,39.062,34.180,18.555,34.180
1532403924.760,58.105,43.457,37.598,28.320,39.551
1532403924.764,52.246,35.156,39.062,20.020,33.203
1532403924.768,41.504,27.832,38.086,17.578,42.969
1532403924.772,33.203,31.738,41.992,28.320,39.551
1532403924.776,31.738,37.109,36.621,20.020,10.742
1532403924.780,-2.930,33.691,21.973,23.438,24.414
1532403924.784,49.805,36.621,28.809,62.012,32.715
1532403924.788,74.219,33.691,50.781,41.992,26.367
1532403924.791,10.742,30.762,57.129,19.043,19.531
1532403924.795,-7.812,32.227,54.199,27.832,12.695
1532403924.799,-19.531,28.809,54.688,-11.719,15.137
1532403924.803,-18.066,20.996,50.781,-18.555,32.227
1532403924.807,-36.133,28.809,46.875,-8.789,50.781
1532403924.811,-31.250,29.785,49.316,-9.766,44.922
1532403924.815,-9.277,21.973,56.641,16.602,35.645
1532403924.819,-27.832,15.625,61.035,-5.371,15.137
1532403924.823,-27.832,16.113,57.617,-13.672,19.531
1532403924.827,-29.785,23.926,59.570,0.488,37.109
1532403924.830,-44.922,13.672,61.035,-11.230,40.039
1532403924.834,-19.531,10.254,54.199,-25.391,37.598
1532403924.838,-8.301,15.625,46.387,-20.020,46.387
1532403924.842,-22.949,18.555,42.969,-13.672,55.176
1532403924.846,-15.625,26.367,43.945,-15.137,38.086
1532403924.850,-0.977,22.949,47.363,-4.395,25.879
1532403924.854,-10.742,12.207,49.316,14.648,28.809
1532403924.858,-3.418,17.578,49.805,25.391,44.434
1532403924.862,16.113,27.832,38.574,-0.488,41.016
1532403924.866,0.000,27.832,35.645,-20.020,8.789
1532403924.870,46.387,26.855,45.410,19.531,38.086
1532403924.873,61.035,27.832,41.016,33.203,82.031
1532403924.877,33.691,22.461,38.574,27.832,62.988
1532403924.881,37.598,21.484,36.133,7.324,35.156
1532403924.885,44.922,24.414,33.203,-1.465,70.801
1532403924.889,31.738,23.926,38.086,32.715,40.527
1532403924.893,36.133,29.785,39.551,32.715,11.230
1532403924.897,25.879,29.297,36.621,16.602,41.016
1532403924.901,29.297,25.879,34.668,16.113,38.086
1532403924.905,43.457,28.320,40.039,38.086,31.738
1532403924.909,35.645,29.297,39.551,19.531,35.645
1532403924.913,41.504,25.879,36.621,11.719,57.129
1532403924.916,36.621,27.344,36.133,48.340,66.406
1532403924.920,33.203,32.715,30.762,31.738,90.820
1532403924.924,34.180,31.738,32.227,22.949,70.312
1532403924.928,34.668,28.809,31.738,30.762,5.859
1532403924.932,42.480,26.367,31.250,27.344,4.883
1532403924.936,32.227,26.855,33.691,17.090,23.438
1532403924.940,43.457,29.297,35.645,23.926,18.066
1532403924.944,32.227,24.414,39.551,32.227,18.066
1532403924.948,16.602,31.250,33.691,16.113,17.090
1532403924.952,32.227,38.574,35.156,45.898,-9.766
1532403924.955,55.176,32.227,40.527,76.172,13.184
1532403924.959,59.570,31.738,35.645,66.406,38.086
1532403924.963,42.480,27.344,35.156,44.922,46.875
1532403924.967,34.668,27.344,34.180,30.762,60.059
1532403924.971,39.062,35.645,22.949,17.578,38.086
1532403924.975,29.785,23.926,26.855,-0.977,9.277
1532403924.979,25.879,30.273,36.621,31.250,-3.418
1532403924.983,55.176,43.945,33.203,56.641,23.926
1532403924.987,61.523,36.621,34.668,59.570,56.641
1532403924.991,61.523,29.785,35.156,45.410,9.766
1532403924.995,40.039,33.203,31.250,-8.789,-21.973
1532403924.998,2.930,39.062,28.809,-5.371,19.531
1532403925.002,2.930,35.645,32.715,38.574,35.645
1532403925.006,12.207,39.551,37.109,29.785,16.113
1532403925.010,8.789,35.156,31.738,16.602,-5.859
1532403925.014,8.301,26.367,33.203,9.766,4.883
1532403925.018,-9.766,31.250,32.715,-20.996,1.465
1532403925.022,5.859,33.691,30.273,5.371,20.996
1532403925.026,27.832,35.645,33.691,33.691,48.340
1532403925.030,22.461,39.551,30.762,19.043,3.418
1532403925.034,20.508,31.738,26.855,4.883,-36.133
1532403925.038,26.367,29.785,25.391,5.859,4.395
1532403925.041,30.762,34.668,26.855,30.762,27.344
1532403925.045,11.719,33.203,22.461,17.090,46.387
1532403925.049,9.277,33.691,17.578,-3.418,35.645
1532403925.053,5.859,27.832,24.414,-2.930,35.645
1532403925.057,12.695,25.391,28.320,26.855,46.875
1532403925.061,36.621,33.203,22.949,27.344,26.855
1532403925.065,38.086,35.156,19.531,5.859,36.621
1532403925.069,26.367,34.180,23.926,32.715,28.320
1532403925.073,21.484,38.574,18.066,8.789,21.484
1532403925.077,33.691,42.480,15.137,9.766,41.016
1532403925.080,24.414,34.180,21.484,36.621,37.598
1532403925.084,24.902,28.809,22.949,23.438,40.527
1532403925.088,37.598,32.227,22.461,22.949,30.762
1532403925.092,34.668,27.832,19.531,6.836,5.859
1532403925.096,14.160,24.414,23.438,1.465,23.438
1532403925.100,-0.488,18.555,23.438,6.836,58.594
1532403925.104,23.438,28.320,12.695,4.395,65.918
1532403925.108,43.457,37.598,18.066,17.578,42.969
1532403925.112,44.922,32.227,20.508,11.719,37.109
1532403925.116,32.715,34.668,15.137,3.418,38.086
1532403925.120,19.531,29.297,20.996,10.254,32.227
1532403925.123,23.438,26.855,17.090,17.578,34.180
1532403925.127,26.367,29.297,14.648,24.414,54.199
1532403925.131,20.508,23.926,13.184,15.625,11.230
1532403925.135,-0.488,22.461,7.324,-19.043,2.441
1532403925.139,21.973,26.367,7.324,-3.906,43.457
1532403925.143,49.316,36.621,9.277,10.254,54.199
1532403925.147,24.414,38.574,11.230,-26.367,47.363
1532403925.151,28.809,23.926,11.719,6.348,11.230
1532403925.155,26.367,25.879,8.789,23.438,36.621
1532403925.159,4.883,25.879,10.742,12.207,40.039
1532403925.163,18.066,23.438,10.254,18.066,-4.883
1532403925.166,36.133,23.926,2.930,5.371,17.090
1532403925.170,36.133,19.531,2.441,-10.742,9.277
1532403925.174,23.926,20.020,5.859,3.906,-13.672
1532403925.178,9.766,17.578,3.906,-2.441,0.000
1532403925.182,6.836,18.555,-1.953,-17.578,37.109
1532403925.186,-0.977,23.926,-3.418,-3.418,53.711
1532403925.190,-0.977,18.555,-2.441,0.000,38.574
1532403925.194,32.227,21.973,-7.324,11.230,42.480
1532403925.198,42.480,26.367,-0.488,8.301,32.715
1532403925.202,-11.230,5.859,7.812,14.648,29.785
1532403925.205,15.137,11.230,1.953,24.414,42.969
1532403925.209,62.988,37.109,-4.883,6.836,7.812
1532403925.213,37.109,28.809,-10.254,-7.812,-3.906
1532403925.217,38.574,20.508,-4.395,31.738,8.301
1532403925.221,33.691,10.742,-0.488,26.855,16.113
1532403925.225,30.762,10.254,-4.395,4.395,39.062
1532403925.229,43.457,17.578,-6.348,11.230,26.367
1532403925.233,53.711,15.625,-10.254,-11.719,8.789
1532403925.237,40.527,24.414,-7.324,-2.930,28.809
1532403925.241,11.719,25.391,-1.953,30.273,55.176
1532403925.245,41.992,20.508,-6.348,23.438,62.012
1532403925.248,70.801,27.832,-5.371,30.762,43.457
1532403925.252,40.527,22.949,-4.883,25.879,38.574
1532403925.256,24.414,17.090,-5.859,26.855,43.945
1532403925.260,34.668,18.555,-5.859,24.902,16.602
1532403925.264,53.711,22.949,-6.348,25.879,37.109
1532403925.268,51.758,24.902,-3.906,25.391,46.875
1532403925.272,41.016,27.344,-7.324,17.090,8.789
1532403925.276,37.598,12.207,-2.441,34.668,4.883
1532403925.280,6.836,8.789,-1.953,13.184,22.949
1532403925.284,36.133,19.043,-8.301,21.973,25.879
1532403925.287,59.570,22.949,-11.719,19.531,0.977
1532403925.291,43.457,20.996,-10.254,-16.113,9.277
1532403925.295,-20.996,8.301,-7.324,6.836,16.602
1532403925.299,-10.742,20.996,-14.648,11.719,25.391
1532403925.303,46.875,23.926,-3.906,21.973,64.453
1532403925.307,37.109,20.508,0.977,29.297,54.199
1532403925.311,56.152,17.090,-5.371,22.461,11.230
1532403925.315,50.293,14.648,-12.695,10.742,8.789
1532403925.319,29.297,15.137,-15.137,-2.930,31.738
1532403925.323,34.180,15.137,-19.531,2.441,50.781
1532403925.327,28.809,15.625,-19.531,9.766,43.457
1532403925.330,22.461,18.066,-17.090,-1.465,40.527
1532403925.334,46.387,18.066,-24.902,-2.441,41.992
1532403925.338,39.062,14.160,-23.926,17.090,57.129
1532403925.342,5.859,10.254,-15.137,28.320,70.801
1532403925.346,-6.836,11.230,-16.113,34.180,45.898
1532403925.350,28.809,15.137,-24.902,9.277,11.719
1532403925.354,50.293,13.672,-27.344,-14.160,20.508
1532403925.358,41.992,17.578,-28.809,21.973,39.551
1532403925.362,29.297,9.766,-22.461,26.367,33.203
1532403925.366,28.809,10.254,-23.438,-4.395,2.441
1532403925.370,36.621,12.207,-24.414,6.348,-22.461
1532403925.373,27.832,0.977,-18.555,3.906,-14.648
1532403925.377,24.414,10.254,-20.020,12.207,4.395
1532403925.381,39.062,19.043,-22.949,36.621,16.113
1532403925.385,30.273,23.438,-28.809,18.555,23.438
1532403925.389,13.184,18.066,-30.273,9.277,39.551
1532403925.393,4.395,2.930,-26.855,10.742,42.480
1532403925.397,-2.930,7.324,-34.180,4.883,39.551
1532403925.401,6.348,11.719,-30.762,19.531,29.785
1532403925.405,18.555,11.230,-20.020,34.668,16.113
1532403925.409,28.320,16.602,-30.762,3.418,8.301
1532403925.412,26.855,10.254,-35.645,-3.906,7.324
1532403925.416,14.648,7.812,-32.715,13.672,12.695
1532403925.420,25.879,5.859,-25.879,20.508,45.898
1532403925.424,39.551,0.488,-22.949,23.438,42.969
1532403925.428,31.738,6.348,-32.715,-0.488,10.254
1532403925.432,47.363,16.113,-33.203,7.812,14.648
1532403925.436,44.922,20.996,-32.227,16.113,19.531
1532403925.440,29.297,14.648,-30.273,21.973,32.715
1532403925.444,26.855,16.602,-25.879,36.621,23.438
1532403925.448,22.461,13.184,-23.438,39.062,-7.812
1532403925.452,-16.113,6.348,-27.344,18.066,-38.086
1532403925.455,-9.766,11.230,-29.785,9.277,-7.812
1532403925.459,44.922,12.207,-27.344,24.902,40.527
1532403925.463,39.551,10.254,-26.367,33.691,33.691
1532403925.467,17.090,10.254,-27.832,29.785,22.949
1532403925.471,17.090,9.766,-28.320,19.043,24.902
1532403925.475,18.555,6.348,-27.832,13.184,23.926
1532403925.479,18.555,12.207,-27.344,26.367,-3.418
1532403925.483,8.789,18.066,-27.344,15.137,-17.090
1532403925.487,6.836,8.301,-24.414,14.160,6.348
1532403925.491,-3.418,6.348,-21.484,5.371,8.789
1532403925.495,0.977,11.719,-24.902,-1.465,0.977
1532403925.498,20.996,14.648,-29.297,21.484,21.973
1532403925.502,12.695,10.742,-28.320,0.488,33.691
1532403925.506,21.484,14.648,-27.832,-8.789,21.973
1532403925.510,25.391,21.484,-26.855,5.859,11.719
1532403925.514,26.367,10.254,-25.391,15.137,7.324
1532403925.518,16.113,-1.465,-24.902,8.789,17.578
1532403925.522,16.113,6.348,-22.949,23.438,41.016
1532403925.526,32.715,6.836,-23.438,12.695,42.480
1532403925.530,1.953,4.883,-23.438,16.113,37.109
1532403925.534,12.207,4.395,-18.066,45.898,19.531
1532403925.537,24.902,17.578,-26.855,10.254,21.973
1532403925.541,21.973,23.438,-29.785,7.324,26.367
1532403925.545,49.316,19.043,-21.484,40.527,26.855
1532403925.549,29.297,14.160,-22.461,21.973,22.949
1532403925.553,21.973,10.254,-22.461,-10.254,-3.418
1532403925.557,13.672,18.555,-28.320,-7.812,31.738
1532403925.561,15.137,18.555,-29.297,10.742,43.457
1532403925.565,46.387,22.461,-27.832,13.184,24.414
1532403925.569,42.969,23.926,-26.855,8.789,9.766
1532403925.573,20.020,20.508,-25.391,10.254,24.902
1532403925.577,28.320,16.113,-24.414,23.926,56.152
1532403925.580,39.062,14.648,-23.438,9.766,50.781
1532403925.584,29.785,20.020,-29.297,-5.371,32.715
1532403925.588,34.180,23.438,-24.902,18.066,35.156
1532403925.592,29.297,16.602,-18.066,30.762,9.277
1532403925.596,38.086,16.602,-20.508,22.949,20.996
1532403925.600,47.852,28.809,-22.461,11.719,26.367
1532403925.604,38.574,24.414,-20.508,10.254,27.832
1532403925.608,23.438,21.973,-24.414,-0.977,36.621
1532403925.612,25.879,18.555,-25.879,-3.418,-8.301
1532403925.616,31.250,18.066,-21.973,3.906,25.391
1532403925.620,23.926,13.184,-15.625,19.043,56.152
1532403925.623,41.016,11.230,-18.066,26.855,29.785
1532403925.627,38.574,25.391,-22.461,-3.418,32.227
1532403925.631,24.902,20.020,-25.391,-10.254,5.859
1532403925.635,24.902,11.719,-24.414,24.902,-2.441
1532403925.639,16.602,9.277,-16.602,23.926,52.734
1532403925.643,19.043,6.348,-19.043,7.812,25.879
1532403925.647,31.250,16.602,-25.391,-1.953,8.789
1532403925.651,11.230,28.320,-24.902,-31.250,6.836
1532403925.655,8.789,20.020,-20.996,-17.578,17.578
1532403925.659,24.902,15.137,-16.113,23.438,49.805
1532403925.662,24.414,17.578,-14.648,21.973,52.246
1532403925.666,24.414,14.160,-14.648,2.930,19.043
1532403925.670,9.277,13.184,-14.648,-2.930,4.883
1532403925.674,-0.977,16.113,-13.672,0.488,28.320
1532403925.678,18.555,18.555,-8.301,21.484,33.203
1532403925.682,40.527,21.484,-8.789,19.043,38.574
1532403925.686,42.969,17.090,-11.230,7.812,36.133
1532403925.690,42.480,18.066,-15.137,-3.418,0.977
1532403925.694,26.367,20.996,-13.672,-1.953,2.441
1532403925.698,11.230,16.113,-14.648,10.742,35.645
1532403925.702,11.719,16.113,-15.625,13.184,33.203
1532403925.705,17.578,19.043,-9.277,8.789,29.297
1532403925.709,29.297,20.996,-8.301,-9.277,44.434
1532403925.713,14.160,22.461,-7.324,1.953,61.035
1532403925.717,15.137,22.461,-7.812,17.578,55.664
1532403925.721,26.367,22.461,-11.719,10.742,40.039
1532403925.725,37.109,20.996,-9.277,1.465,17.578
1532403925.729,35.156,22.949,-9.766,5.859,-0.977
1532403925.733,17.090,19.043,-8.789,6.348,7.324
1532403925.737,9.277,15.137,-5.859,6.836,39.551
1532403925.741,28.809,22.461,-4.883,6.348,53.223
1532403925.745,39.062,28.809,-7.812,9.277,26.855
1532403925.748,32.227,26.367,-7.324,7.324,9.766
1532403925.752,17.578,25.391,-7.324,-3.418,27.832
1532403925.756,17.578,26.367,-7.812,10.742,38.574
1532403925.760,27.832,30.762,-15.137,-4.883,49.316
1532403925.764,8.301,24.902,-9.277,-0.488,43.945
1532403925.768,17.578,27.832,-1.953,17.578,27.344
1532403925.772,40.039,30.762,-7.324,15.137,16.602
1532403925.776,19.043,26.367,-3.418,20.996,12.695
1532403925.780,-28.320,23.926,-10.742,5.371,13.184
1532403925.784,11.230,28.320,-12.695,8.789,28.809
1532403925.787,55.176,40.527,-4.395,-1.953,25.879
1532403925.791,16.602,33.203,-0.977,-1.465,3.906
1532403925.795,18.066,22.461,0.488,20.508,41.504
1532403925.799,47.852,33.203,-5.371,2.930,47.852
1532403925.803,41.992,36.621,-2.930,24.902,24.414
1532403925.807,24.902,26.855,-0.488,21.484,40.527
1532403925.811,25.391,31.738,-5.371,-1.953,65.430
1532403925.815,19.043,34.668,-8.789,-7.324,62.012
1532403925.819,23.438,30.273,-5.371,0.000,38.574
1532403925.823,-10.742,18.555,-1.953,28.320,37.598
1532403925.827,-14.160,19.531,2.930,25.879,33.203
1532403925.830,51.758,33.203,1.953,5.371,10.254
1532403925.834,41.992,39.551,-7.812,-20.508,30.762
1532403925.838,17.578,35.156,-2.930,-10.742,62.988
1532403925.842,15.137,29.785,5.859,28.809,51.270
1532403925.846,11.719,27.344,8.789,34.180,50.781
1532403925.850,-5.371,27.832,2.441,-2.930,52.246
1532403925.854,13.184,29.785,0.977,-17.090,41.992
1532403925.858,26.367,30.762,3.418,12.207,50.781
1532403925.862,8.789,40.039,-3.418,-10.742,49.316
1532403925.866,-3.906,38.086,-0.488,-10.742,41.016
1532403925.869,6.836,36.621,8.301,18.555,14.160
1532403925.873,15.137,36.621,9.766,14.648,5.859
1532403925.877,7.812,31.738,5.371,19.043,15.625
1532403925.881,15.137,31.738,7.812,26.367,13.184
1532403925.885,12.695,31.738,16.113,23.438,41.016
1532403925.889,5.371,36.621,6.836,14.648,44.434
1532403925.893,-5.859,29.297,4.395,25.879,19.043
1532403925.897,-2.930,24.902,8.789,18.066,-12.207
1532403925.901,-1.465,30.762,9.766,-1.953,-8.301
1532403925.905,4.883,27.344,9.277,12.695,52.734
1532403925.909,20.996,32.227,6.348,9.277,41.016
1532403925.912,16.113,30.762,8.789,-2.441,7.324
1532403925.916,12.207,20.508,12.207,-0.977,33.203
1532403925.920,4.883,31.738,12.207,-0.488,37.598
1532403925.924,-14.648,30.273,12.207,20.020,28.809
1532403925.928,20.996,22.461,14.160,13.184,23.438
1532403925.932,41.504,32.227,12.695,2.930,29.785
1532403925.936,14.160,31.250,14.160,-1.953,43.945
1532403925.940,16.602,24.902,17.578,17.090,37.598
1532403925.944,15.137,30.762,20.508,39.062,15.137
1532403925.948,24.902,34.180,26.367,39.551,21.973
1532403925.952,12.207,32.227,20.508,16.602,44.922
1532403925.955,-4.395,30.762,17.578,19.531,42.969
1532403925.959,0.488,29.785,21.484,55.664,37.109
1532403925.963,6.348,31.738,16.602,41.992,23.438
1532403925.967,25.879,34.180,10.742,7.324,11.719
1532403925.971,23.438,27.344,17.578,14.160,16.602
1532403925.975,20.020,21.973,25.879,36.133,37.598
1532403925.979,22.461,29.297,23.438,33.691,33.203
1532403925.983,12.695,26.367,15.137,33.203,17.578
1532403925.987,25.391,31.250,16.113,30.273,32.715
1532403925.991,20.508,44.434,14.648,-0.488,9.766
1532403925.994,2.930,34.668,14.160,16.602,-10.742
1532403925.998,19.531,37.598,8.301,29.785,39.062
1532403926.002,20.508,38.086,14.648,-1.465,65.918
1532403926.006,24.902,30.762,22.949,14.648,56.641
1532403926.010,36.621,34.180,12.695,25.391,29.297
1532403926.014,10.742,22.461,16.113,25.391,21.484
1532403926.018,-7.324,20.020,20.996,42.969,31.738
1532403926.022,18.555,37.109,19.531,33.691,38.574
1532403926.026,37.109,38.086,16.602,13.184,39.062
1532403926.030,20.996,30.762,19.531,16.602,16.602
1532403926.034,18.066,30.762,20.996,29.785,31.250
1532403926.037,30.273,33.203,19.043,21.973,72.754
1532403926.041,14.648,28.809,16.113,9.766,52.734
1532403926.045,11.230,27.832,16.602,-2.930,0.000
1532403926.049,30.762,35.645,12.695,0.488,17.578
1532403926.053,20.996,39.062,12.207,18.066,38.574
1532403926.057,19.043,41.504,15.137,20.996,9.766
1532403926.061,8.789,34.668,12.207,9.277,32.227
1532403926.065,1.953,31.250,17.090,9.766,66.895
1532403926.069,20.996,43.945,17.090,-1.953,17.578
1532403926.073,25.879,36.621,16.113,1.953,-1.953
1532403926.077,26.855,21.484,20.508,11.719,22.461
1532403926.080,17.578,26.855,18.555,8.789,24.902
1532403926.084,18.066,34.668,11.719,1.465,45.898
1532403926.088,35.156,36.133,12.207,0.000,45.410
1532403926.092,37.109,25.879,22.949,25.391,29.785
1532403926.096,44.434,30.273,20.508,29.785,34.668
1532403926.100,35.156,42.969,16.602,27.344,25.879
1532403926.104,18.555,31.738,24.902,20.508,43.457
1532403926.108,26.367,30.273,21.484,22.949,20.996
1532403926.112,30.273,31.250,18.555,29.297,-15.625
1532403926.116,31.738,27.832,19.043,15.625,1.953
1532403926.119,20.508,28.320,14.648,8.789,21.484
1532403926.123,-3.418,17.090,10.742,5.371,45.410
1532403926.127,1.953,30.273,16.113,10.254,35.156
1532403926.131,14.648,31.738,18.555,19.043,19.531
1532403926.135,7.812,30.273,14.160,0.977,7.812
1532403926.139,-2.930,26.855,16.113,8.301,21.484
1532403926.143,-3.418,20.996,14.160,25.879,40.527
1532403926.147,13.184,25.391,12.207,27.344,41.016
1532403926.151,18.066,24.902,19.531,23.438,17.090
1532403926.155,8.301,16.113,21.484,14.160,-0.977
1532403926.159,1.465,23.926,17.090,-8.789,25.879
1532403926.162,1.465,25.879,13.672,-19.531,35.645
1532403926.166,0.977,21.973,9.277,-6.348,14.648
1532403926.170,27.344,35.645,12.207,7.324,17.578
1532403926.174,27.344,33.691,19.531,19.043,41.992
1532403926.178,12.207,26.855,12.695,9.277,46.387
1532403926.182,-3.906,20.020,10.254,3.418,35.156
1532403926.186,-4.395,25.391,9.277,6.348,16.113
1532403926.190,27.344,33.691,11.230,7.324,48.828
1532403926.194,41.992,32.227,9.277,8.301,56.641
1532403926.198,30.762,25.391,8.301,8.301,40.039
1532403926.202,7.812,22.461,21.484,12.695,34.668
1532403926.205,16.602,25.879,19.531,6.836,26.367
1532403926.209,23.926,23.438,14.160,0.488,39.062
1532403926.213,28.320,38.574,8.301,-9.766,11.719
1532403926.217,7.812,43.945,0.000,-20.020,16.602
1532403926.221,-13.184,20.508,11.719,-14.160,42.969
1532403926.225,21.973,17.090,16.602,-0.977,31.250
1532403926.229,48.340,39.551,7.324,8.789,26.367
1532403926.233,5.371,32.715,14.648,16.602,40.039
1532403926.237,10.254,24.414,13.672,20.508,40.527
1532403926.241,58.594,33.691,9.277,30.762,42.969
1532403926.244,33.691,32.715,7.812,0.000,44.434
1532403926.248,32.715,30.762,10.742,-7.324,10.742
1532403926.252,15.137,27.832,15.137,3.418,3.418
1532403926.256,4.883,31.250,9.277,1.465,17.090
1532403926.260,39.551,33.691,14.160,21.973,4.883
1532403926.264,43.457,35.156,18.066,24.414,4.883
1532403926.268,24.902,35.645,15.137,9.277,-2.441
1532403926.272,12.695,28.809,14.160,3.418,14.648
1532403926.276,27.344,33.691,17.090,11.230,34.180
1532403926.280,17.090,29.297,17.578,-11.230,18.555
1532403926.284,14.160,26.367,10.254,-26.367,22.461
1532403926.287,39.551,32.227,18.066,0.000,27.344
1532403926.291,34.180,37.109,19.531,8.301,9.766
1532403926.295,20.508,30.273,13.672,15.137,20.020
1532403926.299,11.230,29.785,11.719,3.906,29.785
1532403926.303,8.789,32.227,14.648,13.184,46.875
1532403926.307,8.789,26.855,17.578,16.113,48.340
1532403926.311,5.859,36.133,17.578,4.395,15.137
1532403926.315,18.555,34.668,24.902,5.371,2.930
1532403926.319,-6.836,27.832,18.066,-3.418,22.461
1532403926.323,-18.066,31.250,4.395,-19.043,26.855
1532403926.327,16.602,32.227,13.184,-8.789,38.086
1532403926.330,27.344,31.738,18.555,-2.441,1.465
1532403926.334,16.113,29.785,12.695,-0.977,-20.996
1532403926.338,9.277,27.344,16.602,2.441,21.973
1532403926.342,20.996,24.902,16.113,-18.555,46.387
1532403926.346,15.137,33.203,7.812,5.859,38.574
1532403926.350,-3.418,32.227,17.090,2.441,10.254
1532403926.354,19.043,33.203,19.043,-20.508,2.441
1532403926.358,-5.859,40.039,18.555,-18.066,19.043
1532403926.362,-13.184,27.832,19.043,-12.207,12.207
1532403926.366,22.949,25.879,18.555,30.762,17.090
1532403926.369,18.066,33.203,20.508,24.414,37.598
1532403926.373,34.180,31.738,20.996,13.184,41.504
1532403926.377,29.297,31.250,19.531,-0.488,28.809
1532403926.381,19.531,28.809,17.578,-3.418,12.695
1532403926.385,-7.324,25.879,22.461,1.953,49.805
1532403926.389,-15.625,22.949,17.578,-5.371,58.594
1532403926.393,32.715,31.250,8.789,-2.441,0.000
1532403926.397,41.016,39.551,15.625,15.137,2.930
1532403926.401,29.785,37.109,22.949,-15.137,13.184
1532403926.405,14.160,31.250,19.043,-32.227,33.691
1532403926.409,0.000,28.320,22.949,15.625,55.664
1532403926.412,-3.418,35.156,23.438,10.742,33.691
1532403926.416,-2.930,45.410,17.578,2.441,36.133
1532403926.420,30.273,40.039,18.066,20.508,43.457
1532403926.424,33.691,36.133,14.648,-7.324,46.875
1532403926.428,14.648,41.504,14.160,-10.742,31.250
1532403926.432,13.672,39.551,22.949,15.137,8.789
1532403926.436,29.297,32.715,20.020,4.395,25.879
1532403926.440,32.227,39.062,12.695,-12.207,21.484
1532403926.444,10.254,49.316,11.230,-10.742,5.859
1532403926.448,0.977,36.621,19.043,23.438,22.461
1532403926.452,-4.883,20.996,25.391,29.785,25.391
1532403926.455,28.320,30.762,28.320,39.551,56.152
1532403926.459,41.504,35.645,25.879,29.785,55.664
1532403926.463,29.785,37.109,13.672,0.977,22.461
1532403926.467,50.781,47.363,17.090,19.531,20.508
1532403926.471,43.457,39.551,26.367,2.930,16.113
1532403926.475,25.391,29.785,24.414,-21.484,21.484
1532403926.479,27.832,39.062,20.996,16.113,15.137
1532403926.483,19.043,52.734,20.508,26.855,18.555
1532403926.487,-0.977,45.898,18.066,19.043,41.016
1532403926.491,-2.930,33.691,25.391,22.949,5.371
1532403926.494,21.484,34.668,26.855,12.695,-7.324
1532403926.498,36.133,40.039,19.531,-1.953,39.062
1532403926.502,16.113,37.598,22.949,15.625,45.898
1532403926.506,29.785,37.109,26.367,27.832,40.527
1532403926.510,49.805,45.410,21.973,12.207,12.207
1532403926.514,25.879,41.016,22.949,14.648,24.902
1532403926.518,17.090,44.434,24.902,1.465,41.992
1532403926.522,11.230,48.828,21.484,-10.254,22.461
1532403926.526,19.043,44.922,15.137,-4.883,32.715
1532403926.530,41.504,47.363,14.648,-5.859,6.348
1532403926.534,32.715,41.992,17.578,8.301,-13.184
1532403926.537,10.742,32.227,21.973,12.695,12.695
1532403926.541,-51.270,29.785,22.949,-12.695,13.184
1532403926.545,-10.254,36.133,26.855,21.973,23.926
1532403926.549,55.176,41.992,24.414,22.949,21.484
1532403926.553,34.180,38.574,24.414,7.324,42.969
1532403926.557,28.809,41.016,25.391,24.414,59.570
1532403926.561,19.531,41.992,14.648,-8.301,29.785
1532403926.565,-4.883,36.133,15.137,-3.418,19.531
1532403926.569,9.766,38.086,16.602,3.906,31.738
1532403926.573,-3.906,22.949,23.438,1.953,14.160
1532403926.576,13.184,31.738,23.926,20.996,25.879
1532403926.580,52.734,52.246,19.043,13.672,50.781
1532403926.584,41.992,47.852,20.996,5.859,54.688
1532403926.588,11.719,42.480,23.926,17.090,40.527
1532403926.592,-17.090,37.109,20.508,14.648,12.207
1532403926.596,9.277,40.527,25.879,18.066,36.133
1532403926.600,40.527,41.504,28.320,23.926,50.293
1532403926.604,39.062,33.691,22.949,24.414,30.273
1532403926.608,6.348,33.203,21.484,2.441,3.906
1532403926.612,-4.395,40.527,24.414,-21.484,-15.625
1532403926.616,17.578,41.504,25.391,4.883,21.973
1532403926.619,44.922,44.434,22.461,22.461,42.969
1532403926.623,26.367,43.457,19.531,11.719,54.199
1532403926.627,1.953,33.203,21.484,25.879,50.293
1532403926.631,20.508,40.039,19.531,18.555,6.836
1532403926.635,12.695,38.086,21.973,5.859,17.090
1532403926.639,10.742,42.480,21.484,6.836,22.949
1532403926.643,20.020,51.270,20.996,20.508,18.555
1532403926.647,25.879,32.227,27.832,11.719,24.902
1532403926.651,45.410,36.621,25.879,9.766,17.578
1532403926.655,24.902,47.852,20.996,25.391,39.062
1532403926.659,-3.906,41.016,21.973,5.371,35.156
1532403926.662,1.953,37.109,21.973,-7.812,31.738
1532403926.666,-20.996,40.039,17.090,-11.230,30.273
1532403926.670,-15.625,34.668,22.461,10.742,14.160
1532403926.674,37.109,40.039,27.344,15.625,2.441
1532403926.678,47.852,47.363,19.531,15.625,18.555
1532403926.682,27.344,38.086,23.438,43.945,33.691
1532403926.686,29.297,36.133,25.391,47.363,44.922
1532403926.690,42.969,43.945,22.461,4.395,15.137
1532403926.694,10.742,36.133,23.438,6.836,0.488
1532403926.698,-1.465,27.832,27.344,11.230,20.508
1532403926.701,15.137,41.016,25.391,9.766,51.758
1532403926.705,0.977,35.156,24.902,25.879,57.617
1532403926.709,32.227,37.109,25.391,27.832,34.180
1532403926.713,53.711,48.828,20.020,28.809,25.391
1532403926.717,22.461,43.945,20.996,30.273,35.645
1532403926.721,26.367,38.574,21.484,34.668,43.457
1532403926.725,13.672,32.715,26.367,-0.977,30.762
1532403926.729,1.953,39.551,28.320,-20.996,-12.207
1532403926.733,31.250,41.016,31.738,20.020,-22.949
1532403926.737,35.156,37.109,34.180,30.273,45.898
1532403926.741,40.039,34.180,28.320,20.996,47.363
1532403926.744,27.832,36.133,26.855,-3.418,7.812
1532403926.748,16.113,41.504,26.367,-23.926,5.859
1532403926.752,23.926,43.457,27.344,0.000,17.578
1532403926.756,27.832,43.945,33.203,20.996,39.551
1532403926.760,17.090,41.992,35.645,22.461,53.223
1532403926.764,29.297,44.922,32.715,36.621,41.992
1532403926.768,49.316,46.875,31.250,30.762,24.902
1532403926.772,44.922,48.340,36.133,20.996,16.113
1532403926.776,29.785,44.922,34.180,33.691,33.691
1532403926.780,-10.742,28.809,33.691,36.621,31.250
1532403926.784,5.859,31.250,31.250,38.086,14.160
1532403926.787,43.457,51.270,24.902,27.832,35.645
1532403926.791,1.953,43.945,30.273,23.926,42.480
1532403926.795,12.695,26.855,34.668,17.090,32.715
1532403926.799,47.852,42.480,26.367,16.113,21.973
1532403926.803,30.273,41.992,25.391,20.020,22.461
1532403926.807,42.969,40.527,32.715,27.832,23.926
1532403926.811,65.430,51.270,26.367,42.480,31.250
1532403926.815,58.105,47.852,21.484,35.156,49.805
1532403926.819,36.133,44.434,31.250,41.504,37.109
1532403926.823,21.484,44.922,32.715,18.555,63.477
1532403926.826,26.367,46.875,22.949,-19.531,60.059
1532403926.830,9.277,32.715,25.391,-17.090,24.902
1532403926.834,24.414,32.715,29.785,35.156,40.527
1532403926.838,57.617,51.270,27.832,58.594,63.965
1532403926.842,63.477,56.152,26.855,42.969,63.965
1532403926.846,26.855,45.410,25.391,30.273,56.152
1532403926.850,47.852,45.410,25.879,12.207,24.414
1532403926.854,73.242,45.410,31.250,23.926,7.324
1532403926.858,46.875,36.621,33.203,34.180,32.715
1532403926.862,35.156,37.109,26.367,15.625,29.297
1532403926.866,27.344,36.133,27.344,25.879,15.137
1532403926.869,24.414,41.992,30.762,28.809,18.066
1532403926.873,42.480,45.898,24.902,7.324,28.809
1532403926.877,50.293,46.875,27.344,10.254,28.320
1532403926.881,35.645,42.969,28.809,10.254,62.012
1532403926.885,7.812,47.852,26.367,-3.418,40.527
1532403926.889,-2.441,41.992,33.691,13.184,23.438
1532403926.893,19.531,27.832,32.227,20.508,51.270
1532403926.897,23.438,35.156,29.785,7.812,27.832
1532403926.901,21.484,40.527,31.250,20.508,45.410
1532403926.905,50.293,45.410,30.762,35.156,72.754
1532403926.909,54.688,52.734,36.133,32.227,28.809
1532403926.912,46.875,48.828,31.738,15.625,8.301
1532403926.916,50.293,36.133,25.879,9.766,31.738
1532403926.920,31.250,41.016,25.879,6.348,38.574
1532403926.924,1.465,43.945,24.902,-15.625,50.781
1532403926.928,17.578,47.363,26.855,-10.742,54.688
1532403926.932,29.785,55.664,30.273,12.207,50.293
1532403926.936,39.551,53.223,28.320,9.766,30.762
1532403926.940,45.410,49.316,31.250,23.926,50.781
1532403926.944,12.695,45.410,32.227,9.766,50.781
1532403926.948,38.574,44.922,27.832,-19.043,23.438
1532403926.951,43.945,42.969,30.762,-1.465,10.254
1532403926.955,26.367,41.992,36.133,6.348,36.621
1532403926.959,19.043,46.387,32.227,7.324,45.898
1532403926.963,36.621,49.805,28.809,32.227,10.254
1532403926.967,55.176,49.316,29.785,35.156,5.371
1532403926.971,33.203,52.246,32.227,17.578,7.324
1532403926.975,32.715,51.270,32.227,14.160,20.508
1532403926.979,22.461,44.922,31.738,22.461,32.227
1532403926.983,33.691,50.293,34.668,5.859,30.273
1532403926.987,51.758,53.711,32.227,13.672,36.621
1532403926.991,33.203,41.504,30.273,40.039,35.156
1532403926.994,0.000,34.668,35.156,25.391,32.715
1532403926.998,29.785,47.363,30.273,-0.977,26.367
1532403927.002,59.082,58.105,23.438,7.812,8.301
1532403927.006,19.531,60.059,27.832,-8.789,15.137
1532403927.010,27.832,48.340,35.156,2.930,-7.812
1532403927.014,27.344,41.016,32.227,38.574,-6.348
1532403927.018,-11.230,43.457,27.832,23.438,15.137
1532403927.022,-4.395,38.086,28.809,8.301,27.344
1532403927.026,32.227,43.457,33.203,4.883,42.969
1532403927.030,51.270,51.270,31.250,3.906,3.906
1532403927.034,37.109,52.734,24.902,12.207,0.488
1532403927.037,38.086,53.711,26.855,21.973,28.809
1532403927.041,43.945,56.152,32.227,18.555,28.320
1532403927.045,19.531,47.852,30.762,-4.395,30.273
1532403927.049,5.371,42.480,30.762,-2.441,28.809
1532403927.053,19.531,47.363,35.645,28.320,10.254
1532403927.057,50.781,50.781,34.668,35.156,34.668
1532403927.061,52.246,51.758,37.109,25.879,36.133
1532403927.065,32.715,49.805,34.668,6.836,20.020
1532403927.069,13.184,50.781,29.297,6.348,21.484
1532403927.073,-6.836,47.852,26.855,12.207,44.922
1532403927.076,15.625,47.852,28.809,20.020,53.711
1532403927.080,38.086,48.828,31.738,10.742,23.926
1532403927.084,26.367,46.875,34.668,10.742,9.277
1532403927.088,18.555,36.133,41.992,40.527,9.277
1532403927.092,39.062,41.016,39.062,36.621,7.324
1532403927.096,30.273,61.523,23.438,18.555,20.508
1532403927.100,6.836,53.223,26.855,14.160,29.785
1532403927.104,28.809,54.199,29.297,11.719,48.340
1532403927.108,23.438,62.988,21.973,-5.371,33.691
1532403927.112,2.930,44.922,27.832,7.812,4.395
1532403927.116,21.484,44.434,31.250,10.254,34.668
1532403927.119,46.387,70.312,27.832,-8.301,59.082
1532403927.123,2.441,66.895,28.809,-19.043,49.805
1532403927.127,-6.836,52.246,38.574,-4.395,33.691
1532403927.131,29.785,50.293,45.898,41.504,15.137
1532403927.135,12.207,51.270,39.551,33.203,14.160
1532403927.139,33.203,49.316,34.668,19.531,0.488
1532403927.143,40.039,51.270,32.227,26.367,20.508
1532403927.147,17.578,55.664,28.320,0.000,4.883
1532403927.151,-0.488,53.223,24.414,-16.113,-24.414
1532403927.155,14.160,40.039,26.367,4.395,20.020
1532403927.158,-1.953,42.969,31.250,8.789,33.203
1532403927.162,30.273,57.129,35.645,20.508,21.484
1532403927.166,62.500,57.617,29.785,16.113,25.391
1532403927.170,47.363,60.547,29.785,20.508,20.996
1532403927.174,38.574,56.641,33.203,14.160,44.434
1532403927.178,19.531,50.781,29.297,-9.766,40.039
1532403927.182,17.090,58.105,25.879,18.555,9.766
1532403927.186,19.043,50.293,33.203,24.902,33.691
1532403927.190,46.387,46.387,37.598,16.602,9.277
1532403927.194,54.688,55.664,30.762,5.371,3.906
1532403927.198,15.137,46.387,35.645,28.809,34.668
1532403927.201,11.230,38.574,39.551,30.762,23.926
1532403927.205,29.297,51.270,34.180,10.742,42.969
1532403927.209,35.645,52.734,34.668,23.926,41.016
1532403927.213,38.086,54.688,27.832,5.859,30.762
1532403927.217,15.625,48.340,27.832,17.090,14.648
1532403927.221,9.766,34.180,35.645,26.855,27.344
1532403927.225,23.926,46.875,33.203,11.719,56.641
1532403927.229,19.531,46.387,29.785,-9.277,23.438
1532403927.233,16.602,46.387,27.344,4.395,6.348
1532403927.237,36.133,50.781,27.832,28.320,30.273
1532403927.241,33.691,53.711,27.344,22.949,8.301
1532403927.244,45.410,51.270,31.250,26.855,36.621
1532403927.248,44.922,52.246,37.598,27.344,32.715
1532403927.252,22.949,49.805,36.621,14.160,36.133
1532403927.256,30.273,47.852,37.598,9.277,63.477
1532403927.260,45.410,55.664,33.203,15.625,25.879
1532403927.264,12.695,48.340,27.344,5.371,31.738
1532403927.268,16.602,44.922,30.273,16.113,47.852
1532403927.272,46.875,50.781,36.621,37.598,23.926
1532403927.276,24.902,50.781,38.086,35.645,6.836
1532403927.280,16.113,48.828,33.691,18.066,13.672
1532403927.283,6.836,39.062,33.203,9.766,31.738
1532403927.287,3.418,43.457,32.715,18.066,40.527
1532403927.291,32.715,59.082,27.344,5.859,54.688
1532403927.295,26.367,54.199,31.250,-0.488,46.387
1532403927.299,4.395,49.805,32.715,4.395,23.438
1532403927.303,6.348,43.945,33.203,17.578,40.039
1532403927.307,18.066,43.945,32.715,30.273,26.855
1532403927.311,22.461,54.688,29.297,12.207,9.277
1532403927.315,17.578,49.316,35.156,16.602,44.922
1532403927.319,18.066,48.340,37.598,26.855,66.895
1532403927.323,12.695,52.246,37.598,15.137,56.152
1532403927.326,21.484,47.363,40.039,15.625,67.383
1532403927.330,21.973,49.316,36.621,12.695,36.133
1532403927.334,17.578,59.570,39.062,15.625,3.906
1532403927.338,27.832,52.246,49.805,40.527,39.062
1532403927.342,13.672,48.340,41.504,7.812,28.320
1532403927.346,0.488,52.246,32.227,-30.273,18.555
1532403927.350,-3.418,46.875,34.180,12.207,20.020
1532403927.354,-8.789,56.641,39.062,13.672,28.320
1532403927.358,-1.953,45.898,53.711,11.230,36.621
1532403927.362,6.348,42.969,45.898,-7.324,31.738
1532403927.366,-27.832,53.223,35.156,-53.711,13.672
1532403927.369,-15.137,56.152,42.480,-25.391,25.391
1532403927.373,-2.441,64.941,48.340,-17.578,37.598
1532403927.377,-24.902,72.754,54.688,-33.691,16.602
1532403927.381,-39.551,81.543,46.875,-41.992,13.672
1532403927.385,-28.320,63.965,48.340,-67.383,41.992
1532403927.389,-30.273,62.500,57.129,-49.316,53.711
1532403927.393,-55.664,63.477,62.500,-21.484,20.020
1532403927.397,-63.965,61.035,59.082,-46.875,15.625
1532403927.401,-51.270,68.848,56.641,-61.523,30.762
1532403927.405,-35.645,68.359,64.941,-57.129,29.785
1532403927.408,-34.668,81.055,56.152,-68.359,19.531
1532403927.412,-34.668,79.590,58.594,-66.406,20.508
1532403927.416,-53.711,71.777,63.477,-77.148,46.875
1532403927.420,-49.805,80.078,56.641,-92.285,54.199
1532403927.424,-50.293,79.590,62.012,-71.289,39.551
1532403927.428,-53.223,73.730,64.941,-71.289,33.691
1532403927.432,-44.434,72.754,61.035,-69.824,27.832
1532403927.436,-42.480,78.125,57.129,-49.316,37.598
1532403927.440,-56.152,66.895,60.547,-41.016,38.574
1532403927.444,-42.480,64.453,60.059,-39.551,38.574
1532403927.448,-18.066,65.430,58.105,-26.855,25.879
1532403927.451,-20.020,57.617,60.059,-29.297,22.461
1532403927.455,-35.156,55.664,62.012,-22.461,57.617
1532403927.459,-42.969,53.711,58.105,-5.371,31.250
1532403927.463,-25.391,49.316,54.199,-4.395,15.625
1532403927.467,-15.625,42.969,56.152,-14.160,49.316
1532403927.471,-10.254,41.992,54.688,-4.883,10.742
1532403927.475,-9.277,40.527,55.664,-8.301,21.484
1532403927.479,-4.395,40.527,50.781,-32.715,43.457
1532403927.483,-2.441,34.180,43.945,13.184,18.555
1532403927.487,1.465,31.250,43.457,25.391,23.926
1532403927.491,10.254,37.598,39.551,6.836,40.527
1532403927.494,13.184,37.598,36.133,7.812,26.855
1532403927.498,15.137,32.715,31.250,11.230,19.043
1532403927.502,29.297,32.715,31.738,21.973,41.992
1532403927.506,41.016,39.551,33.203,29.785,40.527
1532403927.510,37.598,38.086,29.297,22.949,30.762
1532403927.514,14.648,26.367,30.273,9.277,13.672
1532403927.518,15.625,27.832,27.344,16.602,45.898
1532403927.522,45.410,34.180,30.762,41.504,61.035
1532403927.526,59.082,32.715,35.156,45.410,48.828
1532403927.530,65.430,41.992,28.320,34.180,39.062
1532403927.533,-23.438,29.297,23.926,-13.672,22.949
1532403927.537,-51.758,16.602,26.855,-17.090,27.832
1532403927.541,58.594,32.227,29.297,51.270,39.551
1532403927.545,88.379,28.320,29.785,73.730,39.551
1532403927.549,77.148,30.273,27.832,62.500,45.410
1532403927.553,80.566,38.086,24.414,58.105,40.039
1532403927.557,-24.414,20.020,19.531,1.953,25.879
1532403927.561,-39.062,6.348,24.902,-15.625,21.484
1532403927.565,101.562,35.645,25.391,50.781,38.086
1532403927.569,106.934,51.270,16.113,56.641,29.785
1532403927.573,84.473,42.480,22.949,59.082,-1.465
1532403927.576,92.285,49.805,20.996,36.133,23.438
1532403927.580,41.016,47.852,17.090,13.672,48.828
1532403927.584,-16.602,19.531,28.320,44.434,41.992
1532403927.588,62.988,26.855,31.738,73.242,40.527
1532403927.592,110.352,49.316,27.344,68.848,83.496
1532403927.596,78.613,41.992,23.438,58.105,77.637
1532403927.600,53.223,29.785,22.949,29.297,43.457
1532403927.604,71.777,30.273,23.926,33.203,54.688
1532403927.608,77.148,34.668,22.461,63.477,49.316
1532403927.612,62.500,32.715,23.926,46.387,15.137
1532403927.616,58.105,35.645,23.438,39.062,18.555
1532403927.619,52.734,37.598,22.461,46.387,43.945
1532403927.623,51.270,37.598,26.367,40.039,51.270
1532403927.627,51.758,38.086,26.367,41.016,36.133
1532403927.631,50.781,37.109,22.949,29.297,21.973
1532403927.635,15.625,31.250,25.879,37.109,27.344
1532403927.639,6.348,29.785,24.414,51.758,37.598
1532403927.643,64.453,38.086,16.113,40.527,45.898
1532403927.647,84.961,43.457,17.090,28.809,5.859
1532403927.651,74.707,40.039,20.996,26.855,13.184
1532403927.655,62.988,40.527,20.508,40.527,56.641
1532403927.658,17.578,30.762,22.949,48.340,53.711
1532403927.662,41.016,25.391,31.250,65.430,35.156
1532403927.666,89.355,36.621,28.809,59.082,26.855
1532403927.670,67.383,35.156,26.855,40.039,31.738
1532403927.674,64.941,37.109,24.902,25.391,32.227
1532403927.678,25.879,30.762,26.855,32.715,27.344
1532403927.682,30.273,26.855,33.203,62.012,49.316
1532403927.686,82.520,35.156,34.180,51.758,54.199
1532403927.690,62.988,36.621,27.344,27.832,34.180
1532403927.694,50.293,45.410,27.344,34.180,18.555
1532403927.698,33.691,36.133,31.738,39.551,-12.207
1532403927.701,20.020,28.809,33.691,52.246,35.156
1532403927.705,62.500,44.922,36.133,61.035,74.219
1532403927.709,63.965,48.340,31.250,45.410,29.297
1532403927.713,53.711,41.504,26.367,23.926,5.371
1532403927.717,46.875,41.504,31.250,34.180,33.691
1532403927.721,11.230,41.992,33.203,43.457,41.016
1532403927.725,41.016,44.922,33.691,44.922,55.176
1532403927.729,64.453,41.016,32.715,26.855,40.527
1532403927.733,43.945,33.691,32.227,32.227,-1.953
1532403927.737,46.875,38.574,34.180,42.969,15.625
1532403927.740,17.090,34.180,31.250,18.066,27.344
1532403927.744,-15.625,34.180,32.227,17.090,41.016
1532403927.748,25.879,47.852,36.133,14.160,60.547
1532403927.752,58.594,44.922,40.527,23.438,35.156
1532403927.756,68.359,46.387,41.992,34.668,33.203
1532403927.760,60.547,45.410,37.109,32.227,22.949
1532403927.764,52.734,43.945,38.574,35.156,11.719
1532403927.768,50.781,41.504,39.062,33.691,22.461
1532403927.772,46.387,40.039,36.133,35.645,42.969
1532403927.776,41.992,39.062,39.062,42.480,51.758
1532403927.780,41.504,39.551,41.504,37.109,48.828
1532403927.783,29.297,47.363,35.156,27.832,41.992
1532403927.787,24.414,49.316,32.227,29.785,28.809
1532403927.791,35.156,45.898,38.574,32.715,19.043
1532403927.795,44.922,41.992,41.016,25.879,4.883
1532403927.799,67.383,45.410,40.527,26.855,22.949
1532403927.803,42.480,45.410,41.016,20.020,22.949
1532403927.807,5.859,37.598,41.504,-1.465,39.062
1532403927.811,41.016,38.574,42.969,27.344,59.082
1532403927.815,74.219,52.734,34.668,33.691,48.340
1532403927.819,78.125,58.594,30.273,-0.977,29.785
1532403927.823,-5.859,35.645,38.574,20.996,9.277
1532403927.826,-18.555,34.668,39.551,51.758,10.742
1532403927.830,93.750,54.199,38.086,43.457,23.926
1532403927.834,92.285,47.363,44.434,51.758,32.227
1532403927.838,76.172,46.875,45.898,60.547,30.762
1532403927.842,72.754,50.781,43.945,47.852,37.109
1532403927.846,55.176,50.293,45.410,41.992,21.973
1532403927.850,42.969,48.828,50.781,22.461,-5.371
1532403927.854,48.828,48.340,47.363,18.066,1.465
1532403927.858,41.504,43.945,40.039,30.273,24.414
1532403927.862,36.133,39.062,41.504,34.180,31.250
1532403927.865,58.105,43.945,41.504,40.527,40.039
1532403927.869,71.289,47.363,47.363,44.434,29.785
1532403927.873,62.988,46.875,51.270,45.898,28.320
1532403927.877,57.129,48.828,45.898,40.039,6.348
1532403927.881,43.457,46.387,40.527,31.250,15.625
1532403927.885,24.414,47.852,41.016,24.902,63.965
1532403927.889,17.578,41.992,46.875,16.113,59.570
1532403927.893,23.926,41.504,44.434,5.371,27.344
1532403927.897,40.039,50.293,40.527,9.766,14.160
1532403927.901,35.156,51.758,40.039,32.227,44.922
1532403927.905,37.598,49.805,39.062,33.691,65.430
1532403927.908,52.734,50.293,34.668,6.348,57.617
1532403927.912,18.555,50.781,34.668,-4.883,6.836
1532403927.916,-6.348,46.387,37.109,-12.207,11.230
1532403927.920,51.758,43.457,41.504,15.137,36.133
1532403927.924,83.496,50.781,44.434,56.641,39.551
1532403927.928,52.734,43.945,44.434,42.969,41.992
1532403927.932,39.551,40.527,44.922,19.043,14.648
1532403927.936,39.062,45.898,42.969,16.113,13.672
1532403927.940,34.668,43.945,44.922,24.414,46.875
1532403927.944,26.855,41.992,42.480,25.879,65.918
1532403927.948,10.742,45.410,37.598,24.414,48.828
1532403927.951,17.090,42.969,41.992,23.926,63.477
1532403927.955,53.711,48.340,41.992,19.043,71.289
1532403927.959,54.688,51.270,40.039,28.320,54.688
1532403927.963,44.434,47.363,42.480,35.645,50.781
1532403927.967,30.762,46.875,40.527,30.273,46.875
1532403927.971,13.672,46.387,37.598,11.230,21.973
1532403927.975,31.250,44.922,38.574,-7.324,48.340
1532403927.979,30.762,49.316,41.016,0.977,49.316
1532403927.983,19.043,50.293,42.480,21.484,41.992
1532403927.987,41.992,41.504,49.805,63.965,73.242
1532403927.990,24.902,41.992,45.410,51.270,20.508
1532403927.994,12.207,48.828,40.039,17.578,-3.418
1532403927.998,26.855,54.199,44.922,26.855,26.367
1532403928.002,18.555,53.711,42.969,19.531,41.504
1532403928.006,6.836,50.781,41.504,14.160,41.016
1532403928.010,4.883,49.316,43.945,15.625,33.203
1532403928.014,5.371,48.828,41.992,3.906,58.105
1532403928.018,14.160,51.758,39.062,7.812,58.105
1532403928.022,28.809,49.805,42.480,25.879,33.203
1532403928.026,12.695,48.828,42.969,18.066,16.113
1532403928.030,0.977,48.340,38.574,10.254,-2.930
1532403928.033,2.930,49.316,39.062,9.766,0.488
1532403928.037,17.090,48.340,39.062,15.625,31.738
1532403928.041,36.133,41.016,41.016,22.461,49.805
1532403928.045,15.137,45.898,41.016,16.602,39.551
1532403928.049,-8.301,52.734,41.016,13.672,30.762
1532403928.053,2.441,43.457,43.945,14.648,49.316
1532403928.057,36.133,50.781,44.434,26.367,65.430
1532403928.061,51.758,58.105,41.992,21.973,56.641
1532403928.065,37.109,53.711,43.457,20.508,51.270
1532403928.069,35.156,56.152,45.898,-22.949,32.227
1532403928.073,18.555,55.176,36.621,-51.270,19.531
1532403928.076,4.395,47.363,36.133,8.789,46.387
1532403928.080,46.387,47.852,41.992,53.223,47.852
1532403928.084,65.918,56.152,39.062,36.133,58.594
1532403928.088,24.902,54.199,40.527,30.273,39.551
1532403928.092,13.672,55.664,38.574,32.715,21.484
1532403928.096,32.227,48.828,35.156,28.809,13.672
1532403928.100,40.039,45.410,39.062,36.133,16.113
1532403928.104,33.203,51.758,41.016,33.691,41.504
1532403928.108,20.996,45.898,48.340,36.621,34.180
1532403928.112,26.367,40.039,44.434,25.391,17.578
1532403928.115,18.066,41.504,40.039,23.926,2.441
1532403928.119,2.930,49.316,42.969,21.484,-13.672
1532403928.123,9.277,45.898,44.434,28.809,27.344
1532403928.127,3.906,31.250,47.852,26.367,42.969
1532403928.131,17.090,36.621,46.387,33.691,12.207
1532403928.135,53.711,53.223,37.109,48.828,15.625
1532403928.139,29.785,49.805,35.156,18.066,18.555
1532403928.143,25.391,44.922,40.039,-1.953,43.457
1532403928.147,30.273,47.852,39.551,26.855,39.551
1532403928.151,20.996,52.246,43.457,35.645,-19.531
1532403928.155,36.621,49.316,50.781,30.273,20.508
1532403928.158,39.062,48.340,45.898,30.762,68.848
1532403928.162,34.668,46.875,41.504,21.484,36.133
1532403928.166,31.250,44.434,39.062,19.043,16.602
1532403928.170,21.973,44.922,38.574,1.465,1.953
1532403928.174,32.227,41.016,43.945,9.766,9.766
1532403928.178,38.574,41.016,46.875,45.410,22.949
1532403928.182,32.227,45.410,45.898,41.504,36.133
1532403928.186,43.945,48.828,46.387,23.926,45.898
1532403928.190,55.664,52.246,49.316,22.461,32.227
1532403928.194,30.762,47.363,45.898,15.625,28.320
1532403928.198,21.484,45.898,41.992,20.020,39.062
1532403928.201,40.527,51.758,45.410,28.320,27.344
1532403928.205,42.969,46.387,48.340,39.062,12.207
1532403928.209,43.457,45.410,46.875,34.180,22.461
1532403928.213,50.781,47.363,41.016,4.883,16.602
1532403928.217,25.879,43.457,38.574,11.719,12.695
1532403928.221,19.531,36.621,45.898,15.625,24.414
1532403928.225,41.504,41.016,41.016,23.438,50.293
1532403928.229,19.531,43.945,31.738,11.230,18.555
1532403928.233,41.504,41.016,38.574,18.066,14.648
1532403928.237,70.801,46.875,42.969,64.453,45.898
1532403928.240,61.035,41.016,41.992,56.152,61.035
1532403928.244,25.391,36.621,38.574,33.691,61.035
1532403928.248,-9.277,38.086,38.574,22.461,25.391
1532403928.252,36.621,42.969,43.457,12.695,20.508
1532403928.256,42.969,45.898,33.691,-3.418,6.348
1532403928.260,27.344,41.504,30.762,13.672,21.973
1532403928.264,32.227,38.574,38.086,29.785,38.574
1532403928.268,23.926,35.645,41.016,14.160,20.508
1532403928.272,34.180,33.691,38.086,11.230,-0.488
1532403928.276,49.316,41.992,32.715,16.113,13.672
1532403928.280,37.109,41.992,39.062,26.367,27.344
1532403928.283,7.324,40.527,40.039,32.715,27.832
1532403928.287,29.297,38.574,32.715,30.273,38.574
1532403928.291,51.270,40.039,30.273,0.000,29.785
1532403928.295,28.320,46.875,38.086,5.371,30.273
1532403928.299,24.414,41.016,37.598,24.414,41.992
1532403928.303,14.160,33.203,31.250,14.648,28.809
1532403928.307,27.344,39.551,33.203,15.137,42.969
1532403928.311,47.852,47.852,33.691,21.484,30.762
1532403928.315,39.551,50.781,36.133,39.551,14.648
1532403928.319,20.508,43.457,38.574,34.668,49.316
1532403928.322,14.160,41.992,30.273,14.648,36.133
1532403928.326,14.648,41.992,32.227,15.625,16.602
1532403928.330,14.648,40.039,39.551,27.344,21.484
1532403928.334,28.809,44.434,35.156,13.184,27.344
1532403928.338,47.852,48.828,38.574,12.207,36.133
1532403928.342,34.668,42.969,42.969,36.133,33.203
1532403928.346,13.184,40.039,39.551,39.062,44.922
1532403928.350,8.301,40.039,36.621,21.484,16.602
1532403928.354,15.137,31.738,37.109,22.461,2.930
1532403928.358,34.668,36.621,32.715,20.996,29.297
1532403928.362,30.762,34.180,32.715,13.184,20.996
1532403928.365,6.348,41.016,36.621,15.137,37.109
1532403928.369,12.207,44.922,34.180,11.719,26.367
1532403928.373,32.715,43.945,32.715,18.066,2.441
1532403928.377,31.250,44.922,32.715,19.531,21.973
1532403928.381,30.273,37.598,35.645,14.160,42.480
1532403928.385,-10.254,30.273,41.504,32.715,36.133
1532403928.389,-6.348,30.762,40.039,40.527,13.672
1532403928.393,39.551,38.574,35.645,14.648,17.578
1532403928.397,17.578,37.109,39.551,2.930,33.691
1532403928.401,10.254,35.156,33.691,16.113,30.273
1532403928.405,30.762,41.992,28.320,23.926,37.109
1532403928.408,26.855,50.293,33.691,24.414,28.320
1532403928.412,34.180,45.410,36.133,16.602,-0.977
1532403928.416,24.414,40.039,36.133,16.602,26.855
1532403928.420,31.250,41.504,35.645,31.738,62.988
1532403928.424,26.367,41.504,31.250,20.020,54.199
1532403928.428,23.438,42.969,29.297,15.625,21.484
1532403928.432,31.738,42.480,34.668,21.484,25.879
1532403928.436,18.066,43.457,31.250,5.371,59.082
1532403928.440,-18.066,45.410,25.879,-10.742,39.062
1532403928.444,2.441,40.039,38.086,28.809,24.902
1532403928.447,44.922,45.898,47.363,44.434,21.973
1532403928.451,39.062,47.363,46.387,26.855,-20.020
1532403928.455,38.086,44.434,45.410,47.363,-8.789
1532403928.459,13.672,35.645,43.457,46.387,25.391
1532403928.463,11.719,34.180,36.621,20.508,20.996
1532403928.467,41.016,36.621,37.598,9.277,17.090
1532403928.471,31.738,37.598,35.156,15.137,15.625
1532403928.475,3.906,39.551,35.156,23.926,21.484
1532403928.479,10.742,35.645,41.504,34.180,32.227
1532403928.483,37.109,40.527,41.992,27.344,36.621
1532403928.487,20.508,41.016,35.156,10.254,46.875
1532403928.490,1.465,37.598,43.457,35.156,33.203
1532403928.494,-6.348,36.133,49.316,0.488,32.715
1532403928.498,26.855,43.945,41.016,-5.371,27.344
1532403928.502,46.875,47.852,43.945,59.570,20.020
1532403928.506,45.898,43.945,46.387,55.664,54.688
1532403928.510,49.316,44.922,37.109,0.488,22.949
1532403928.514,23.438,42.480,35.156,13.672,17.090
1532403928.518,0.000,35.645,42.969,39.551,58.105
1532403928.522,15.137,32.227,36.621,-9.277,53.711
1532403928.526,42.969,48.828,32.227,6.836,46.875
1532403928.530,45.898,53.711,46.387,51.270,36.621
1532403928.533,41.992,42.969,46.387,38.574,45.898
1532403928.537,11.230,37.598,44.922,25.391,35.156
1532403928.541,20.996,41.992,46.875,38.574,40.039
1532403928.545,20.508,46.875,44.434,4.883,63.477
1532403928.549,-20.508,40.527,43.945,13.184,4.395
1532403928.553,29.785,47.363,45.410,52.246,5.371
1532403928.557,59.082,55.664,40.527,31.738,75.195
1532403928.561,27.832,49.316,41.016,27.832,57.617
1532403928.565,-4.395,41.504,43.945,14.160,27.344
1532403928.569,-27.832,44.922,40.527,-25.879,22.949
1532403928.572,-17.578,38.086,40.527,14.160,9.766
1532403928.576,47.363,42.969,41.016,58.105,25.879
1532403928.580,79.590,54.688,43.457,24.414,14.648
1532403928.584,43.945,36.621,47.363,-9.277,4.395
1532403928.588,34.668,42.969,36.133,-13.184,28.320
1532403928.592,56.152,60.547,34.668,31.250,20.508
1532403928.596,22.949,51.758,41.992,41.016,34.180
1532403928.600,19.043,34.668,41.016,19.531,28.809
1532403928.604,55.176,43.945,43.457,38.574,42.969
1532403928.608,51.270,52.734,44.434,35.156,53.711
1532403928.612,40.527,44.434,43.945,28.809,25.391
1532403928.615,50.781,39.062,42.480,35.156,22.461
1532403928.619,49.316,43.457,43.457,43.945,23.926
1532403928.623,37.598,48.340,42.969,44.434,30.762
1532403928.627,34.668,49.316,43.945,35.645,30.762
1532403928.631,31.250,44.922,42.969,26.367,-20.508
1532403928.635,43.945,44.922,35.156,19.531,-15.137
1532403928.639,27.344,53.711,31.738,16.602,32.227
1532403928.643,35.156,53.711,37.598,16.113,30.273
1532403928.647,54.688,49.316,41.016,10.742,15.137
1532403928.651,38.086,48.828,41.504,38.574,11.719
1532403928.655,33.203,50.781,41.992,42.480,29.297
1532403928.658,46.875,47.363,43.457,26.367,33.691
1532403928.662,41.992,43.945,43.457,41.504,42.969
1532403928.666,37.109,46.875,42.480,22.949,36.133
1532403928.670,32.715,44.434,41.016,15.625,22.949
1532403928.674,9.766,39.062,41.016,21.973,43.457
1532403928.678,11.719,41.016,42.480,19.531,25.391
1532403928.682,37.598,48.340,47.852,39.551,13.184
1532403928.686,43.457,48.340,43.945,51.758,48.828
1532403928.690,43.457,48.828,39.551,39.062,26.855
1532403928.694,38.086,40.527,47.852,31.738,15.625
1532403928.697,17.090,36.133,39.551,29.297,21.484
1532403928.701,29.785,39.551,31.250,2.441,8.301
1532403928.705,38.574,34.668,40.039,12.207,52.246
1532403928.709,22.949,41.504,49.805,42.969,32.715
1532403928.713,34.180,46.387,50.781,42.969,-26.367
1532403928.717,38.086,36.621,48.828,35.156,3.418
1532403928.721,33.691,37.598,44.922,22.949,43.945
1532403928.725,33.691,42.969,38.086,15.137,45.410
1532403928.729,37.598,42.969,39.551,12.695,14.160
1532403928.733,40.527,43.457,39.551,9.277,24.902
1532403928.737,37.109,41.016,35.156,1.465,42.969
1532403928.740,31.738,41.992,34.180,9.766,40.039
1532403928.744,38.086,41.504,34.180,20.508,30.273
1532403928.748,47.363,35.645,39.062,26.367,9.277
1532403928.752,41.504,35.645,41.992,27.832,27.344
1532403928.756,29.297,45.898,44.434,32.227,39.062
1532403928.760,15.625,44.922,46.875,30.762,11.230
1532403928.764,24.902,41.504,38.574,28.320,31.738
1532403928.768,29.785,41.016,36.621,38.086,16.113
1532403928.772,11.230,38.086,43.457,27.344,-3.418
1532403928.776,-4.395,32.715,46.387,1.953,20.020
1532403928.780,6.836,34.180,40.039,7.324,28.320
1532403928.783,41.992,53.223,36.133,37.109,22.461
1532403928.787,11.230,43.945,41.504,28.809,15.625
1532403928.791,0.000,32.227,42.480,10.254,16.113
1532403928.795,34.180,41.016,43.457,32.227,25.391
1532403928.799,24.902,44.922,47.852,53.223,18.555
1532403928.803,43.457,43.945,44.434,44.434,17.090
1532403928.807,53.223,46.875,38.086,32.227,26.367
1532403928.811,27.344,37.598,38.574,20.020,10.742
1532403928.815,-0.488,28.320,39.551,3.418,22.461
1532403928.819,11.230,34.668,40.039,0.977,33.203
1532403928.822,38.086,52.246,42.480,17.090,0.488
1532403928.826,41.504,49.805,41.992,33.203,21.973
1532403928.830,36.621,40.039,37.598,23.926,-8.301
1532403928.834,-5.371,34.180,41.016,24.414,-23.438
1532403928.838,-9.277,32.227,41.504,3.906,31.738
1532403928.842,28.809,40.527,35.156,-2.930,30.273
1532403928.846,21.484,42.480,39.062,24.414,45.898
1532403928.850,21.484,41.992,42.480,25.879,48.828
1532403928.854,30.762,48.340,39.551,13.672,11.230
1532403928.858,20.996,45.410,39.551,18.066,-0.977
1532403928.862,31.250,42.969,41.992,29.297,12.695
1532403928.865,10.742,48.828,41.504,18.555,17.578
1532403928.869,2.930,36.621,41.992,9.766,-1.465
1532403928.873,28.809,38.086,38.086,11.230,5.371
1532403928.877,29.297,45.410,40.527,22.461,12.695
1532403928.881,41.992,44.434,40.527,14.160,-3.418
1532403928.885,28.809,43.457,36.133,1.953,20.508
1532403928.889,25.879,43.457,40.527,30.762,28.320
1532403928.893,30.762,51.758,29.785,21.484,20.508
1532403928.897,29.785,47.852,28.809,-0.488,11.719
1532403928.901,12.695,43.457,40.039,23.438,-2.930
1532403928.904,19.043,41.016,34.668,15.137,22.461
1532403928.908,23.438,36.621,39.551,6.348,37.109
1532403928.912,26.855,49.316,40.039,14.160,32.227
1532403928.916,41.504,55.176,36.133,22.949,30.273
1532403928.920,38.086,47.852,44.922,49.805,34.180
1532403928.924,34.180,50.293,42.969,26.855,58.105
1532403928.928,8.301,48.340,35.645,0.488,20.508
1532403928.932,24.902,49.316,33.203,-21.484,-33.691
1532403928.936,34.668,51.270,31.738,-1.953,6.348
1532403928.940,34.180,52.246,34.668,39.551,44.922
1532403928.944,52.246,53.711,36.621,33.691,58.105
1532403928.947,33.203,49.316,38.086,22.949,44.922
1532403928.951,31.738,52.246,39.551,16.602,38.574
1532403928.955,36.133,52.246,41.016,26.367,61.035
1532403928.959,27.832,46.875,45.898,37.109,40.527
1532403928.963,24.902,48.340,43.457,16.602,31.250
1532403928.967,19.531,40.039,39.062,13.672,38.574
1532403928.971,29.785,43.457,37.109,8.789,9.277
1532403928.975,37.109,51.270,38.574,-3.418,20.508
1532403928.979,17.578,45.898,37.598,14.160,41.992
1532403928.983,14.648,44.922,38.574,29.297,14.160
1532403928.987,21.484,39.551,38.574,29.785,35.645
1532403928.990,34.180,46.875,37.598,36.133,60.059
1532403928.994,45.898,48.340,38.086,43.945,64.453
1532403928.998,28.320,41.504,34.180,22.949,56.152
1532403929.002,13.184,36.133,37.598,25.879,53.711
1532403929.006,20.020,37.109,41.992,37.109,45.898
1532403929.010,19.043,41.016,37.598,7.812,5.371
1532403929.014,20.020,40.527,33.691,4.883,12.207
1532403929.018,31.250,48.828,38.086,14.648,14.160
1532403929.022,32.227,50.781,44.434,25.879,29.785
1532403929.026,29.785,44.434,46.875,31.738,69.336
1532403929.029,28.809,43.457,45.898,30.762,46.387
1532403929.033,27.832,44.434,43.945,26.367,19.531
1532403929.037,32.715,42.969,40.039,16.602,38.086
1532403929.041,28.809,42.969,36.133,12.695,46.875
1532403929.045,24.902,44.922,41.992,25.391,41.504
1532403929.049,35.645,45.410,47.852,28.809,24.414
1532403929.053,34.180,43.945,43.945,34.668,36.621
1532403929.057,27.344,41.016,41.504,51.758,32.715
1532403929.061,19.043,38.574,37.109,42.969,33.203
1532403929.065,20.508,44.434,38.574,27.832,60.547
1532403929.069,39.062,47.363,41.992,32.227,39.551
1532403929.072,36.621,44.922,41.504,35.645,20.996
1532403929.076,23.438,42.480,41.016,28.320,20.996
1532403929.080,7.324,34.668,38.086,18.555,34.668
1532403929.084,1.465,28.320,37.598,7.812,52.246
1532403929.088,20.508,39.062,32.715,-22.461,49.316
1532403929.092,31.738,41.504,30.762,-21.973,39.551
1532403929.096,45.410,38.574,38.086,27.832,66.406
1532403929.100,55.664,42.969,39.551,39.062,49.805
1532403929.104,45.410,43.457,41.992,32.715,48.828
1532403929.108,48.828,52.734,38.574,21.484,58.105
1532403929.112,39.062,45.898,32.715,8.301,4.883
1532403929.115,15.137,36.621,44.434,33.203,0.000
1532403929.119,28.320,48.340,38.086,37.109,25.391
1532403929.123,29.297,38.086,30.273,35.156,69.824
1532403929.127,31.250,34.180,27.832,19.531,58.105
1532403929.131,50.293,44.434,29.297,7.324,28.809
1532403929.135,43.945,36.621,39.551,40.039,35.645
1532403929.139,14.648,37.109,41.016,9.277,30.762
1532403929.143,19.531,40.527,42.969,12.695,27.344
1532403929.147,41.992,40.527,41.016,45.898,23.926
1532403929.151,47.363,45.410,35.156,27.832,10.742
1532403929.154,48.340,47.363,33.203,23.926,4.883
1532403929.158,50.781,42.969,33.203,3.906,21.484
1532403929.162,25.391,38.574,37.109,4.395,28.809
1532403929.166,34.180,42.969,39.062,43.945,17.090
1532403929.170,69.336,46.387,35.156,40.039,16.602
1532403929.174,52.734,41.992,34.668,32.227,42.969
1532403929.178,45.898,41.016,37.109,29.785,50.781
1532403929.182,39.062,41.992,39.551,26.855,32.715
1532403929.186,35.645,39.551,37.109,21.484,72.754
1532403929.190,29.785,39.062,34.668,-2.930,85.449
1532403929.194,26.367,37.109,38.086,11.230,53.711
1532403929.197,30.762,37.109,41.992,15.625,29.785
1532403929.201,38.086,45.410,36.133,10.742,41.504
1532403929.205,44.922,47.363,36.133,41.504,69.336
1532403929.209,41.016,45.898,39.062,29.785,41.504
1532403929.213,37.109,41.016,33.203,20.020,12.207
1532403929.217,27.832,36.133,35.156,33.691,39.062
1532403929.221,29.297,38.574,40.039,28.809,62.500
1532403929.225,41.504,41.016,41.504,20.020,76.172
1532403929.229,37.598,42.480,36.133,-0.488,59.082
1532403929.233,35.645,37.598,34.668,7.812,41.992
1532403929.237,29.297,42.480,36.621,31.250,45.898
1532403929.240,-26.855,31.250,38.574,4.395,57.617
1532403929.244,-6.836,17.578,36.133,-8.301,72.754
1532403929.248,74.707,45.410,32.227,-0.977,66.406
1532403929.252,64.941,49.805,38.086,38.574,66.406
1532403929.256,56.641,45.410,43.457,46.875,62.012
1532403929.260,38.086,48.340,41.016,26.855,60.547
1532403929.264,33.203,42.480,36.133,41.992,54.199
1532403929.268,39.551,37.109,39.551,33.203,37.109
1532403929.272,21.484,42.480,39.551,17.090,20.996
1532403929.276,34.668,46.875,37.598,36.133,18.066
1532403929.279,51.270,42.480,42.969,56.641,45.410
1532403929.283,58.105,47.852,39.062,50.781,32.227
1532403929.287,50.781,47.852,39.062,41.992,40.527
1532403929.291,47.852,47.363,39.062,36.621,40.527
1532403929.295,46.875,45.898,40.527,39.062,13.184
1532403929.299,41.992,42.969,40.039,33.691,43.945
1532403929.303,36.621,46.875,35.156,24.414,56.641
1532403929.307,26.855,44.922,36.621,29.297,45.898
1532403929.311,17.578,43.945,42.969,32.715,42.480
1532403929.315,36.621,49.805,45.898,34.180,41.016
1532403929.319,54.688,47.363,40.039,14.648,28.320
1532403929.322,46.387,44.922,35.156,8.301,43.457
1532403929.326,41.016,41.504,40.039,46.875,59.570
1532403929.330,41.504,39.551,43.457,49.316,38.574
1532403929.334,48.828,41.992,41.992,52.246,42.969
1532403929.338,46.875,45.898,41.504,38.086,40.527
1532403929.342,52.246,47.852,40.039,30.273,25.879
1532403929.346,62.500,46.875,41.992,43.457,38.086
1532403929.350,61.035,44.922,41.016,30.273,2.441
1532403929.354,46.875,38.086,43.457,16.602,-3.418
1532403929.358,22.949,36.133,43.457,21.973,23.438
1532403929.362,46.387,42.969,39.551,34.180,31.250
1532403929.365,61.035,45.898,38.086,35.156,41.992
1532403929.369,60.547,45.898,35.156,29.297,26.855
1532403929.373,49.316,46.387,36.133,14.648,39.062
1532403929.377,-0.488,40.527,35.645,-25.879,48.828
1532403929.381,1.465,37.598,30.273,-2.930,40.039
1532403929.385,42.480,41.992,41.504,60.547,33.691
1532403929.389,68.848,47.852,51.758,66.895,26.367
1532403929.393,71.289,47.852,41.992,29.785,14.648
1532403929.397,64.453,45.410,38.086,21.484,34.180
1532403929.401,41.992,42.480,41.504,30.762,35.645
1532403929.404,36.621,41.016,41.992,6.836,17.090
1532403929.408,62.988,45.898,34.180,2.930,19.531
1532403929.412,26.855,39.062,35.645,28.320,33.203
1532403929.416,2.441,37.109,39.551,29.785,38.574
1532403929.420,66.406,47.363,40.039,36.621,48.828
1532403929.424,63.965,44.434,44.922,35.156,59.570
1532403929.428,19.531,43.945,41.016,24.414,33.691
1532403929.432,31.738,41.016,47.363,56.152,1.953
1532403929.436,34.668,38.086,48.340,45.898,26.855
1532403929.440,32.227,49.805,40.039,32.715,46.387
1532403929.444,19.043,46.875,41.016,54.199,25.391
1532403929.447,15.625,33.203,43.945,48.828,-14.648
1532403929.451,10.742,35.156,38.086,27.344,-7.324
1532403929.455,30.273,42.480,32.715,-0.488,23.926
1532403929.459,40.527,39.062,41.992,33.203,10.742
1532403929.463,26.367,38.574,40.527,62.500,14.648
1532403929.467,6.348,42.969,34.180,29.785,17.578
1532403929.471,-2.441,39.551,38.574,1.465,27.344
1532403929.475,31.738,37.109,43.457,28.320,31.738
1532403929.479,48.340,45.410,38.086,28.320,6.348
1532403929.483,39.062,51.270,30.762,24.902,7.812
1532403929.487,38.086,49.805,32.715,39.062,-0.977
1532403929.490,32.227,38.086,34.668,41.016,-30.762
1532403929.494,21.973,31.738,37.598,31.738,-5.371
1532403929.498,18.555,38.574,38.086,24.902,18.555
1532403929.502,38.574,41.016,35.645,43.945,24.902
1532403929.506,52.734,44.922,29.297,15.625,20.996
1532403929.510,42.969,42.969,29.297,-0.488,6.348
1532403929.514,11.230,30.273,39.551,44.434,4.883
1532403929.518,13.672,26.367,42.480,49.316,24.902
1532403929.522,38.086,31.738,38.574,34.180,23.926
1532403929.526,6.348,38.086,36.621,20.020,29.785
1532403929.529,1.465,41.016,42.969,27.344,23.438
1532403929.533,54.688,49.316,40.039,38.574,13.184
1532403929.537,47.852,45.898,34.668,34.668,29.785
1532403929.541,41.992,38.574,40.527,24.414,48.828
1532403929.545,41.992,43.945,38.574,25.391,45.410
1532403929.549,20.996,34.180,28.809,-10.254,22.949
1532403929.553,16.602,38.086,31.738,-23.926,20.996
1532403929.557,22.949,40.039,45.410,38.086,35.156
1532403929.561,39.551,39.551,41.992,44.922,36.621
1532403929.565,-2.930,44.922,42.969,40.039,16.602
1532403929.569,17.090,41.992,48.828,40.527,0.488
1532403929.572,47.852,33.691,43.457,32.227,0.488
1532403929.576,37.598,40.527,47.363,46.875,33.691
1532403929.580,79.590,53.711,40.527,39.062,42.969
1532403929.584,16.113,32.227,35.156,33.691,33.203
1532403929.588,-4.883,30.273,36.133,29.785,36.621
1532403929.592,55.664,50.293,34.668,32.715,41.016
1532403929.596,45.410,43.457,31.250,17.090,43.945
1532403929.600,42.969,30.273,36.133,-10.742,51.270
1532403929.604,50.293,30.273,37.109,19.043,49.316
1532403929.608,41.504,43.457,32.715,26.367,27.832
1532403929.611,-5.859,42.480,38.086,5.859,41.504
1532403929.615,-6.348,39.062,37.109,-1.953,32.715
1532403929.619,36.133,44.922,34.668,32.227,29.297
1532403929.623,26.855,40.527,39.551,62.500,50.781
1532403929.627,47.852,48.828,46.387,53.711,17.090
1532403929.631,12.207,39.062,43.457,16.602,-45.898
1532403929.635,44.434,34.180,35.156,6.836,-9.766
1532403929.639,46.387,51.270,31.250,19.531,49.316
1532403929.643,-43.457,30.273,38.086,-3.418,54.199
1532403929.647,19.531,25.879,44.434,24.414,40.039
1532403929.651,99.609,53.711,39.551,33.691,25.391
1532403929.654,64.941,54.199,34.180,29.785,34.668
1532403929.658,37.109,45.410,37.598,29.297,23.926
1532403929.662,31.250,47.363,38.574,19.043,24.414
1532403929.666,32.715,46.875,33.203,41.992,22.461
1532403929.670,5.371,41.504,36.621,31.738,15.137
1532403929.674,4.395,31.738,37.598,9.766,31.250
1532403929.678,49.805,31.738,34.180,42.480,60.059
1532403929.682,48.828,44.922,28.809,49.805,50.293
1532403929.686,42.969,51.270,31.250,23.438,41.992
1532403929.690,50.781,45.410,35.156,-3.906,39.551
1532403929.694,-31.250,32.227,39.551,1.465,21.973
1532403929.697,-2.930,40.039,39.551,27.344,35.156
1532403929.701,82.520,51.758,37.598,56.641,28.809
1532403929.705,58.594,45.898,41.992,73.730,13.184
1532403929.709,6.348,32.715,43.945,43.457,19.043
1532403929.713,-6.836,29.297,45.898,33.203,34.180
1532403929.717,65.430,41.016,40.039,21.973,19.531
1532403929.721,79.102,44.434,38.086,25.879,42.480
1532403929.725,53.711,38.086,41.504,42.480,86.426
1532403929.729,48.828,39.062,41.992,36.133,49.805
1532403929.733,59.570,45.898,41.016,28.809,29.785
1532403929.736,57.617,38.086,41.504,24.902,49.316
1532403929.740,44.922,36.621,42.480,37.598,53.711
1532403929.744,33.203,36.133,44.434,39.062,46.387
1532403929.748,33.691,37.598,44.922,12.695,21.484
1532403929.752,18.066,32.715,41.992,-4.395,30.762
1532403929.756,14.160,31.250,47.363,37.598,41.992
1532403929.760,-7.324,27.832,45.898,53.711,26.855
1532403929.764,0.000,26.367,41.016,57.617,21.973
1532403929.768,47.852,41.992,35.645,38.574,20.508
1532403929.772,50.293,39.551,37.598,18.066,4.395
1532403929.776,-20.996,26.367,43.945,25.879,35.156
1532403929.779,-43.945,26.367,41.992,19.043,29.785
1532403929.783,68.359,39.551,41.992,32.715,-9.766
1532403929.787,85.449,43.945,43.945,60.547,22.461
1532403929.791,52.734,42.480,41.016,45.898,48.340
1532403929.795,31.250,37.109,41.016,28.320,55.664
1532403929.799,28.809,38.574,39.551,11.719,31.738
1532403929.803,30.762,49.805,38.086,22.949,20.508
1532403929.807,12.695,37.598,38.086,34.180,37.109
1532403929.811,44.922,32.227,39.551,40.039,17.090
1532403929.815,20.996,36.133,47.363,53.223,-1.953
1532403929.819,20.508,38.574,42.480,42.480,35.645
1532403929.822,46.875,42.969,37.109,33.203,41.016
1532403929.826,-0.977,39.062,39.062,32.227,47.852
1532403929.830,-4.883,44.434,41.504,27.832,29.785
1532403929.834,67.383,35.156,47.363,60.059,13.672
1532403929.838,69.336,27.832,48.340,81.055,39.551
1532403929.842,21.973,41.016,42.969,53.223,45.898
1532403929.846,0.488,50.293,30.762,21.973,78.613
1532403929.850,18.066,36.133,30.273,40.527,38.086
1532403929.854,67.871,41.992,31.738,56.641,5.371
1532403929.858,69.336,62.500,23.926,41.504,42.969
1532403929.861,62.988,58.105,21.484,-1.465,35.156
1532403929.865,25.391,44.922,25.391,12.695,39.551
1532403929.869,31.738,46.387,23.926,50.781,25.391
1532403929.873,71.777,59.570,19.531,46.387,-19.043
1532403929.877,75.684,60.547,14.648,32.715,3.906
1532403929.881,104.004,58.594,12.207,40.039,25.879
1532403929.885,84.961,62.012,10.254,64.453,27.832
1532403929.889,40.039,57.617,13.672,61.035,20.508
1532403929.893,72.754,51.758,20.508,65.430,17.090
1532403929.897,96.680,52.734,15.137,31.738,27.832
1532403929.901,69.336,54.688,11.230,43.457,29.785
1532403929.904,63.477,53.223,14.160,79.102,48.828
1532403929.908,62.988,43.457,18.066,68.848,46.387
1532403929.912,56.641,36.621,25.879,60.059,3.418
1532403929.916,46.387,47.363,26.367,60.059,15.625
1532403929.920,40.527,52.246,18.066,28.809,51.270
1532403929.924,63.477,44.434,23.438,24.902,66.406
1532403929.928,69.336,50.293,28.809,75.684,32.715
1532403929.932,34.180,41.992,15.625,77.637,7.324
1532403929.936,62.012,41.504,16.113,71.289,46.387
1532403929.940,99.121,52.734,24.414,55.176,60.059
1532403929.944,81.543,49.316,17.578,17.578,47.852
1532403929.947,14.648,44.922,15.137,5.859,27.832
1532403929.951,-7.812,44.922,23.438,32.227,-3.418
1532403929.955,60.547,44.922,31.738,55.176,-0.977
1532403929.959,85.938,42.480,31.250,61.523,18.555
1532403929.963,89.355,46.875,25.879,62.012,37.598
1532403929.967,43.945,25.879,30.273,61.035,29.297
1532403929.971,28.320,20.508,33.691,52.246,26.367
1532403929.975,64.941,53.223,27.832,44.434,32.715
1532403929.979,42.480,47.363,26.855,51.270,11.230
1532403929.983,31.250,28.320,33.691,73.242,22.949
1532403929.986,40.527,42.969,29.785,67.383,80.078
1532403929.990,17.090,42.969,34.180,44.922,68.359
1532403929.994,29.785,40.527,32.227,34.180,31.738
1532403929.998,-2.441,35.156,28.809,32.227,37.598
1532403930.002,6.348,38.086,30.762,27.832,37.598
1532403930.006,89.355,53.223,30.273,49.316,27.344
1532403930.010,85.938,50.293,36.621,55.664,16.113
1532403930.014,40.527,49.316,31.250,26.367,12.207
1532403930.018,42.480,40.527,35.645,56.641,24.902
1532403930.022,42.480,33.203,38.574,50.781,41.992
1532403930.026,41.504,31.738,34.180,38.574,47.852
1532403930.029,33.691,34.180,35.156,22.461,33.203
1532403930.033,10.254,35.645,36.621,53.223,23.438
1532403930.037,81.543,43.457,37.598,62.500,45.898
1532403930.041,76.660,55.664,30.762,12.207,50.781
1532403930.045,43.945,40.527,37.598,43.945,43.945
1532403930.049,41.016,19.043,50.293,69.824,28.320
1532403930.053,19.531,44.434,40.527,36.133,2.930
1532403930.057,24.414,59.082,33.691,19.531,10.742
1532403930.061,49.805,42.480,40.527,49.316,14.648
1532403930.065,42.969,42.969,33.691,45.898,13.672
1532403930.069,-28.809,29.785,29.297,20.996,22.949
1532403930.072,-10.742,26.855,36.133,32.227,37.598
1532403930.076,87.891,52.246,28.809,42.969,52.734
1532403930.080,65.918,46.875,32.227,36.621,41.504
1532403930.084,23.438,39.062,38.086,4.395,32.227
1532403930.088,24.902,40.039,38.574,-0.488,33.203
1532403930.092,20.508,41.016,41.504,14.160,14.648
1532403930.096,76.172,49.316,40.527,59.082,32.227
1532403930.100,46.875,41.504,38.574,36.133,32.227
1532403930.104,1.465,37.109,45.898,27.344,38.086
1532403930.108,45.898,52.734,53.223,63.965,37.109
1532403930.111,34.180,44.434,50.293,40.039,17.090
1532403930.115,-21.973,23.926,43.457,9.277,24.414
1532403930.119,0.000,26.367,43.457,13.184,39.062
1532403930.123,54.199,41.016,44.434,41.504,39.551
1532403930.127,31.250,36.621,44.434,29.297,35.156
1532403930.131,41.992,37.598,46.387,27.832,12.695
1532403930.135,42.480,42.969,41.016,19.043,-2.441
1532403930.139,-20.996,32.227,37.109,-10.742,41.992
1532403930.143,-29.785,24.414,42.969,13.184,53.711
1532403930.147,27.344,34.180,47.852,62.012,33.203
1532403930.151,68.848,43.457,44.434,49.316,-2.441
1532403930.154,59.082,41.992,41.504,29.297,-10.742
1532403930.158,41.992,40.527,43.457,29.297,31.250
1532403930.162,35.645,41.504,40.527,12.207,32.227
1532403930.166,29.785,41.504,32.227,23.926,28.320
1532403930.170,20.996,46.875,33.691,38.086,18.555
1532403930.174,21.484,41.016,38.086,26.855,21.973
1532403930.178,35.645,33.691,40.039,19.043,60.547
1532403930.182,20.508,38.086,39.062,9.277,70.801
1532403930.186,-10.254,40.527,40.039,9.766,55.664
1532403930.190,29.297,41.504,39.062,27.832,32.227
1532403930.193,15.625,43.945,42.969,15.137,39.062
1532403930.197,-0.977,42.969,46.875,-24.902,35.645
1532403930.201,57.617,44.922,41.992,-10.742,41.016
1532403930.205,44.922,41.992,40.039,47.363,47.363
1532403930.209,57.617,36.621,38.086,62.500,23.926
1532403930.213,62.988,43.945,40.527,60.059,26.855
1532403930.217,46.387,45.410,36.621,34.668,47.852
1532403930.221,49.316,41.992,35.645,26.855,40.039
1532403930.225,55.176,50.781,37.109,12.695,34.180
1532403930.229,35.645,37.598,37.109,5.371,9.766
1532403930.233,15.137,35.156,41.504,29.785,-20.508
1532403930.236,62.988,50.293,43.457,34.180,28.320
1532403930.240,74.219,44.434,41.992,11.230,39.062
1532403930.244,44.434,43.945,32.227,4.395,23.926
1532403930.248,34.668,38.574,30.273,31.250,27.344
1532403930.252,50.781,36.133,34.180,30.273,28.809
1532403930.256,32.227,35.645,34.180,-0.977,29.785
1532403930.260,9.766,30.762,31.738,4.883,16.113
1532403930.264,49.805,36.621,33.691,36.133,36.133
1532403930.268,40.527,38.574,36.133,15.625,30.762
1532403930.272,23.926,36.133,37.598,7.324,29.297
1532403930.276,62.012,47.852,32.227,19.531,53.223
1532403930.279,46.387,43.945,28.809,21.484,55.664
1532403930.283,26.367,38.574,39.551,47.852,49.316
1532403930.287,43.457,38.574,43.457,34.180,34.668
1532403930.291,3.906,32.715,45.898,15.625,4.395
1532403930.295,-84.473,15.625,45.410,-25.391,-1.465
1532403930.299,-6.836,15.625,36.621,-14.160,12.695
1532403930.303,93.750,36.133,36.621,46.875,32.715
1532403930.307,49.316,37.109,43.945,44.434,57.129
1532403930.311,27.832,38.086,41.504,32.715,52.734
1532403930.315,26.367,39.551,34.180,16.602,47.852
1532403930.318,27.344,42.480,35.645,13.184,15.625
1532403930.322,21.973,27.832,40.039,34.668,9.277
1532403930.326,18.066,33.691,38.574,18.555,40.039
1532403930.330,37.109,41.992,42.969,4.883,14.160
1532403930.334,16.113,27.344,41.016,20.996,-19.043
1532403930.338,31.250,32.227,35.156,36.621,13.672
1532403930.342,37.109,36.621,40.527,20.996,43.945
1532403930.346,8.789,37.598,37.109,10.254,61.523
1532403930.350,17.090,38.086,31.250,-1.953,44.434
1532403930.354,38.086,33.691,36.621,15.137,29.785
1532403930.358,60.059,41.504,32.227,31.250,58.105
1532403930.361,27.832,37.598,29.297,14.648,54.688
1532403930.365,6.836,31.250,36.133,21.973,25.391
1532403930.369,2.930,36.133,36.133,19.531,3.906
1532403930.373,-25.391,14.160,44.434,15.625,18.555
1532403930.377,24.414,25.391,41.992,12.207,18.555
1532403930.381,85.449,45.410,35.645,34.180,27.832
1532403930.385,69.336,32.715,30.762,30.762,65.918
1532403930.389,47.363,36.621,26.367,-2.930,56.641
1532403930.393,35.156,35.645,33.691,13.184,49.316
1532403930.397,25.879,28.320,39.062,57.129,56.641
1532403930.401,26.855,30.273,43.457,37.598,22.461
1532403930.404,50.293,37.598,37.109,28.809,29.297
1532403930.408,63.477,43.457,31.738,45.410,48.340
1532403930.412,50.781,35.645,40.527,40.039,2.441
1532403930.416,27.832,32.715,42.969,23.438,14.648
1532403930.420,21.973,32.715,37.109,12.207,33.203
1532403930.424,13.184,25.391,35.645,20.020,27.344
1532403930.428,43.457,28.320,34.180,37.598,22.949
1532403930.432,45.410,29.297,36.133,28.320,11.719
1532403930.436,28.809,25.391,38.574,22.949,11.719
1532403930.440,36.621,24.902,39.062,33.691,27.344
1532403930.443,24.902,29.297,37.109,26.855,9.277
1532403930.447,9.277,27.344,37.109,20.996,2.441
1532403930.451,11.719,24.902,43.457,-5.859,15.625
1532403930.455,-6.836,26.855,33.203,-0.488,30.762
1532403930.459,20.020,26.855,33.203,53.711,49.805
1532403930.463,39.551,35.156,42.480,40.039,42.969
1532403930.467,22.949,23.926,47.363,29.785,62.012
1532403930.471,19.531,14.160,46.875,30.762,58.594
1532403930.475,23.926,33.691,35.156,14.160,32.227
1532403930.479,45.898,33.691,31.250,-3.418,47.852
1532403930.483,39.551,34.180,36.621,21.484,63.965
1532403930.486,24.414,34.180,40.527,36.621,61.523
1532403930.490,14.648,28.809,41.504,21.484,49.316
1532403930.494,-2.930,24.414,39.551,13.184,55.664
1532403930.498,10.742,26.367,36.133,-13.184,45.410
1532403930.502,24.902,34.180,31.738,21.973,6.348
1532403930.506,42.969,43.945,34.180,46.387,3.418
1532403930.510,37.109,39.062,33.691,5.371,12.207
1532403930.514,13.672,18.555,36.621,6.348,1.953
1532403930.518,6.348,18.555,39.062,11.719,11.230
1532403930.522,37.109,38.086,36.133,20.996,35.156
1532403930.526,57.129,40.039,33.203,36.621,36.621
1532403930.529,29.785,32.715,31.738,11.719,7.812
1532403930.533,21.484,31.738,35.156,5.859,15.625
1532403930.537,41.016,37.109,35.156,33.203,25.391
1532403930.541,47.363,35.645,33.203,34.668,39.062
1532403930.545,44.922,29.785,33.691,28.320,60.547
1532403930.549,48.828,27.832,37.109,29.297,38.086
1532403930.553,18.555,34.668,40.527,36.133,1.953
1532403930.557,20.996,41.016,40.527,38.574,-1.953
1532403930.561,44.922,41.504,39.062,10.254,35.156
1532403930.565,23.926,40.527,37.109,18.066,29.785
1532403930.568,47.852,47.852,34.180,24.902,-2.441
1532403930.572,48.828,52.734,29.785,8.301,-24.902
1532403930.576,33.203,40.039,33.203,26.367,6.348
1532403930.580,18.066,42.969,45.898,18.555,47.852
1532403930.584,8.789,57.617,44.922,12.695,15.625
1532403930.588,14.160,43.945,35.645,24.414,-7.324
1532403930.592,7.812,40.039,41.016,3.906,24.902
1532403930.596,14.160,51.758,46.875,-0.977,24.902
1532403930.600,10.742,53.223,41.992,-1.465,11.719
1532403930.604,-24.414,45.898,40.039,-23.926,29.785
1532403930.608,-4.883,51.270,50.293,-36.621,6.348
1532403930.611,-4.883,63.477,55.664,-20.996,16.602
1532403930.615,-14.648,71.777,58.594,-9.766,44.434
1532403930.619,-56.152,66.406,67.383,-21.484,53.223
1532403930.623,-90.332,58.105,58.594,-47.363,50.293
1532403930.627,-41.992,70.801,44.434,-53.223,40.039
1532403930.631,-56.152,66.406,45.898,-69.336,0.488
1532403930.635,-82.031,71.289,48.828,-79.102,-4.395
1532403930.639,-70.312,78.125,52.734,-64.941,41.016
1532403930.643,-63.477,77.148,55.176,-70.801,42.480
1532403930.647,-72.754,79.590,54.199,-74.219,46.875
1532403930.651,-89.844,67.871,50.781,-76.660,22.461
1532403930.654,-86.426,77.148,56.152,-67.383,10.742
1532403930.658,-55.664,83.008,68.359,-33.691,20.508
1532403930.662,-86.426,63.965,58.594,-77.148,5.371
1532403930.666,-74.219,64.453,44.434,-79.590,24.902
1532403930.670,-28.320,79.102,41.016,-43.457,41.992
1532403930.674,-44.922,72.266,40.039,-29.297,51.270
1532403930.678,-35.156,59.570,51.270,-11.719,38.086
1532403930.682,-15.625,60.059,56.641,-19.531,32.227
1532403930.686,-15.625,57.129,52.734,-16.113,39.062
1532403930.690,-27.344,48.828,50.293,-11.719,29.785
1532403930.693,-21.484,56.152,46.387,-18.555,6.348
1532403930.697,7.812,61.523,45.410,5.371,16.113
1532403930.701,-18.555,35.645,49.805,29.297,32.227
1532403930.705,-24.414,33.203,44.922,13.184,20.996
1532403930.709,19.531,39.551,35.645,20.508,16.113
1532403930.713,-2.930,31.738,37.109,24.414,-14.648
1532403930.717,-7.324,29.297,41.992,20.508,3.906
1532403930.721,24.902,26.367,40.527,24.414,28.320
1532403930.725,27.344,15.137,39.062,28.320,24.902
1532403930.729,10.742,25.391,41.504,35.156,20.996
1532403930.733,17.090,33.203,39.551,37.598,22.949
1532403930.736,36.133,25.879,37.598,49.316,12.695
1532403930.740,49.316,40.039,36.621,52.734,18.555
1532403930.744,42.480,39.551,37.598,65.918,31.250
1532403930.748,33.691,19.531,35.156,53.711,11.719
1532403930.752,40.039,26.855,24.414,24.902,-9.277
1532403930.756,42.480,32.715,34.180,27.832,0.977
1532403930.760,58.594,13.184,40.527,35.645,14.648
1532403930.764,55.664,13.672,37.109,27.832,25.879
1532403930.768,85.449,30.762,35.156,43.945,46.875
1532403930.772,83.008,31.738,32.227,61.523,38.574
1532403930.775,43.457,14.160,31.250,59.082,29.297
1532403930.779,66.895,15.137,21.484,45.410,27.344
1532403930.783,74.707,26.367,25.391,44.434,-6.836
1532403930.787,36.133,14.160,33.203,48.340,-16.113
1532403930.791,54.199,17.090,32.715,46.387,-19.531
1532403930.795,71.289,29.297,35.156,75.684,-15.625
1532403930.799,26.855,25.391,36.133,85.449,38.574
1532403930.803,55.176,24.902,32.715,74.219,58.594
1532403930.807,60.547,20.508,34.180,76.660,28.809
1532403930.811,21.973,16.113,31.250,46.875,-11.230
1532403930.815,51.758,19.531,30.762,32.715,-18.066
1532403930.818,66.895,23.438,31.250,41.992,4.883
1532403930.822,67.383,26.367,27.832,43.945,30.762
1532403930.826,71.289,29.297,36.133,62.500,43.457
1532403930.830,67.871,26.367,33.203,55.176,47.852
1532403930.834,65.430,26.855,24.902,51.270,21.973
1532403930.838,47.852,37.598,24.902,34.180,26.367
1532403930.842,51.270,30.273,21.973,24.902,68.848
1532403930.846,51.270,25.391,25.879,58.105,69.336
1532403930.850,42.480,23.926,31.738,50.781,38.086
1532403930.854,57.617,25.879,20.996,7.812,28.320
1532403930.858,30.273,18.066,31.250,33.691,62.012
1532403930.861,43.457,21.973,40.527,65.430,55.176
1532403930.865,75.195,35.156,32.715,50.781,34.668
1532403930.869,76.172,36.133,27.344,48.340,23.438
1532403930.873,52.246,27.344,25.391,37.109,13.672
1532403930.877,37.109,22.461,32.227,40.527,19.043
1532403930.881,57.129,29.297,33.203,54.199,11.719
1532403930.885,46.875,28.809,34.180,38.574,-2.930
1532403930.889,48.340,31.250,39.062,34.668,-6.348
1532403930.893,60.547,31.738,36.133,55.664,-7.324
1532403930.897,49.805,31.738,28.320,30.762,25.879
1532403930.900,50.293,27.344,35.156,48.828,66.406
1532403930.904,63.477,25.391,37.598,66.406,52.734
1532403930.908,57.617,30.273,35.645,52.246,48.828
1532403930.912,50.293,34.668,35.645,34.180,46.387
1532403930.916,46.387,37.109,35.156,24.902,39.551
1532403930.920,52.246,36.621,38.574,37.109,49.316
1532403930.924,41.504,28.320,35.645,45.898,43.457
1532403930.928,46.387,35.645,37.109,50.293,32.715
1532403930.932,44.922,37.109,41.992,51.758,25.391
1532403930.936,30.762,20.996,30.762,18.066,2.930
1532403930.940,34.180,24.414,25.391,16.113,0.977
1532403930.943,37.598,33.203,37.109,62.500,43.457
1532403930.947,21.973,22.461,44.434,38.086,30.273
1532403930.951,20.020,24.414,44.434,17.090,-19.043
1532403930.955,33.203,37.598,31.738,24.902,15.625
1532403930.959,19.531,37.109,23.926,16.602,45.410
1532403930.963,45.898,31.738,30.762,18.555,24.902
1532403930.967,-2.930,20.020,39.551,24.902,22.949
1532403930.971,-21.973,27.344,41.504,28.320,13.184
1532403930.975,69.824,46.875,38.086,58.105,20.996
1532403930.979,56.152,34.668,37.109,62.988,40.527
1532403930.983,20.996,20.996,38.086,41.504,28.809
1532403930.986,7.812,18.066,41.016,41.016,28.809
1532403930.990,28.809,36.621,32.227,11.719,31.250
1532403930.994,36.621,33.691,33.691,1.953,39.062
1532403930.998,28.809,10.742,40.039,54.199,42.480
1532403931.002,38.574,16.602,40.039,50.293,22.949
1532403931.006,30.762,27.344,45.410,37.598,54.199
1532403931.010,34.668,28.809,39.062,46.387,54.199
1532403931.014,29.785,29.297,26.855,23.926,17.090
1532403931.018,-2.441,38.574,33.203,5.859,30.762
1532403931.022,17.090,38.086,47.852,39.062,42.969
1532403931.025,51.270,34.668,45.410,51.758,29.785
1532403931.029,35.156,44.434,34.180,30.762,-0.977
1532403931.033,8.789,43.945,31.250,20.020,3.418
1532403931.037,19.043,42.969,36.133,29.297,46.875
1532403931.041,16.113,38.574,40.039,44.922,72.754
1532403931.045,13.184,40.039,42.969,32.227,50.781
1532403931.049,30.273,49.316,38.574,-4.395,30.273
1532403931.053,21.973,46.875,37.598,28.809,44.922
1532403931.057,1.953,31.250,39.062,48.828,46.387
1532403931.061,6.348,35.156,38.574,42.480,43.457
1532403931.065,23.438,38.574,40.039,37.109,38.574
1532403931.068,24.902,33.203,39.551,28.320,3.418
1532403931.072,30.273,36.621,40.039,61.035,-1.465
1532403931.076,-0.977,33.203,38.574,45.410,53.223
1532403931.080,10.254,32.227,39.062,6.348,57.617
1532403931.084,25.391,37.109,40.527,25.391,36.621
1532403931.088,2.930,41.016,42.480,27.344,51.270
1532403931.092,11.230,38.574,46.387,34.668,45.410
1532403931.096,-7.324,33.691,40.527,36.133,52.246
1532403931.100,8.789,36.133,29.785,14.160,52.734
1532403931.104,26.855,31.738,33.203,25.879,29.785
1532403931.108,32.227,37.109,41.016,47.363,14.648
1532403931.111,33.203,41.992,40.039,40.527,18.555
1532403931.115,26.855,36.133,41.504,37.109,16.602
1532403931.119,9.766,35.645,44.434,39.062,14.648
1532403931.123,-13.672,27.832,44.922,27.832,57.617
1532403931.127,17.090,35.645,41.992,13.672,34.180
1532403931.131,31.738,44.434,39.551,9.277,3.418
1532403931.135,8.789,40.039,42.480,20.996,46.875
1532403931.139,18.066,37.109,42.969,31.250,69.824
1532403931.143,28.809,36.133,34.180,18.555,49.805
1532403931.147,28.809,30.273,32.715,24.902,20.996
1532403931.150,16.602,26.855,41.016,27.344,25.879
1532403931.154,20.020,33.203,41.504,20.508,54.199
1532403931.158,41.504,39.551,39.551,36.621,40.527
1532403931.162,57.617,44.434,39.062,43.945,18.555
1532403931.166,44.922,36.621,40.039,35.156,28.320
1532403931.170,43.945,36.621,41.992,12.695,17.578
1532403931.174,54.688,47.852,35.156,18.066,8.789
1532403931.178,48.828,44.434,38.574,53.223,26.367
1532403931.182,43.945,42.969,40.527,55.664,28.809
1532403931.186,49.316,37.109,39.551,37.598,21.484
1532403931.190,49.805,41.016,40.527,29.297,17.578
1532403931.193,52.246,49.316,39.551,35.156,15.625
1532403931.197,17.578,37.109,40.039,24.414,21.484
1532403931.201,20.020,37.109,42.480,12.207,37.109
1532403931.205,75.195,44.922,41.992,31.738,29.785
1532403931.209,55.176,44.922,39.062,38.574,12.207
1532403931.213,39.062,41.992,40.527,35.156,-4.883
1532403931.217,29.297,39.062,43.945,53.711,23.438
1532403931.221,37.598,41.992,41.992,27.832,32.715
1532403931.225,37.598,33.203,42.969,23.926,19.531
1532403931.229,30.762,28.809,47.852,51.270,9.766
1532403931.233,41.016,43.457,40.039,23.926,-4.395
1532403931.236,42.480,45.410,33.691,13.184,28.809
1532403931.240,37.598,42.480,38.574,31.250,30.273
1532403931.244,33.203,43.457,46.387,34.668,46.387
1532403931.248,56.641,38.086,45.898,34.668,57.129
1532403931.252,49.316,33.691,43.945,31.250,32.227
1532403931.256,25.391,40.039,36.133,26.855,36.621
1532403931.260,25.879,46.387,34.668,20.020,36.621
1532403931.264,16.602,44.922,40.039,20.020,27.832
1532403931.268,34.180,43.457,39.551,18.555,9.277
1532403931.272,23.926,41.992,38.574,22.461,-6.836
1532403931.275,20.508,36.621,41.016,33.691,50.781
1532403931.279,42.969,41.992,37.598,18.066,50.781
1532403931.283,20.996,35.156,37.598,11.719,9.766
1532403931.287,16.602,32.715,36.621,23.926,8.301
1532403931.291,40.039,45.410,40.039,26.855,29.297
1532403931.295,55.664,45.898,39.551,39.062,33.691
1532403931.299,42.480,41.992,32.227,48.340,24.414
1532403931.303,28.320,39.551,35.645,49.805,15.625
1532403931.307,21.484,34.180,39.551,41.016,25.879
1532403931.311,32.227,35.645,40.039,19.531,5.371
1532403931.315,20.020,40.527,37.598,11.719,0.000
1532403931.318,-13.184,40.527,37.598,10.742,16.113
1532403931.322,-10.742,43.457,40.039,15.137,23.438
1532403931.326,19.531,46.387,42.480,28.320,39.062
1532403931.330,40.039,41.504,40.039,30.762,23.438
1532403931.334,40.527,35.645,39.062,27.832,35.645
1532403931.338,1.465,39.551,36.133,23.438,43.457
1532403931.342,9.277,41.504,35.645,13.672,25.391
1532403931.346,37.598,42.480,36.621,29.297,40.039
1532403931.350,32.227,42.480,41.016,30.762,14.160
1532403931.354,35.645,36.621,41.504,12.695,9.277
1532403931.357,24.414,32.227,36.133,34.180,46.387
1532403931.361,25.879,35.156,35.156,36.133,68.359
1532403931.365,29.785,42.480,37.598,27.832,62.500
1532403931.369,44.922,46.387,47.363,42.480,30.273
1532403931.373,18.066,49.316,46.387,31.250,40.527
1532403931.377,8.301,41.016,33.691,10.742,46.387
1532403931.381,42.480,29.297,36.133,15.625,18.555
1532403931.385,32.227,39.551,37.109,26.855,17.578
1532403931.389,6.836,37.109,36.621,26.855,27.344
1532403931.393,27.344,25.391,38.086,33.203,36.621
1532403931.397,34.668,37.109,40.527,31.738,37.109
1532403931.400,20.508,32.715,43.945,20.508,22.461
1532403931.404,10.742,30.762,39.551,5.371,40.039
1532403931.408,16.113,42.969,36.133,20.508,49.316
1532403931.412,15.137,44.434,47.363,33.203,16.113
1532403931.416,12.207,37.598,50.781,19.531,47.852
1532403931.420,25.879,36.133,40.527,24.902,55.176
1532403931.424,-17.578,26.855,45.898,5.859,48.340
1532403931.428,2.441,31.250,45.898,2.441,66.895
1532403931.432,55.664,44.434,38.086,20.996,58.594
1532403931.436,43.945,40.039,45.410,23.438,63.477
1532403931.440,37.598,33.203,42.480,5.371,57.129
1532403931.443,41.016,32.227,45.410,12.695,29.297
1532403931.447,53.711,37.598,46.875,21.973,8.789
1532403931.451,36.133,40.527,41.016,-1.953,-5.371
1532403931.455,40.039,35.156,40.527,9.277,9.277
1532403931.459,52.246,32.715,47.363,30.273,22.461
1532403931.463,27.832,44.434,46.875,20.996,10.742
1532403931.467,14.160,39.062,39.551,12.207,6.836
1532403931.471,14.648,33.203,40.039,24.902,31.250
1532403931.475,9.277,36.621,47.852,24.414,43.457
1532403931.479,18.555,37.598,46.875,13.672,20.508
1532403931.482,27.832,36.133,38.086,34.180,30.762
1532403931.486,-7.324,32.715,41.992,47.852,34.668
1532403931.490,-5.371,33.691,39.551,4.883,-0.488
