timestamps,TP9,AF7,AF8,TP10,Right AUX
1532384805.899,2.930,0.488,6.836,-3.418,34.180
1532384805.903,8.789,4.883,4.883,2.930,52.734
1532384805.907,-2.441,-9.766,-3.906,-0.488,60.547
1532384805.911,2.441,-22.461,-2.441,1.465,20.508
1532384805.915,9.766,-0.488,9.277,11.719,17.578
1532384805.919,4.395,4.883,-1.953,0.488,29.297
1532384805.922,5.859,-19.531,-13.184,-0.488,14.160
1532384805.926,0.000,-4.395,-15.137,0.000,11.719
1532384805.930,-3.906,25.879,-12.207,-7.812,10.742
1532384805.934,4.395,20.020,-13.184,2.441,35.645
1532384805.938,12.207,8.301,-20.996,5.371,62.012
1532384805.942,16.602,17.090,-21.973,6.836,40.039
1532384805.946,18.555,22.461,-13.672,9.277,-0.488
1532384805.950,26.367,15.625,-6.836,11.719,3.418
1532384805.954,27.344,12.695,-10.254,19.043,54.199
1532384805.958,19.531,-1.465,-20.508,20.020,58.105
1532384805.962,32.715,-2.930,-20.996,20.996,17.578
1532384805.965,29.785,9.766,-32.227,19.043,15.137
1532384805.969,9.766,9.766,-32.227,2.441,20.508
1532384805.973,1.953,25.879,-12.695,-8.301,25.879
1532384805.977,-3.906,29.785,-7.324,-7.324,30.273
1532384805.981,5.371,14.648,-7.812,2.930,45.410
1532384805.985,9.277,7.812,-11.719,8.789,50.293
1532384805.989,24.414,8.789,-15.625,18.066,49.316
1532384805.993,38.086,-11.719,-9.766,27.832,41.504
1532384805.997,33.203,8.789,4.395,34.668,39.551
1532384806.001,30.762,60.059,1.465,38.574,38.574
1532384806.005,24.414,44.434,-4.883,17.090,28.809
1532384806.008,23.438,19.043,-0.977,8.301,31.738
1532384806.012,27.832,22.949,2.441,14.648,12.207
1532384806.016,31.738,26.855,-4.395,17.578,-1.953
1532384806.020,33.203,25.879,-1.465,19.043,50.781
1532384806.024,35.645,34.180,15.625,23.926,53.711
1532384806.028,36.133,27.832,19.531,20.508,-0.488
1532384806.032,34.668,16.602,23.926,18.555,18.066
1532384806.036,35.645,34.180,20.996,28.320,43.945
1532384806.040,29.785,44.922,20.996,26.367,37.109
1532384806.044,27.832,29.297,27.832,24.902,13.672
1532384806.047,28.809,38.086,19.043,31.738,-12.695
1532384806.051,29.297,42.969,10.742,30.273,30.762
1532384806.055,20.020,19.531,19.531,25.879,69.824
1532384806.059,8.301,24.414,18.066,16.113,11.719
1532384806.063,11.230,35.645,22.949,11.719,-8.789
1532384806.067,10.254,30.762,30.762,7.812,10.742
1532384806.071,10.254,38.086,21.973,3.418,10.254
1532384806.075,16.113,33.691,20.508,4.395,23.438
1532384806.079,21.484,28.320,27.344,7.812,31.250
1532384806.083,23.438,30.762,23.926,24.902,32.715
1532384806.087,26.367,18.555,23.438,31.250,54.199
1532384806.090,35.645,27.344,40.527,24.414,72.754
1532384806.094,38.086,43.457,46.387,26.367,38.574
1532384806.098,27.832,40.527,37.598,22.949,31.738
1532384806.102,25.879,43.945,34.668,21.973,43.945
1532384806.106,29.785,38.086,35.156,25.879,5.371
1532384806.110,24.414,30.273,32.227,30.762,-11.719
1532384806.114,21.484,30.762,27.832,35.645,11.719
1532384806.118,30.273,31.738,30.762,40.039,34.180
1532384806.122,38.574,37.598,36.133,42.480,51.758
1532384806.126,30.273,19.043,36.133,36.133,34.180
1532384806.130,31.738,5.859,16.602,33.203,10.742
1532384806.133,36.621,14.160,12.695,35.645,34.180
1532384806.137,29.297,28.809,44.922,37.109,56.641
1532384806.141,32.715,37.109,52.246,33.691,51.758
1532384806.145,37.598,39.062,44.434,42.969,50.293
1532384806.149,36.133,43.457,41.992,43.457,61.523
1532384806.153,35.156,39.551,33.691,39.551,72.266
1532384806.157,26.367,29.785,32.715,38.086,54.688
1532384806.161,26.367,18.555,49.805,37.598,19.043
1532384806.165,31.250,18.066,54.199,41.016,37.109
1532384806.169,24.902,19.531,37.109,34.668,38.086
1532384806.172,24.902,7.812,30.762,24.414,20.508
1532384806.176,26.367,9.277,29.785,23.926,19.531
1532384806.180,17.578,33.691,23.438,24.414,6.348
1532384806.184,17.090,38.574,27.832,22.949,24.902
1532384806.188,22.461,33.691,44.434,27.832,31.738
1532384806.192,27.344,41.016,52.246,34.180,7.324
1532384806.196,29.785,23.926,33.691,31.250,2.930
1532384806.200,28.320,9.277,28.809,29.785,43.945
1532384806.204,15.625,5.859,30.273,24.902,63.965
1532384806.208,10.254,5.371,30.273,13.672,11.719
1532384806.212,14.648,16.602,28.809,11.719,-8.789
1532384806.215,21.973,37.109,31.738,18.066,26.855
1532384806.219,18.066,35.645,42.480,23.438,50.293
1532384806.223,13.672,21.484,30.762,23.438,44.922
1532384806.227,17.090,16.602,22.949,18.066,16.113
1532384806.231,18.555,16.113,36.133,23.438,-0.977
1532384806.235,18.066,18.066,38.574,20.508,24.414
1532384806.239,21.973,0.488,39.062,14.648,53.711
1532384806.243,28.320,-7.324,36.133,22.461,62.988
1532384806.247,19.531,19.531,19.531,15.137,3.906
1532384806.251,11.719,21.973,13.184,10.254,19.531
1532384806.254,19.043,-4.883,9.766,19.043,54.688
1532384806.258,24.414,2.930,18.066,21.973,22.461
1532384806.262,20.996,21.484,34.668,22.461,37.109
1532384806.266,17.090,19.531,36.621,28.320,46.387
1532384806.270,15.625,11.719,24.902,21.484,40.527
1532384806.274,11.719,10.254,4.883,10.742,28.809
1532384806.278,10.254,14.648,13.184,8.789,36.621
1532384806.282,9.766,18.066,30.273,1.953,41.992
1532384806.286,14.648,22.949,28.809,-1.465,35.156
1532384806.290,17.578,18.555,19.531,2.930,34.668
1532384806.294,19.531,13.184,22.461,7.324,12.695
1532384806.297,23.926,19.043,24.902,0.488,-2.441
1532384806.301,20.508,16.602,11.719,-0.977,48.340
1532384806.305,13.184,17.578,8.789,2.930,46.387
1532384806.309,12.695,25.879,17.090,2.441,-25.879
1532384806.313,15.137,24.414,15.137,1.465,-11.230
1532384806.317,20.508,12.695,9.766,7.812,26.855
1532384806.321,18.066,6.348,4.883,15.137,55.664
1532384806.325,9.766,2.441,-1.465,14.648,41.016
1532384806.329,9.277,2.441,9.766,9.766,-7.324
1532384806.333,19.531,5.859,27.832,16.113,20.508
1532384806.337,22.949,8.301,35.156,21.484,50.293
1532384806.340,12.695,20.996,28.320,15.625,39.551
1532384806.344,9.766,18.555,21.484,8.301,13.184
1532384806.348,4.395,6.836,18.066,-3.906,-18.066
1532384806.352,19.531,17.578,21.484,0.977,1.953
1532384806.356,31.250,4.395,13.184,9.766,37.598
1532384806.360,24.902,-22.461,0.488,11.230,33.203
1532384806.364,15.625,-9.277,5.371,4.395,-9.766
1532384806.368,19.531,14.160,7.812,5.371,12.207
1532384806.372,29.297,17.578,21.973,19.043,69.824
1532384806.376,21.484,22.949,34.668,14.648,23.438
1532384806.379,13.672,24.414,26.367,10.254,-4.883
1532384806.383,16.602,17.090,20.996,13.672,20.020
1532384806.387,16.602,4.395,17.090,17.090,45.898
1532384806.391,13.672,-4.883,16.602,12.207,38.574
1532384806.395,20.020,3.906,30.762,11.230,-4.395
1532384806.399,21.973,6.348,26.855,13.672,35.156
1532384806.403,19.043,14.648,14.648,7.812,58.594
1532384806.407,18.066,19.531,9.277,9.277,8.789
1532384806.411,12.695,11.719,11.230,8.789,-5.371
1532384806.415,8.789,8.301,14.648,5.859,18.066
1532384806.419,7.812,11.230,12.207,7.812,43.457
1532384806.422,3.906,9.277,21.973,12.207,46.387
1532384806.426,5.371,11.719,22.461,14.648,3.418
1532384806.430,11.230,15.137,23.438,13.672,-12.695
1532384806.434,6.348,-0.488,24.414,5.371,4.395
1532384806.438,8.301,5.371,20.996,5.371,43.945
1532384806.442,21.484,4.395,21.484,14.160,32.715
1532384806.446,20.020,7.324,10.254,14.160,11.719
1532384806.450,14.160,35.645,15.137,12.207,50.293
1532384806.454,21.484,42.480,32.227,20.508,79.102
1532384806.458,17.578,17.578,22.949,10.254,25.391
1532384806.462,18.555,19.043,21.484,7.324,-15.625
1532384806.465,23.438,14.648,33.691,10.742,6.348
1532384806.469,9.277,-8.301,33.691,1.953,32.227
1532384806.473,1.465,14.160,31.738,8.789,52.246
1532384806.477,6.348,24.902,36.133,11.719,27.344
1532384806.481,15.137,3.906,37.598,16.602,-1.953
1532384806.485,23.926,6.348,35.645,22.461,-3.418
1532384806.489,23.438,29.297,31.250,20.996,6.836
1532384806.493,19.531,31.738,24.902,16.602,17.090
1532384806.497,19.531,21.484,21.484,10.254,5.371
1532384806.501,22.461,18.555,23.438,15.625,34.180
1532384806.504,32.227,18.555,36.621,24.902,71.289
1532384806.508,30.273,0.000,46.875,22.949,39.062
1532384806.512,20.996,-1.465,38.574,14.648,2.441
1532384806.516,19.043,10.742,35.645,13.672,11.719
1532384806.520,22.461,7.812,22.949,12.207,48.828
1532384806.524,32.227,20.020,12.695,9.766,37.109
1532384806.528,23.438,31.250,23.926,1.465,-6.348
1532384806.532,21.973,27.832,15.137,-3.906,-9.277
1532384806.536,33.691,20.996,10.742,4.883,16.602
1532384806.540,28.809,13.672,36.621,4.395,49.805
1532384806.544,40.527,8.301,45.410,3.906,42.969
1532384806.547,52.246,17.090,39.062,14.160,4.883
1532384806.551,44.434,31.250,44.922,23.438,28.320
1532384806.555,33.691,20.508,41.016,23.926,77.148
1532384806.559,28.809,5.859,26.367,23.926,57.617
1532384806.563,30.762,10.254,27.344,28.809,12.207
1532384806.567,20.508,12.695,32.715,28.809,22.461
1532384806.571,7.812,18.555,32.715,25.879,49.805
1532384806.575,12.695,26.855,36.621,22.461,18.555
1532384806.579,17.090,20.020,36.133,24.414,-9.277
1532384806.583,16.113,-1.953,28.809,30.273,9.766
1532384806.586,20.020,3.418,28.320,24.902,24.414
1532384806.590,21.973,30.273,23.926,25.391,15.625
1532384806.594,18.555,31.250,19.531,27.344,5.859
1532384806.598,15.137,23.438,17.578,16.113,28.809
1532384806.602,18.555,15.625,18.066,15.625,42.480
1532384806.606,30.762,-3.906,33.203,22.461,36.133
1532384806.610,34.668,6.348,39.551,25.391,29.785
1532384806.614,28.809,19.043,38.574,19.043,28.809
1532384806.618,20.020,12.695,34.180,17.578,49.805
1532384806.622,18.555,16.602,29.297,21.973,72.754
1532384806.626,28.320,12.207,33.691,20.996,20.996
1532384806.629,31.250,9.277,38.086,20.020,-15.137
1532384806.633,32.715,7.324,35.156,27.832,52.246
1532384806.637,25.391,6.348,33.691,29.785,76.172
1532384806.641,13.184,16.113,29.785,20.020,50.293
1532384806.645,16.113,18.066,25.879,13.672,12.695
1532384806.649,28.320,24.902,33.203,20.020,14.648
1532384806.653,33.203,19.531,25.391,25.391,41.992
1532384806.657,23.438,3.906,17.090,17.578,61.523
1532384806.661,18.066,-10.742,28.320,14.648,59.082
1532384806.665,22.461,4.395,37.598,18.555,42.969
1532384806.669,20.508,26.855,36.621,27.344,47.363
1532384806.672,16.113,6.348,32.227,16.602,51.270
1532384806.676,20.020,2.441,29.297,10.742,33.203
1532384806.680,20.508,16.602,26.367,14.160,28.809
1532384806.684,33.691,19.043,32.715,22.949,38.086
1532384806.688,39.551,21.484,35.645,28.809,31.738
1532384806.692,27.344,19.531,28.809,23.926,12.695
1532384806.696,27.832,15.137,25.879,21.973,16.602
1532384806.700,35.156,3.418,26.367,19.531,10.254
1532384806.704,35.156,5.859,21.973,24.414,42.969
1532384806.708,31.738,10.742,18.066,28.809,39.062
1532384806.711,24.902,-1.465,31.250,17.090,-17.578
1532384806.715,21.484,12.695,43.457,13.672,10.742
1532384806.719,20.020,29.785,39.062,21.484,40.527
1532384806.723,28.809,18.066,32.715,25.879,39.551
1532384806.727,37.109,28.809,36.133,27.344,17.090
1532384806.731,29.785,27.832,32.715,23.438,6.348
1532384806.735,30.273,19.043,27.344,33.691,42.480
1532384806.739,38.574,26.855,29.785,36.621,57.617
1532384806.743,43.457,15.137,32.715,29.785,41.992
1532384806.747,41.504,11.230,17.578,24.414,12.695
1532384806.751,32.227,14.160,5.371,15.625,20.508
1532384806.754,31.250,14.160,16.602,18.555,52.734
1532384806.758,31.738,29.785,31.250,20.508,22.461
1532384806.762,27.832,33.691,36.133,19.531,5.859
1532384806.766,28.320,20.020,40.039,21.484,61.035
1532384806.770,33.691,22.949,41.016,26.367,57.129
1532384806.774,45.410,30.762,41.504,31.738,39.551
1532384806.778,42.969,16.113,41.016,25.391,24.902
1532384806.782,28.320,10.742,32.715,17.578,25.391
1532384806.786,29.297,8.789,32.227,22.461,67.383
1532384806.790,37.598,11.230,35.645,20.996,88.379
1532384806.794,33.203,26.367,32.715,18.066,49.316
1532384806.797,24.414,33.691,24.414,18.066,34.180
1532384806.801,20.508,25.391,20.508,12.695,73.730
1532384806.805,30.273,8.789,29.297,28.809,45.898
1532384806.809,34.180,13.184,34.668,40.527,8.301
1532384806.813,31.250,24.902,33.691,30.762,23.438
1532384806.817,36.621,12.695,39.062,30.762,35.156
1532384806.821,36.621,8.789,44.434,35.156,40.527
1532384806.825,22.461,18.066,38.086,24.414,34.180
1532384806.829,9.277,9.766,32.715,7.324,-13.672
1532384806.833,15.625,0.000,38.086,13.184,-12.695
1532384806.836,22.461,12.695,37.598,27.832,43.945
1532384806.840,18.066,12.695,22.949,23.438,40.039
1532384806.844,26.367,8.301,31.738,25.879,8.789
1532384806.848,34.180,10.742,44.922,26.855,17.090
1532384806.852,29.297,21.484,32.715,19.043,37.109
1532384806.856,24.414,35.156,16.113,13.184,6.348
1532384806.860,27.344,26.855,20.996,16.113,-2.930
1532384806.864,34.668,14.160,42.969,17.578,21.973
1532384806.868,31.738,9.277,43.945,12.695,27.832
1532384806.872,36.133,18.555,38.574,21.484,37.598
1532384806.876,38.574,13.184,34.180,21.484,22.949
1532384806.879,23.926,-1.465,31.250,16.113,13.672
1532384806.883,24.902,15.625,29.785,13.672,35.156
1532384806.887,29.785,12.695,28.320,18.066,11.230
1532384806.891,30.762,-0.977,39.062,21.484,9.277
1532384806.895,28.809,20.020,44.922,18.555,22.949
1532384806.899,23.438,30.762,36.621,20.020,34.180
1532384806.903,21.484,12.207,26.367,16.602,45.898
1532384806.907,19.531,-1.953,35.156,16.602,23.438
1532384806.911,17.090,5.859,38.086,19.043,-8.301
1532384806.915,16.602,14.648,28.320,26.367,7.812
1532384806.919,29.297,21.484,33.203,35.156,41.504
1532384806.922,36.621,22.461,41.016,25.391,30.273
1532384806.926,22.949,7.812,35.156,13.184,-3.418
1532384806.930,13.672,-8.789,28.320,14.648,15.137
1532384806.934,18.066,-7.324,26.855,14.648,61.035
1532384806.938,15.625,8.301,26.855,17.578,67.871
1532384806.942,18.555,5.859,21.973,21.484,41.016
1532384806.946,29.297,13.184,20.508,23.438,6.348
1532384806.950,22.949,23.438,27.344,16.113,-7.324
1532384806.954,15.137,19.531,39.062,24.414,37.598
1532384806.958,13.184,11.719,42.480,27.344,65.918
1532384806.961,19.043,4.883,35.156,25.879,24.414
1532384806.965,28.809,7.324,36.621,33.691,30.273
1532384806.969,32.715,12.695,45.898,30.273,50.781
1532384806.973,26.855,2.441,40.527,22.461,72.754
1532384806.977,24.414,0.977,32.715,14.160,83.496
1532384806.981,31.738,4.883,28.320,27.832,56.641
1532384806.985,29.297,2.441,20.020,30.762,36.133
1532384806.989,24.414,16.113,17.578,17.090,22.461
1532384806.993,27.832,14.648,28.320,21.973,38.574
1532384806.997,21.973,-0.977,40.527,15.625,42.969
1532384807.001,18.066,4.395,40.527,15.137,33.691
1532384807.004,21.973,11.230,36.133,24.414,53.711
1532384807.008,29.785,8.301,33.203,24.414,13.184
1532384807.012,26.855,12.207,31.738,26.367,-1.465
1532384807.016,25.879,14.160,23.926,35.645,30.762
1532384807.020,41.016,12.695,19.531,46.387,46.875
1532384807.024,30.273,3.418,17.090,35.645,56.641
1532384807.028,20.508,0.977,3.906,21.484,23.438
1532384807.032,19.043,14.160,-7.812,21.484,10.254
1532384807.036,18.066,14.648,-11.230,19.531,49.805
1532384807.040,20.996,21.973,-12.695,22.461,54.688
1532384807.043,15.137,28.809,-12.695,27.832,19.531
1532384807.047,20.508,14.648,-8.301,24.414,-9.277
1532384807.051,22.461,-2.930,-8.301,15.137,22.461
1532384807.055,19.043,-6.348,-22.461,14.160,51.270
1532384807.059,32.715,-16.113,-34.668,31.250,31.738
1532384807.063,42.969,-16.602,-27.832,41.016,11.230
1532384807.067,24.414,0.000,-31.250,18.555,29.785
1532384807.071,21.484,7.812,-44.434,15.625,63.477
1532384807.075,27.832,5.859,-38.086,19.531,61.523
1532384807.079,32.715,2.930,-33.691,12.695,48.828
1532384807.083,41.504,-3.906,-30.762,20.996,71.777
1532384807.086,32.715,4.883,-29.297,22.949,77.637
1532384807.090,19.531,8.301,-38.574,16.113,50.293
1532384807.094,24.902,0.977,-42.969,4.395,14.648
1532384807.098,27.344,4.883,-46.875,5.859,17.090
1532384807.102,16.602,17.578,-54.688,14.160,25.391
1532384807.106,24.902,19.531,-57.617,13.672,-0.488
1532384807.110,31.250,13.184,-48.828,10.742,3.906
1532384807.114,22.949,9.766,-43.457,14.648,14.160
1532384807.118,20.020,7.812,-46.875,18.066,34.180
1532384807.122,17.578,1.953,-55.664,15.137,41.504
1532384807.126,19.531,-4.395,-59.082,12.207,14.160
1532384807.129,24.414,1.465,-55.176,18.555,-4.395
1532384807.133,23.926,7.812,-52.734,21.973,17.578
1532384807.137,20.508,11.230,-63.477,13.184,41.992
1532384807.141,24.902,0.488,-56.152,16.602,36.621
1532384807.145,14.648,-3.418,-43.945,17.090,-4.883
1532384807.149,8.301,15.137,-51.270,2.930,-15.137
1532384807.153,19.043,3.906,-53.223,7.324,26.367
1532384807.157,28.809,2.930,-60.547,20.508,40.039
1532384807.161,20.020,7.324,-58.105,19.531,29.785
1532384807.165,16.113,6.836,-42.969,18.555,40.039
1532384807.168,16.113,8.301,-36.621,18.066,52.246
1532384807.172,9.277,7.324,-34.668,15.625,23.438
1532384807.176,12.695,24.414,-32.715,13.184,0.000
1532384807.180,21.484,20.020,-32.227,15.137,11.719
1532384807.184,22.461,4.395,-37.109,16.113,30.762
1532384807.188,12.207,2.930,-41.992,2.930,21.973
1532384807.192,20.508,-0.977,-43.457,6.348,8.301
1532384807.196,17.090,1.953,-51.270,14.160,15.625
1532384807.200,13.672,28.809,-49.316,12.207,50.781
1532384807.204,19.043,26.855,-45.410,20.020,65.430
1532384807.208,5.859,12.695,-40.527,10.742,34.668
1532384807.211,8.301,17.090,-36.133,3.418,20.020
1532384807.215,10.742,14.648,-35.156,15.625,26.855
1532384807.219,9.766,12.695,-28.320,18.066,42.480
1532384807.223,15.137,10.254,-26.855,18.555,11.719
1532384807.227,10.254,2.441,-28.809,17.090,-6.836
1532384807.231,10.254,-0.488,-23.926,19.531,15.625
1532384807.235,8.301,8.789,-18.066,20.020,30.762
1532384807.239,15.137,9.277,-21.484,29.785,22.949
1532384807.243,21.973,3.906,-26.367,34.668,22.461
1532384807.247,29.785,7.812,-35.156,22.949,20.996
1532384807.251,28.320,11.719,-37.598,20.020,7.324
1532384807.254,19.043,27.832,-14.648,24.902,33.691
1532384807.258,22.949,23.926,-6.836,26.855,34.668
1532384807.262,22.461,11.230,-18.555,16.113,22.949
1532384807.266,18.555,9.277,-11.230,12.207,26.367
1532384807.270,24.902,0.488,-9.277,18.555,42.480
1532384807.274,26.855,-13.184,-13.672,29.297,32.227
1532384807.278,24.414,-5.859,-12.695,22.949,27.344
1532384807.282,26.855,14.160,-7.324,18.555,59.570
1532384807.286,37.598,24.414,0.488,22.949,54.199
1532384807.290,36.621,23.438,-1.465,24.414,19.531
1532384807.293,29.785,14.648,-3.906,30.273,9.766
1532384807.297,36.621,15.625,-11.230,34.180,10.742
1532384807.301,35.645,12.207,-25.391,40.039,33.203
1532384807.305,33.203,4.883,-13.184,38.574,59.570
1532384807.309,41.504,10.254,15.137,43.457,35.645
1532384807.313,42.480,11.719,18.066,45.410,26.855
1532384807.317,34.180,-4.395,10.254,35.156,52.734
1532384807.321,35.156,-1.465,10.254,28.320,43.457
1532384807.325,35.156,8.789,0.000,18.555,19.043
1532384807.329,33.203,9.766,-0.977,14.160,34.180
1532384807.333,39.062,22.949,-0.488,16.602,58.105
1532384807.336,42.480,21.484,-2.441,14.648,52.734
1532384807.340,47.363,17.578,2.441,13.672,32.715
1532384807.344,48.340,17.578,-7.812,19.531,1.465
1532384807.348,42.969,2.441,-5.371,19.531,-9.277
1532384807.352,32.227,-6.348,8.789,15.137,27.344
1532384807.356,32.227,4.395,16.602,30.762,43.457
1532384807.360,25.879,8.789,11.230,34.180,22.949
1532384807.364,15.625,-2.441,1.953,20.996,26.367
1532384807.368,15.137,9.766,6.836,25.879,56.641
1532384807.372,5.371,28.320,12.695,32.715,47.852
1532384807.376,5.859,23.926,3.418,26.855,24.902
1532384807.379,20.508,12.695,-3.906,26.855,27.832
1532384807.383,28.809,0.000,1.465,32.715,33.691
1532384807.387,28.320,12.207,8.301,22.461,37.598
1532384807.391,25.391,16.113,20.996,11.230,20.508
1532384807.395,20.996,11.230,23.926,19.043,1.953
1532384807.399,19.043,25.879,16.602,20.996,12.207
1532384807.403,24.414,18.555,9.766,14.160,46.387
1532384807.407,34.180,2.930,11.230,25.879,36.133
1532384807.411,28.809,16.113,13.184,25.879,15.625
1532384807.415,18.555,23.926,6.836,17.090,12.695
1532384807.418,23.926,7.812,5.371,20.996,12.695
1532384807.422,25.391,7.324,7.812,17.578,15.137
1532384807.426,16.113,22.461,13.672,10.742,1.953
1532384807.430,13.184,16.602,9.766,10.742,-0.488
1532384807.434,22.461,12.695,-2.441,12.695,40.039
1532384807.438,25.391,22.949,8.301,11.230,67.871
1532384807.442,18.066,26.367,20.508,14.160,64.453
1532384807.446,16.602,3.418,12.695,12.695,43.945
1532384807.450,18.555,6.348,7.812,9.766,48.828
1532384807.454,23.926,19.531,6.836,14.160,58.594
1532384807.458,30.762,17.090,5.859,26.367,47.363
1532384807.461,32.227,30.273,8.301,30.762,26.367
1532384807.465,29.785,21.973,9.766,15.137,25.879
1532384807.469,23.438,3.418,9.277,6.836,30.273
1532384807.473,23.438,12.695,10.254,12.695,34.668
1532384807.477,21.484,22.949,10.742,13.672,24.902
1532384807.481,20.020,20.996,8.789,14.160,33.691
1532384807.485,22.949,21.973,7.324,18.066,43.457
1532384807.489,25.879,2.441,9.766,24.414,37.109
1532384807.493,34.180,-0.977,12.695,25.391,32.715
1532384807.497,32.227,24.902,8.301,22.949,20.508
1532384807.500,33.691,15.137,8.301,22.949,41.504
1532384807.504,37.598,-3.418,20.508,27.832,63.965
1532384807.508,27.344,8.301,20.996,16.113,50.781
1532384807.512,19.043,26.367,10.254,9.766,36.133
1532384807.516,21.973,20.508,9.277,19.531,8.301
1532384807.520,27.344,-4.395,7.812,15.625,35.645
1532384807.524,36.133,-0.977,0.977,25.391,59.082
1532384807.528,35.645,22.461,12.207,21.484,3.418
1532384807.532,22.461,28.320,29.297,4.883,-2.930
1532384807.536,22.949,20.508,33.203,8.301,39.062
1532384807.540,23.926,11.719,33.203,13.184,46.875
1532384807.543,20.020,14.160,27.344,12.207,21.973
1532384807.547,24.414,15.137,29.785,18.066,-5.371
1532384807.551,33.691,26.855,29.297,28.320,13.184
1532384807.555,28.320,5.371,12.207,25.391,33.203
1532384807.559,21.973,-16.602,15.137,20.996,12.207
1532384807.563,36.133,11.719,24.414,23.926,19.043
1532384807.567,18.555,30.762,25.879,17.090,14.648
1532384807.571,12.695,33.691,35.645,14.648,25.391
1532384807.575,24.414,26.855,36.133,19.531,43.457
1532384807.579,12.695,9.766,39.551,18.555,35.645
1532384807.583,8.301,15.625,43.457,15.625,54.688
1532384807.586,14.648,20.508,28.809,16.602,36.133
1532384807.590,25.391,7.812,22.461,19.043,7.324
1532384807.594,27.344,12.207,39.062,14.648,1.465
1532384807.598,25.391,30.273,53.223,22.461,-3.418
1532384807.602,21.484,30.762,50.293,28.320,37.109
1532384807.606,11.719,15.625,38.574,20.020,51.758
1532384807.610,16.113,7.812,38.086,18.555,-0.977
1532384807.614,23.926,11.719,45.410,18.555,-20.508
1532384807.618,19.043,7.812,48.828,15.137,5.859
1532384807.622,13.184,8.301,52.246,13.184,49.805
1532384807.625,13.672,15.625,48.828,14.160,41.504
1532384807.629,24.414,17.578,50.293,23.438,28.809
1532384807.633,30.762,13.672,56.152,29.297,45.898
1532384807.637,25.879,20.020,52.734,33.691,41.016
1532384807.641,33.203,27.344,45.898,37.598,47.363
1532384807.645,37.109,24.414,47.363,37.598,37.109
1532384807.649,41.016,21.973,63.965,42.969,21.484
1532384807.653,40.527,22.461,69.824,34.668,28.809
1532384807.657,28.320,22.461,46.387,21.973,31.250
1532384807.661,23.926,13.184,45.898,20.996,26.855
1532384807.665,24.414,-6.348,69.824,22.461,28.320
1532384807.668,25.391,-1.953,72.266,26.855,11.719
1532384807.672,25.879,25.391,62.500,21.973,45.410
1532384807.676,24.414,20.996,61.523,20.508,61.523
1532384807.680,29.297,6.348,63.477,22.461,25.391
1532384807.684,30.762,23.926,61.035,23.926,20.996
1532384807.688,25.391,36.621,57.617,28.809,23.926
1532384807.692,25.879,23.926,61.035,28.809,24.414
1532384807.696,34.180,20.996,73.242,34.180,14.160
1532384807.700,38.086,19.531,70.312,31.250,36.133
1532384807.704,38.086,6.348,62.988,31.250,73.730
1532384807.708,38.574,-1.465,64.941,29.785,39.551
1532384807.711,35.645,-2.930,63.477,27.344,5.859
1532384807.715,33.691,8.301,62.500,36.133,17.578
1532384807.719,40.039,13.672,57.129,37.109,46.875
1532384807.723,34.668,20.996,52.734,33.691,68.359
1532384807.727,22.949,28.320,72.266,27.344,20.996
1532384807.731,28.320,31.250,85.938,27.344,21.973
1532384807.735,29.297,31.738,85.938,24.414,70.801
1532384807.739,24.414,19.043,76.660,19.043,66.895
1532384807.743,26.367,13.672,64.453,22.949,41.992
1532384807.747,28.320,15.625,58.105,33.203,-13.184
1532384807.750,23.926,9.766,59.570,32.715,-3.418
1532384807.754,26.855,4.883,72.266,25.879,46.387
1532384807.758,37.598,12.207,78.125,28.320,17.578
1532384807.762,34.180,26.367,76.172,24.902,17.090
1532384807.766,31.738,33.203,73.242,25.391,26.855
1532384807.770,29.297,29.297,77.637,28.320,21.973
1532384807.774,29.297,15.137,81.055,27.832,33.691
1532384807.778,27.832,9.766,71.777,25.879,17.578
1532384807.782,25.879,20.020,69.824,25.879,40.527
1532384807.786,34.180,31.250,75.195,40.527,66.895
1532384807.790,41.992,22.461,57.617,42.480,44.922
1532384807.793,29.297,12.695,45.898,24.902,20.996
1532384807.797,20.996,12.695,52.734,17.090,21.973
1532384807.801,26.855,19.043,57.617,14.160,42.480
1532384807.805,25.879,26.855,63.965,23.438,28.809
1532384807.809,22.461,22.949,61.035,25.879,-24.902
1532384807.813,26.855,18.066,61.035,18.555,-16.602
1532384807.817,27.832,4.395,63.477,19.043,29.785
1532384807.821,29.785,0.000,56.641,22.461,48.340
1532384807.825,31.738,18.555,50.781,23.926,4.395
1532384807.829,33.203,21.484,60.547,27.344,-18.066
1532384807.833,37.109,21.973,65.918,43.457,13.184
1532384807.836,23.926,17.090,52.734,42.480,26.367
1532384807.840,20.996,20.020,49.805,25.391,32.715
1532384807.844,20.508,25.879,55.664,21.973,17.090
1532384807.848,8.789,13.672,52.734,16.602,-9.766
1532384807.852,14.648,14.160,49.316,15.625,32.715
1532384807.856,18.066,12.695,46.875,22.949,54.199
1532384807.860,22.949,-2.930,50.781,29.785,6.836
1532384807.864,28.809,0.977,56.152,28.320,5.371
1532384807.868,21.484,10.742,59.082,27.832,40.527
1532384807.872,22.461,8.789,61.035,27.832,55.176
1532384807.875,31.738,25.879,67.383,33.203,24.902
1532384807.879,24.414,29.785,57.129,28.320,20.996
1532384807.883,10.742,17.578,44.922,20.996,36.133
1532384807.887,10.254,11.719,46.875,16.602,28.320
1532384807.891,17.578,0.488,53.223,13.672,27.832
1532384807.895,21.973,7.324,55.176,20.020,23.438
1532384807.899,22.949,19.043,48.340,22.949,27.344
1532384807.903,26.855,13.184,44.922,29.785,54.688
1532384807.907,31.738,13.184,44.434,29.297,32.227
1532384807.911,38.086,24.902,45.898,22.461,19.531
1532384807.915,37.109,21.484,48.340,23.438,5.859
1532384807.918,28.809,13.184,44.434,24.414,27.832
1532384807.922,26.367,20.020,49.316,25.391,64.941
1532384807.926,31.250,26.855,61.523,25.391,45.410
1532384807.930,38.574,21.484,63.965,28.809,18.555
1532384807.934,29.785,25.391,57.617,30.273,41.504
1532384807.938,22.461,6.836,54.688,20.508,57.129
1532384807.942,29.297,-3.906,53.223,20.508,46.875
1532384807.946,36.133,13.672,49.316,26.855,17.090
1532384807.950,35.645,22.461,45.410,19.043,7.812
1532384807.954,30.273,32.227,42.480,20.020,35.156
1532384807.957,36.133,36.133,39.551,31.250,51.758
1532384807.961,34.180,31.738,37.598,31.250,29.297
1532384807.965,32.227,17.090,40.039,29.297,19.043
1532384807.969,33.691,11.719,45.410,29.297,31.250
1532384807.973,33.691,23.926,53.223,26.855,40.527
1532384807.977,42.969,31.250,52.246,25.391,37.598
1532384807.981,46.387,28.320,51.270,29.297,20.020
1532384807.985,30.762,29.297,51.270,21.484,10.254
1532384807.989,19.043,31.738,54.199,4.883,13.184
1532384807.993,18.555,32.715,49.805,8.301,40.039
1532384807.997,22.461,21.484,36.133,16.602,35.156
1532384808.000,33.691,-4.883,35.645,16.602,31.738
1532384808.004,34.668,8.301,38.574,25.879,41.504
1532384808.008,35.645,34.668,41.992,32.715,12.207
1532384808.012,35.645,25.879,53.223,30.762,4.395
1532384808.016,28.809,20.020,57.617,26.367,36.133
1532384808.020,25.879,34.180,56.152,28.320,67.383
1532384808.024,36.621,45.410,50.781,34.180,67.383
1532384808.028,39.062,35.645,48.828,33.203,26.367
1532384808.032,24.902,13.184,49.316,32.227,14.648
1532384808.036,25.391,6.348,52.246,28.320,46.875
1532384808.040,26.367,14.648,50.781,23.438,58.105
1532384808.043,26.367,20.996,45.410,23.438,32.227
1532384808.047,21.973,22.461,35.156,26.367,-0.488
1532384808.051,17.578,23.926,31.250,32.227,43.457
1532384808.055,9.766,17.578,38.086,29.297,70.801
1532384808.059,3.906,16.602,43.457,23.438,25.391
1532384808.063,11.719,21.484,47.852,27.832,19.043
1532384808.067,20.996,22.949,49.805,26.855,32.227
1532384808.071,32.227,28.320,44.434,30.273,65.430
1532384808.075,32.227,20.020,43.457,34.668,72.754
1532384808.079,24.902,10.254,45.410,25.879,46.875
1532384808.082,27.832,25.391,47.852,19.531,53.223
1532384808.086,34.668,32.715,44.922,26.367,35.156
1532384808.090,21.484,26.855,38.086,20.508,-5.859
1532384808.094,19.531,29.785,39.062,17.090,11.230
1532384808.098,29.785,23.926,41.504,26.367,24.902
1532384808.102,33.691,24.902,49.316,34.668,57.129
1532384808.106,42.969,18.066,54.199,38.086,70.801
1532384808.110,51.270,5.859,52.246,46.875,57.129
1532384808.114,41.504,19.043,39.062,52.734,36.133
1532384808.118,31.738,35.645,28.320,42.969,45.410
1532384808.122,28.809,35.645,44.434,41.016,57.129
1532384808.125,20.020,25.391,54.688,34.180,30.762
1532384808.129,25.391,24.902,45.898,25.391,5.371
1532384808.133,27.344,23.926,45.410,33.691,21.973
1532384808.137,25.879,21.484,49.316,34.180,55.176
1532384808.141,31.738,30.273,47.852,27.344,38.574
1532384808.145,37.598,29.785,40.527,27.344,22.461
1532384808.149,40.527,17.578,36.621,27.832,27.344
1532384808.153,39.062,17.578,39.062,24.414,41.504
1532384808.157,48.828,31.738,40.527,22.461,50.781
1532384808.161,60.059,37.109,50.293,25.391,44.434
1532384808.165,54.199,38.086,53.711,26.855,43.457
1532384808.168,52.734,36.621,53.223,33.691,48.828
1532384808.172,47.852,27.832,44.922,36.621,61.523
1532384808.176,40.527,17.578,37.598,33.203,47.363
1532384808.180,24.902,9.766,41.504,30.273,10.254
1532384808.184,20.020,20.508,43.945,32.715,32.227
1532384808.188,24.902,38.574,44.434,31.738,41.016
1532384808.192,25.879,38.086,43.457,35.645,24.414
1532384808.196,22.461,22.949,38.574,39.062,10.254
1532384808.200,24.414,17.578,29.297,36.133,30.762
1532384808.204,29.297,19.043,30.273,38.086,46.875
1532384808.207,30.273,24.902,51.270,43.457,33.203
1532384808.211,32.227,35.156,62.012,44.922,15.625
1532384808.215,29.785,24.902,50.293,38.574,20.020
1532384808.219,30.762,24.414,37.598,34.180,50.293
1532384808.223,25.879,32.227,35.156,26.367,45.410
1532384808.227,22.461,24.414,43.945,21.973,-8.301
1532384808.231,24.414,31.250,46.387,22.949,-23.926
1532384808.235,31.250,34.180,41.504,26.855,26.367
1532384808.239,38.086,30.762,36.133,26.855,28.809
1532384808.243,32.715,25.391,29.785,25.879,9.277
1532384808.247,29.297,25.879,31.738,29.297,-20.508
1532384808.250,31.250,24.902,46.387,31.250,12.207
1532384808.254,28.809,28.320,49.316,27.832,63.965
1532384808.258,34.668,35.645,42.969,25.391,25.879
1532384808.262,39.062,34.180,45.898,31.738,1.465
1532384808.266,36.621,24.902,42.480,31.738,8.301
1532384808.270,30.273,17.578,41.992,24.414,22.461
1532384808.274,33.691,18.066,42.480,34.180,27.832
1532384808.278,39.551,25.391,34.668,38.086,16.113
1532384808.282,36.133,28.320,35.156,24.902,15.625
1532384808.286,39.062,21.973,37.598,30.273,-4.395
1532384808.289,45.410,26.855,30.762,34.668,-2.441
1532384808.293,36.621,40.527,35.645,33.203,27.344
1532384808.297,23.926,31.738,40.527,24.902,29.297
1532384808.301,20.020,20.020,37.598,18.066,58.594
1532384808.305,16.113,24.902,33.203,14.648,67.383
1532384808.309,25.391,28.809,30.762,17.578,14.648
1532384808.313,28.809,22.461,38.574,27.832,20.020
1532384808.317,27.344,16.602,42.480,25.879,41.992
1532384808.321,30.273,21.484,36.133,27.344,52.734
1532384808.325,40.527,25.391,30.762,34.668,58.594
1532384808.329,45.410,25.391,27.344,34.180,25.391
1532384808.332,33.203,24.414,37.598,25.391,15.137
1532384808.336,28.809,23.438,48.340,23.438,47.852
1532384808.340,27.832,24.414,41.016,20.508,76.660
1532384808.344,28.809,34.180,30.762,15.625,37.598
1532384808.348,42.480,27.832,36.133,22.461,23.438
1532384808.352,34.668,24.902,40.527,22.461,57.617
1532384808.356,18.555,26.367,23.926,10.254,37.598
1532384808.360,23.438,20.508,17.090,6.348,27.344
1532384808.364,30.273,27.832,17.090,15.625,29.297
1532384808.368,37.109,18.066,15.137,20.996,25.391
1532384808.372,29.297,17.090,28.809,12.695,59.570
1532384808.375,23.926,35.156,37.109,12.695,54.199
1532384808.379,28.809,26.367,40.039,20.508,23.926
1532384808.383,24.902,17.578,34.180,18.555,53.223
1532384808.387,26.367,25.391,30.762,12.207,41.992
1532384808.391,36.621,35.156,42.969,22.461,18.066
1532384808.395,33.691,25.391,31.250,25.391,45.898
1532384808.399,35.645,16.602,22.949,22.949,35.156
1532384808.403,35.156,21.484,27.344,27.832,32.715
1532384808.407,29.785,19.531,23.926,23.926,48.340
1532384808.411,27.344,6.348,24.414,18.555,17.578
1532384808.414,34.180,10.254,33.203,20.020,4.883
1532384808.418,38.086,24.902,31.250,23.926,30.273
1532384808.422,35.645,21.973,9.277,25.879,66.895
1532384808.426,40.527,28.809,15.625,29.297,35.645
1532384808.430,40.527,38.574,32.227,28.809,9.277
1532384808.434,29.785,20.020,21.484,21.484,60.547
1532384808.438,26.367,2.441,18.555,15.137,83.984
1532384808.442,27.344,8.789,35.156,9.766,67.383
1532384808.446,21.484,18.555,43.457,12.695,31.250
1532384808.450,22.949,20.996,35.645,21.484,11.230
1532384808.454,27.832,10.254,22.461,24.414,26.367
1532384808.457,28.320,19.531,22.949,26.367,27.344
1532384808.461,22.461,28.320,28.320,25.879,11.719
1532384808.465,19.531,26.367,38.086,32.227,-3.418
1532384808.469,17.578,26.855,37.598,23.438,9.766
1532384808.473,19.043,30.762,31.738,15.137,42.969
1532384808.477,28.809,25.879,34.668,25.391,10.742
1532384808.481,29.297,14.648,32.715,29.297,2.441
1532384808.485,19.043,10.254,28.320,28.809,12.695
1532384808.489,23.926,24.414,30.762,26.855,11.719
1532384808.493,28.809,17.578,26.855,30.273,17.578
1532384808.497,22.461,7.812,21.484,29.297,-8.789
1532384808.500,21.973,26.855,23.438,23.438,24.414
1532384808.504,20.020,31.738,16.602,18.555,55.176
1532384808.508,29.785,33.203,21.973,22.461,10.742
1532384808.512,29.297,22.461,37.109,25.391,-2.441
1532384808.516,23.438,15.625,35.156,26.367,31.738
1532384808.520,32.715,21.973,22.949,35.645,46.875
1532384808.524,32.227,24.902,36.621,39.551,42.480
1532384808.528,25.391,22.461,46.875,33.203,32.227
1532384808.532,29.297,14.160,44.434,39.551,10.742
1532384808.536,35.156,11.719,40.527,42.480,8.301
1532384808.539,28.809,18.066,32.227,34.668,18.555
1532384808.543,24.902,33.691,27.832,31.250,3.906
1532384808.547,28.320,35.645,21.484,27.344,4.883
1532384808.551,31.250,13.672,16.113,28.809,17.090
1532384808.555,28.320,11.719,17.578,38.574,24.414
1532384808.559,29.297,22.949,28.320,38.574,28.809
1532384808.563,24.902,17.578,34.180,30.762,16.602
1532384808.567,17.090,12.207,33.203,28.809,37.109
1532384808.571,21.973,8.301,38.574,25.391,59.570
1532384808.575,22.949,4.883,42.480,33.691,48.828
1532384808.579,23.438,14.648,40.039,41.016,31.738
1532384808.582,29.297,27.832,37.598,31.738,25.879
1532384808.586,35.156,36.133,27.344,26.855,30.273
1532384808.590,29.297,29.297,23.926,23.926,29.785
1532384808.594,28.809,18.555,35.645,20.508,-0.488
1532384808.598,26.855,9.766,30.762,15.137,2.441
1532384808.602,16.113,13.672,26.367,12.207,35.645
1532384808.606,28.809,5.859,32.715,23.438,16.113
1532384808.610,34.180,0.488,31.250,19.043,-7.324
1532384808.614,30.762,18.066,37.109,19.043,19.043
1532384808.618,27.344,16.602,48.340,24.414,51.758
1532384808.622,15.137,24.902,37.109,15.625,44.922
1532384808.625,9.766,34.180,19.531,16.113,31.250
1532384808.629,23.438,28.320,19.531,20.020,24.902
1532384808.633,32.227,29.297,33.691,25.391,39.551
1532384808.637,24.902,28.320,44.434,32.227,64.453
1532384808.641,9.766,8.301,30.762,24.414,63.477
1532384808.645,5.859,4.395,22.461,14.160,28.320
1532384808.649,15.625,17.578,22.949,18.555,10.254
1532384808.653,24.414,4.883,27.344,24.902,30.762
1532384808.657,20.508,3.418,31.250,13.184,48.828
1532384808.661,18.066,28.809,13.672,7.812,19.531
1532384808.664,26.367,44.434,4.395,12.207,-9.277
1532384808.668,22.949,32.715,23.926,5.859,18.066
1532384808.672,14.648,19.043,38.574,11.230,43.457
1532384808.676,34.180,20.996,41.016,22.949,38.086
1532384808.680,37.598,14.648,30.762,25.879,23.926
1532384808.684,28.320,10.742,22.949,24.414,31.250
1532384808.688,30.762,13.672,33.203,21.973,43.945
1532384808.692,13.672,25.391,37.598,13.184,39.062
1532384808.696,13.672,40.527,35.645,14.648,48.828
1532384808.700,26.855,34.180,28.320,21.484,64.941
1532384808.704,33.691,27.344,25.391,27.344,60.059
1532384808.707,36.621,22.461,32.227,33.203,57.129
1532384808.711,41.992,11.230,33.691,31.738,17.578
1532384808.715,52.246,18.555,33.691,35.156,2.441
1532384808.719,48.828,33.203,28.809,41.992,58.594
1532384808.723,28.320,36.133,28.809,31.738,59.082
1532384808.727,17.578,34.668,35.156,15.625,8.789
1532384808.731,22.461,33.691,33.203,12.207,2.930
1532384808.735,31.250,25.879,36.133,21.973,26.855
1532384808.739,35.156,22.949,40.039,27.832,41.016
1532384808.743,38.574,21.973,36.133,30.762,34.180
1532384808.746,37.109,21.484,24.902,30.762,12.207
1532384808.750,40.527,18.555,25.391,30.762,16.602
1532384808.754,46.875,22.949,37.598,30.762,35.156
1532384808.758,42.480,18.066,29.297,31.738,26.367
1532384808.762,43.945,17.578,31.250,41.992,18.555
1532384808.766,48.828,41.504,40.527,42.480,25.879
1532384808.770,33.691,37.598,28.809,34.180,30.273
1532384808.774,22.461,28.809,35.156,31.250,39.062
1532384808.778,26.855,32.715,42.480,27.344,41.016
1532384808.782,37.598,29.785,37.598,33.691,48.828
1532384808.786,41.992,25.879,45.410,35.645,55.664
1532384808.789,43.457,20.996,46.875,33.203,46.387
1532384808.793,45.410,16.113,36.621,28.320,33.691
1532384808.797,42.969,15.625,37.598,23.926,27.344
1532384808.801,42.480,18.066,41.504,27.344,47.852
1532384808.805,28.809,36.621,37.598,32.227,46.387
1532384808.809,20.996,39.551,34.180,29.785,37.109
1532384808.813,29.785,29.785,39.062,34.180,29.297
1532384808.817,34.668,36.621,42.969,43.457,20.020
1532384808.821,29.785,34.180,40.527,37.598,44.434
1532384808.825,31.738,23.438,35.156,30.762,43.945
1532384808.829,35.156,17.578,36.621,30.762,-3.906
1532384808.832,39.551,20.508,36.621,34.668,4.395
1532384808.836,44.922,26.855,33.691,36.621,56.641
1532384808.840,34.668,24.414,31.250,34.180,55.176
1532384808.844,37.109,34.668,32.227,45.410,6.348
1532384808.848,40.527,32.227,39.551,51.758,8.789
1532384808.852,35.645,19.531,41.016,40.527,43.457
1532384808.856,30.273,24.902,35.645,34.668,52.246
1532384808.860,23.926,35.645,38.086,29.785,22.949
1532384808.864,21.973,29.785,42.969,23.438,1.953
1532384808.868,27.832,15.137,45.410,27.344,45.410
1532384808.871,33.203,22.461,41.016,29.297,58.594
1532384808.875,34.180,30.273,28.809,25.879,23.438
1532384808.879,35.645,30.762,32.227,24.902,19.531
1532384808.883,36.133,27.832,32.227,27.344,54.688
1532384808.887,29.785,16.602,31.250,21.484,61.035
1532384808.891,23.438,21.973,37.598,17.090,19.531
1532384808.895,27.344,27.344,22.949,28.320,28.320
1532384808.899,26.367,20.508,18.555,35.156,70.801
1532384808.903,22.461,18.066,35.645,32.227,63.965
1532384808.907,27.344,26.855,43.457,30.273,39.062
1532384808.911,35.156,37.109,46.875,30.273,-1.953
1532384808.914,39.062,27.344,48.340,33.691,-11.230
1532384808.918,47.852,19.043,56.152,34.668,26.367
1532384808.922,46.387,23.926,56.152,23.926,32.227
1532384808.926,32.227,19.531,38.574,12.207,-14.160
1532384808.930,37.109,36.133,34.180,13.184,-7.812
1532384808.934,49.316,37.109,42.480,18.555,50.781
1532384808.938,47.852,18.066,37.598,18.066,39.551
1532384808.942,41.016,22.461,28.320,20.996,24.414
1532384808.946,44.434,30.762,30.762,30.273,30.762
1532384808.950,41.504,25.391,32.715,36.621,34.180
1532384808.954,31.738,29.297,33.691,31.738,64.453
1532384808.957,24.902,37.598,37.598,26.367,54.688
1532384808.961,24.902,29.785,44.434,35.645,29.297
1532384808.965,20.508,15.137,48.828,29.297,34.180
1532384808.969,19.043,27.344,46.875,17.578,39.551
1532384808.973,25.391,28.320,39.062,29.785,42.969
1532384808.977,20.508,17.090,37.598,27.832,21.484
1532384808.981,17.578,12.207,43.457,24.902,21.973
1532384808.985,24.414,15.137,45.898,35.156,56.152
1532384808.989,29.297,37.598,43.945,36.133,53.223
1532384808.993,25.391,20.508,38.086,36.133,32.227
1532384808.996,27.344,7.812,39.551,38.574,26.855
1532384809.000,25.879,43.457,40.039,33.203,44.922
1532384809.004,24.902,47.852,39.062,32.227,35.645
1532384809.008,23.438,30.762,41.992,26.855,28.320
1532384809.012,35.156,21.973,41.504,29.785,1.953
1532384809.016,46.387,17.578,48.340,37.598,-2.441
1532384809.020,31.250,16.602,49.316,28.809,41.504
1532384809.024,42.969,27.344,52.246,31.250,48.828
1532384809.028,45.898,39.551,52.734,24.414,5.371
1532384809.032,25.879,33.203,44.922,13.184,-2.441
1532384809.036,32.227,21.973,42.969,17.090,47.363
1532384809.039,41.504,16.113,38.086,24.902,54.688
1532384809.043,37.109,15.137,24.414,26.367,31.738
1532384809.047,32.715,15.625,26.855,28.809,21.973
1532384809.051,31.250,12.207,37.598,26.855,31.250
1532384809.055,36.621,33.691,43.945,28.809,41.992
1532384809.059,34.180,55.664,48.828,36.621,23.438
1532384809.063,24.414,48.340,43.945,30.273,4.883
1532384809.067,30.273,35.156,41.016,24.414,20.996
1532384809.071,28.809,15.625,42.969,23.438,30.273
1532384809.075,22.949,9.766,40.527,30.273,35.645
1532384809.079,24.902,17.090,37.598,40.527,16.602
1532384809.082,19.043,12.695,40.527,34.668,19.531
1532384809.086,21.973,9.277,32.715,27.344,18.066
1532384809.090,30.273,25.391,34.668,31.738,-2.441
1532384809.094,24.902,44.922,37.598,27.832,11.230
1532384809.098,23.926,34.668,31.738,24.414,2.930
1532384809.102,35.156,19.043,42.480,25.879,20.020
1532384809.106,33.691,27.832,42.969,20.996,45.410
1532384809.110,34.668,42.480,44.434,23.926,39.551
1532384809.114,46.387,38.086,46.875,30.762,32.715
1532384809.118,42.969,18.066,38.574,22.949,27.832
1532384809.121,32.715,10.254,31.250,16.113,60.059
1532384809.125,34.180,16.602,33.691,17.090,56.152
1532384809.129,35.645,16.113,38.574,20.508,11.719
1532384809.133,38.574,22.949,37.598,26.367,32.227
1532384809.137,44.434,38.574,40.039,25.879,54.688
1532384809.141,41.504,43.457,38.574,27.832,51.270
1532384809.145,34.668,40.039,34.668,28.809,34.180
1532384809.149,39.062,32.715,38.086,28.320,23.926
1532384809.153,40.527,28.320,36.133,29.297,22.949
1532384809.157,35.156,20.020,30.273,24.902,19.043
1532384809.161,39.062,26.367,37.598,25.879,27.832
1532384809.164,49.316,31.250,41.992,39.062,4.883
1532384809.168,44.922,9.766,40.039,29.297,20.996
1532384809.172,38.086,13.672,39.551,20.020,75.684
1532384809.176,32.227,28.320,36.133,24.902,62.500
1532384809.180,36.621,29.785,33.203,31.738,33.691
1532384809.184,35.645,35.645,38.574,38.086,46.387
1532384809.188,23.926,29.297,43.457,25.879,36.621
1532384809.192,25.391,23.438,40.039,25.391,14.648
1532384809.196,26.367,30.273,35.645,23.438,21.973
1532384809.200,27.344,22.461,30.273,24.902,24.414
1532384809.203,34.668,10.254,39.062,35.645,31.250
1532384809.207,30.762,21.973,42.480,30.762,12.695
1532384809.211,26.855,31.250,30.762,29.297,-23.438
1532384809.215,25.879,29.297,34.180,20.508,13.672
1532384809.219,27.344,33.203,41.016,9.277,43.457
1532384809.223,34.180,30.762,42.480,26.367,46.387
1532384809.227,35.156,22.949,38.086,30.273,40.039
1532384809.231,35.156,24.414,29.785,29.785,39.062
1532384809.235,38.086,29.297,31.738,30.273,48.828
1532384809.239,34.668,11.719,42.480,20.996,59.082
1532384809.243,27.832,13.672,43.457,21.484,42.480
1532384809.246,28.809,42.969,36.621,20.508,0.000
1532384809.250,33.691,45.410,41.992,23.438,18.066
1532384809.254,31.738,35.645,42.969,23.926,54.688
1532384809.258,21.484,22.461,34.668,21.484,26.367
1532384809.262,23.438,17.578,28.809,21.484,0.488
1532384809.266,26.855,11.719,31.250,20.508,6.836
1532384809.270,18.555,14.160,35.156,26.367,37.598
1532384809.274,20.996,18.066,33.691,32.227,43.457
1532384809.278,23.438,3.418,32.715,31.250,19.043
1532384809.282,23.926,9.277,39.062,30.762,22.949
1532384809.286,21.973,31.738,41.504,24.414,34.180
1532384809.289,17.090,41.504,37.109,21.484,48.340
1532384809.293,16.602,29.297,33.691,20.508,31.738
1532384809.297,27.832,23.926,41.992,30.273,15.137
1532384809.301,41.992,17.578,40.527,41.504,35.156
1532384809.305,27.344,8.789,36.133,36.133,32.715
1532384809.309,22.949,33.203,42.969,25.391,11.719
1532384809.313,36.133,36.133,40.039,22.461,17.578
1532384809.317,32.227,20.508,41.016,24.902,41.992
1532384809.321,41.992,19.531,50.781,32.715,58.105
1532384809.325,41.992,25.879,52.246,34.668,40.527
1532384809.328,26.855,29.785,45.898,34.180,8.301
1532384809.332,29.297,28.809,40.039,37.109,20.020
1532384809.336,36.621,27.832,32.715,34.668,15.137
1532384809.340,41.992,23.926,35.645,37.109,-3.906
1532384809.344,49.805,11.230,45.410,39.551,16.113
1532384809.348,54.688,5.859,40.527,35.645,-11.230
1532384809.352,39.551,33.203,23.438,23.926,-17.578
1532384809.356,31.250,39.551,15.625,26.367,31.738
1532384809.360,39.062,23.438,11.719,37.109,18.066
1532384809.364,39.062,33.203,6.836,33.691,-1.465
1532384809.368,37.109,40.039,15.625,25.391,11.719
1532384809.371,35.156,30.273,21.484,28.320,31.250
1532384809.375,35.156,26.367,29.785,25.879,28.320
1532384809.379,33.203,25.879,42.969,24.414,16.113
1532384809.383,26.855,19.531,42.480,26.367,27.344
1532384809.387,41.504,8.301,41.992,35.156,11.719
1532384809.391,47.852,20.996,29.785,42.480,1.953
1532384809.395,45.410,34.180,13.184,44.434,-7.812
1532384809.399,41.992,26.367,18.066,42.969,-2.441
1532384809.403,35.645,26.855,29.297,33.203,44.922
1532384809.407,35.645,39.551,30.762,27.832,30.762
1532384809.411,33.203,36.621,27.344,31.250,2.930
1532384809.414,24.414,30.762,30.273,24.902,27.344
1532384809.418,20.996,18.066,28.809,16.602,49.316
1532384809.422,21.973,14.648,22.461,20.020,59.082
1532384809.426,28.809,35.645,25.879,29.785,19.043
1532384809.430,22.949,43.945,22.949,26.367,-0.488
1532384809.434,16.602,37.598,22.461,17.578,30.273
1532384809.438,27.832,29.785,23.438,18.555,33.203
1532384809.442,27.832,22.461,18.066,12.695,50.293
1532384809.446,36.621,18.555,21.973,22.461,20.508
1532384809.450,38.574,6.836,24.414,23.438,5.371
1532384809.453,34.180,14.160,20.020,20.020,41.016
1532384809.457,34.180,26.855,23.438,23.438,58.105
1532384809.461,23.926,25.391,29.297,22.461,13.184
1532384809.465,20.996,36.621,22.949,23.926,9.277
1532384809.469,21.484,45.898,19.531,22.461,53.711
1532384809.473,28.809,43.457,22.949,26.367,39.551
1532384809.477,37.598,35.156,25.391,28.320,33.203
1532384809.481,31.250,2.930,23.438,17.578,25.391
1532384809.485,22.461,-12.207,25.391,13.184,21.973
1532384809.489,25.879,12.207,23.926,7.812,36.133
1532384809.493,31.250,30.273,15.137,9.766,14.648
1532384809.496,25.879,34.180,21.484,18.555,4.883
1532384809.500,25.879,35.156,26.367,16.113,13.672
1532384809.504,23.438,33.691,23.926,12.695,12.207
1532384809.508,26.855,32.227,28.809,21.973,17.578
1532384809.512,22.949,21.973,18.555,23.926,8.301
1532384809.516,28.809,11.719,4.883,33.203,14.160
1532384809.520,38.574,18.066,21.484,36.133,56.152
1532384809.524,21.484,22.949,38.574,19.531,42.480
1532384809.528,12.695,15.625,37.598,20.996,9.277
1532384809.532,19.531,10.254,33.691,27.344,24.902
1532384809.536,32.227,22.949,30.273,31.250,54.199
1532384809.539,29.297,31.250,19.531,33.691,44.922
1532384809.543,30.762,26.855,17.090,37.109,31.250
1532384809.547,38.574,3.906,24.902,29.297,-2.441
1532384809.551,40.527,11.230,33.691,29.785,8.301
1532384809.555,51.270,51.270,41.992,34.668,31.738
1532384809.559,43.457,44.922,31.738,30.762,18.555
1532384809.563,22.461,30.762,11.719,20.996,19.531
1532384809.567,26.855,29.785,18.066,10.254,22.461
1532384809.571,39.551,26.855,27.832,14.648,28.320
1532384809.575,39.062,23.926,21.484,24.902,31.738
1532384809.578,37.109,15.625,20.508,28.809,14.160
1532384809.582,32.227,8.789,21.484,28.320,20.996
1532384809.586,22.461,10.254,28.809,24.414,37.109
1532384809.590,24.902,30.273,40.039,29.785,12.695
1532384809.594,28.809,40.527,34.180,35.645,28.320
1532384809.598,29.785,30.273,29.297,32.227,14.160
1532384809.602,23.438,12.207,37.598,31.250,13.184
1532384809.606,27.344,16.602,44.922,41.016,49.316
1532384809.610,41.504,34.668,42.969,47.852,29.297
1532384809.614,31.738,27.832,37.598,33.691,16.602
1532384809.618,24.414,6.836,33.691,25.879,43.945
1532384809.621,29.785,11.719,30.762,29.785,40.039
1532384809.625,27.344,26.855,37.109,23.438,8.301
1532384809.629,20.996,29.785,36.133,19.043,-8.301
1532384809.633,33.691,31.250,27.832,24.902,7.324
1532384809.637,41.992,26.367,27.832,31.250,49.805
1532384809.641,41.504,17.578,37.598,39.062,69.336
1532384809.645,33.203,20.996,45.898,34.180,24.902
1532384809.649,27.832,26.855,49.316,29.785,21.973
1532384809.653,36.133,21.484,53.711,42.969,53.223
1532384809.657,31.250,24.414,51.758,42.969,32.715
1532384809.660,21.484,22.949,32.715,23.926,20.020
1532384809.664,23.438,21.484,19.043,21.973,5.371
1532384809.668,23.926,24.902,34.180,25.879,-0.977
1532384809.672,32.715,32.715,45.410,33.691,65.430
1532384809.676,46.387,39.062,46.387,42.969,43.457
1532384809.680,42.969,31.250,45.410,33.691,8.301
1532384809.684,35.156,32.715,35.156,22.461,32.227
1532384809.688,41.992,32.715,33.203,21.484,31.250
1532384809.692,51.758,11.719,36.621,28.320,41.016
1532384809.696,60.547,20.996,29.297,26.367,20.996
1532384809.700,62.012,43.457,30.762,25.879,9.766
1532384809.703,44.922,38.574,32.715,20.996,34.668
1532384809.707,27.832,37.109,32.715,11.230,20.020
1532384809.711,30.273,38.086,35.645,18.066,14.648
1532384809.715,29.785,31.250,35.645,30.762,31.738
1532384809.719,31.738,29.297,44.434,43.457,37.598
1532384809.723,35.156,27.344,47.852,41.016,46.387
1532384809.727,32.227,27.832,45.410,42.480,41.016
1532384809.731,22.461,10.254,49.316,45.898,11.719
1532384809.735,25.391,12.207,44.434,42.480,32.715
1532384809.739,35.645,35.156,40.527,42.969,47.852
1532384809.743,29.785,39.062,28.809,36.621,28.320
1532384809.746,27.832,48.828,16.602,33.203,32.715
1532384809.750,34.668,55.176,44.922,46.387,44.434
1532384809.754,39.062,52.734,63.477,45.410,68.359
1532384809.758,41.504,47.852,45.410,36.133,57.617
1532384809.762,42.969,44.922,38.086,41.992,16.602
1532384809.766,41.504,45.410,45.898,43.457,19.043
1532384809.770,46.387,24.902,57.617,41.016,34.180
1532384809.774,58.594,18.066,60.547,53.223,47.852
1532384809.778,52.734,43.945,55.664,52.734,22.949
1532384809.782,39.551,59.570,53.223,44.922,32.227
1532384809.785,45.898,56.641,49.805,52.246,43.945
1532384809.789,59.570,55.664,58.594,62.500,40.039
1532384809.793,51.758,49.316,49.316,56.641,47.852
1532384809.797,45.410,49.805,30.273,52.246,7.812
1532384809.801,49.316,60.059,44.922,55.664,17.090
1532384809.805,53.223,60.547,56.641,52.734,28.809
1532384809.809,53.223,54.199,49.316,48.340,16.602
1532384809.813,58.105,44.922,44.434,50.781,6.836
1532384809.817,62.012,53.711,51.270,51.758,30.762
1532384809.821,56.152,62.988,44.922,49.805,75.195
1532384809.825,54.199,57.617,39.062,47.363,55.664
1532384809.828,50.293,52.734,52.734,40.527,7.324
1532384809.832,53.223,41.016,58.594,39.551,46.875
1532384809.836,56.641,57.129,61.035,43.457,59.082
1532384809.840,65.918,77.148,60.547,54.688,41.504
1532384809.844,63.477,69.336,55.664,56.641,38.574
1532384809.848,49.316,59.570,54.199,48.340,18.555
1532384809.852,50.781,52.246,45.410,49.805,57.617
1532384809.856,57.129,41.992,28.320,53.711,63.477
1532384809.860,54.199,36.621,35.156,45.410,41.504
1532384809.864,45.410,58.105,58.105,41.016,29.297
1532384809.868,44.434,59.570,62.500,42.969,8.789
1532384809.871,45.898,33.691,56.641,38.086,25.879
1532384809.875,50.293,47.852,56.641,37.109,49.805
1532384809.879,53.711,66.406,51.270,44.922,39.551
1532384809.883,49.316,58.105,42.480,45.410,56.641
1532384809.887,50.293,54.199,49.805,36.621,51.758
1532384809.891,52.734,50.293,62.012,37.109,29.297
1532384809.895,48.828,45.410,58.594,40.527,14.648
1532384809.899,41.992,50.293,53.223,40.039,0.488
1532384809.903,50.781,52.246,46.875,39.551,40.039
1532384809.907,56.641,52.734,40.527,34.180,45.410
1532384809.910,42.480,49.805,38.574,25.391,23.926
1532384809.914,49.805,41.016,37.598,34.180,20.508
1532384809.918,54.199,52.734,45.898,44.922,34.180
1532384809.922,52.246,54.688,49.805,55.176,70.801
1532384809.926,59.082,32.715,35.156,57.617,18.555
1532384809.930,54.688,30.762,37.109,50.293,9.277
1532384809.934,53.711,47.852,51.758,51.270,66.895
1532384809.938,45.410,58.594,44.434,44.434,70.312
1532384809.942,41.504,62.500,41.016,36.621,35.645
1532384809.946,43.945,64.453,45.898,34.180,24.902
1532384809.950,43.457,61.523,48.828,34.180,20.020
1532384809.953,45.410,57.617,48.340,34.180,31.250
1532384809.957,49.316,48.828,39.551,33.203,55.664
1532384809.961,66.895,44.434,31.738,46.387,31.250
1532384809.965,69.336,40.039,31.738,62.988,-7.324
1532384809.969,46.875,30.273,48.340,50.781,10.254
1532384809.973,28.320,31.250,60.059,32.715,43.457
1532384809.977,37.598,37.598,62.988,33.203,22.461
1532384809.981,32.227,36.621,63.965,32.227,17.090
1532384809.985,20.020,28.809,54.199,31.250,29.785
1532384809.989,23.926,16.602,54.688,22.461,62.500
1532384809.993,23.926,15.137,57.129,23.926,67.383
1532384809.996,29.785,33.203,64.941,36.621,36.133
1532384810.000,28.809,42.969,70.801,37.109,32.227
1532384810.004,23.926,32.715,61.035,38.086,57.129
1532384810.008,25.391,34.180,62.500,33.203,44.922
1532384810.012,30.762,43.457,64.941,31.250,9.766
1532384810.016,32.227,36.621,50.293,32.715,19.043
1532384810.020,36.621,36.133,49.805,43.945,41.016
1532384810.024,43.457,31.738,61.035,49.316,35.645
1532384810.028,33.203,27.832,50.781,36.133,25.391
1532384810.032,25.391,36.133,41.504,30.273,19.531
1532384810.035,26.855,38.086,48.340,29.785,41.992
1532384810.039,26.855,38.086,48.340,31.738,64.453
1532384810.043,30.762,31.250,37.598,24.414,27.344
1532384810.047,38.086,28.809,37.598,16.602,12.207
1532384810.051,39.551,44.922,38.574,25.391,47.363
1532384810.055,40.527,49.316,32.715,36.133,50.293
1532384810.059,46.387,45.898,47.363,39.062,46.875
1532384810.063,45.410,44.434,61.035,50.781,38.086
1532384810.067,27.832,32.227,53.223,38.574,19.043
1532384810.071,30.762,32.227,57.617,27.344,10.742
1532384810.075,48.828,46.875,57.617,38.574,22.461
1532384810.078,40.039,44.922,41.016,30.273,17.090
1532384810.082,36.621,36.133,31.250,22.461,21.973
1532384810.086,42.969,31.738,41.016,26.855,40.039
1532384810.090,46.875,32.715,46.387,37.109,42.480
1532384810.094,48.340,40.039,31.738,43.945,33.691
1532384810.098,45.410,50.781,28.809,42.480,18.066
1532384810.102,53.223,49.316,41.992,50.293,37.598
1532384810.106,62.500,41.016,47.852,55.664,44.434
1532384810.110,52.734,41.504,48.340,41.504,-6.836
1532384810.114,36.133,43.945,40.039,23.926,-11.719
1532384810.117,32.227,48.828,32.227,24.902,31.738
1532384810.121,33.203,47.852,37.109,32.715,30.273
1532384810.125,41.504,30.273,42.480,37.109,30.762
1532384810.129,49.805,17.578,45.410,39.062,20.508
1532384810.133,42.480,41.992,37.598,35.645,10.742
1532384810.137,37.598,56.152,32.227,41.992,50.293
1532384810.141,36.133,48.340,38.086,47.852,60.059
1532384810.145,30.273,43.457,36.133,31.250,6.348
1532384810.149,30.762,32.715,47.852,29.785,-10.742
1532384810.153,40.527,31.738,54.199,40.527,9.766
1532384810.157,42.480,41.992,44.434,36.133,32.227
1532384810.160,30.762,42.480,46.875,22.949,37.109
1532384810.164,25.879,20.996,45.410,20.508,10.254
1532384810.168,25.391,24.902,28.809,35.156,20.508
1532384810.172,24.902,52.246,26.367,38.574,64.941
1532384810.176,22.461,44.434,42.969,26.855,55.664
1532384810.180,20.508,36.621,47.363,30.273,14.648
1532384810.184,23.438,37.598,46.387,35.156,19.531
1532384810.188,20.996,34.668,38.574,27.344,5.371
1532384810.192,30.762,39.062,36.621,35.645,0.000
1532384810.196,41.504,47.852,39.551,41.992,10.254
1532384810.200,39.551,38.086,29.297,35.156,11.719
1532384810.203,28.809,14.160,30.273,32.227,41.504
1532384810.207,23.438,14.160,26.855,27.344,67.383
1532384810.211,28.809,37.598,20.020,30.273,45.410
1532384810.215,24.414,43.457,26.855,27.832,43.945
1532384810.219,22.461,43.945,41.992,26.367,70.801
1532384810.223,30.762,42.480,33.203,29.785,72.266
1532384810.227,33.203,43.457,28.320,36.133,65.430
1532384810.231,36.133,47.363,37.598,37.598,45.898
1532384810.235,37.598,49.316,32.715,29.297,60.059
1532384810.239,39.551,55.664,35.645,23.926,56.152
1532384810.242,38.574,25.879,37.109,23.438,24.414
1532384810.246,27.344,12.207,29.297,22.949,-3.418
1532384810.250,26.367,40.527,24.902,21.484,21.973
1532384810.254,30.273,50.293,18.555,29.297,70.801
1532384810.258,36.133,45.410,20.508,41.504,61.523
1532384810.262,44.922,44.922,27.344,42.969,38.574
1532384810.266,41.504,39.551,28.809,29.785,30.762
1532384810.270,43.945,34.668,29.297,26.855,43.945
1532384810.274,49.805,46.875,43.945,40.527,47.852
1532384810.278,41.504,51.758,54.688,45.898,28.809
1532384810.282,36.621,27.344,46.875,35.156,-13.184
1532384810.285,41.016,25.879,38.086,32.715,7.324
1532384810.289,41.992,46.875,40.039,32.715,13.184
1532384810.293,41.504,54.688,45.410,33.203,-3.418
1532384810.297,45.898,55.664,46.387,40.527,8.301
1532384810.301,50.293,52.246,39.551,47.363,41.504
1532384810.305,48.828,42.480,40.039,42.480,70.312
1532384810.309,55.664,34.668,46.387,40.039,66.406
1532384810.313,62.500,44.922,40.527,42.480,41.992
1532384810.317,58.105,59.570,54.688,43.945,29.297
1532384810.321,55.176,63.965,70.312,53.711,36.621
1532384810.325,53.223,54.199,55.176,50.781,43.945
1532384810.328,54.688,39.062,47.852,42.969,-1.465
1532384810.332,61.523,40.039,46.875,48.828,-1.953
1532384810.336,57.617,58.105,42.969,46.387,40.527
1532384810.340,53.223,71.289,62.500,47.852,54.688
1532384810.344,53.711,70.801,71.777,55.176,36.621
1532384810.348,59.082,60.547,71.777,48.828,0.000
1532384810.352,66.406,59.570,72.266,55.664,36.621
1532384810.356,68.359,61.523,66.406,65.430,49.805
1532384810.360,65.918,57.617,55.664,55.176,47.852
1532384810.364,64.453,65.918,60.059,58.105,26.367
1532384810.367,67.871,69.336,62.988,66.895,17.090
1532384810.371,64.453,64.453,42.480,60.059,47.363
1532384810.375,61.035,57.617,41.016,54.688,39.551
1532384810.379,60.059,59.082,61.035,55.176,17.090
1532384810.383,64.453,66.406,63.965,57.129,19.531
1532384810.387,63.477,68.848,55.176,54.688,20.996
1532384810.391,64.941,83.984,60.059,56.641,-9.766
1532384810.395,69.336,90.332,65.918,56.641,-18.555
1532384810.399,63.477,72.266,66.406,59.082,13.672
1532384810.403,59.570,50.781,62.500,58.594,43.457
1532384810.407,72.266,63.965,67.383,55.664,23.438
1532384810.410,70.801,65.430,70.801,63.965,-3.418
1532384810.414,58.105,68.359,63.965,61.523,-9.277
1532384810.418,55.664,97.656,76.172,57.129,26.855
1532384810.422,62.988,87.402,90.332,64.453,54.199
1532384810.426,75.195,82.520,94.238,71.289,12.207
1532384810.430,83.496,92.285,91.309,71.777,-6.836
1532384810.434,96.191,91.797,91.309,82.520,62.500
1532384810.438,99.609,97.168,101.074,89.844,79.102
1532384810.442,111.328,105.957,106.445,91.797,39.062
1532384810.446,119.141,112.305,112.793,96.680,12.207
1532384810.449,112.793,109.863,118.652,93.750,48.828
1532384810.453,121.582,115.723,115.234,91.309,75.195
1532384810.457,125.000,119.629,118.164,99.121,50.781
1532384810.461,145.508,106.445,124.512,108.398,33.203
1532384810.465,149.414,115.723,113.770,107.422,15.625
1532384810.469,129.883,131.836,115.234,102.051,20.508
1532384810.473,130.371,132.324,129.395,109.863,57.129
1532384810.477,128.906,125.000,123.535,114.258,30.762
1532384810.481,126.465,131.348,121.582,117.676,-4.883
1532384810.485,123.047,134.277,132.324,125.488,-3.418
1532384810.489,122.070,120.605,125.000,124.023,22.949
1532384810.492,116.699,114.258,115.723,121.582,32.715
1532384810.496,107.910,115.723,125.488,126.465,20.020
1532384810.500,111.328,122.559,130.371,126.953,40.039
1532384810.504,122.559,125.977,126.465,130.859,37.109
1532384810.508,128.906,118.164,121.582,126.953,11.230
1532384810.512,122.559,111.816,122.070,114.258,1.953
1532384810.516,116.699,112.793,123.047,111.328,12.207
1532384810.520,120.117,115.723,113.281,107.910,43.457
1532384810.524,118.164,129.883,110.352,111.816,43.457
1532384810.528,107.422,129.395,111.816,105.957,-0.977
1532384810.532,113.770,123.047,119.141,103.516,-7.324
1532384810.535,111.328,115.234,124.023,104.492,36.621
1532384810.539,106.445,83.496,117.676,101.074,62.012
1532384810.543,112.793,83.984,118.652,107.910,45.898
1532384810.547,107.422,124.512,120.605,106.445,27.344
1532384810.551,95.215,125.977,109.863,95.703,40.039
1532384810.555,91.797,102.051,100.586,89.355,41.016
1532384810.559,103.516,94.727,97.656,99.121,28.809
1532384810.563,112.793,98.145,97.656,106.934,19.531
1532384810.567,105.469,106.445,109.863,96.680,14.160
1532384810.571,99.121,104.492,121.582,86.426,6.348
1532384810.574,100.098,94.727,117.188,92.285,25.391
1532384810.578,102.539,96.191,111.816,102.539,14.648
1532384810.582,102.051,96.191,110.352,94.727,19.043
1532384810.586,107.422,77.637,95.703,88.867,62.988
1532384810.590,109.375,80.566,96.680,97.168,50.293
1532384810.594,94.238,83.008,106.934,90.332,0.000
1532384810.598,89.355,82.031,95.215,81.543,10.254
1532384810.602,89.355,96.191,90.332,81.543,52.246
1532384810.606,86.426,90.332,98.145,90.332,33.203
1532384810.610,85.449,78.125,91.309,87.402,6.348
1532384810.614,81.543,80.566,92.773,77.637,-3.906
1532384810.617,82.031,88.379,105.469,82.031,11.719
1532384810.621,88.379,75.684,105.957,86.914,34.668
1532384810.625,94.238,46.875,104.492,85.938,29.785
1532384810.629,97.168,65.918,101.074,85.449,-2.441
1532384810.633,97.168,99.609,94.238,94.727,10.742
1532384810.637,107.422,100.586,96.191,108.398,35.156
1532384810.641,121.094,98.145,97.656,111.816,38.086
1532384810.645,110.352,84.961,91.309,97.168,21.973
1532384810.649,93.262,71.777,87.402,85.938,11.719
1532384810.653,86.914,64.453,87.891,82.520,40.039
1532384810.657,81.543,70.312,85.938,80.566,53.711
1532384810.660,88.867,71.777,78.125,79.590,44.922
1532384810.664,93.262,57.617,74.219,79.102,7.812
1532384810.668,86.914,49.805,83.984,71.289,4.395
1532384810.672,86.426,73.730,81.543,70.312,33.203
1532384810.676,85.938,97.656,86.426,80.566,36.621
1532384810.680,78.613,87.402,104.492,75.684,47.363
1532384810.684,57.617,70.801,94.238,60.059,71.289
1532384810.688,47.852,69.336,84.961,56.641,49.316
1532384810.692,66.406,72.754,90.332,67.871,33.691
1532384810.696,75.684,68.848,88.379,72.266,29.297
1532384810.699,75.684,56.152,81.055,73.242,29.785
1532384810.703,86.914,47.852,79.590,79.590,35.156
1532384810.707,84.961,26.855,77.148,75.195,0.000
1532384810.711,65.430,35.645,52.246,60.059,-6.836
1532384810.715,50.781,64.453,35.156,48.340,20.996
1532384810.719,43.945,62.012,53.711,40.527,43.945
1532384810.723,44.434,30.273,52.246,40.039,51.270
1532384810.727,34.668,15.625,39.551,37.109,25.879
1532384810.731,21.484,26.367,42.480,31.250,17.578
1532384810.735,14.160,19.531,32.715,18.066,46.875
1532384810.739,12.207,-0.488,27.832,6.836,83.496
1532384810.742,13.184,-10.254,33.691,11.230,55.176
1532384810.746,16.113,11.719,32.715,10.254,2.930
1532384810.750,12.695,27.344,27.832,5.859,17.578
1532384810.754,4.395,20.020,25.879,0.488,37.109
1532384810.758,8.789,13.184,18.066,0.000,77.148
1532384810.762,8.301,5.859,11.719,8.301,47.852
1532384810.766,13.672,0.488,13.184,6.348,-10.254
1532384810.770,18.555,10.742,19.531,7.812,-22.461
1532384810.774,18.555,21.484,25.391,20.996,1.953
1532384810.778,9.766,6.348,22.949,17.578,5.859
1532384810.782,0.488,-16.602,24.902,10.742,3.906
1532384810.785,-4.395,-13.184,22.949,3.418,-3.906
1532384810.789,-11.719,0.000,16.113,-5.371,-12.695
1532384810.793,-9.766,4.883,10.742,-0.977,-13.672
1532384810.797,-5.859,3.906,6.348,-5.371,-4.883
1532384810.801,-6.836,4.395,6.836,-11.719,10.254
1532384810.805,-4.883,0.000,15.625,-7.812,22.949
1532384810.809,5.859,-4.395,10.742,-10.742,31.738
1532384810.813,9.277,12.695,0.488,-9.766,13.184
1532384810.817,-3.906,11.230,5.859,-1.953,29.785
1532384810.821,0.488,3.906,13.672,1.465,42.480
1532384810.824,-6.836,7.812,15.137,-2.930,38.086
1532384810.828,-15.137,10.742,16.602,-17.578,14.160
1532384810.832,-1.465,3.906,20.020,-14.648,25.391
1532384810.836,11.719,-13.672,7.812,0.977,58.594
1532384810.840,12.207,0.977,-1.953,-1.953,45.898
1532384810.844,27.344,14.160,8.789,5.371,28.809
1532384810.848,28.809,20.508,13.184,-2.441,-7.324
1532384810.852,8.789,32.227,16.602,-14.160,1.465
1532384810.856,9.766,31.738,15.625,-8.789,41.016
1532384810.860,7.324,19.531,1.465,-8.789,17.090
1532384810.864,12.207,11.719,-4.395,-1.953,-10.742
1532384810.867,26.367,22.949,13.672,3.418,-12.207
1532384810.871,23.438,26.367,22.461,6.836,25.391
1532384810.875,11.719,16.113,13.672,7.324,45.898
1532384810.879,8.789,8.789,9.277,7.812,29.297
1532384810.883,13.184,9.277,9.766,7.324,26.367
1532384810.887,15.625,21.484,10.742,6.348,23.926
1532384810.891,9.277,20.996,12.207,6.348,24.902
1532384810.895,16.602,15.137,19.531,18.066,12.695
1532384810.899,17.090,22.949,16.113,21.973,16.113
1532384810.903,6.348,20.508,12.207,7.324,55.664
1532384810.906,8.789,18.066,15.625,4.395,35.645
1532384810.910,14.160,16.602,17.090,9.766,-29.785
1532384810.914,20.020,17.578,20.020,19.043,-27.344
1532384810.918,25.391,21.973,21.973,22.461,21.484
1532384810.922,30.762,24.414,25.879,27.832,46.387
1532384810.926,24.902,28.809,26.855,25.391,46.875
1532384810.930,20.020,25.879,21.973,17.578,14.160
1532384810.934,24.414,21.973,20.508,25.879,-0.977
1532384810.938,33.691,17.578,19.043,32.715,20.508
1532384810.942,40.527,25.391,20.996,35.156,33.203
1532384810.946,36.621,18.066,31.738,29.297,15.137
1532384810.949,37.109,3.418,31.250,33.203,11.230
1532384810.953,41.016,20.508,14.648,39.551,63.477
1532384810.957,52.246,42.480,20.020,41.992,72.266
1532384810.961,44.922,35.645,36.133,42.480,21.484
1532384810.965,37.598,24.414,35.156,33.691,-5.371
1532384810.969,43.457,33.203,33.691,23.438,29.297
1532384810.973,46.387,39.062,30.762,22.949,43.945
1532384810.977,63.965,35.645,28.320,37.109,36.133
1532384810.981,64.941,34.180,22.949,41.992,40.527
1532384810.985,57.617,30.762,17.578,33.691,21.973
1532384810.989,55.176,30.273,13.672,31.250,8.789
1532384810.992,50.293,40.527,15.137,37.598,30.762
1532384810.996,47.852,38.574,20.508,31.738,37.598
1532384811.000,41.016,26.367,17.090,25.391,48.828
1532384811.004,50.293,22.949,14.648,35.645,34.180
1532384811.008,43.457,33.203,11.230,33.691,7.812
1532384811.012,37.598,44.922,14.648,31.738,6.836
1532384811.016,53.223,44.922,20.020,39.551,1.465
1532384811.020,44.922,40.527,20.020,27.344,9.766
1532384811.024,41.016,38.574,27.344,20.508,32.227
1532384811.028,50.293,32.227,33.691,29.297,-5.859
1532384811.031,52.246,32.227,33.691,33.203,-28.320
1532384811.035,55.664,20.508,24.414,36.621,21.484
1532384811.039,51.758,2.441,19.043,45.898,34.180
1532384811.043,44.434,19.043,25.879,40.527,6.836
1532384811.047,41.504,45.410,32.715,29.785,-18.555
1532384811.051,32.715,46.387,28.809,34.668,-9.277
1532384811.055,33.203,38.574,26.855,33.691,35.645
1532384811.059,50.293,32.715,27.832,26.367,44.922
1532384811.063,52.246,27.832,22.949,36.621,19.531
1532384811.067,41.992,19.043,18.555,37.598,0.000
1532384811.071,38.086,19.531,24.902,32.715,18.555
1532384811.074,49.316,22.949,36.133,42.480,33.691
1532384811.078,51.758,2.441,31.738,39.551,19.531
1532384811.082,38.086,12.695,29.297,25.391,44.434
1532384811.086,28.320,46.875,36.621,19.531,47.852
1532384811.090,29.785,41.504,33.203,18.555,-2.930
1532384811.094,39.551,28.809,18.066,20.996,13.672
1532384811.098,41.016,41.992,13.184,28.320,46.387
1532384811.102,44.434,43.457,29.785,34.668,53.223
1532384811.106,43.945,24.902,45.898,32.227,46.387
1532384811.110,38.574,19.043,45.898,28.809,21.973
1532384811.114,33.203,20.020,43.457,32.227,41.992
1532384811.117,22.461,28.320,42.480,26.367,62.500
1532384811.121,14.648,29.785,43.945,22.949,72.754
1532384811.125,23.438,34.668,51.270,26.855,62.012
1532384811.129,39.062,35.645,50.781,31.738,7.324
1532384811.133,27.832,28.320,41.992,32.227,26.367
1532384811.137,27.344,25.879,41.504,34.668,52.246
1532384811.141,39.551,20.508,38.086,38.086,55.176
1532384811.145,36.133,15.137,32.715,38.574,48.828
1532384811.149,31.738,10.254,34.180,35.156,42.969
1532384811.153,33.691,30.273,36.133,32.227,44.922
1532384811.156,42.480,37.598,39.551,38.574,35.156
1532384811.160,40.039,21.484,39.551,30.762,8.301
1532384811.164,22.461,28.809,32.715,14.160,-3.906
1532384811.168,25.391,31.250,27.832,18.555,43.945
1532384811.172,43.457,15.625,22.949,26.855,60.547
1532384811.176,35.156,12.207,10.254,20.508,26.855
1532384811.180,16.113,7.812,16.113,7.812,6.836
1532384811.184,7.324,8.301,33.691,-4.883,36.133
1532384811.188,8.301,21.484,37.598,-5.859,31.250
1532384811.192,13.672,15.625,33.691,3.906,20.996
1532384811.196,18.066,7.324,29.297,12.695,40.039
1532384811.199,26.855,13.184,28.320,13.672,26.367
1532384811.203,36.133,13.672,24.902,15.625,36.621
1532384811.207,53.223,2.441,28.320,26.367,22.461
1532384811.211,31.250,-0.488,13.184,25.391,1.953
1532384811.215,9.766,16.602,1.465,10.742,-20.996
1532384811.219,20.020,24.902,16.113,0.000,28.320
1532384811.223,19.043,20.996,21.973,-2.441,65.430
1532384811.227,25.391,26.367,30.762,5.859,33.203
1532384811.231,33.203,17.090,26.855,12.207,17.090
1532384811.235,34.180,-0.488,14.648,-0.977,34.668
1532384811.239,40.527,0.488,16.113,-11.230,50.781
1532384811.242,46.875,5.859,10.742,-3.906,15.625
1532384811.246,56.152,16.113,5.371,-4.395,-0.977
1532384811.250,47.852,14.648,12.207,-5.859,21.484
1532384811.254,28.320,4.395,19.043,-3.906,27.832
1532384811.258,37.109,11.230,19.043,0.488,24.902
1532384811.262,43.945,11.230,20.020,11.230,28.320
1532384811.266,19.043,2.930,17.578,6.836,5.859
1532384811.270,13.672,7.812,17.090,12.207,3.906
1532384811.274,19.531,6.348,20.996,16.602,34.668
1532384811.278,15.137,0.000,21.484,15.137,25.391
1532384811.281,24.902,9.766,27.344,21.973,20.996
1532384811.285,17.578,16.113,24.414,14.160,27.832
1532384811.289,15.625,6.836,15.625,4.883,41.504
1532384811.293,23.438,-1.465,13.672,0.977,45.898
1532384811.297,23.926,-3.906,11.230,11.719,21.484
1532384811.301,30.273,5.859,11.230,20.996,28.320
1532384811.305,26.367,7.812,11.230,11.230,35.156
1532384811.309,28.809,10.254,12.207,7.812,16.113
1532384811.313,22.949,17.578,19.043,6.348,-12.695
1532384811.317,23.926,15.625,25.391,5.859,-1.953
1532384811.321,41.504,-3.906,26.855,15.625,27.832
1532384811.324,41.504,-14.648,22.949,22.461,17.578
1532384811.328,31.250,13.184,18.066,8.789,-23.438
1532384811.332,27.832,23.926,22.461,2.441,14.648
1532384811.336,31.738,13.672,27.344,9.277,54.688
1532384811.340,32.227,1.953,20.508,9.277,41.504
1532384811.344,23.926,-2.930,13.184,5.859,46.875
1532384811.348,21.484,-0.977,14.648,-2.441,-6.348
1532384811.352,30.273,10.254,9.766,2.441,-16.602
1532384811.356,37.109,25.391,10.254,13.184,53.223
1532384811.360,34.180,6.836,21.973,8.301,25.879
1532384811.363,31.250,-16.602,28.809,8.301,-15.625
1532384811.367,25.879,7.812,20.020,9.766,1.953
1532384811.371,19.531,27.832,3.418,9.277,48.340
1532384811.375,23.926,25.391,12.695,7.812,40.527
1532384811.379,27.832,15.137,30.273,5.859,-3.418
1532384811.383,22.949,1.953,30.762,0.000,27.344
1532384811.387,17.578,1.465,24.414,-3.906,74.219
1532384811.391,21.973,9.277,21.484,-2.930,61.523
1532384811.395,26.855,19.531,18.555,-1.953,25.879
1532384811.399,29.785,26.367,20.020,6.348,15.625
1532384811.403,33.691,17.090,20.996,10.254,33.691
1532384811.406,31.738,0.488,18.555,6.836,34.668
1532384811.410,30.762,0.000,17.090,-2.930,27.344
1532384811.414,33.203,6.348,19.531,0.000,37.109
1532384811.418,32.227,10.742,15.625,3.906,47.363
1532384811.422,31.738,7.324,8.301,-0.977,33.691
1532384811.426,37.598,15.625,22.461,7.812,-5.371
1532384811.430,37.598,23.926,33.691,13.184,-21.973
1532384811.434,27.832,13.672,31.250,14.160,3.418
1532384811.438,28.320,12.207,31.738,7.812,47.363
1532384811.442,32.227,11.230,28.320,-1.953,41.016
1532384811.446,35.645,1.465,25.391,-1.465,-2.441
1532384811.449,37.109,13.672,26.367,0.977,-2.930
1532384811.453,36.133,33.203,20.020,3.418,36.133
1532384811.457,37.109,30.273,12.695,4.395,40.527
1532384811.461,40.039,32.715,20.020,-0.977,24.902
1532384811.465,36.621,20.020,26.367,0.488,-1.465
1532384811.469,44.922,6.836,26.855,5.859,1.465
1532384811.473,45.898,15.137,25.879,5.859,29.297
1532384811.477,35.645,18.555,22.949,5.371,32.715
1532384811.481,42.969,24.902,28.809,15.625,30.762
1532384811.485,47.363,23.438,32.715,24.414,34.668
1532384811.488,38.574,5.859,23.926,14.648,39.551
1532384811.492,35.156,15.625,26.855,18.066,30.273
1532384811.496,35.645,37.109,26.855,17.578,-1.465
1532384811.500,41.016,28.809,25.879,8.789,22.949
1532384811.504,40.527,6.348,29.297,14.648,60.059
1532384811.508,36.133,8.789,24.902,20.020,9.277
1532384811.512,36.133,27.344,21.484,21.484,-6.348
1532384811.516,41.992,32.715,33.203,18.555,21.973
1532384811.520,40.039,27.832,42.480,20.020,45.410
1532384811.524,31.738,22.461,39.551,25.879,35.156
1532384811.528,34.668,15.137,32.715,21.484,9.766
1532384811.531,35.645,19.043,30.762,18.555,-0.488
1532384811.535,35.645,20.996,33.203,26.855,22.949
1532384811.539,28.809,20.996,31.738,24.414,49.805
1532384811.543,20.508,24.902,25.879,14.160,25.879
1532384811.547,31.738,12.695,21.973,21.484,-0.977
1532384811.551,43.945,20.508,20.020,21.973,20.996
1532384811.555,32.715,30.273,11.230,6.348,34.668
1532384811.559,30.762,23.926,10.742,16.113,19.531
1532384811.563,35.645,23.926,24.902,25.391,28.320
1532384811.567,23.926,26.367,37.598,7.812,30.273
1532384811.571,18.066,12.207,47.363,4.883,46.875
1532384811.574,24.414,1.465,48.828,14.648,55.664
1532384811.578,10.254,13.184,44.922,5.859,41.016
1532384811.582,11.719,17.090,46.387,9.277,4.395
1532384811.586,13.184,4.883,41.016,0.488,21.973
1532384811.590,2.441,9.766,44.922,-1.465,29.785
1532384811.594,1.953,11.719,47.852,-2.930,13.672
1532384811.598,-0.488,16.113,41.016,-12.695,7.812
1532384811.602,5.371,18.555,38.086,-1.465,21.973
1532384811.606,9.766,7.324,40.039,4.883,37.109
1532384811.610,15.137,7.812,36.133,4.883,22.949
1532384811.613,21.484,16.602,32.715,12.207,6.348
1532384811.617,25.879,23.438,36.621,10.742,35.156
1532384811.621,27.832,14.160,38.574,8.301,44.922
1532384811.625,23.438,7.812,39.062,11.719,17.090
1532384811.629,26.855,22.461,33.203,15.137,9.277
1532384811.633,32.227,33.691,18.066,17.578,38.086
1532384811.637,22.461,30.273,20.508,14.648,50.293
1532384811.641,17.578,24.902,41.504,9.277,28.320
1532384811.645,15.625,20.508,46.387,1.953,19.531
1532384811.649,17.090,21.973,39.062,6.348,-6.836
1532384811.653,23.926,24.902,38.574,14.160,10.254
1532384811.656,26.855,28.809,41.016,14.648,37.598
1532384811.660,27.832,23.438,38.086,15.137,28.320
1532384811.664,27.832,20.508,27.344,29.297,2.441
1532384811.668,23.926,21.484,22.949,23.926,14.160
1532384811.672,30.273,13.184,27.832,6.836,47.363
1532384811.676,24.414,19.043,26.367,11.719,15.137
1532384811.680,14.160,27.832,19.531,9.766,-13.184
1532384811.684,21.973,20.508,19.531,5.859,13.672
1532384811.688,25.391,9.766,27.344,13.184,38.574
1532384811.692,31.250,20.996,24.902,10.742,33.203
1532384811.696,37.598,37.598,18.555,3.906,39.062
1532384811.699,38.086,28.320,30.762,9.277,27.832
1532384811.703,38.574,19.043,27.832,16.602,34.668
1532384811.707,42.480,6.348,16.602,17.090,38.086
1532384811.711,41.992,13.184,26.367,22.949,12.207
1532384811.715,29.785,31.738,27.344,31.738,20.996
1532384811.719,30.762,28.809,13.184,30.762,56.641
1532384811.723,30.762,34.180,13.184,24.902,68.359
1532384811.727,20.508,31.738,21.973,21.973,32.715
1532384811.731,24.902,30.762,26.855,17.578,-0.488
1532384811.735,37.109,18.066,28.320,25.391,14.648
1532384811.738,42.969,6.836,25.879,34.180,34.668
1532384811.742,43.945,26.855,41.016,26.855,59.082
1532384811.746,41.016,28.320,50.293,20.508,34.180
1532384811.750,31.250,22.949,41.992,16.602,6.348
1532384811.754,38.086,39.551,35.645,17.090,58.594
1532384811.758,45.410,34.668,37.109,22.461,63.477
1532384811.762,44.922,20.996,40.039,26.367,52.734
1532384811.766,36.133,26.367,37.598,20.996,29.297
1532384811.770,34.180,22.461,32.715,21.973,29.297
1532384811.774,47.852,7.324,32.715,30.762,66.406
1532384811.778,53.711,22.949,38.574,35.645,30.273
1532384811.781,51.758,43.945,34.180,36.133,27.344
1532384811.785,44.922,37.109,20.996,39.062,44.434
1532384811.789,41.992,38.086,21.973,35.645,36.621
1532384811.793,39.062,35.156,34.180,28.809,49.805
1532384811.797,42.480,32.227,43.945,35.156,40.527
1532384811.801,50.293,38.086,35.645,31.738,26.855
1532384811.805,43.945,25.391,23.438,22.949,48.340
1532384811.809,36.133,16.113,30.762,22.461,46.387
1532384811.813,32.715,27.344,39.062,19.531,10.254
1532384811.817,39.062,45.410,40.039,23.438,-10.254
1532384811.820,40.527,54.199,39.062,26.367,13.672
1532384811.824,41.992,41.016,36.621,18.555,41.504
1532384811.828,38.086,36.133,32.715,12.207,7.812
1532384811.832,38.086,48.340,33.691,22.949,-30.762
1532384811.836,44.922,43.945,29.785,27.832,22.461
1532384811.840,37.598,24.902,19.531,18.066,81.543
1532384811.844,31.250,20.508,14.648,12.207,73.242
1532384811.848,30.273,18.555,15.625,11.230,19.043
1532384811.852,33.203,26.367,23.926,21.484,16.113
1532384811.856,27.344,51.758,30.762,21.484,44.434
1532384811.860,31.250,51.758,29.785,30.762,20.508
1532384811.863,37.109,33.203,24.414,25.391,2.441
1532384811.867,36.133,29.297,23.926,9.766,19.043
1532384811.871,50.293,40.039,30.762,28.320,46.387
1532384811.875,56.641,34.668,34.180,43.457,42.480
1532384811.879,46.875,24.414,27.832,28.809,8.301
1532384811.883,36.621,32.715,21.973,16.602,3.418
1532384811.887,40.039,42.480,14.648,20.996,2.441
1532384811.891,48.340,56.152,7.812,27.832,3.418
1532384811.895,44.434,40.527,17.090,35.645,11.230
1532384811.899,24.902,17.090,36.621,18.555,15.625
1532384811.903,26.367,27.344,43.457,13.672,37.598
1532384811.906,30.273,34.668,43.457,27.832,51.270
1532384811.910,20.020,31.738,44.922,21.484,37.109
1532384811.914,21.973,16.602,48.828,21.484,34.668
1532384811.918,28.809,9.766,50.781,28.320,43.457
1532384811.922,32.715,26.367,44.434,42.969,52.734
1532384811.926,23.926,21.973,32.715,32.227,36.133
1532384811.930,23.926,24.414,31.738,19.531,9.277
1532384811.934,21.484,42.480,34.668,28.320,35.156
1532384811.938,20.020,37.109,36.621,28.320,65.918
1532384811.942,29.297,32.227,43.457,33.203,70.801
1532384811.945,29.785,31.250,51.270,35.645,27.344
1532384811.949,32.227,31.250,51.758,39.062,28.809
1532384811.953,32.715,31.738,44.922,38.574,81.543
1532384811.957,33.203,25.391,38.574,32.227,65.430
1532384811.961,41.016,30.273,37.109,29.297,39.062
1532384811.965,33.691,32.715,41.016,26.367,4.883
1532384811.969,32.715,23.926,46.875,29.297,13.184
1532384811.973,38.574,27.344,45.898,32.227,44.434
1532384811.977,46.875,36.133,44.434,43.457,14.160
1532384811.981,43.457,37.109,36.621,43.945,37.109
1532384811.985,22.461,43.945,34.180,29.297,65.430
1532384811.988,21.484,43.945,33.203,32.227,43.945
1532384811.992,34.180,24.902,25.879,36.133,40.039
1532384811.996,38.574,21.973,31.250,32.715,43.945
1532384812.000,34.180,28.320,40.039,43.945,55.176
1532384812.004,30.762,22.949,40.527,41.016,47.852
1532384812.008,28.320,23.926,38.086,25.391,39.551
1532384812.012,32.227,36.621,39.551,24.414,10.254
1532384812.016,44.434,29.785,40.039,25.879,-0.977
1532384812.020,57.129,20.020,36.133,25.879,40.039
1532384812.024,51.758,41.504,31.250,27.344,48.828
1532384812.028,45.898,43.945,24.902,21.484,2.930
1532384812.031,45.410,30.762,33.691,17.578,-19.531
1532384812.035,46.387,11.719,46.875,28.809,0.000
1532384812.039,50.293,15.137,43.457,41.992,35.645
1532384812.043,41.992,47.852,37.109,46.387,46.387
1532384812.047,25.391,42.480,37.598,39.062,-18.555
1532384812.051,20.996,35.156,37.109,27.344,-18.555
1532384812.055,24.902,41.016,39.062,33.203,39.062
1532384812.059,27.344,34.180,34.180,40.039,21.484
1532384812.063,36.621,24.902,20.020,54.199,7.812
1532384812.067,29.785,17.578,17.578,42.969,-17.578
1532384812.070,17.090,24.902,34.668,23.438,-8.789
1532384812.074,24.902,26.367,42.480,25.391,14.648
1532384812.078,32.227,20.996,31.738,20.508,-0.488
1532384812.082,27.344,31.738,32.715,24.902,17.578
1532384812.086,20.020,40.527,38.086,26.855,41.992
1532384812.090,29.785,34.180,39.062,32.227,42.480
1532384812.094,43.945,26.855,40.527,38.086,38.574
1532384812.098,33.691,26.855,34.668,32.227,14.648
1532384812.102,30.273,29.297,21.973,33.203,36.133
1532384812.106,42.480,33.203,29.297,36.133,37.598
1532384812.110,35.156,27.344,37.598,36.133,5.859
1532384812.113,19.043,26.855,32.227,25.879,29.785
1532384812.117,16.602,26.367,32.227,20.508,50.781
1532384812.121,28.809,23.926,36.621,30.762,47.852
1532384812.125,30.762,34.180,33.203,31.250,23.438
1532384812.129,35.156,41.992,25.391,26.855,-10.254
1532384812.133,40.039,33.203,29.297,32.227,21.973
1532384812.137,41.992,16.113,27.344,41.504,67.383
1532384812.141,41.016,14.160,20.508,38.574,49.316
1532384812.145,37.109,29.297,29.297,28.320,9.766
1532384812.149,30.762,43.945,35.645,22.461,1.953
1532384812.152,21.484,38.574,27.832,23.438,31.738
1532384812.156,24.902,27.344,21.973,20.508,37.598
1532384812.160,30.762,28.809,29.785,20.508,19.531
1532384812.164,25.879,38.574,35.156,22.949,20.020
1532384812.168,20.996,28.809,26.367,16.113,5.859
1532384812.172,29.785,16.602,24.414,17.090,25.879
1532384812.176,32.715,33.691,30.762,22.461,55.176
1532384812.180,23.438,39.062,27.344,22.949,40.039
1532384812.184,26.367,32.715,28.320,27.832,35.645
1532384812.188,26.855,26.855,33.203,30.273,46.387
1532384812.192,32.227,22.461,32.715,33.203,55.176
1532384812.195,32.715,33.691,20.508,25.879,14.648
1532384812.199,34.668,43.945,22.949,25.879,18.555
1532384812.203,38.086,31.738,38.574,40.039,62.988
1532384812.207,24.902,20.508,33.203,29.785,45.898
1532384812.211,26.367,21.973,29.785,26.855,23.438
1532384812.215,30.762,23.438,31.738,28.809,12.207
1532384812.219,18.555,25.879,25.391,18.555,40.527
1532384812.223,20.020,23.438,21.973,24.414,61.035
1532384812.227,34.180,20.508,26.855,31.250,25.879
1532384812.231,35.156,27.832,26.855,32.715,1.465
1532384812.235,37.598,36.133,15.625,29.297,27.344
1532384812.238,42.480,40.527,11.719,38.574,40.039
1532384812.242,25.879,36.621,25.879,37.598,22.949
1532384812.246,25.879,33.203,31.738,14.648,16.602
1532384812.250,35.645,26.855,34.180,25.879,8.789
1532384812.254,36.621,18.555,32.227,34.668,18.066
1532384812.258,33.203,21.973,21.484,21.973,27.832
1532384812.262,31.250,14.160,17.090,20.996,17.090
1532384812.266,21.973,23.926,22.949,20.996,15.625
1532384812.270,12.695,42.969,29.297,7.812,16.602
1532384812.274,17.090,38.086,16.602,13.672,23.438
1532384812.277,22.949,26.855,9.766,28.320,27.344
1532384812.281,19.043,20.508,22.461,20.020,29.785
1532384812.285,32.715,34.180,40.039,22.461,48.828
1532384812.289,31.250,30.273,37.598,30.762,59.570
1532384812.293,19.043,-3.906,23.438,26.367,59.570
1532384812.297,19.043,4.395,20.508,20.508,36.133
1532384812.301,16.113,20.996,24.902,19.531,36.621
1532384812.305,24.902,21.484,31.738,25.879,49.316
1532384812.309,22.949,24.902,32.227,24.414,30.762
1532384812.313,25.391,30.273,36.621,22.949,23.926
1532384812.317,32.227,32.227,28.320,31.738,45.410
1532384812.320,23.926,23.926,18.555,27.832,71.777
1532384812.324,16.602,28.320,19.043,16.113,38.574
1532384812.328,25.879,38.574,28.809,25.879,-0.488
1532384812.332,30.273,26.367,35.156,37.598,21.973
1532384812.336,25.391,5.371,25.879,34.668,72.754
1532384812.340,19.043,6.836,20.508,28.320,73.242
1532384812.344,13.184,21.973,17.578,26.367,29.297
1532384812.348,22.461,41.016,22.461,28.320,-20.020
1532384812.352,28.809,39.062,20.508,27.344,-6.836
1532384812.356,24.414,26.367,12.207,25.391,74.219
1532384812.360,22.461,33.203,7.812,25.391,56.641
1532384812.363,22.949,35.156,9.766,18.555,4.395
1532384812.367,22.949,27.344,20.508,21.484,25.391
1532384812.371,23.438,22.949,21.973,24.414,66.895
1532384812.375,23.926,20.508,12.207,20.996,86.914
1532384812.379,28.809,17.090,16.602,31.738,48.340
1532384812.383,30.762,17.578,27.832,39.551,23.926
1532384812.387,22.949,33.203,19.531,27.344,57.129
1532384812.391,21.973,31.738,13.672,17.578,60.059
1532384812.395,20.508,19.043,10.742,24.414,44.922
1532384812.399,15.625,26.855,10.254,22.461,41.016
1532384812.402,12.207,41.504,19.043,16.113,61.035
1532384812.406,8.301,34.668,22.949,20.020,48.340
1532384812.410,21.973,19.531,17.090,26.855,28.809
1532384812.414,23.438,19.043,12.207,29.785,28.809
1532384812.418,17.090,5.371,16.113,29.297,38.574
1532384812.422,30.762,14.648,15.625,33.203,51.758
1532384812.426,33.203,47.363,5.859,35.156,57.617
1532384812.430,25.391,41.992,10.254,33.203,11.719
1532384812.434,26.855,20.996,19.043,27.344,16.113
1532384812.438,23.926,15.625,20.020,17.578,44.434
1532384812.442,20.020,30.273,15.625,12.695,26.855
1532384812.445,11.230,36.133,7.812,11.230,-0.488
1532384812.449,14.648,38.086,8.789,14.160,-0.488
1532384812.453,17.578,32.715,16.602,21.484,20.996
1532384812.457,20.020,11.719,27.832,25.391,27.832
1532384812.461,26.367,19.531,27.344,20.996,31.738
1532384812.465,30.273,41.504,19.043,19.531,11.719
1532384812.469,39.551,40.039,14.648,26.367,-15.137
1532384812.473,45.410,40.039,20.508,38.574,38.574
1532384812.477,33.691,30.762,18.066,29.785,62.988
1532384812.481,25.879,9.766,2.441,14.160,4.883
1532384812.485,24.902,16.602,5.859,10.742,6.348
1532384812.488,26.367,27.832,15.625,12.207,15.625
1532384812.492,31.250,16.602,13.672,18.555,-4.883
1532384812.496,31.250,23.438,11.719,22.461,21.973
1532384812.500,26.855,41.016,14.648,15.137,21.484
1532384812.504,21.973,37.598,19.531,14.648,25.391
1532384812.508,29.297,30.273,27.344,27.832,47.363
1532384812.512,39.551,27.344,28.809,32.227,6.836
1532384812.516,30.762,17.090,19.043,13.672,6.348
1532384812.520,21.973,24.902,6.348,2.930,49.316
1532384812.524,35.645,43.457,16.113,20.020,66.406
1532384812.527,45.898,23.926,26.855,26.855,42.969
1532384812.531,32.715,15.137,11.230,12.695,9.277
1532384812.535,25.879,42.969,3.418,16.602,19.043
1532384812.539,20.508,43.457,10.742,21.484,48.828
1532384812.543,20.020,33.691,20.996,24.414,56.152
1532384812.547,34.668,39.551,20.996,29.785,2.441
1532384812.551,28.320,31.738,24.414,22.949,7.324
1532384812.555,18.066,27.832,28.809,20.996,65.430
1532384812.559,24.902,24.902,32.227,22.461,31.250
1532384812.563,35.645,14.160,31.738,24.414,30.762
1532384812.567,33.691,30.273,24.902,28.809,20.508
1532384812.570,24.902,38.574,23.438,27.344,2.930
1532384812.574,30.273,27.344,26.367,21.973,43.457
1532384812.578,38.574,21.973,23.438,23.926,22.949
1532384812.582,41.016,26.367,22.949,31.738,29.785
1532384812.586,37.109,33.691,21.973,27.344,57.129
1532384812.590,26.855,37.598,21.973,20.996,34.180
1532384812.594,26.367,38.574,22.461,26.367,35.645
1532384812.598,30.762,32.715,23.926,22.949,27.832
1532384812.602,30.762,36.621,23.438,14.160,36.621
1532384812.606,27.832,35.156,22.461,23.438,33.691
1532384812.609,29.297,12.695,16.602,27.832,21.973
1532384812.613,32.227,20.996,6.836,27.832,30.273
1532384812.617,23.438,44.434,12.207,29.297,44.434
1532384812.621,24.902,38.574,25.391,33.691,47.852
1532384812.625,36.621,31.250,32.715,34.180,37.109
1532384812.629,42.480,27.344,34.180,23.438,5.859
1532384812.633,39.551,28.809,29.297,24.414,19.531
1532384812.637,27.832,35.645,22.949,20.020,46.875
1532384812.641,22.949,40.039,22.461,20.020,75.684
1532384812.645,36.133,25.879,24.414,20.996,48.340
1532384812.649,30.762,11.719,24.414,15.137,11.719
1532384812.652,14.160,27.344,22.461,23.438,31.738
1532384812.656,12.695,37.598,14.648,29.297,54.688
1532384812.660,22.949,34.180,15.625,25.879,30.273
1532384812.664,35.645,37.598,18.555,25.879,2.441
1532384812.668,44.434,30.762,18.555,32.715,32.715
1532384812.672,42.480,19.531,28.809,37.598,53.711
1532384812.676,33.203,35.645,28.809,35.645,38.574
1532384812.680,32.227,47.852,18.555,27.832,20.996
1532384812.684,30.762,36.133,23.926,22.949,8.301
1532384812.688,37.598,34.668,31.250,25.391,6.836
1532384812.692,41.016,37.109,29.785,28.809,-0.977
1532384812.695,25.879,24.414,27.832,24.902,0.000
1532384812.699,27.344,25.879,28.320,23.438,13.184
1532384812.703,27.344,35.156,27.344,23.438,51.758
1532384812.707,25.391,36.133,25.879,27.344,52.246
1532384812.711,34.668,26.367,28.320,31.738,35.645
1532384812.715,28.809,26.367,25.879,27.832,27.344
1532384812.719,19.043,38.086,20.508,22.461,40.039
1532384812.723,17.090,31.738,20.508,29.785,60.547
1532384812.727,26.367,18.066,20.996,32.715,36.621
1532384812.731,28.320,23.438,22.461,25.879,23.926
1532384812.734,30.762,44.922,29.297,33.691,29.785
1532384812.738,36.621,46.875,29.785,33.691,39.062
1532384812.742,33.203,36.621,23.926,28.320,40.039
1532384812.746,35.156,29.785,27.344,26.855,19.531
1532384812.750,32.715,38.574,27.344,22.949,14.648
1532384812.754,27.832,47.852,30.273,27.832,53.711
1532384812.758,27.832,33.691,37.109,31.250,73.730
1532384812.762,24.902,21.973,35.156,27.832,21.973
1532384812.766,27.832,28.809,26.367,31.738,-11.230
1532384812.770,37.109,34.668,29.785,27.344,17.090
1532384812.774,37.109,40.527,32.227,26.367,19.043
1532384812.777,21.484,36.621,19.531,27.832,27.344
1532384812.781,17.578,30.762,20.996,31.250,53.223
1532384812.785,27.344,36.133,34.668,35.156,69.336
1532384812.789,22.949,36.621,36.621,27.344,91.309
1532384812.793,23.438,37.109,27.832,27.832,44.922
1532384812.797,32.227,41.504,22.461,32.227,3.418
1532384812.801,38.086,43.945,24.414,33.203,18.066
1532384812.805,29.785,37.598,20.996,31.250,39.062
1532384812.809,26.367,32.715,21.484,35.645,23.438
1532384812.813,35.156,27.832,32.715,37.109,-10.254
1532384812.817,36.133,26.855,30.762,23.438,1.953
1532384812.820,29.785,34.180,31.250,17.578,26.367
1532384812.824,25.879,26.855,37.109,15.137,26.855
1532384812.828,38.086,33.691,32.715,17.578,0.488
1532384812.832,62.012,48.828,32.227,29.785,-7.812
1532384812.836,62.500,43.457,27.832,33.203,33.203
1532384812.840,48.340,47.363,22.461,24.414,38.086
1532384812.844,39.062,42.969,24.414,25.879,26.367
1532384812.848,30.273,26.855,19.043,28.809,36.621
1532384812.852,23.926,21.973,25.879,28.809,48.340
1532384812.856,26.855,20.508,31.250,31.250,46.875
1532384812.859,24.902,23.438,23.438,30.273,17.578
1532384812.863,21.484,19.531,28.320,42.969,10.742
1532384812.867,21.484,22.461,32.227,42.480,0.977
1532384812.871,30.762,33.691,36.621,29.297,-5.859
1532384812.875,42.969,26.855,34.180,34.180,35.156
1532384812.879,36.133,45.410,29.297,40.527,7.812
1532384812.883,33.691,53.711,32.227,51.270,7.324
1532384812.887,28.809,29.297,29.785,42.969,50.781
1532384812.891,26.855,22.949,27.832,31.738,23.438
1532384812.895,31.738,19.531,27.832,37.598,15.137
1532384812.899,22.949,17.090,27.832,34.668,35.156
1532384812.902,35.645,34.180,32.227,31.738,51.758
1532384812.906,44.434,28.809,30.762,36.621,36.621
1532384812.910,26.367,25.879,22.461,23.926,-10.254
1532384812.914,31.738,50.781,16.113,24.902,-12.695
1532384812.918,33.691,49.805,11.719,30.273,14.160
1532384812.922,29.785,35.156,20.020,30.762,24.414
1532384812.926,35.645,26.855,31.250,31.250,-3.418
1532384812.930,50.781,25.879,28.809,36.133,0.977
1532384812.934,37.109,33.203,20.020,35.645,24.902
1532384812.938,21.484,38.086,21.973,22.949,21.973
1532384812.942,28.320,33.203,22.461,25.879,25.879
1532384812.945,32.715,39.062,14.648,32.227,1.953
1532384812.949,31.738,44.922,10.254,26.855,-18.555
1532384812.953,27.832,43.945,11.719,33.203,3.906
1532384812.957,26.855,39.551,8.789,30.762,20.508
1532384812.961,27.832,32.715,7.324,23.926,11.719
1532384812.965,30.762,28.320,12.695,25.391,9.766
1532384812.969,31.250,28.320,10.742,25.879,25.879
1532384812.973,43.945,24.414,11.230,38.086,31.250
1532384812.977,50.781,0.977,3.906,41.992,13.184
1532384812.981,32.227,33.691,-8.789,32.227,4.395
1532384812.984,23.926,75.195,-2.930,28.809,17.578
1532384812.988,25.391,62.012,-4.883,26.367,36.621
1532384812.992,33.691,50.293,-18.555,22.461,13.672
1532384812.996,35.645,43.457,-28.320,22.461,6.348
1532384813.000,37.598,34.180,-21.973,31.250,6.348
1532384813.004,42.480,21.484,-12.207,35.645,19.043
1532384813.008,39.062,11.230,-24.902,25.879,28.809
1532384813.012,25.879,26.367,-37.598,11.230,15.625
1532384813.016,21.973,59.570,-28.809,19.531,36.133
1532384813.020,25.391,68.359,-27.832,24.902,49.316
1532384813.024,29.297,45.410,-42.969,19.043,11.230
1532384813.027,33.691,30.762,-44.922,23.926,-3.906
1532384813.031,27.832,33.203,-50.781,23.926,16.602
1532384813.035,34.180,22.949,-69.824,19.043,14.160
1532384813.039,45.410,4.883,-61.523,25.879,9.766
1532384813.043,36.621,17.578,-45.898,31.738,-4.395
1532384813.047,30.273,43.457,-47.852,32.715,-41.504
1532384813.051,43.457,41.504,-48.828,30.273,-29.785
1532384813.055,51.270,40.527,-53.223,33.203,0.977
1532384813.059,38.086,49.316,-59.082,30.762,7.812
1532384813.063,26.367,42.969,-62.012,26.367,9.277
1532384813.066,31.250,41.992,-59.570,29.297,19.531
1532384813.070,36.133,36.621,-55.176,38.574,33.203
1532384813.074,31.738,22.949,-63.477,36.133,26.855
1532384813.078,33.203,27.832,-65.430,36.133,17.578
1532384813.082,33.691,34.180,-67.871,34.668,23.926
1532384813.086,31.250,23.926,-75.195,19.531,23.438
1532384813.090,25.879,25.391,-67.383,17.090,21.973
1532384813.094,30.762,36.133,-57.129,19.531,14.160
1532384813.098,34.180,31.250,-52.734,22.461,0.000
1532384813.102,33.203,27.344,-52.246,22.461,33.691
1532384813.106,31.738,34.180,-53.711,23.438,43.457
1532384813.109,24.902,39.062,-54.199,26.367,-2.930
1532384813.113,33.691,50.781,-54.199,31.738,-20.508
1532384813.117,30.273,46.387,-61.523,30.273,31.738
1532384813.121,23.438,24.902,-65.918,25.879,53.223
1532384813.125,27.344,13.184,-62.500,29.785,28.320
1532384813.129,31.250,20.996,-60.059,31.738,15.137
1532384813.133,32.227,25.391,-68.359,32.227,19.043
1532384813.137,25.391,23.926,-70.801,29.297,36.133
1532384813.141,26.855,34.180,-56.152,31.738,42.480
1532384813.145,29.785,46.387,-49.316,41.016,32.715
1532384813.149,32.715,55.176,-48.340,41.504,11.230
1532384813.152,36.133,40.039,-43.945,33.203,19.043
1532384813.156,43.457,42.969,-34.668,39.551,56.641
1532384813.160,45.898,49.316,-36.133,45.898,24.902
1532384813.164,41.016,46.875,-50.781,42.480,18.066
1532384813.168,31.738,51.270,-48.828,41.016,33.691
1532384813.172,11.230,35.645,-30.762,30.273,39.062
1532384813.176,17.578,25.391,-27.344,26.367,56.152
1532384813.180,23.926,30.273,-29.785,34.668,34.180
1532384813.184,18.066,22.949,-30.273,37.598,1.465
1532384813.188,21.973,18.555,-34.668,37.109,0.000
1532384813.191,16.602,40.527,-46.387,36.621,15.137
1532384813.195,21.973,51.758,-40.527,40.039,9.766
1532384813.199,28.320,49.805,-22.949,46.875,4.395
1532384813.203,28.320,42.480,-14.648,42.480,28.809
1532384813.207,30.762,26.367,-12.695,31.738,41.992
1532384813.211,29.785,27.832,-15.137,30.273,26.855
1532384813.215,24.414,30.273,-19.043,34.180,19.043
1532384813.219,35.645,30.762,-19.531,40.527,34.180
1532384813.223,39.062,44.434,-16.602,43.457,24.902
1532384813.227,27.832,32.227,-22.949,38.574,12.695
1532384813.231,29.297,27.344,-23.438,42.969,19.043
1532384813.234,32.227,48.828,-11.230,40.527,36.133
1532384813.238,30.762,58.105,-10.742,38.574,40.039
1532384813.242,30.273,45.898,-18.066,33.691,53.711
1532384813.246,31.738,31.738,-19.531,39.551,6.348
1532384813.250,31.738,31.250,-21.973,39.062,-13.184
1532384813.254,40.039,41.016,-5.371,33.691,54.688
1532384813.258,46.875,47.363,6.836,44.922,65.430
1532384813.262,39.062,40.039,-3.906,37.598,61.523
1532384813.266,18.555,39.551,-7.812,28.809,41.504
1532384813.270,20.508,51.270,-6.836,28.320,41.016
1532384813.274,30.273,46.387,-9.277,37.109,65.918
1532384813.277,29.785,37.598,-9.277,37.598,36.133
1532384813.281,35.156,43.457,-1.953,37.109,25.879
1532384813.285,42.969,45.410,4.395,42.480,43.457
1532384813.289,41.504,38.086,2.930,38.574,9.766
1532384813.293,38.086,39.551,-4.395,37.598,-0.977
1532384813.297,39.062,44.922,-5.859,34.668,15.625
1532384813.301,36.133,45.410,0.977,37.598,42.969
1532384813.305,43.945,44.922,7.812,41.992,58.105
1532384813.309,38.574,42.480,4.883,26.855,50.293
1532384813.313,25.879,46.387,1.953,27.832,16.602
1532384813.316,19.531,46.387,10.254,31.250,22.949
1532384813.320,27.832,39.062,12.695,28.320,53.711
1532384813.324,40.039,30.273,8.789,33.691,55.176
1532384813.328,43.457,29.297,13.672,32.715,13.184
1532384813.332,41.992,40.039,13.672,30.762,-11.719
1532384813.336,33.203,40.039,7.812,37.109,33.203
1532384813.340,26.367,41.504,7.324,34.180,58.594
1532384813.344,28.320,45.898,4.395,32.227,36.621
1532384813.348,35.156,41.992,8.789,38.086,9.277
1532384813.352,43.457,41.016,13.672,43.457,51.270
1532384813.356,52.734,38.086,15.137,48.828,59.082
1532384813.359,35.645,28.320,13.672,38.574,17.090
1532384813.363,28.809,26.855,16.113,33.203,14.648
1532384813.367,34.180,31.738,12.695,36.621,23.926
1532384813.371,28.809,42.969,8.789,37.109,24.902
1532384813.375,35.645,52.734,15.137,41.992,41.504
1532384813.379,42.480,51.758,25.879,44.434,40.039
1532384813.383,37.598,38.574,31.738,40.039,42.480
1532384813.387,33.203,38.086,25.391,38.086,26.367
1532384813.391,34.180,53.711,29.785,42.480,20.996
1532384813.395,37.598,53.223,32.715,38.574,29.297
1532384813.399,27.344,43.457,29.785,27.344,12.207
1532384813.402,20.020,35.156,21.973,20.508,39.551
1532384813.406,20.996,21.973,7.812,22.461,62.012
1532384813.410,29.785,35.156,10.742,27.832,32.227
1532384813.414,35.645,51.270,21.484,27.344,32.715
1532384813.418,25.391,47.852,25.879,21.973,29.785
1532384813.422,26.855,38.574,31.738,27.344,42.480
1532384813.426,36.621,35.156,30.273,31.738,38.574
1532384813.430,44.922,41.992,24.902,36.621,-2.930
1532384813.434,41.992,38.574,25.391,41.992,18.066
1532384813.438,41.016,29.785,27.832,35.645,49.805
1532384813.441,41.992,38.086,34.668,30.273,62.988
1532384813.445,34.668,46.387,33.203,29.785,13.672
1532384813.449,30.273,35.156,29.785,28.320,-3.906
1532384813.453,22.461,39.062,26.855,26.367,9.277
1532384813.457,28.809,47.852,22.461,36.621,23.438
1532384813.461,35.645,37.109,20.020,41.992,29.297
1532384813.465,38.574,32.715,23.438,40.527,-14.648
1532384813.469,35.156,40.039,30.273,37.598,19.043
1532384813.473,36.621,43.945,27.344,39.551,64.453
1532384813.477,37.109,42.480,32.715,36.133,43.457
1532384813.481,38.574,36.133,37.598,34.668,54.688
1532384813.484,43.945,29.785,26.855,34.180,47.363
1532384813.488,42.969,26.855,22.949,28.809,60.059
1532384813.492,48.828,41.504,27.832,36.621,58.105
1532384813.496,39.551,51.758,24.902,36.621,16.113
1532384813.500,32.227,37.598,22.949,29.785,39.551
1532384813.504,31.738,27.344,24.902,26.367,59.082
1532384813.508,37.109,32.715,31.250,27.344,36.133
1532384813.512,41.016,40.039,26.367,33.203,26.855
1532384813.516,28.320,34.668,20.020,35.645,-1.953
1532384813.520,36.133,36.133,31.250,37.598,34.180
1532384813.523,42.969,40.039,38.086,38.086,84.961
1532384813.527,37.598,34.668,35.156,39.551,12.695
1532384813.531,36.133,31.738,31.250,35.645,-18.066
1532384813.535,40.527,32.715,35.645,31.738,41.016
1532384813.539,45.410,28.809,37.109,34.180,63.965
1532384813.543,41.016,36.133,33.691,31.738,25.391
1532384813.547,41.992,46.387,35.645,37.109,2.441
1532384813.551,46.387,58.105,41.504,43.945,28.320
1532384813.555,44.434,53.223,39.062,42.480,49.316
1532384813.559,33.203,34.180,29.297,37.598,57.129
1532384813.563,27.832,36.621,21.973,31.738,47.852
1532384813.566,31.250,30.762,18.066,30.273,1.465
1532384813.570,36.133,14.160,22.949,37.598,6.348
1532384813.574,40.039,20.508,27.344,41.016,60.059
1532384813.578,32.227,41.016,33.203,37.109,77.148
1532384813.582,33.691,37.598,35.645,31.738,52.246
1532384813.586,39.551,37.598,32.715,29.297,34.180
1532384813.590,39.551,46.387,36.133,28.809,48.340
1532384813.594,41.016,42.480,37.598,32.227,42.969
1532384813.598,26.855,39.551,30.762,26.855,31.738
1532384813.602,26.855,32.227,25.391,23.438,26.855
1532384813.606,35.645,39.551,37.109,33.203,41.016
1532384813.609,32.227,43.457,41.504,32.227,34.180
1532384813.613,33.203,23.438,28.320,27.344,-5.859
1532384813.617,18.555,14.160,17.578,22.461,18.066
1532384813.621,5.371,22.949,13.184,16.113,56.152
1532384813.625,11.230,34.180,18.555,15.137,25.879
1532384813.629,14.160,37.109,25.879,13.672,-24.414
1532384813.633,25.391,15.625,24.414,14.160,-5.371
1532384813.637,37.598,21.484,28.809,27.344,38.086
1532384813.641,40.039,41.504,23.926,36.621,20.996
1532384813.645,46.387,40.527,9.277,21.973,8.301
1532384813.648,50.293,38.574,19.043,12.695,37.598
1532384813.652,40.527,38.086,19.043,6.836,39.062
1532384813.656,35.645,28.809,15.137,7.324,48.828
1532384813.660,25.879,20.996,24.414,17.578,55.664
1532384813.664,12.207,20.996,29.785,14.160,34.180
1532384813.668,16.602,20.996,26.367,18.555,27.832
1532384813.672,20.020,26.855,23.438,31.738,54.688
1532384813.676,19.531,28.320,23.926,38.574,72.266
1532384813.680,21.973,30.273,24.414,38.574,44.922
1532384813.684,20.996,20.508,23.438,36.621,8.789
1532384813.688,7.324,7.324,19.043,24.414,25.391
1532384813.691,4.883,21.484,22.461,24.414,45.898
1532384813.695,17.090,32.715,27.832,22.949,30.273
1532384813.699,0.000,21.484,15.625,7.324,20.508
1532384813.703,-2.441,27.344,7.324,5.371,18.066
1532384813.707,9.766,31.250,13.672,8.301,38.086
1532384813.711,14.648,21.973,15.137,15.137,59.082
1532384813.715,11.719,25.879,16.113,21.973,35.645
1532384813.719,7.812,26.367,29.297,22.461,19.531
1532384813.723,14.648,25.391,36.621,17.090,55.664
1532384813.727,20.020,21.973,28.320,15.625,41.016
1532384813.731,11.230,14.648,21.484,18.066,0.488
1532384813.734,4.883,20.996,24.902,12.207,38.574
1532384813.738,13.184,25.391,23.926,12.695,83.008
1532384813.742,7.812,17.090,20.508,13.672,57.129
1532384813.746,3.418,20.020,15.625,8.789,3.906
1532384813.750,15.137,38.574,18.066,11.230,1.953
1532384813.754,13.184,29.785,26.367,14.648,29.785
1532384813.758,-1.953,17.578,31.738,11.230,60.547
1532384813.762,-4.883,20.020,31.738,1.953,59.570
1532384813.766,8.301,15.625,30.762,9.277,31.738
1532384813.770,31.250,4.883,34.668,24.414,34.668
1532384813.773,31.738,11.230,37.598,15.137,52.734
1532384813.777,26.367,18.555,33.203,9.277,38.086
1532384813.781,21.484,24.902,20.020,11.230,2.441
1532384813.785,22.461,39.062,23.926,17.090,19.531
1532384813.789,30.273,37.598,37.109,25.879,48.340
1532384813.793,25.391,30.273,37.109,20.996,26.367
1532384813.797,21.973,26.855,33.691,19.043,1.465
1532384813.801,28.809,30.273,36.133,26.855,30.273
1532384813.805,38.086,32.227,41.504,30.762,45.898
1532384813.809,35.156,24.902,38.086,24.902,15.625
1532384813.813,34.180,14.160,34.668,22.461,19.043
1532384813.816,26.367,18.066,44.434,23.926,44.434
1532384813.820,23.926,27.832,50.293,22.949,70.801
1532384813.824,32.715,18.555,48.340,22.949,61.035
1532384813.828,35.645,14.160,48.340,28.320,30.273
1532384813.832,31.738,32.715,41.504,29.785,30.762
1532384813.836,36.621,41.016,40.527,30.762,42.969
1532384813.840,40.039,40.527,45.410,31.250,63.477
1532384813.844,35.645,41.016,41.504,26.367,29.785
1532384813.848,42.969,28.320,43.945,25.391,-17.578
1532384813.852,54.199,28.320,58.594,40.527,-6.836
1532384813.856,51.758,27.832,60.059,40.039,60.547
1532384813.859,36.133,6.836,50.781,23.438,49.316
1532384813.863,34.180,15.137,44.434,25.879,8.789
1532384813.867,37.109,42.969,44.434,23.926,13.672
1532384813.871,39.062,30.273,48.340,33.203,27.344
1532384813.875,43.457,30.273,40.527,39.551,27.832
1532384813.879,37.598,39.062,37.598,24.414,9.277
1532384813.883,32.715,31.250,46.387,18.066,-18.066
1532384813.887,37.598,37.109,51.758,24.902,-8.301
1532384813.891,35.645,35.156,45.410,24.902,38.574
1532384813.895,30.762,27.344,46.387,27.344,39.551
1532384813.898,27.832,27.344,56.641,33.691,5.859
1532384813.902,27.344,22.949,55.664,34.668,26.855
1532384813.906,40.527,37.598,60.059,41.504,44.434
1532384813.910,42.969,28.809,60.547,42.969,36.133
1532384813.914,33.203,5.859,50.781,39.062,36.621
1532384813.918,35.156,21.973,48.828,35.156,11.230
1532384813.922,32.227,32.227,40.527,26.855,29.785
1532384813.926,21.973,39.551,29.297,23.926,21.973
1532384813.930,19.531,33.691,43.945,20.996,-0.977
1532384813.934,16.602,24.902,60.547,18.555,3.418
1532384813.938,18.555,31.250,53.711,19.043,20.508
1532384813.941,26.367,26.367,50.293,18.555,36.133
1532384813.945,21.484,16.602,44.434,20.508,-4.395
1532384813.949,12.207,22.461,49.316,17.090,-25.879
1532384813.953,17.090,35.156,62.500,23.926,13.672
1532384813.957,24.902,33.203,57.617,34.668,41.504
1532384813.961,24.414,28.320,56.152,34.668,8.301
1532384813.965,15.137,36.133,64.453,41.016,-12.207
1532384813.969,11.230,37.109,56.152,34.668,26.367
1532384813.973,23.926,27.832,45.898,25.391,65.918
1532384813.977,32.715,21.484,46.875,29.785,42.969
1532384813.980,31.250,22.949,41.992,37.598,6.836
1532384813.984,32.227,22.949,37.109,35.645,24.902
1532384813.988,31.250,16.113,39.551,36.133,28.809
1532384813.992,34.668,25.879,47.363,37.109,35.156
1532384813.996,31.738,36.621,56.641,35.645,-0.488
1532384814.000,20.996,30.762,55.176,34.180,3.906
1532384814.004,19.043,24.902,49.805,35.156,54.688
1532384814.008,23.926,26.367,54.688,28.320,30.762
1532384814.012,23.438,27.344,53.711,23.926,22.949
1532384814.016,26.855,31.738,53.223,28.320,49.316
1532384814.020,19.043,29.785,48.828,25.879,57.617
1532384814.023,7.812,22.461,43.945,25.391,36.133
1532384814.027,6.836,29.785,46.875,21.973,4.883
1532384814.031,7.324,29.297,44.922,17.090,18.066
1532384814.035,15.625,20.508,41.016,18.066,53.711
1532384814.039,16.602,27.832,41.016,23.438,52.246
1532384814.043,21.973,33.203,42.969,35.156,46.875
1532384814.047,28.809,32.715,42.969,33.203,20.996
1532384814.051,29.297,37.598,41.016,22.949,10.254
1532384814.055,30.273,36.133,34.668,22.949,38.574
1532384814.059,25.879,33.203,37.109,25.391,35.645
1532384814.063,20.508,30.273,37.109,16.113,33.691
1532384814.066,23.926,32.715,34.668,4.883,20.996
1532384814.070,24.414,38.574,33.691,-0.488,27.344
1532384814.074,14.160,38.574,33.203,0.488,36.133
1532384814.078,17.578,27.832,38.086,10.742,21.484
1532384814.082,23.926,19.531,40.527,14.648,39.062
1532384814.086,14.160,28.809,38.086,4.883,27.344
1532384814.090,19.531,52.734,40.527,3.906,26.367
1532384814.094,10.742,57.617,34.180,6.348,57.129
1532384814.098,-6.836,43.945,22.949,1.465,16.113
1532384814.102,-8.301,40.039,29.297,0.000,10.742
1532384814.105,-6.836,38.086,33.691,3.906,40.527
1532384814.109,4.395,20.996,31.250,4.883,41.992
1532384814.113,12.695,4.883,35.645,7.324,37.598
1532384814.117,3.418,27.832,46.875,11.230,12.695
1532384814.121,0.488,53.711,51.270,9.277,42.480
1532384814.125,15.137,56.641,44.922,7.812,54.688
1532384814.129,22.949,45.898,43.945,13.672,-1.465
1532384814.133,22.461,41.504,46.387,22.949,10.742
1532384814.137,23.926,33.691,39.551,24.414,30.273
1532384814.141,26.855,24.414,29.785,14.160,41.992
1532384814.145,38.574,24.902,33.691,14.648,25.879
1532384814.148,41.016,24.414,32.227,22.949,-3.906
1532384814.152,30.762,34.180,28.809,28.320,30.273
1532384814.156,37.109,45.898,25.879,30.762,57.129
1532384814.160,37.109,40.527,29.785,34.668,29.297
1532384814.164,33.691,38.574,47.363,37.598,3.418
1532384814.168,40.039,34.668,56.152,34.180,13.672
1532384814.172,32.227,29.785,46.875,26.855,33.203
1532384814.176,27.344,32.227,34.180,26.367,38.086
1532384814.180,31.738,35.645,39.062,33.691,33.691
1532384814.184,37.109,22.461,55.176,44.922,52.246
1532384814.188,26.367,9.766,49.805,32.715,61.035
1532384814.191,25.391,23.438,39.551,18.555,35.156
1532384814.195,26.367,40.527,38.574,19.531,0.977
1532384814.199,30.762,47.852,41.992,25.879,9.277
1532384814.203,37.109,42.969,39.062,27.344,42.480
1532384814.207,35.645,36.133,25.879,24.414,43.945
1532384814.211,24.902,30.273,29.297,25.391,34.668
1532384814.215,18.555,32.715,37.598,24.902,-1.953
1532384814.219,23.438,35.156,47.363,24.414,16.113
1532384814.223,30.762,34.180,51.758,25.391,48.340
1532384814.227,39.062,18.066,52.246,33.691,28.809
1532384814.230,37.598,22.949,45.410,31.250,-4.883
1532384814.234,33.691,40.039,40.527,29.297,21.973
1532384814.238,31.738,21.973,48.340,35.645,53.711
1532384814.242,33.691,17.578,39.551,32.715,59.082
1532384814.246,33.691,42.480,27.832,33.203,39.551
1532384814.250,26.855,45.898,31.738,36.133,38.086
1532384814.254,25.391,35.645,40.039,29.785,48.340
1532384814.258,36.133,24.902,46.387,32.227,37.598
1532384814.262,44.434,19.043,48.340,37.598,4.883
1532384814.266,37.109,31.250,43.457,38.086,14.648
1532384814.270,33.203,43.945,36.621,30.762,35.645
1532384814.273,37.109,42.480,35.156,30.273,51.270
1532384814.277,39.062,35.156,33.203,34.180,22.461
1532384814.281,43.945,35.156,26.855,28.809,-11.719
1532384814.285,41.016,38.574,33.691,26.855,27.832
1532384814.289,42.969,42.969,46.875,36.133,46.387
1532384814.293,46.387,24.414,45.898,36.621,23.926
1532384814.297,38.086,8.301,38.574,29.297,28.809
1532384814.301,41.992,26.855,35.156,35.156,24.414
1532384814.305,50.293,40.527,31.738,42.969,35.156
1532384814.309,41.016,31.250,31.738,37.598,52.246
1532384814.312,33.691,20.996,35.156,35.645,41.992
1532384814.316,38.574,28.320,31.738,34.180,31.738
1532384814.320,41.016,40.527,28.809,30.273,58.594
1532384814.324,38.086,38.086,38.086,32.227,52.246
1532384814.328,36.621,37.598,39.062,31.250,-10.254
1532384814.332,41.992,40.039,34.180,32.227,10.254
1532384814.336,36.133,40.039,40.527,34.668,60.547
1532384814.340,28.320,26.367,36.621,25.391,62.988
1532384814.344,32.715,14.160,30.273,21.484,11.230
1532384814.348,41.504,26.855,38.574,28.320,-2.930
1532384814.352,44.922,38.086,41.504,37.598,50.781
1532384814.355,41.016,44.434,31.738,37.109,56.641
1532384814.359,41.016,46.875,30.762,28.320,35.156
1532384814.363,39.062,42.480,35.645,24.414,23.926
1532384814.367,43.945,44.922,36.133,23.926,28.320
1532384814.371,43.945,52.734,30.273,29.297,29.785
1532384814.375,50.781,40.039,34.180,39.062,51.270
1532384814.379,56.152,29.785,41.016,41.016,47.363
1532384814.383,44.434,50.781,32.715,31.738,43.457
1532384814.387,36.133,55.176,23.926,31.738,59.082
1532384814.391,32.715,36.133,35.645,37.109,63.965
1532384814.395,36.133,34.668,44.922,43.945,31.738
1532384814.398,40.039,41.992,45.898,43.945,27.832
1532384814.402,30.273,30.762,48.828,34.668,38.574
1532384814.406,31.250,28.320,41.504,29.785,47.363
1532384814.410,43.457,38.574,41.016,40.527,57.617
1532384814.414,43.457,41.504,41.992,44.434,31.250
1532384814.418,41.016,27.832,38.086,43.457,39.551
1532384814.422,36.621,24.414,37.598,46.387,60.547
1532384814.426,40.527,52.734,37.598,41.016,52.246
1532384814.430,43.945,62.012,38.574,41.992,30.273
1532384814.434,44.434,49.316,41.504,46.875,9.277
1532384814.437,49.316,35.645,35.645,39.551,36.133
1532384814.441,51.270,31.738,31.250,35.645,60.547
1532384814.445,55.664,32.715,34.180,35.156,36.621
1532384814.449,77.148,33.691,37.598,40.527,35.645
1532384814.453,84.961,39.062,46.875,41.016,25.879
1532384814.457,67.383,40.039,51.758,40.527,44.922
1532384814.461,57.129,53.223,51.758,45.410,83.984
1532384814.465,58.105,51.270,48.340,46.387,49.316
1532384814.469,48.828,34.180,42.480,46.387,16.113
1532384814.473,42.969,37.109,38.574,47.852,40.527
1532384814.477,42.969,41.016,39.551,49.316,51.758
1532384814.480,46.387,42.480,54.199,55.176,37.109
1532384814.484,55.664,48.828,60.547,61.035,42.969
1532384814.488,43.945,40.527,53.223,59.082,45.898
1532384814.492,39.062,38.086,51.758,55.664,52.246
1532384814.496,40.039,48.340,49.316,54.199,29.785
1532384814.500,38.574,46.875,50.293,47.363,33.203
1532384814.504,39.551,49.316,50.293,45.410,66.895
1532384814.508,58.105,61.035,49.316,57.617,44.434
1532384814.512,64.453,45.898,33.203,62.012,13.672
1532384814.516,56.152,33.691,30.273,62.988,23.926
1532384814.520,54.688,57.129,52.246,63.965,48.828
1532384814.523,51.270,56.152,56.641,52.734,60.059
1532384814.527,46.875,37.109,56.152,43.945,45.898
1532384814.531,44.922,38.086,58.594,48.828,20.508
1532384814.535,56.152,36.621,57.129,57.129,33.203
1532384814.539,59.082,36.621,52.246,58.594,53.223
1532384814.543,51.270,37.598,45.410,50.781,32.227
1532384814.547,48.828,38.574,48.340,46.387,-22.949
1532384814.551,48.828,48.340,51.758,52.246,-9.766
1532384814.555,62.500,56.641,47.363,61.523,44.434
1532384814.559,58.105,58.594,41.992,57.129,51.758
1532384814.562,41.504,60.059,45.410,45.410,36.133
1532384814.566,48.340,49.805,51.758,39.062,13.184
1532384814.570,47.363,47.852,50.293,36.621,36.621
1532384814.574,46.387,44.922,46.387,44.922,67.383
1532384814.578,50.293,27.832,41.992,51.758,48.828
1532384814.582,45.410,34.180,45.410,45.410,12.695
1532384814.586,37.109,41.016,54.199,37.109,43.457
1532384814.590,37.598,42.969,48.828,42.969,47.852
1532384814.594,45.410,50.781,41.016,50.293,19.043
1532384814.598,49.805,45.410,40.039,46.875,13.184
1532384814.602,51.758,40.527,43.945,48.340,16.113
1532384814.605,51.758,40.527,47.363,51.758,26.367
1532384814.609,50.293,43.945,33.203,47.852,7.812
1532384814.613,44.922,49.805,26.855,40.527,4.395
1532384814.617,45.898,54.199,36.621,47.363,19.531
1532384814.621,62.500,61.035,42.969,62.500,54.199
1532384814.625,61.035,59.082,50.293,58.594,63.965
1532384814.629,54.199,44.434,51.270,47.363,27.344
1532384814.633,54.199,33.203,44.922,50.293,22.949
1532384814.637,51.270,38.086,41.016,54.199,22.461
1532384814.641,50.293,39.551,39.062,50.293,22.949
1532384814.645,49.805,33.691,34.668,46.387,24.902
1532384814.648,50.293,38.574,34.668,35.645,2.930
1532384814.652,50.781,41.992,39.062,27.344,-0.977
1532384814.656,53.711,48.828,44.434,45.410,22.461
1532384814.660,61.035,53.711,50.781,52.734,38.086
1532384814.664,46.387,45.410,37.598,32.227,18.555
1532384814.668,39.062,41.016,24.902,29.297,10.742
1532384814.672,46.875,41.504,26.855,39.551,56.152
1532384814.676,52.734,48.340,29.297,42.480,47.363
1532384814.680,60.547,45.898,29.297,47.852,12.207
1532384814.684,62.500,46.387,35.156,45.410,22.949
1532384814.687,59.082,50.293,34.668,37.109,16.602
1532384814.691,54.688,41.504,35.156,41.992,22.949
1532384814.695,43.945,35.645,41.016,34.668,40.527
1532384814.699,32.227,29.297,45.410,27.832,39.062
1532384814.703,35.156,32.227,43.945,39.062,59.082
1532384814.707,20.996,40.039,41.016,25.391,60.547
1532384814.711,12.207,37.109,44.434,16.602,47.852
1532384814.715,21.484,38.574,47.852,33.203,28.320
1532384814.719,30.762,39.062,51.270,40.039,29.785
1532384814.723,38.574,38.086,44.922,37.598,64.453
1532384814.727,40.527,39.551,35.645,39.062,42.969
1532384814.730,38.086,40.039,29.785,35.645,-6.348
1532384814.734,39.062,27.344,35.156,35.645,10.254
1532384814.738,44.434,31.738,40.527,41.504,52.246
1532384814.742,49.316,46.875,44.922,47.363,48.828
1532384814.746,50.781,39.062,54.199,57.617,29.297
1532384814.750,44.434,35.156,53.711,46.875,2.930
1532384814.754,31.738,39.551,35.156,28.809,20.020
1532384814.758,26.855,36.133,29.785,32.715,59.570
1532384814.762,31.738,36.621,43.945,42.480,37.598
1532384814.766,39.551,43.945,46.875,47.852,7.812
1532384814.769,48.340,40.527,44.922,47.852,41.504
1532384814.773,41.504,32.227,40.527,41.016,43.457
1532384814.777,32.715,31.250,32.227,41.016,18.066
1532384814.781,41.992,32.227,40.527,48.828,11.719
1532384814.785,48.340,37.598,57.129,47.363,9.277
1532384814.789,39.551,31.738,56.152,35.156,-9.766
1532384814.793,38.086,38.086,38.086,37.109,27.832
1532384814.797,43.457,59.570,30.273,51.270,33.691
1532384814.801,44.922,58.105,30.762,44.922,20.020
1532384814.805,43.945,46.387,41.016,37.598,41.504
1532384814.809,43.457,48.340,56.152,41.504,57.617
1532384814.812,42.480,41.992,56.641,37.598,43.457
1532384814.816,36.133,41.016,53.711,35.156,20.020
1532384814.820,45.898,45.410,54.199,38.574,40.527
1532384814.824,51.270,39.062,53.711,45.898,53.711
1532384814.828,46.875,39.551,47.363,37.598,18.066
1532384814.832,48.828,41.504,36.621,36.133,-6.836
1532384814.836,59.082,25.391,41.504,45.410,18.066
1532384814.840,53.223,25.879,52.246,43.457,38.574
1532384814.844,36.621,51.270,52.246,40.527,39.062
1532384814.848,43.457,71.289,50.293,46.875,1.465
1532384814.852,51.270,64.941,45.898,52.734,27.832
1532384814.855,43.945,49.805,39.551,38.574,72.754
1532384814.859,40.527,40.039,39.551,33.691,56.641
1532384814.863,46.875,34.668,36.621,41.016,19.043
1532384814.867,42.480,28.809,40.039,35.645,1.953
1532384814.871,35.645,21.973,38.086,29.297,29.297
1532384814.875,41.504,26.855,33.691,36.133,28.320
1532384814.879,37.598,48.340,36.621,38.574,20.020
1532384814.883,34.668,62.988,38.086,32.715,39.062
1532384814.887,34.668,52.246,50.781,35.156,24.902
1532384814.891,32.227,44.434,54.688,41.016,-4.395
1532384814.894,42.480,42.969,44.922,41.016,-0.977
1532384814.898,48.828,43.945,44.922,43.457,12.695
1532384814.902,55.664,33.691,42.969,48.828,41.504
1532384814.906,44.922,21.484,29.785,38.086,41.504
1532384814.910,30.762,20.996,27.832,33.203,20.508
1532384814.914,41.016,20.996,35.156,37.598,-14.648
1532384814.918,48.340,32.227,35.645,49.805,-26.855
1532384814.922,41.016,49.805,30.762,50.781,36.621
1532384814.926,28.320,45.898,33.203,35.645,32.715
1532384814.930,30.762,35.156,31.738,23.926,-19.043
1532384814.934,43.457,28.320,29.297,27.344,19.043
1532384814.937,46.875,27.344,38.574,37.598,60.547
1532384814.941,47.852,37.109,37.109,46.387,56.152
1532384814.945,46.875,35.645,33.691,49.805,41.992
1532384814.949,44.922,26.855,37.598,39.551,38.086
1532384814.953,40.527,26.855,36.621,27.344,37.109
1532384814.957,39.062,31.738,26.367,31.250,42.480
1532384814.961,38.574,44.922,26.855,45.410,35.156
1532384814.965,39.551,44.434,38.574,44.434,5.371
1532384814.969,38.574,30.273,40.039,36.133,19.531
1532384814.973,36.133,22.461,29.785,44.434,53.223
1532384814.977,41.016,30.762,23.926,47.852,38.086
1532384814.980,38.086,49.805,28.809,40.039,25.391
1532384814.984,46.875,43.945,42.480,43.945,20.508
1532384814.988,48.340,29.297,48.828,49.805,21.973
1532384814.992,33.691,27.344,40.527,37.109,13.672
1532384814.996,22.461,30.762,32.227,27.344,10.254
1532384815.000,31.250,35.156,32.715,29.785,39.551
1532384815.004,42.480,35.645,36.621,31.250,40.527
1532384815.008,41.016,31.250,36.621,40.527,37.109
1532384815.012,39.551,31.738,35.645,41.016,25.391
1532384815.016,36.621,40.039,30.273,32.227,-1.465
1532384815.019,40.527,50.293,28.809,34.180,34.668
1532384815.023,49.805,41.504,30.762,34.668,68.848
1532384815.027,50.293,28.320,34.180,34.668,30.762
1532384815.031,49.316,33.691,34.668,44.434,25.879
1532384815.035,32.715,39.062,27.344,36.621,62.500
1532384815.039,27.344,28.809,22.949,25.879,65.918
1532384815.043,28.809,30.762,16.602,25.879,23.926
1532384815.047,27.832,30.273,20.020,27.832,-0.977
1532384815.051,34.668,30.273,30.273,34.180,26.855
1532384815.055,38.086,31.738,43.945,41.992,49.316
1532384815.059,38.086,33.203,43.945,44.922,36.133
1532384815.062,39.551,41.992,35.156,37.598,15.137
1532384815.066,35.156,46.875,33.691,27.832,12.207
1532384815.070,34.180,40.039,34.180,26.855,35.156
1532384815.074,40.527,30.762,38.086,37.109,59.570
1532384815.078,44.922,37.109,35.156,41.504,34.180
1532384815.082,44.922,49.805,34.668,36.621,14.648
1532384815.086,42.969,47.852,35.645,38.086,44.434
1532384815.090,43.457,34.180,33.691,38.086,55.176
1532384815.094,42.480,31.250,35.645,37.109,23.438
1532384815.098,43.945,29.785,36.621,44.922,12.695
1532384815.102,49.805,31.250,38.086,50.293,7.324
1532384815.105,42.480,43.457,35.156,39.062,7.324
1532384815.109,36.621,51.758,37.109,17.578,-18.555
1532384815.113,36.621,53.711,35.645,22.461,-40.039
