timestamps,TP9,AF7,AF8,TP10,Right AUX
1532385568.551,60.059,42.480,8.789,54.688,53.223
1532385568.555,59.082,51.758,13.672,58.105,71.289
1532385568.559,51.758,48.340,28.320,60.547,28.320
1532385568.562,45.898,37.109,24.902,52.246,-10.254
1532385568.566,58.105,33.691,6.348,53.711,-5.371
1532385568.570,62.988,29.297,-0.488,50.293,58.105
1532385568.574,64.453,14.648,16.113,43.945,100.098
1532385568.578,67.383,28.809,24.414,50.781,41.016
1532385568.582,49.805,31.250,1.465,48.828,-7.324
1532385568.586,43.457,25.879,-1.465,49.805,40.527
1532385568.590,49.316,23.926,22.461,51.758,78.613
1532385568.594,51.758,24.414,28.809,55.176,14.648
1532385568.598,50.293,39.062,21.973,58.594,-23.438
1532385568.602,46.875,42.480,14.160,52.734,31.738
1532385568.605,41.504,42.969,11.230,40.527,77.637
1532385568.609,41.016,30.273,15.137,42.480,69.824
1532385568.613,52.246,19.043,13.184,45.898,26.855
1532385568.617,52.246,23.926,-2.930,46.875,1.953
1532385568.621,54.688,21.484,11.719,41.504,37.598
1532385568.625,50.293,34.180,19.043,32.227,16.113
1532385568.629,60.547,44.922,2.441,34.180,-17.090
1532385568.633,79.590,38.086,16.113,49.316,22.949
1532385568.637,73.730,28.320,20.508,53.223,71.289
1532385568.641,55.176,13.672,8.789,37.598,34.668
1532385568.644,36.621,17.090,13.672,37.109,-8.301
1532385568.648,45.898,41.016,26.367,49.805,3.418
1532385568.652,48.340,53.223,13.184,54.199,46.387
1532385568.656,54.688,41.992,2.930,63.477,84.473
1532385568.660,56.152,40.039,15.625,67.383,41.992
1532385568.664,45.410,46.875,14.160,62.500,-3.418
1532385568.668,38.574,35.156,7.324,58.594,43.457
1532385568.672,59.570,27.832,15.137,73.730,93.262
1532385568.676,65.918,30.762,32.715,76.172,47.852
1532385568.680,37.598,38.086,27.832,52.246,-26.855
1532385568.684,36.133,43.945,16.113,38.086,-6.836
1532385568.687,36.133,50.293,8.301,40.039,74.707
1532385568.691,38.574,51.270,-7.812,51.758,77.637
1532385568.695,36.621,46.875,0.977,41.992,10.742
1532385568.699,32.227,41.992,16.602,21.484,7.812
1532385568.703,36.133,37.598,20.508,39.062,46.875
1532385568.707,37.109,38.574,24.414,58.594,83.008
1532385568.711,41.504,33.691,20.996,55.664,35.645
1532385568.715,40.039,41.016,10.254,54.688,-13.184
1532385568.719,41.992,66.406,16.113,46.875,47.852
1532385568.723,41.992,56.152,23.438,43.945,97.656
1532385568.727,41.992,44.434,13.672,40.527,62.988
1532385568.730,46.875,56.641,12.695,45.410,26.367
1532385568.734,48.828,52.246,8.789,57.617,34.668
1532385568.738,41.992,41.992,12.695,35.156,44.922
1532385568.742,24.902,46.875,20.020,20.996,20.508
1532385568.746,20.508,47.852,11.719,32.227,-2.441
1532385568.750,35.645,35.156,6.348,44.922,29.785
1532385568.754,53.223,30.762,6.836,46.387,81.055
1532385568.758,42.969,28.809,2.441,27.344,66.406
1532385568.762,40.527,43.457,11.230,27.832,10.742
1532385568.766,41.504,51.270,23.438,37.109,2.441
1532385568.769,32.715,32.715,5.371,30.762,43.945
1532385568.773,26.855,36.621,-1.465,29.297,62.500
1532385568.777,28.320,46.875,6.836,31.738,17.090
1532385568.781,39.551,48.828,13.672,41.992,-38.086
1532385568.785,35.645,42.480,13.184,38.574,18.066
1532385568.789,36.621,27.344,3.906,28.809,80.078
1532385568.793,32.715,31.738,4.883,37.109,39.551
1532385568.797,43.945,48.340,10.742,39.551,16.113
1532385568.801,54.688,43.945,10.254,38.086,55.176
1532385568.805,45.898,45.898,9.277,42.480,69.824
1532385568.809,45.410,52.246,4.395,34.180,53.711
1532385568.812,33.691,51.758,4.883,25.391,44.922
1532385568.816,36.133,41.992,6.836,28.809,13.184
1532385568.820,41.992,15.137,-1.465,31.250,29.297
1532385568.824,47.852,25.391,7.324,37.109,73.730
1532385568.828,44.434,43.457,6.836,38.086,-0.488
1532385568.832,31.738,37.598,-7.324,23.926,0.000
1532385568.836,26.367,31.250,2.930,21.973,62.988
1532385568.840,43.945,30.762,8.789,30.273,52.246
1532385568.844,58.594,37.598,1.465,36.133,27.344
1532385568.848,52.734,37.598,10.254,38.086,-1.465
1532385568.851,45.898,22.461,7.324,30.273,13.672
1532385568.855,38.574,18.066,10.742,22.949,57.617
1532385568.859,30.762,28.809,12.207,23.438,23.926
1532385568.863,26.855,33.691,-9.277,28.809,-17.090
1532385568.867,41.016,26.855,-2.930,36.133,40.039
1532385568.871,56.152,23.438,7.812,39.062,101.074
1532385568.875,47.363,25.879,1.953,36.621,77.148
1532385568.879,40.039,6.836,0.977,29.297,-0.977
1532385568.883,39.551,0.977,5.371,29.785,-34.180
1532385568.887,46.387,25.391,10.254,36.133,28.320
1532385568.891,47.363,45.898,11.719,28.320,66.406
1532385568.894,35.645,42.480,10.742,27.344,9.766
1532385568.898,30.762,25.391,7.812,31.738,-17.578
1532385568.902,31.738,20.508,0.977,30.762,48.828
1532385568.906,32.227,20.020,7.324,35.156,78.613
1532385568.910,26.367,27.344,16.113,36.133,42.480
1532385568.914,27.832,33.203,2.441,41.992,0.488
1532385568.918,35.156,27.832,14.160,40.527,5.859
1532385568.922,36.621,27.832,24.414,28.809,36.621
1532385568.926,35.156,20.508,3.906,31.250,23.438
1532385568.930,34.668,18.066,3.906,30.273,-17.578
1532385568.934,21.973,25.879,20.996,22.949,-13.672
1532385568.937,24.902,13.184,24.414,29.297,48.828
1532385568.941,31.250,12.207,14.648,40.039,55.176
1532385568.945,28.809,28.809,0.000,32.715,-12.207
1532385568.949,36.621,41.992,-1.953,31.250,-5.859
1532385568.953,41.504,37.598,7.812,40.527,80.078
1532385568.957,39.551,19.043,17.578,41.992,61.035
1532385568.961,45.410,22.461,20.996,37.598,-10.254
1532385568.965,36.621,28.809,8.789,31.738,-5.371
1532385568.969,24.414,27.832,8.789,27.832,52.246
1532385568.973,33.691,20.020,26.367,42.969,75.684
1532385568.976,32.227,22.949,33.203,45.898,22.949
1532385568.980,31.250,38.574,20.020,33.203,-18.555
1532385568.984,33.203,28.320,4.883,36.133,6.348
1532385568.988,25.879,16.602,9.766,36.621,56.641
1532385568.992,49.316,27.344,25.391,49.805,37.598
1532385568.996,47.363,32.227,20.020,46.387,12.207
1532385569.000,20.996,33.691,16.602,25.879,-4.395
1532385569.004,21.973,32.227,9.766,18.066,44.922
1532385569.008,28.809,19.531,-2.441,21.484,86.914
1532385569.012,31.250,5.859,2.930,40.527,34.668
1532385569.016,30.762,10.742,16.113,40.039,4.395
1532385569.019,41.504,28.320,24.902,36.621,46.387
1532385569.023,45.898,32.227,19.531,49.316,65.430
1532385569.027,40.039,31.250,17.090,44.434,34.668
1532385569.031,28.809,37.109,14.160,34.668,22.461
1532385569.035,37.598,26.367,8.789,33.203,59.082
1532385569.039,41.016,10.254,17.578,22.949,52.734
1532385569.043,28.320,19.043,20.020,24.414,2.441
1532385569.047,29.297,30.762,3.418,27.832,-16.113
1532385569.051,35.645,28.320,4.395,31.738,-3.906
1532385569.055,44.922,24.902,20.508,41.992,57.129
1532385569.058,46.875,23.926,31.250,43.457,50.781
1532385569.062,44.922,22.461,33.691,40.039,16.113
1532385569.066,44.922,28.320,20.020,38.574,29.297
1532385569.070,40.527,35.156,19.043,35.645,51.270
1532385569.074,51.758,22.949,26.367,40.527,63.477
1532385569.078,43.945,16.113,31.250,46.875,13.184
1532385569.082,33.691,29.297,28.320,37.109,-5.859
1532385569.086,35.156,28.320,4.883,26.367,47.363
1532385569.090,34.668,16.113,-1.465,25.879,79.102
1532385569.094,41.504,6.836,20.020,39.062,37.109
1532385569.098,43.945,14.648,33.203,45.898,-24.414
1532385569.101,41.992,34.668,33.203,36.133,-13.184
1532385569.105,41.504,25.391,25.879,30.273,70.801
1532385569.109,36.133,14.648,22.461,30.273,64.941
1532385569.113,31.250,17.090,25.879,33.203,30.762
1532385569.117,41.504,13.672,20.020,43.945,32.715
1532385569.121,31.738,30.273,22.461,41.016,62.988
1532385569.125,18.555,38.574,29.785,37.598,57.617
1532385569.129,27.344,25.879,21.973,37.598,-7.812
1532385569.133,29.297,23.438,8.789,28.809,1.953
1532385569.137,37.109,31.738,14.160,36.621,54.199
1532385569.141,41.504,30.273,25.879,51.270,44.922
1532385569.144,48.340,27.344,31.250,44.922,31.250
1532385569.148,33.691,22.949,24.902,33.203,10.742
1532385569.152,21.484,11.230,26.855,33.203,21.973
1532385569.156,41.016,18.066,25.391,39.062,71.777
1532385569.160,49.805,21.484,19.043,44.922,20.508
1532385569.164,38.086,21.973,24.414,42.969,7.812
1532385569.168,36.133,32.715,22.949,41.016,49.805
1532385569.172,43.945,44.922,18.066,43.457,46.387
1532385569.176,48.828,45.410,23.926,46.875,45.410
1532385569.180,49.316,33.691,25.391,52.734,12.695
1532385569.183,45.410,25.391,18.066,46.387,8.789
1532385569.187,44.434,37.598,26.367,41.992,74.219
1532385569.191,47.363,33.203,28.809,24.414,75.684
1532385569.195,45.898,24.902,31.738,22.949,37.598
1532385569.199,42.969,39.062,40.527,41.992,23.438
1532385569.203,33.203,34.668,25.879,37.598,43.945
1532385569.207,41.992,23.926,18.066,41.016,53.711
1532385569.211,50.781,26.855,23.438,39.551,23.926
1532385569.215,45.898,43.945,17.578,32.715,11.230
1532385569.219,41.992,31.738,12.207,36.133,37.598
1532385569.223,41.992,13.184,20.508,31.250,73.242
1532385569.226,34.180,34.180,25.391,22.461,32.227
1532385569.230,37.109,48.340,15.137,31.738,-21.484
1532385569.234,40.039,48.828,26.855,42.969,17.578
1532385569.238,36.621,43.457,36.621,34.180,75.684
1532385569.242,40.527,30.762,21.973,21.973,23.926
1532385569.246,31.738,30.762,15.625,23.926,2.441
1532385569.250,37.598,42.969,18.066,41.992,13.672
1532385569.254,48.828,39.062,28.320,54.199,34.668
1532385569.258,46.387,26.367,26.855,44.434,41.504
1532385569.262,52.734,36.621,18.555,42.969,0.000
1532385569.265,42.969,34.180,25.391,42.480,-6.348
1532385569.269,38.086,19.531,33.691,39.062,50.293
1532385569.273,41.016,24.902,28.320,34.668,97.168
1532385569.277,53.223,34.180,28.320,36.133,56.152
1532385569.281,59.570,37.109,32.227,40.039,-19.043
1532385569.285,60.059,47.363,24.902,45.898,-2.930
1532385569.289,57.617,52.246,20.508,58.105,63.965
1532385569.293,44.434,47.363,19.531,45.898,46.875
1532385569.297,44.922,46.875,14.648,31.250,-6.836
1532385569.301,37.109,46.387,20.020,23.926,5.859
1532385569.305,34.668,42.969,29.785,20.508,45.410
1532385569.308,45.898,36.621,22.949,28.320,37.109
1532385569.312,47.852,27.344,14.160,42.480,-2.441
1532385569.316,47.363,32.715,17.578,46.875,-7.812
1532385569.320,48.828,49.316,23.438,39.551,43.945
1532385569.324,51.758,45.410,26.367,45.410,65.918
1532385569.328,52.246,37.598,30.273,47.852,16.602
1532385569.332,46.387,51.758,28.809,48.340,11.230
1532385569.336,33.691,48.828,20.996,41.992,49.316
1532385569.340,32.715,20.020,18.555,26.855,65.918
1532385569.344,30.273,26.367,17.090,21.973,68.848
1532385569.348,25.879,40.039,16.602,23.926,31.738
1532385569.351,32.227,39.062,20.996,26.855,32.227
1532385569.355,35.645,42.969,26.367,34.668,77.637
1532385569.359,32.715,38.574,23.438,31.250,31.738
1532385569.363,35.645,37.598,18.066,34.180,-44.434
1532385569.367,40.527,24.902,17.090,42.480,-20.996
1532385569.371,28.320,22.949,11.719,31.250,33.691
1532385569.375,22.949,40.039,15.137,19.043,45.898
1532385569.379,36.621,44.922,25.879,31.738,-11.719
1532385569.383,37.598,41.016,24.902,38.086,-43.457
1532385569.387,36.621,44.434,8.789,39.062,37.598
1532385569.390,46.875,31.250,13.672,41.992,68.848
1532385569.394,43.945,15.137,35.645,39.551,4.395
1532385569.398,43.457,15.625,39.551,33.203,-32.227
1532385569.402,46.387,16.113,31.250,31.250,-14.160
1532385569.406,59.570,25.391,28.320,44.922,51.270
1532385569.410,73.242,31.738,32.715,37.109,55.664
1532385569.414,48.340,27.832,22.461,21.484,10.742
1532385569.418,38.574,23.438,17.090,22.461,0.000
1532385569.422,48.340,14.160,24.414,26.855,49.805
1532385569.426,51.270,12.207,21.973,51.270,72.266
1532385569.430,40.527,26.855,13.184,54.199,-0.488
1532385569.433,33.203,30.762,21.973,41.504,16.602
1532385569.437,33.203,26.855,31.738,46.875,74.219
1532385569.441,31.738,28.320,35.156,35.645,48.340
1532385569.445,32.227,20.020,35.645,37.598,8.301
1532385569.449,27.344,14.648,28.320,45.410,4.395
1532385569.453,29.297,28.809,30.762,36.133,48.828
1532385569.457,37.598,38.574,36.621,37.109,51.270
1532385569.461,30.762,32.715,31.738,26.367,9.766
1532385569.465,19.531,23.438,22.461,12.695,0.000
1532385569.469,18.066,17.578,22.461,24.902,25.879
1532385569.472,21.484,16.602,33.203,33.691,78.125
1532385569.476,27.344,24.414,21.973,28.809,32.227
1532385569.480,34.180,33.691,20.508,32.715,-47.363
1532385569.484,42.480,32.715,42.969,37.109,-12.695
1532385569.488,38.086,20.996,40.039,41.016,48.340
1532385569.492,43.945,27.344,28.320,52.246,51.758
1532385569.496,53.223,39.551,30.273,53.223,-7.812
1532385569.500,35.645,26.367,37.598,49.316,-1.953
1532385569.504,23.438,9.766,29.785,37.598,61.035
1532385569.508,25.391,19.531,18.066,23.438,49.316
1532385569.512,29.785,46.875,28.809,27.344,-11.230
1532385569.515,23.926,42.480,31.250,33.691,-16.602
1532385569.519,18.555,25.879,30.762,19.531,13.184
1532385569.523,19.531,28.809,32.715,25.391,17.090
1532385569.527,36.133,39.551,24.414,39.062,10.742
1532385569.531,38.086,39.551,27.832,40.039,-13.672
1532385569.535,39.062,32.715,33.203,42.480,38.086
1532385569.539,54.199,23.438,34.668,45.410,84.473
1532385569.543,63.477,23.926,38.574,57.129,47.363
1532385569.547,53.223,34.668,39.551,49.316,16.113
1532385569.551,46.875,39.551,33.203,43.457,22.949
1532385569.555,59.570,34.180,24.902,48.828,62.012
1532385569.558,71.289,21.973,20.508,52.734,52.734
1532385569.562,47.363,10.254,30.762,40.527,2.930
1532385569.566,22.461,20.996,35.156,41.992,-4.395
1532385569.570,43.457,39.062,32.715,38.574,36.133
1532385569.574,43.945,35.645,40.039,27.832,73.242
1532385569.578,43.457,23.438,41.992,24.414,5.371
1532385569.582,55.176,23.926,48.828,43.945,-24.902
1532385569.586,50.781,24.902,42.969,52.246,35.645
1532385569.590,49.805,28.809,31.250,39.551,62.988
1532385569.594,57.129,22.949,26.855,41.504,33.203
1532385569.597,55.176,26.855,28.320,41.016,-15.625
1532385569.601,55.176,27.344,33.691,48.340,5.371
1532385569.605,53.223,11.719,30.273,41.992,53.223
1532385569.609,35.156,24.902,31.738,25.391,38.574
1532385569.613,28.320,33.691,33.691,29.785,-6.836
1532385569.617,47.363,34.668,41.504,34.180,11.230
1532385569.621,52.246,30.273,42.480,26.855,48.340
1532385569.625,46.387,18.555,32.227,37.109,27.344
1532385569.629,43.457,8.301,28.809,43.457,-1.953
1532385569.633,46.387,20.508,48.340,30.273,-1.465
1532385569.637,43.457,35.156,34.180,22.949,30.762
1532385569.640,39.551,22.461,23.438,34.668,29.785
1532385569.644,35.156,21.484,41.992,39.551,-10.254
1532385569.648,20.020,15.625,28.320,22.461,-27.832
1532385569.652,25.391,12.695,14.648,11.230,2.930
1532385569.656,38.086,29.785,21.973,22.461,31.250
1532385569.660,37.109,27.344,34.668,27.344,-12.695
1532385569.664,37.598,32.227,29.785,28.320,-32.715
1532385569.668,37.109,38.086,19.531,29.785,0.488
1532385569.672,45.898,36.133,26.367,44.434,46.875
1532385569.676,47.852,27.832,37.109,52.246,44.922
1532385569.679,40.039,15.625,39.062,41.992,-9.766
1532385569.683,35.156,29.785,24.414,32.227,-0.977
1532385569.687,28.320,27.832,19.531,21.484,57.129
1532385569.691,36.621,4.395,33.691,19.531,52.246
1532385569.695,31.738,17.578,17.090,20.508,-8.301
1532385569.699,28.809,25.879,15.137,23.926,-29.297
1532385569.703,36.621,21.484,34.180,31.250,30.762
1532385569.707,30.762,39.062,23.438,32.715,73.730
1532385569.711,20.508,43.457,16.113,21.484,26.855
1532385569.715,15.137,32.715,18.066,14.648,-6.836
1532385569.719,23.438,24.414,18.066,26.855,22.949
1532385569.722,39.551,28.809,30.273,45.410,55.176
1532385569.726,28.320,40.527,27.832,37.109,5.371
1532385569.730,18.555,36.621,22.461,25.879,-15.625
1532385569.734,16.113,30.762,34.668,28.320,1.953
1532385569.738,11.230,33.691,30.762,23.438,50.781
1532385569.742,18.066,49.316,20.996,28.809,46.387
1532385569.746,25.879,56.641,17.578,40.527,0.488
1532385569.750,26.855,41.504,20.020,35.156,16.602
1532385569.754,15.137,32.715,13.672,15.137,78.613
1532385569.758,8.301,30.762,19.531,18.066,94.238
1532385569.762,16.113,41.992,27.832,26.855,27.832
1532385569.765,25.391,57.617,24.902,29.785,-13.672
1532385569.769,34.668,56.152,29.785,29.297,31.738
1532385569.773,35.645,45.898,33.691,22.949,62.500
1532385569.777,21.973,44.922,35.645,19.043,20.996
1532385569.781,23.926,48.340,24.902,9.277,-17.090
1532385569.785,28.320,41.504,22.461,14.160,29.785
1532385569.789,16.113,50.781,15.137,17.090,76.660
1532385569.793,21.484,68.848,-0.488,18.555,64.941
1532385569.797,36.133,64.941,13.184,20.996,-3.418
1532385569.801,22.949,64.941,42.480,19.043,-29.785
1532385569.804,16.602,62.500,41.992,29.785,29.297
1532385569.808,37.598,71.777,26.367,47.852,38.086
1532385569.812,49.805,81.543,41.992,46.875,26.367
1532385569.816,26.855,67.383,33.691,20.020,20.996
1532385569.820,25.879,58.105,20.996,20.996,37.109
1532385569.824,33.203,61.035,25.879,39.551,54.688
1532385569.828,16.113,70.312,19.531,29.297,0.977
1532385569.832,18.555,80.566,21.484,19.043,-35.645
1532385569.836,20.508,79.590,19.531,18.555,28.320
1532385569.840,7.812,61.035,21.484,13.672,52.734
1532385569.844,19.043,59.082,28.809,19.531,-20.996
1532385569.847,29.785,77.148,26.367,30.762,-32.227
1532385569.851,27.832,76.660,32.227,27.344,44.434
1532385569.855,30.762,72.266,21.973,21.973,91.797
1532385569.859,35.645,64.941,17.578,18.066,50.293
1532385569.863,30.273,61.523,34.668,19.531,2.930
1532385569.867,26.855,75.195,36.133,16.602,6.348
1532385569.871,30.762,81.055,16.602,26.367,54.688
1532385569.875,29.297,77.148,13.184,35.645,57.129
1532385569.879,29.785,62.988,25.879,31.738,-1.465
1532385569.883,24.902,41.016,30.273,28.320,-13.672
1532385569.886,22.949,58.594,29.785,24.414,35.156
1532385569.890,31.250,81.543,25.879,26.367,63.477
1532385569.894,35.645,75.195,24.414,21.484,19.531
1532385569.898,20.020,64.453,26.367,8.301,-24.902
1532385569.902,0.000,48.340,22.461,1.953,37.598
1532385569.906,13.672,50.293,21.484,17.090,85.449
1532385569.910,23.438,49.316,21.973,25.879,5.859
1532385569.914,23.926,45.898,26.367,28.809,-47.363
1532385569.918,21.484,46.387,28.320,30.762,3.906
1532385569.922,24.414,45.898,30.273,34.668,26.367
1532385569.926,30.273,41.504,34.668,33.203,7.324
1532385569.929,17.090,20.508,28.809,15.625,-32.715
1532385569.933,19.043,24.902,18.555,9.277,-15.625
1532385569.937,23.926,42.480,21.484,13.184,47.363
1532385569.941,27.832,46.875,28.320,18.555,25.879
1532385569.945,25.879,44.922,32.227,29.785,-30.273
1532385569.949,19.531,46.875,25.879,28.809,-10.254
1532385569.953,13.672,44.434,16.602,19.531,50.293
1532385569.957,17.090,32.227,28.809,25.391,75.195
1532385569.961,32.227,20.996,39.062,32.227,24.414
1532385569.965,22.461,28.809,28.809,36.621,-13.184
1532385569.969,16.602,44.434,19.531,32.227,33.203
1532385569.972,14.160,33.691,20.508,13.184,80.566
1532385569.976,18.066,32.715,33.203,13.184,37.598
1532385569.980,25.391,35.645,36.133,26.367,3.418
1532385569.984,27.832,29.785,25.879,27.344,16.602
1532385569.988,29.297,39.551,18.555,26.855,43.457
1532385569.992,25.879,47.852,29.297,22.461,46.875
1532385569.996,25.391,62.012,45.410,26.855,6.348
1532385570.000,18.555,65.918,41.016,21.484,-26.855
1532385570.004,23.926,42.969,24.414,14.648,27.832
1532385570.008,33.203,41.016,27.344,40.039,73.242
1532385570.011,33.203,35.156,24.902,35.156,16.113
1532385570.015,25.391,13.672,21.484,7.812,-13.672
1532385570.019,14.160,10.254,48.340,12.695,46.875
1532385570.023,4.395,20.508,49.805,13.184,98.633
1532385570.027,21.973,28.809,28.809,11.230,33.691
1532385570.031,15.137,30.762,31.250,17.090,-23.926
1532385570.035,4.883,19.531,43.457,25.391,-14.648
1532385570.039,32.227,24.414,37.598,41.016,24.902
1532385570.043,34.180,22.949,25.391,36.133,5.859
1532385570.047,20.508,11.719,32.715,23.926,-41.504
1532385570.051,33.203,20.020,41.504,25.879,5.371
1532385570.054,29.297,18.555,31.738,25.391,75.684
1532385570.058,9.277,22.461,37.109,18.066,41.992
1532385570.062,7.812,25.391,47.363,9.277,-19.043
1532385570.066,18.555,9.277,38.086,17.090,1.465
1532385570.070,20.508,13.184,36.133,21.973,55.176
1532385570.074,16.602,35.156,37.109,22.461,72.266
1532385570.078,28.320,36.133,34.180,24.902,-4.395
1532385570.082,28.809,18.066,36.621,16.602,-21.973
1532385570.086,20.508,11.230,36.133,14.160,61.035
1532385570.090,19.531,20.508,29.785,28.809,75.684
1532385570.093,27.832,22.461,28.809,34.180,40.527
1532385570.097,33.203,18.066,40.527,38.574,-9.277
1532385570.101,39.062,11.719,47.363,36.133,0.977
1532385570.105,30.273,16.113,39.551,17.090,71.777
1532385570.109,19.531,16.113,39.062,14.648,61.523
1532385570.113,26.855,13.672,38.086,28.809,21.973
1532385570.117,26.855,13.184,37.109,23.438,29.785
1532385570.121,21.484,19.531,40.527,14.160,38.086
1532385570.125,20.996,22.949,23.438,20.020,21.973
1532385570.129,23.438,16.602,20.020,22.461,-10.742
1532385570.133,19.043,23.438,35.645,17.578,17.578
1532385570.136,20.020,25.391,43.945,22.461,54.199
1532385570.140,23.438,31.738,49.316,31.250,43.945
1532385570.144,28.809,37.109,61.523,37.109,16.113
1532385570.148,30.273,29.785,55.664,32.227,4.395
1532385570.152,19.043,13.672,20.508,22.461,49.316
1532385570.156,15.625,4.883,14.648,11.230,80.566
1532385570.160,22.949,11.719,35.645,14.160,16.113
1532385570.164,35.156,15.625,37.598,19.043,-39.551
1532385570.168,43.945,22.461,37.109,7.812,1.953
1532385570.172,46.387,22.461,39.062,12.207,46.875
1532385570.175,45.898,16.602,35.156,19.531,33.691
1532385570.179,44.434,26.367,39.551,21.484,7.812
1532385570.183,35.645,44.434,45.410,26.367,26.855
1532385570.187,26.367,40.527,29.297,18.066,65.430
1532385570.191,16.113,23.438,23.926,19.043,68.359
1532385570.195,19.531,18.555,29.297,32.715,40.527
1532385570.199,17.578,16.602,25.391,30.273,0.488
1532385570.203,14.648,11.719,45.410,36.133,37.109
1532385570.207,27.344,8.301,47.852,43.457,64.941
1532385570.211,28.809,7.324,23.438,38.086,7.812
1532385570.215,20.996,20.020,30.273,32.715,-6.836
1532385570.218,11.230,31.250,41.992,14.648,15.137
1532385570.222,14.160,28.320,40.039,17.090,53.711
1532385570.226,28.320,27.344,42.480,37.598,57.129
1532385570.230,16.113,17.578,30.762,27.344,20.020
1532385570.234,6.348,20.020,36.621,20.020,0.977
1532385570.238,19.043,13.184,45.410,16.113,38.086
1532385570.242,31.738,5.859,38.574,16.602,40.527
1532385570.246,31.250,20.508,38.086,35.156,-11.719
1532385570.250,15.625,27.344,24.414,33.203,10.254
1532385570.254,12.207,14.160,23.438,22.949,76.172
1532385570.258,22.949,7.324,40.527,21.973,92.285
1532385570.261,21.973,11.719,41.016,21.484,32.227
1532385570.265,18.066,17.578,26.855,26.855,9.766
1532385570.269,16.602,26.367,24.902,27.832,58.105
1532385570.273,17.578,27.832,34.668,26.855,93.750
1532385570.277,18.066,24.902,28.809,18.066,46.387
1532385570.281,30.273,26.855,30.762,20.020,-42.969
1532385570.285,33.691,17.090,12.207,26.367,14.648
1532385570.289,15.137,4.883,12.695,19.043,84.473
1532385570.293,20.020,11.719,47.363,12.695,8.301
1532385570.297,41.016,28.809,45.410,23.438,-33.691
1532385570.300,38.086,34.668,33.691,30.762,1.953
1532385570.304,19.531,24.414,21.484,14.160,63.477
1532385570.308,21.484,6.836,15.625,10.254,62.988
1532385570.312,29.297,0.000,24.414,19.043,24.414
1532385570.316,22.949,16.602,31.738,23.438,4.395
1532385570.320,20.996,21.973,27.344,21.973,8.301
1532385570.324,20.508,20.020,19.043,16.113,15.137
1532385570.328,13.672,21.484,23.438,22.949,9.277
1532385570.332,16.113,23.438,33.203,20.508,-11.230
1532385570.336,33.203,15.137,24.902,21.973,9.766
1532385570.340,37.109,6.836,19.043,23.438,41.504
1532385570.343,29.785,16.602,36.621,20.508,11.230
1532385570.347,27.344,30.273,35.156,20.020,-12.207
1532385570.351,15.625,30.273,19.043,14.648,8.789
1532385570.355,23.926,15.625,18.555,25.391,43.945
1532385570.359,20.020,13.184,20.996,15.625,29.785
1532385570.363,5.371,15.137,21.484,4.883,-21.973
1532385570.367,12.695,14.160,24.414,14.160,-18.066
1532385570.371,10.254,17.090,24.414,18.555,33.203
1532385570.375,10.254,12.207,22.461,18.555,49.316
1532385570.379,26.367,20.996,33.691,28.320,-21.973
1532385570.382,26.367,24.414,44.922,31.250,-51.270
1532385570.386,13.184,7.812,38.086,21.973,58.105
1532385570.390,26.855,9.766,13.672,27.344,83.984
1532385570.394,28.320,21.973,5.371,29.297,23.438
1532385570.398,24.902,31.250,31.738,21.484,0.977
1532385570.402,27.344,36.621,40.039,19.531,-6.836
1532385570.406,24.414,33.203,30.762,19.531,35.645
1532385570.410,29.297,28.809,29.785,27.344,23.438
1532385570.414,25.879,32.715,29.297,31.250,-14.648
1532385570.418,17.578,4.395,20.508,20.996,13.184
1532385570.422,22.461,-3.418,21.484,19.043,61.035
1532385570.425,20.996,37.598,30.762,24.902,60.547
1532385570.429,11.230,37.598,15.625,25.391,17.578
1532385570.433,11.719,17.090,22.461,20.996,-8.789
1532385570.437,15.137,20.508,44.434,19.531,25.879
1532385570.441,12.207,23.926,29.785,17.090,52.734
1532385570.445,10.254,8.789,26.367,12.695,14.648
1532385570.449,22.461,13.672,30.273,21.484,-9.277
1532385570.453,30.762,37.109,20.508,31.250,26.855
1532385570.457,20.508,25.879,21.973,34.668,39.551
1532385570.461,15.625,14.648,12.207,26.855,-17.090
1532385570.465,25.879,35.645,11.719,33.203,-30.762
1532385570.468,28.320,48.828,41.992,41.016,10.254
1532385570.472,20.996,38.086,41.992,26.367,55.176
1532385570.476,8.301,29.297,27.344,20.508,36.621
1532385570.480,14.648,23.926,22.461,14.648,-8.301
1532385570.484,12.207,13.672,21.484,12.695,-0.977
1532385570.488,11.230,19.531,19.043,19.531,41.504
1532385570.492,22.949,30.762,16.113,27.344,19.531
1532385570.496,22.461,23.926,6.836,29.297,-2.441
1532385570.500,29.785,23.438,10.742,23.438,-3.418
1532385570.504,22.461,20.020,26.367,19.531,15.625
1532385570.507,28.320,26.855,36.133,18.555,44.922
1532385570.511,32.227,39.062,29.297,25.391,10.254
1532385570.515,21.973,19.043,18.066,25.879,-28.809
1532385570.519,24.414,-0.488,22.461,27.344,27.832
1532385570.523,6.836,22.461,19.531,27.344,67.871
1532385570.527,-7.812,42.480,6.348,12.207,20.996
1532385570.531,7.324,42.969,3.906,17.578,0.977
1532385570.535,13.672,40.039,28.809,23.438,13.672
1532385570.539,16.113,30.762,41.016,17.578,39.062
1532385570.543,25.879,38.574,31.738,27.344,32.715
1532385570.547,40.039,36.621,31.738,34.180,10.254
1532385570.550,33.203,20.996,29.785,33.203,8.789
1532385570.554,20.508,15.137,15.625,30.273,26.367
1532385570.558,10.254,19.043,13.672,23.438,53.711
1532385570.562,9.277,19.043,23.926,10.742,-9.766
1532385570.566,17.090,18.066,25.391,13.184,-46.875
1532385570.570,24.414,34.180,28.320,27.344,22.461
1532385570.574,23.438,41.504,30.273,25.879,75.195
1532385570.578,25.879,35.156,24.902,19.531,28.809
1532385570.582,36.621,40.039,23.926,32.227,-9.766
1532385570.586,37.109,28.320,24.902,48.828,39.062
1532385570.589,37.109,16.602,26.367,35.645,63.477
1532385570.593,44.434,33.691,32.227,38.086,42.480
1532385570.597,52.246,29.785,26.855,49.316,-6.348
1532385570.601,42.969,14.160,21.484,27.344,-3.906
1532385570.605,33.203,23.926,27.344,26.367,62.988
1532385570.609,33.691,28.320,30.273,34.668,81.543
1532385570.613,32.715,14.648,25.879,30.273,24.902
1532385570.617,32.715,6.348,24.902,42.969,-1.465
1532385570.621,40.527,10.742,23.926,47.852,24.902
1532385570.625,40.039,14.160,22.461,34.180,45.898
1532385570.629,37.598,29.297,39.551,29.297,8.789
1532385570.632,33.691,34.668,36.621,24.902,-16.113
1532385570.636,43.945,54.688,55.176,46.875,47.363
1532385570.640,68.848,64.941,73.242,66.406,36.621
1532385570.644,61.035,39.551,44.434,51.270,-1.953
1532385570.648,50.781,27.832,27.832,47.852,11.719
1532385570.652,43.457,24.902,39.551,55.664,36.621
1532385570.656,36.621,18.066,41.504,49.316,55.664
1532385570.660,37.109,20.020,33.691,41.016,0.488
1532385570.664,34.668,30.273,41.016,33.691,-14.160
1532385570.668,35.156,25.391,50.781,28.809,39.062
1532385570.672,22.949,2.930,49.805,29.785,54.199
1532385570.675,20.508,-4.395,58.105,43.457,33.691
1532385570.679,22.949,18.066,43.945,36.621,-4.883
1532385570.683,3.418,41.992,26.367,19.531,-17.578
1532385570.687,-7.812,41.016,27.344,18.555,27.344
1532385570.691,-6.348,29.785,24.414,8.301,45.410
1532385570.695,-1.465,30.273,21.484,12.207,17.578
1532385570.699,14.648,24.414,26.367,22.949,-27.344
1532385570.703,31.250,23.438,32.227,20.508,10.254
1532385570.707,20.020,28.809,39.551,15.625,74.219
1532385570.711,19.531,21.484,47.363,23.438,36.133
1532385570.714,24.414,14.160,32.715,20.996,15.137
1532385570.718,18.555,20.508,23.438,23.438,30.273
1532385570.722,11.230,23.438,20.508,18.555,57.129
1532385570.726,5.371,22.461,30.762,1.953,39.062
1532385570.730,10.742,14.648,26.367,6.836,-21.484
1532385570.734,8.789,12.695,22.949,14.160,-0.977
1532385570.738,2.930,29.297,27.344,12.695,62.988
1532385570.742,9.766,41.504,24.902,7.812,43.457
1532385570.746,21.484,46.387,33.691,9.766,-23.438
1532385570.750,19.043,43.945,29.785,20.508,-21.484
1532385570.754,16.602,35.645,13.672,20.996,63.477
1532385570.757,22.461,18.555,16.602,22.461,44.434
1532385570.761,26.367,17.578,35.156,26.367,-27.832
1532385570.765,19.043,17.090,19.531,10.742,-13.184
1532385570.769,18.066,22.461,13.184,14.160,33.203
1532385570.773,25.879,42.480,31.738,33.203,54.199
1532385570.777,19.043,41.992,19.043,18.555,6.836
1532385570.781,5.371,32.227,5.371,-5.371,-41.504
1532385570.785,4.883,37.598,14.160,5.371,5.371
1532385570.789,14.160,37.598,21.484,6.348,64.941
1532385570.793,9.766,24.414,13.672,1.465,64.941
1532385570.796,18.066,32.227,12.695,18.555,10.254
1532385570.800,30.273,41.504,30.762,23.926,-4.395
1532385570.804,19.531,30.762,27.344,10.254,46.387
1532385570.808,18.066,33.691,18.066,15.625,28.320
1532385570.812,28.320,17.090,14.648,22.949,-15.137
1532385570.816,25.879,8.789,6.348,22.949,-20.508
1532385570.820,28.320,25.391,10.254,30.762,16.113
1532385570.824,28.320,24.902,22.949,29.297,45.898
1532385570.828,27.832,24.902,25.879,34.180,10.742
1532385570.832,25.391,25.391,6.348,25.879,-7.324
1532385570.836,14.648,34.668,6.348,13.184,30.273
1532385570.839,18.555,47.852,29.297,20.508,43.457
1532385570.843,23.926,41.992,21.973,24.902,13.184
1532385570.847,21.973,37.109,14.160,22.461,-13.672
1532385570.851,19.043,25.391,9.766,27.832,8.301
1532385570.855,15.625,9.766,9.277,27.344,58.105
1532385570.859,27.832,22.949,30.273,27.832,39.062
1532385570.863,26.367,31.738,29.785,30.273,-12.207
1532385570.867,24.902,24.902,18.066,25.879,12.695
1532385570.871,20.020,18.066,25.391,25.879,47.363
1532385570.875,15.625,13.672,26.855,25.879,59.082
1532385570.879,23.926,21.973,23.438,29.785,-0.488
1532385570.882,28.320,40.527,28.809,35.156,-48.340
1532385570.886,16.113,29.297,20.996,27.832,27.344
1532385570.890,8.301,17.578,15.625,29.785,71.289
1532385570.894,13.672,27.344,18.555,21.973,33.203
1532385570.898,32.715,22.949,13.184,22.461,-8.301
1532385570.902,41.016,7.324,20.508,38.574,26.367
1532385570.906,31.738,9.766,41.016,40.039,75.195
1532385570.910,20.508,23.438,34.180,26.855,31.738
1532385570.914,30.762,22.461,29.297,27.344,-11.719
1532385570.918,41.992,29.297,31.250,37.598,1.465
1532385570.921,21.973,42.969,18.066,17.090,32.715
1532385570.925,23.438,35.645,15.137,5.371,11.230
1532385570.929,28.809,26.855,4.395,6.348,-2.441
1532385570.933,32.227,31.738,3.906,4.883,30.273
1532385570.937,42.480,33.691,20.508,8.789,42.480
1532385570.941,58.594,17.578,22.949,12.695,38.086
1532385570.945,57.617,22.949,36.133,19.043,4.883
1532385570.949,30.762,29.785,40.527,23.926,-7.324
1532385570.953,22.949,20.996,30.273,25.391,45.898
1532385570.957,28.809,20.508,25.391,32.715,58.105
1532385570.961,31.738,13.672,35.156,42.969,17.090
1532385570.964,24.414,19.043,21.484,36.621,14.648
1532385570.968,9.277,26.367,3.906,31.250,49.316
1532385570.972,2.441,29.785,29.297,34.668,58.105
1532385570.976,20.020,36.133,42.480,33.203,19.043
1532385570.980,32.715,31.250,35.156,34.180,-10.254
1532385570.984,20.508,20.508,36.621,29.297,21.484
1532385570.988,15.625,19.043,30.762,32.227,95.215
1532385570.992,16.113,23.438,21.484,27.344,57.617
1532385570.996,29.785,13.672,25.391,29.785,-10.742
1532385571.000,40.527,20.020,34.668,38.574,-22.461
1532385571.003,18.555,29.297,30.762,25.879,29.297
1532385571.007,8.789,22.461,19.531,17.090,56.152
1532385571.011,23.926,25.879,22.461,15.137,15.625
1532385571.015,27.832,25.879,32.715,25.879,-8.789
1532385571.019,23.438,28.320,34.180,29.297,17.578
1532385571.023,20.996,15.625,28.320,11.719,66.406
1532385571.027,22.949,7.812,38.574,15.137,39.551
1532385571.031,19.531,27.344,37.598,27.344,-9.277
1532385571.035,10.742,28.809,32.715,27.344,0.000
1532385571.039,30.273,15.137,31.250,22.949,31.250
1532385571.043,35.156,11.719,22.461,15.625,27.832
1532385571.046,31.250,30.762,20.996,16.602,-8.301
1532385571.050,22.461,26.367,28.809,14.160,0.977
1532385571.054,13.184,13.184,20.020,11.719,57.129
1532385571.058,20.020,9.277,21.484,13.184,42.480
1532385571.062,22.461,7.324,35.645,9.766,-21.973
1532385571.066,21.484,20.996,30.273,16.602,1.953
1532385571.070,28.809,18.066,26.367,23.926,47.363
1532385571.074,37.598,28.809,27.344,31.738,43.945
1532385571.078,44.922,52.734,24.414,35.645,19.043
1532385571.082,30.762,36.133,20.996,25.879,-3.906
1532385571.086,10.742,18.066,29.297,17.090,16.113
1532385571.089,24.902,14.648,41.992,22.461,68.848
1532385571.093,44.922,9.277,45.898,37.598,41.504
1532385571.097,20.508,16.113,27.344,25.391,-37.598
1532385571.101,10.254,29.785,9.277,16.113,-11.719
1532385571.105,15.625,38.574,21.973,20.508,68.848
1532385571.109,22.461,42.969,41.504,25.879,41.992
1532385571.113,20.508,37.109,38.574,29.297,0.977
1532385571.117,18.066,11.719,25.879,20.996,17.090
1532385571.121,37.109,14.160,29.297,28.320,29.297
1532385571.125,32.227,20.996,36.621,27.832,41.504
1532385571.128,28.809,8.789,38.086,20.996,39.551
1532385571.132,28.320,31.738,28.809,21.484,38.086
1532385571.136,32.227,43.457,22.949,31.250,70.312
1532385571.140,39.551,30.273,25.391,34.668,70.312
1532385571.144,31.738,32.715,28.809,25.879,13.184
1532385571.148,39.551,35.645,25.391,23.438,-1.953
1532385571.152,42.480,21.973,20.996,24.414,47.852
1532385571.156,35.645,26.855,34.668,29.297,53.711
1532385571.160,43.945,36.133,30.762,30.273,-12.207
1532385571.164,40.039,43.945,27.344,28.320,-56.152
1532385571.168,30.762,43.945,40.039,23.438,-17.578
1532385571.171,36.133,23.926,31.738,22.461,57.129
1532385571.175,35.156,19.043,27.344,25.391,55.176
1532385571.179,34.180,28.809,31.250,31.250,12.695
1532385571.183,23.926,37.109,17.090,25.879,35.645
1532385571.187,17.578,40.527,22.949,21.973,95.215
1532385571.191,18.066,34.180,37.598,22.461,72.754
1532385571.195,17.578,30.762,26.855,16.602,19.043
1532385571.199,23.438,31.738,20.996,24.902,-1.953
1532385571.203,18.066,27.832,31.738,27.832,24.414
1532385571.207,23.926,32.715,44.922,26.855,48.340
1532385571.210,16.113,31.250,36.621,26.367,27.344
1532385571.214,10.254,29.297,23.438,28.320,20.020
1532385571.218,25.391,30.762,17.090,29.297,45.898
1532385571.222,16.113,20.020,16.602,22.949,86.914
1532385571.226,13.672,23.926,24.902,25.391,45.410
1532385571.230,22.461,46.875,18.555,38.086,-24.414
1532385571.234,20.996,38.574,24.414,36.621,-6.836
1532385571.238,16.602,23.438,38.574,28.320,31.250
1532385571.242,26.855,35.645,43.457,30.273,16.602
1532385571.246,25.879,42.480,34.668,31.738,13.184
1532385571.250,14.160,30.273,22.949,31.250,17.090
1532385571.253,24.902,26.367,19.531,30.762,68.359
1532385571.257,29.785,33.691,10.254,22.461,81.055
1532385571.261,28.320,35.156,22.461,23.926,25.879
1532385571.265,28.809,39.062,38.574,28.809,-1.953
1532385571.269,26.855,49.805,30.273,26.367,33.691
1532385571.273,20.996,44.434,27.832,32.227,91.797
1532385571.277,19.043,30.273,23.926,34.180,49.805
1532385571.281,29.785,46.387,29.785,35.645,-14.648
1532385571.285,36.621,56.641,37.598,36.621,17.090
1532385571.289,35.156,55.176,26.367,36.133,65.430
1532385571.293,30.762,45.410,13.672,34.668,60.547
1532385571.296,23.926,25.879,29.785,31.250,20.020
1532385571.300,30.762,20.996,45.410,34.180,-20.508
1532385571.304,29.297,15.137,20.020,32.227,30.273
1532385571.308,25.879,21.484,14.648,29.785,67.871
1532385571.312,33.691,31.738,40.039,29.785,22.949
1532385571.316,29.297,34.180,34.180,38.086,16.602
1532385571.320,14.648,29.785,27.832,40.039,45.898
1532385571.324,6.348,31.738,41.016,24.902,57.617
1532385571.328,10.254,40.527,36.133,25.391,21.973
1532385571.332,17.090,26.367,24.902,31.738,-7.812
1532385571.335,14.160,19.531,27.344,30.273,41.016
1532385571.339,22.461,34.180,19.531,32.227,56.641
1532385571.343,31.738,32.715,26.367,31.738,9.277
1532385571.347,25.879,32.227,24.902,27.832,-10.742
1532385571.351,20.508,34.180,19.043,28.809,-7.324
1532385571.355,19.531,21.484,37.598,29.297,51.758
1532385571.359,32.715,20.508,44.922,22.461,69.824
1532385571.363,32.715,24.414,40.527,25.879,31.250
1532385571.367,39.062,35.645,32.715,47.852,21.973
1532385571.371,44.434,42.480,14.648,40.039,64.941
1532385571.375,22.461,26.855,7.812,12.695,92.773
1532385571.378,13.672,24.902,21.484,8.789,43.945
1532385571.382,29.297,36.621,26.367,19.531,9.277
1532385571.386,29.785,26.367,21.484,23.926,31.738
1532385571.390,18.066,19.531,16.113,26.855,81.055
1532385571.394,20.020,31.738,20.508,21.484,38.086
1532385571.398,21.484,42.480,26.367,17.090,-12.207
1532385571.402,31.738,36.133,28.320,27.344,15.137
1532385571.406,35.645,28.320,33.203,29.297,61.035
1532385571.410,28.809,25.879,30.762,20.508,64.453
1532385571.414,26.367,22.949,20.020,14.160,11.719
1532385571.417,28.320,30.273,19.043,11.719,-0.977
1532385571.421,30.273,36.133,22.461,12.695,43.945
1532385571.425,28.320,45.898,12.695,19.043,35.645
1532385571.429,29.297,49.805,18.066,15.625,-3.906
1532385571.433,18.066,38.574,26.367,20.996,18.066
1532385571.437,9.277,23.926,24.902,16.602,59.082
1532385571.441,20.996,18.555,23.926,7.324,46.387
1532385571.445,27.832,23.438,28.320,15.625,6.836
1532385571.449,20.020,32.227,23.926,16.113,4.395
1532385571.453,1.953,20.996,19.531,3.906,80.078
1532385571.457,4.395,8.301,21.973,0.488,97.656
1532385571.460,3.418,12.207,15.625,7.812,46.875
1532385571.464,8.301,21.484,10.742,11.230,26.367
1532385571.468,16.602,27.832,19.043,19.531,26.855
1532385571.472,3.418,16.602,20.996,15.137,70.312
1532385571.476,12.695,12.695,29.297,16.602,44.922
1532385571.480,25.391,19.531,37.109,23.926,-20.020
1532385571.484,18.555,18.066,27.344,20.020,-7.812
1532385571.488,30.273,10.742,27.832,28.320,65.430
1532385571.492,32.715,10.742,25.879,33.691,85.938
1532385571.496,35.645,25.879,32.227,34.668,16.113
1532385571.500,37.109,16.113,28.809,22.461,21.973
1532385571.503,14.160,-0.977,15.137,4.395,79.102
1532385571.507,11.719,13.184,20.020,-2.441,72.266
1532385571.511,28.320,18.066,23.926,9.766,55.176
1532385571.515,21.973,12.695,16.602,14.648,29.297
1532385571.519,21.484,10.742,17.090,12.207,33.203
1532385571.523,26.367,16.113,19.043,14.160,71.777
1532385571.527,17.090,24.414,22.949,11.230,48.828
1532385571.531,23.438,23.926,38.086,14.160,11.719
1532385571.535,23.438,13.672,31.738,10.254,20.996
1532385571.539,11.230,15.625,22.461,3.418,41.504
1532385571.542,5.371,16.602,28.809,9.766,49.316
1532385571.546,9.766,11.230,25.391,7.324,18.555
1532385571.550,5.859,22.461,19.531,2.441,16.602
1532385571.554,0.488,22.949,26.855,12.207,60.547
1532385571.558,4.883,9.277,37.598,16.113,35.645
1532385571.562,5.859,8.789,37.109,15.625,-46.387
1532385571.566,4.395,12.695,31.738,16.113,-24.902
1532385571.570,4.883,15.625,20.020,15.625,69.336
1532385571.574,-0.488,11.719,20.996,12.695,81.055
1532385571.578,12.207,8.789,26.855,8.789,-14.160
1532385571.582,18.555,14.160,14.648,13.184,-41.504
1532385571.585,14.648,29.297,10.742,17.090,14.160
1532385571.589,25.391,29.297,33.691,19.043,62.500
1532385571.593,29.785,10.254,37.598,21.484,29.785
1532385571.597,20.996,1.953,26.855,33.691,-32.715
1532385571.601,17.578,2.930,19.531,20.508,-16.113
1532385571.605,26.367,15.137,21.973,6.836,41.504
1532385571.609,24.902,28.320,22.461,14.160,45.898
1532385571.613,17.578,18.555,10.254,7.324,13.184
1532385571.617,32.227,21.484,-3.906,12.695,3.418
1532385571.621,33.203,10.254,11.230,19.043,23.926
1532385571.624,11.719,-8.301,34.668,20.508,25.391
1532385571.628,24.414,12.695,29.785,30.762,-17.090
1532385571.632,35.156,33.203,19.043,23.926,-3.906
1532385571.636,15.625,25.391,15.137,13.184,41.504
1532385571.640,2.930,27.832,16.113,5.859,44.922
1532385571.644,14.648,41.992,23.926,7.324,26.855
1532385571.648,12.207,25.391,6.348,11.719,20.996
1532385571.652,14.648,18.555,1.953,23.438,40.527
1532385571.656,25.391,20.996,21.973,35.645,49.316
1532385571.660,20.508,16.602,24.902,25.879,20.508
1532385571.664,24.902,19.043,26.855,18.555,-4.883
1532385571.667,19.531,28.809,28.809,27.344,17.090
1532385571.671,16.113,38.086,20.996,29.297,64.941
1532385571.675,14.648,33.691,6.836,16.113,46.387
1532385571.679,25.879,30.762,10.254,19.531,-26.367
1532385571.683,32.227,29.785,16.113,34.668,-41.016
1532385571.687,23.438,21.973,18.555,34.180,37.598
1532385571.691,30.273,11.230,28.320,33.691,63.965
1532385571.695,28.809,0.488,32.227,34.668,14.160
1532385571.699,16.113,16.602,31.738,27.344,-3.906
1532385571.703,13.184,37.109,13.672,24.902,44.434
1532385571.707,13.184,32.227,2.441,30.273,80.078
1532385571.710,20.508,37.598,13.184,32.715,39.062
1532385571.714,21.973,40.527,37.109,33.203,8.301
1532385571.718,12.695,24.902,44.922,24.902,7.324
1532385571.722,30.762,28.320,24.414,19.043,12.695
1532385571.726,38.574,26.367,22.949,20.020,0.488
1532385571.730,37.109,7.324,34.668,29.785,-11.230
1532385571.734,33.203,20.996,34.668,30.762,16.113
1532385571.738,17.090,29.297,24.414,14.160,38.574
1532385571.742,28.809,23.438,16.113,15.625,27.344
1532385571.746,33.691,33.691,20.020,24.902,14.160
1532385571.749,34.180,34.180,18.555,26.855,27.832
1532385571.753,47.363,41.504,12.207,17.090,51.758
1532385571.757,50.781,46.875,17.578,13.672,39.551
1532385571.761,33.691,33.691,13.184,19.531,9.277
1532385571.765,32.715,22.461,20.508,22.461,-23.926
1532385571.769,33.691,28.809,33.203,25.391,12.695
1532385571.773,33.691,28.809,29.785,33.691,83.008
1532385571.777,30.273,22.461,29.785,44.434,31.738
1532385571.781,18.555,26.367,14.648,48.340,-18.066
1532385571.785,16.113,20.508,10.254,37.598,36.621
1532385571.789,18.555,23.926,29.297,40.527,90.332
1532385571.792,15.137,28.320,29.297,30.762,44.434
1532385571.796,4.395,25.879,24.902,24.414,-12.207
1532385571.800,5.371,27.344,22.461,29.297,-1.953
1532385571.804,8.301,29.785,21.973,14.648,50.293
1532385571.808,5.371,41.016,26.367,18.555,57.129
1532385571.812,15.625,44.434,22.461,29.297,12.207
1532385571.816,27.832,39.062,20.508,33.691,-10.254
1532385571.820,37.598,30.273,24.414,30.762,6.836
1532385571.824,21.973,20.996,30.273,28.320,45.898
1532385571.828,18.066,22.461,22.461,25.391,36.621
1532385571.831,22.949,23.926,7.324,27.832,9.277
1532385571.835,10.742,22.949,9.277,19.531,23.926
1532385571.839,24.902,24.902,26.367,5.371,38.086
1532385571.843,34.180,27.832,33.691,25.391,34.180
1532385571.847,20.508,36.133,19.043,27.344,4.395
1532385571.851,14.160,34.180,5.859,5.371,11.719
1532385571.855,8.789,27.832,15.625,12.695,79.102
1532385571.859,19.043,29.785,33.203,20.020,37.109
1532385571.863,24.902,39.062,41.016,19.531,-42.480
1532385571.867,26.855,36.621,28.320,22.949,2.930
1532385571.871,34.180,26.367,15.625,27.832,69.336
1532385571.874,20.508,19.531,26.855,29.297,78.613
1532385571.878,11.719,25.391,29.785,23.438,23.926
1532385571.882,21.484,34.668,21.484,27.832,-13.672
1532385571.886,32.715,16.113,19.043,24.414,49.316
1532385571.890,31.738,14.160,15.137,23.438,79.102
1532385571.894,22.949,34.668,25.391,19.531,37.109
1532385571.898,21.973,20.020,30.273,11.719,-16.113
1532385571.902,25.391,22.461,29.785,22.949,23.438
1532385571.906,23.438,41.504,32.227,38.574,83.008
1532385571.910,20.020,36.621,8.789,29.297,50.293
1532385571.914,17.578,4.883,9.766,7.812,19.043
1532385571.917,32.227,3.906,32.227,13.672,26.367
1532385571.921,34.180,32.715,25.391,19.043,64.453
1532385571.925,15.137,21.484,17.090,10.254,85.449
1532385571.929,14.648,25.391,31.250,18.555,9.277
1532385571.933,30.762,39.062,29.297,27.344,-2.930
1532385571.937,40.527,19.043,17.090,23.438,43.457
1532385571.941,27.344,12.207,20.508,17.578,36.621
1532385571.945,21.973,27.344,25.391,17.578,-2.930
1532385571.949,30.762,26.855,24.902,20.996,-25.391
1532385571.953,33.203,16.602,13.184,31.250,24.902
1532385571.956,34.668,18.066,23.926,31.738,51.758
1532385571.960,28.320,30.762,36.621,18.066,-4.395
1532385571.964,22.949,44.434,28.320,15.137,-32.715
1532385571.968,29.785,35.645,31.738,21.484,8.789
1532385571.972,19.531,18.555,23.438,7.324,63.477
1532385571.976,9.277,20.020,17.578,8.301,50.781
1532385571.980,25.391,14.648,27.832,25.391,-0.977
1532385571.984,30.273,8.789,27.832,23.926,-7.324
1532385571.988,23.926,26.855,28.809,19.531,65.918
1532385571.992,22.949,35.156,23.438,23.926,71.289
1532385571.996,26.367,20.508,21.484,29.297,-7.812
1532385571.999,23.926,7.324,26.855,29.297,-43.945
1532385572.003,30.762,14.648,21.973,32.715,13.184
1532385572.007,30.762,30.273,27.832,29.297,33.203
1532385572.011,12.207,33.691,20.508,10.742,1.465
1532385572.015,18.066,30.762,13.184,14.648,-6.836
1532385572.019,17.090,32.715,24.902,27.832,22.461
1532385572.023,18.555,35.156,31.738,19.531,71.777
1532385572.027,27.832,28.809,23.438,10.742,57.617
1532385572.031,21.484,9.277,21.973,17.578,4.883
1532385572.035,22.461,17.090,23.926,17.578,-7.324
1532385572.038,25.879,28.809,18.555,16.602,18.066
1532385572.042,13.672,37.109,20.996,17.090,16.113
1532385572.046,10.742,35.645,26.855,13.672,-1.953
1532385572.050,28.320,31.738,32.715,23.438,6.348
1532385572.054,27.344,41.992,24.902,25.391,84.473
1532385572.058,13.184,28.809,13.672,10.742,75.195
1532385572.062,25.391,36.621,23.926,20.508,-12.207
1532385572.066,23.926,34.668,36.133,23.926,0.488
1532385572.070,11.719,20.020,23.438,20.020,50.293
1532385572.074,21.484,36.621,12.207,19.043,55.664
1532385572.078,30.273,39.551,17.578,25.391,26.367
1532385572.081,34.668,26.855,19.043,40.039,15.625
1532385572.085,26.855,26.367,35.156,28.320,63.965
1532385572.089,27.344,47.363,30.762,19.043,86.426
1532385572.093,25.391,50.293,15.137,29.785,47.363
1532385572.097,14.648,18.066,24.414,19.531,-2.930
1532385572.101,8.789,14.160,26.367,11.719,-14.160
1532385572.105,15.625,33.203,26.367,14.648,59.082
1532385572.109,29.785,36.621,26.855,14.648,45.898
1532385572.113,20.020,32.715,15.625,22.949,-8.789
1532385572.117,18.066,30.762,21.484,23.438,-10.254
1532385572.121,28.809,31.738,34.180,22.461,48.340
1532385572.124,30.762,34.668,32.227,22.949,95.215
1532385572.128,32.715,26.367,29.785,20.508,18.555
1532385572.132,27.832,22.949,20.508,26.367,-15.625
1532385572.136,25.391,40.039,15.625,31.250,35.156
1532385572.140,38.574,45.898,31.738,26.855,55.176
1532385572.144,19.531,34.668,29.785,19.531,37.109
1532385572.148,8.301,24.414,13.672,17.090,7.812
1532385572.152,20.996,32.227,27.832,17.090,31.250
1532385572.156,15.137,41.992,34.668,21.484,89.355
1532385572.160,4.395,35.156,16.602,16.602,58.594
1532385572.163,16.602,25.879,14.160,10.254,8.301
1532385572.167,31.738,19.043,20.508,14.648,23.926
1532385572.171,29.297,18.555,24.902,22.949,83.984
1532385572.175,23.438,20.996,20.996,19.043,68.359
1532385572.179,20.508,27.832,21.484,14.160,-18.066
1532385572.183,35.156,42.480,34.180,14.648,-20.020
1532385572.187,26.855,44.922,23.926,19.043,76.660
1532385572.191,5.859,34.668,14.160,18.066,90.820
1532385572.195,2.441,38.574,22.949,11.230,-2.441
1532385572.199,14.648,39.551,21.973,7.812,-27.344
1532385572.203,21.484,22.461,13.184,9.277,38.574
1532385572.206,7.324,16.602,17.090,14.160,76.172
1532385572.210,10.742,19.531,25.879,15.625,42.480
1532385572.214,14.160,20.508,28.809,16.113,2.441
1532385572.218,9.277,31.738,23.926,18.066,25.879
1532385572.222,24.902,39.062,25.879,21.973,87.402
1532385572.226,32.227,39.062,23.438,17.090,60.547
1532385572.230,25.391,29.785,15.625,25.879,-37.109
1532385572.234,15.625,16.602,20.996,32.227,-38.086
1532385572.238,25.391,41.016,23.926,21.484,22.461
1532385572.242,29.785,40.527,19.043,14.648,29.785
1532385572.245,15.137,18.066,20.508,15.137,29.297
1532385572.249,16.602,38.086,12.695,18.066,0.488
1532385572.253,11.230,46.875,16.602,10.742,27.832
1532385572.257,9.277,36.621,27.832,6.348,52.246
1532385572.261,21.973,22.461,26.855,20.508,8.301
1532385572.265,24.902,27.832,22.461,40.039,9.277
1532385572.269,15.137,33.203,17.578,30.762,46.387
1532385572.273,15.137,16.113,26.367,20.020,77.637
1532385572.277,23.438,23.926,27.832,21.973,35.645
1532385572.281,26.367,28.809,20.996,19.531,-19.043
1532385572.285,11.719,18.555,26.367,15.137,11.719
1532385572.288,12.695,11.230,17.578,10.254,48.828
1532385572.292,25.391,13.672,9.277,12.207,49.316
1532385572.296,26.855,36.621,16.113,18.555,24.414
1532385572.300,25.391,36.133,18.066,17.090,-19.531
1532385572.304,40.527,36.621,29.297,27.344,17.090
1532385572.308,39.062,40.039,31.738,32.227,72.754
1532385572.312,11.230,20.508,27.344,18.555,39.551
1532385572.316,7.324,23.926,24.414,13.672,15.137
1532385572.320,13.672,28.320,15.137,13.184,40.039
1532385572.324,16.602,25.879,10.254,12.207,48.828
1532385572.328,21.484,16.113,17.090,14.648,38.574
1532385572.331,25.879,7.812,27.832,23.926,11.230
1532385572.335,20.508,22.461,24.414,27.832,40.527
1532385572.339,32.715,30.762,18.555,28.320,59.570
1532385572.343,41.992,25.879,16.602,32.715,-6.348
1532385572.347,23.926,36.133,25.879,24.414,-34.180
1532385572.351,13.672,43.457,44.434,19.043,9.766
1532385572.355,13.672,41.992,34.668,20.996,69.336
1532385572.359,12.207,37.598,18.555,17.578,50.781
1532385572.363,26.367,38.574,18.066,30.762,-16.602
1532385572.367,38.574,32.715,18.066,35.156,-9.766
1532385572.370,48.340,33.203,30.762,42.480,74.219
1532385572.374,47.852,42.480,27.344,46.875,61.035
1532385572.378,30.762,36.621,9.277,28.809,-20.020
1532385572.382,22.461,41.016,17.090,24.414,-18.555
1532385572.386,17.090,42.969,23.438,25.391,28.320
1532385572.390,34.180,37.598,35.156,24.414,52.734
1532385572.394,35.645,39.551,52.246,34.668,40.527
1532385572.398,9.766,34.180,39.551,34.668,3.418
1532385572.402,17.090,25.879,25.391,27.832,13.184
1532385572.406,34.668,38.086,37.109,33.203,59.082
1532385572.410,30.273,48.340,24.902,30.273,38.574
1532385572.413,24.902,50.293,7.324,22.949,0.977
1532385572.417,35.645,39.062,21.484,30.762,-1.465
1532385572.421,36.621,26.855,35.156,37.109,70.801
1532385572.425,39.551,36.621,35.156,34.180,68.848
1532385572.429,55.176,51.270,41.016,49.805,1.953
1532385572.433,44.922,49.316,40.527,54.688,16.602
1532385572.437,13.672,38.086,26.367,30.273,40.039
1532385572.441,13.184,41.016,24.414,22.461,38.086
1532385572.445,22.461,30.273,30.273,22.949,9.277
1532385572.449,22.949,30.273,31.250,28.809,-15.137
1532385572.452,30.273,50.781,30.273,37.598,40.527
1532385572.456,33.203,57.129,29.785,37.598,76.660
1532385572.460,24.902,54.688,33.203,30.762,42.969
1532385572.464,32.227,47.363,40.039,38.574,-5.859
1532385572.468,37.598,37.109,36.133,44.434,-3.418
1532385572.472,28.809,35.645,32.227,31.738,44.922
1532385572.476,41.992,37.109,49.316,34.180,23.438
1532385572.480,39.062,41.504,40.039,30.273,-25.391
1532385572.484,20.996,47.363,20.020,23.926,-16.602
1532385572.488,20.508,43.945,22.949,25.391,51.758
1532385572.492,34.180,40.527,33.203,26.367,78.613
1532385572.495,42.480,43.945,41.016,35.645,19.531
1532385572.499,40.527,54.199,41.504,44.434,-3.418
1532385572.503,31.250,61.035,27.832,42.480,27.832
1532385572.507,31.250,60.547,28.809,33.691,51.758
1532385572.511,35.156,59.082,37.598,32.227,18.555
1532385572.515,36.133,52.734,35.645,29.297,-3.906
1532385572.519,53.223,39.551,23.438,33.691,25.391
1532385572.523,56.152,41.016,22.949,47.363,42.480
1532385572.527,52.734,54.688,43.457,38.574,21.973
1532385572.531,50.293,61.523,56.641,25.391,-22.461
1532385572.534,59.082,71.777,44.922,26.855,-0.488
1532385572.538,63.965,58.105,24.414,31.250,59.082
1532385572.542,55.664,31.250,32.227,31.738,40.039
1532385572.546,50.781,36.133,36.133,36.133,0.977
1532385572.550,41.504,47.363,37.109,35.156,11.719
1532385572.554,39.062,42.480,41.504,33.203,64.453
1532385572.558,31.738,43.457,43.457,30.762,62.012
1532385572.562,28.809,52.246,48.340,32.715,2.930
1532385572.566,25.391,50.781,51.270,42.969,-16.113
1532385572.570,25.391,51.270,47.852,45.898,44.434
1532385572.574,26.367,46.875,37.109,40.039,76.172
1532385572.577,29.785,33.691,27.344,41.016,12.695
1532385572.581,32.227,31.738,35.156,44.434,-16.113
1532385572.585,27.832,37.109,43.945,42.969,27.832
1532385572.589,37.598,20.020,39.551,39.062,83.984
1532385572.593,46.875,25.391,34.668,48.340,62.988
1532385572.597,37.598,49.316,27.344,52.246,-15.625
1532385572.601,45.410,42.480,32.715,45.410,-38.086
1532385572.605,63.965,29.297,50.781,45.410,42.969
1532385572.609,51.758,29.785,63.965,45.410,86.426
1532385572.613,40.039,38.086,57.617,48.828,22.461
1532385572.617,37.109,39.062,45.898,49.805,10.254
1532385572.620,26.855,29.297,35.156,39.062,65.430
1532385572.624,33.203,34.668,29.785,35.156,70.312
1532385572.628,36.133,45.898,28.320,41.504,27.344
1532385572.632,22.949,45.898,34.668,40.039,11.719
1532385572.636,38.086,45.410,43.945,38.086,47.852
1532385572.640,48.828,38.574,54.688,41.016,68.359
1532385572.644,48.340,29.297,53.223,43.945,43.457
1532385572.648,49.805,31.250,49.805,46.875,-9.766
1532385572.652,46.875,23.926,50.781,42.480,16.602
1532385572.656,46.875,22.461,35.156,31.250,76.172
1532385572.659,52.246,48.828,28.320,36.621,37.109
1532385572.663,51.758,47.852,29.297,39.062,25.391
1532385572.667,38.574,20.996,27.344,33.203,29.297
1532385572.671,31.738,24.414,47.852,32.715,51.270
1532385572.675,30.273,33.203,52.246,27.344,67.383
1532385572.679,32.227,27.344,38.086,20.508,0.977
1532385572.683,31.738,29.297,34.180,18.555,-16.602
1532385572.687,31.738,22.461,33.203,23.926,48.340
1532385572.691,39.551,20.996,26.367,26.855,57.129
1532385572.695,41.016,32.715,38.086,32.715,0.000
1532385572.699,34.180,32.715,54.199,32.715,-29.785
1532385572.702,34.668,28.320,47.363,31.250,34.668
1532385572.706,42.480,28.320,41.992,40.039,82.520
1532385572.710,44.434,22.461,46.875,45.898,34.180
1532385572.714,46.875,11.230,41.504,41.016,-5.371
1532385572.718,37.109,15.137,35.645,35.645,-4.395
1532385572.722,24.414,16.113,38.574,33.691,19.043
1532385572.726,27.832,10.742,38.086,28.809,49.805
1532385572.730,18.066,20.508,39.551,21.484,28.320
1532385572.734,25.879,28.320,43.457,25.879,5.371
1532385572.738,31.250,24.902,38.574,26.367,23.438
1532385572.741,35.645,15.625,35.156,24.414,-4.883
1532385572.745,42.969,16.113,29.297,27.344,-24.902
1532385572.749,33.203,26.367,37.109,30.762,-10.742
1532385572.753,28.809,26.367,47.852,28.809,32.227
1532385572.757,22.461,10.254,37.109,20.508,83.496
1532385572.761,24.902,5.859,35.645,22.461,36.133
1532385572.765,41.504,6.348,39.551,35.156,7.324
1532385572.769,37.598,5.371,20.020,24.902,38.574
1532385572.773,32.715,31.250,16.602,11.719,84.473
1532385572.777,32.715,31.250,38.086,13.184,58.594
1532385572.781,24.902,16.602,38.086,11.719,-4.395
1532385572.784,23.926,21.973,43.457,15.137,8.789
1532385572.788,38.086,34.180,53.711,20.020,50.781
1532385572.792,40.039,37.109,54.199,29.297,66.895
1532385572.796,33.203,19.043,46.387,28.809,21.484
1532385572.800,34.180,8.789,20.020,7.812,-27.344
1532385572.804,29.785,20.508,18.066,7.324,21.484
1532385572.808,32.227,23.438,29.785,23.926,53.223
1532385572.812,33.691,22.949,26.855,29.785,31.738
1532385572.816,35.645,16.113,36.133,27.832,18.555
1532385572.820,34.668,12.207,44.434,28.809,16.602
1532385572.824,29.297,23.926,42.480,21.484,68.359
1532385572.827,33.691,38.086,43.945,24.414,49.316
1532385572.831,37.109,47.363,38.574,32.715,7.812
1532385572.835,36.621,20.996,27.344,27.344,29.785
1532385572.839,28.809,13.184,24.414,13.184,49.316
1532385572.843,14.160,26.855,23.926,9.766,9.277
1532385572.847,20.996,16.602,30.273,20.996,-23.438
1532385572.851,26.855,16.602,39.551,23.438,14.160
1532385572.855,25.391,27.832,25.391,20.996,101.074
1532385572.859,34.180,23.438,20.996,23.438,103.027
1532385572.863,39.551,29.297,39.062,31.738,19.531
1532385572.866,30.273,29.297,44.434,34.180,-1.953
1532385572.870,25.391,25.879,40.039,30.273,49.805
1532385572.874,20.020,19.043,33.203,20.508,55.664
1532385572.878,19.531,19.043,27.832,15.625,-14.648
1532385572.882,30.762,22.461,35.645,25.879,-27.832
1532385572.886,20.996,9.766,42.969,25.391,33.691
1532385572.890,13.184,18.066,41.504,20.508,48.340
1532385572.894,20.996,27.344,44.922,27.832,31.250
1532385572.898,34.180,22.461,34.668,31.738,-12.695
1532385572.902,36.133,25.879,18.066,27.344,-13.184
1532385572.906,26.367,26.367,25.879,29.297,63.965
1532385572.909,38.086,18.066,48.828,39.062,58.105
1532385572.913,36.621,10.742,40.039,44.922,9.277
1532385572.917,15.625,19.043,10.254,22.949,3.906
1532385572.921,25.391,26.855,28.809,23.438,40.039
1532385572.925,21.973,7.324,50.781,27.832,67.871
1532385572.929,16.113,-1.465,36.133,9.277,6.348
1532385572.933,27.344,26.855,31.250,17.578,-6.348
1532385572.937,29.297,34.668,30.273,22.949,48.828
1532385572.941,14.648,22.949,28.320,12.695,35.645
1532385572.945,23.926,25.879,31.250,21.973,19.043
1532385572.948,25.879,12.207,31.738,31.250,15.137
1532385572.952,11.230,13.184,25.391,20.996,23.926
1532385572.956,21.484,29.297,17.090,18.555,52.734
1532385572.960,15.625,21.484,16.602,16.113,38.574
1532385572.964,8.301,27.344,35.156,15.625,8.301
1532385572.968,11.719,32.227,36.621,15.137,15.137
1532385572.972,4.395,19.531,21.484,9.766,69.336
1532385572.976,14.648,16.113,32.227,20.508,46.387
1532385572.980,36.133,21.484,21.484,23.438,-34.180
1532385572.984,28.809,13.184,4.395,13.184,-30.273
1532385572.988,20.020,19.043,17.578,16.113,42.480
1532385572.991,18.066,26.367,30.273,15.625,59.570
1532385572.995,12.207,18.555,31.738,7.812,18.066
1532385572.999,14.160,18.066,31.250,9.766,-13.184
1532385573.003,28.809,25.879,34.668,14.648,17.578
1532385573.007,26.855,25.391,28.320,11.230,54.199
1532385573.011,15.625,18.555,25.879,14.648,29.785
1532385573.015,18.555,23.438,13.672,18.555,-2.441
1532385573.019,30.762,32.715,13.184,25.391,20.020
1532385573.023,30.762,29.785,18.066,26.367,74.219
1532385573.027,24.414,19.531,21.484,22.461,53.223
1532385573.031,29.785,28.320,38.086,21.973,8.789
1532385573.034,19.531,19.531,34.180,8.301,37.109
1532385573.038,15.137,6.836,15.137,1.953,69.336
1532385573.042,20.508,12.695,21.484,5.371,46.875
1532385573.046,28.320,24.902,26.855,13.184,22.949
1532385573.050,25.879,28.809,19.043,9.766,30.762
1532385573.054,23.926,24.902,20.020,18.555,62.500
1532385573.058,30.273,20.996,18.555,34.180,51.270
1532385573.062,19.531,20.996,14.648,20.020,14.160
1532385573.066,23.438,22.461,18.066,16.602,10.742
1532385573.070,31.250,24.414,31.250,29.297,30.762
1532385573.073,29.785,33.691,38.086,32.227,70.801
1532385573.077,36.133,13.672,19.043,23.926,35.156
1532385573.081,17.578,15.625,17.578,20.996,-41.992
1532385573.085,10.254,37.598,28.320,21.973,-3.906
1532385573.089,26.367,41.992,30.762,20.996,65.430
1532385573.093,31.738,41.504,28.809,22.461,50.781
1532385573.097,19.043,23.438,13.184,16.602,6.348
1532385573.101,34.668,19.043,21.973,25.391,6.348
1532385573.105,43.457,35.156,27.832,39.062,61.035
1532385573.109,28.320,39.551,10.742,24.902,71.777
1532385573.113,18.066,34.180,15.137,11.230,3.418
1532385573.116,26.367,27.832,34.668,14.648,-20.020
1532385573.120,38.574,9.766,33.691,25.391,11.719
1532385573.124,36.133,14.160,24.902,30.762,39.551
1532385573.128,25.879,45.410,22.461,18.066,43.945
1532385573.132,20.996,48.828,32.227,17.090,15.625
1532385573.136,25.879,32.227,43.457,29.297,25.879
1532385573.140,38.086,32.227,36.621,29.785,68.848
1532385573.144,37.109,47.852,22.461,32.715,49.805
1532385573.148,29.297,49.316,18.555,41.504,-3.418
1532385573.152,23.438,31.738,33.203,37.598,25.391
1532385573.155,6.836,22.949,35.156,20.508,83.008
1532385573.159,10.742,30.762,29.785,17.578,67.383
1532385573.163,26.367,31.250,34.180,37.598,-3.418
1532385573.167,28.320,20.020,38.574,33.203,-1.953
1532385573.171,20.020,27.832,36.621,20.508,46.387
1532385573.175,20.996,35.645,24.414,31.738,55.664
1532385573.179,30.762,25.879,27.832,31.250,35.156
1532385573.183,31.250,33.691,35.156,29.785,28.320
1532385573.187,33.691,39.551,31.738,38.086,64.453
1532385573.191,43.945,37.109,38.086,39.551,87.891
1532385573.195,35.156,44.922,36.133,35.645,45.898
1532385573.198,30.273,42.480,37.598,22.461,-13.672
1532385573.202,33.691,34.668,35.156,17.090,-5.859
1532385573.206,29.297,42.480,31.738,22.949,60.059
1532385573.210,30.762,45.898,36.133,25.391,50.781
1532385573.214,27.832,39.062,30.273,28.809,4.395
1532385573.218,25.879,31.250,33.691,19.043,1.465
1532385573.222,38.086,40.039,44.922,24.414,56.641
1532385573.226,34.668,49.316,34.180,35.156,81.543
1532385573.230,29.785,45.898,35.645,30.273,28.320
1532385573.234,29.297,41.016,39.551,26.855,33.691
1532385573.238,26.367,36.133,29.297,24.414,89.844
1532385573.241,26.855,34.180,37.109,25.879,73.730
1532385573.245,20.996,10.742,28.320,20.996,24.902
1532385573.249,20.508,4.883,28.320,21.484,7.324
1532385573.253,20.020,22.461,34.180,27.344,57.129
1532385573.257,23.926,40.527,30.762,23.926,74.219
1532385573.261,32.715,57.129,35.645,33.203,7.324
1532385573.265,27.344,54.199,34.180,36.621,-14.648
1532385573.269,23.438,47.852,40.039,33.691,15.137
1532385573.273,21.484,37.109,36.621,31.738,55.664
1532385573.277,8.301,25.879,23.926,18.066,49.316
1532385573.280,20.020,37.598,36.133,29.785,-9.766
1532385573.284,30.762,38.086,31.250,40.039,-15.137
1532385573.288,38.086,26.855,17.090,29.297,63.965
1532385573.292,30.762,17.578,25.879,28.809,87.402
1532385573.296,16.113,20.996,36.133,30.762,6.348
1532385573.300,38.086,53.711,43.457,28.809,-29.297
1532385573.304,44.922,72.266,29.785,35.645,45.410
1532385573.308,29.785,44.922,18.555,28.320,65.918
1532385573.312,22.461,18.555,24.414,14.160,15.625
1532385573.316,25.879,34.180,32.227,22.461,2.441
1532385573.320,26.367,41.992,36.621,19.531,0.488
1532385573.323,27.832,45.410,24.902,16.113,14.648
1532385573.327,32.227,43.945,23.926,30.273,42.969
1532385573.331,30.762,28.809,30.273,34.180,4.395
1532385573.335,44.922,27.832,39.551,38.086,21.973
1532385573.339,40.527,44.922,35.156,31.250,52.246
1532385573.343,24.902,48.828,19.043,18.555,23.438
1532385573.347,26.855,40.527,19.531,25.391,28.320
1532385573.351,22.949,35.645,22.461,20.996,36.621
1532385573.355,17.578,30.273,23.926,11.719,41.992
1532385573.359,20.020,25.879,31.738,19.043,45.410
1532385573.362,33.691,24.414,29.785,38.574,21.484
1532385573.366,42.480,34.668,22.461,42.969,17.578
1532385573.370,39.062,24.902,16.113,33.691,59.570
1532385573.374,26.855,10.742,0.977,29.297,80.078
1532385573.378,26.855,25.391,11.230,22.949,14.648
1532385573.382,33.691,26.855,40.039,17.578,-12.207
1532385573.386,23.926,25.879,33.203,11.719,48.340
1532385573.390,23.438,30.273,13.672,5.371,101.074
1532385573.394,32.227,28.320,14.648,4.395,62.500
1532385573.398,33.203,21.484,10.742,0.000,-9.766
1532385573.402,51.270,24.414,15.625,16.113,17.578
1532385573.405,33.691,26.855,23.926,16.602,78.125
1532385573.409,12.695,18.555,9.766,-0.488,59.570
1532385573.413,15.625,12.695,7.812,9.277,4.395
1532385573.417,20.508,13.672,18.066,28.320,-15.137
1532385573.421,34.180,33.203,7.324,32.715,1.465
1532385573.425,27.344,35.156,1.953,34.180,21.484
1532385573.429,21.484,25.879,26.367,41.992,22.949
1532385573.433,31.250,37.598,34.180,41.992,3.418
1532385573.437,53.223,41.992,20.508,42.480,32.227
1532385573.441,52.246,30.273,19.043,47.363,56.641
1532385573.445,30.762,22.461,29.297,44.922,14.160
1532385573.448,28.320,26.855,31.250,27.832,-26.855
1532385573.452,18.066,34.180,24.902,7.812,30.762
1532385573.456,13.672,40.527,22.949,12.207,82.031
1532385573.460,21.973,44.434,13.672,27.832,57.129
1532385573.464,32.715,36.621,-4.395,23.926,17.578
1532385573.468,37.598,35.645,11.230,21.973,6.836
1532385573.472,22.461,30.762,16.602,19.531,65.918
1532385573.476,23.926,25.879,9.277,14.648,70.801
1532385573.480,33.203,39.062,22.461,23.926,-20.996
1532385573.484,26.855,37.598,22.949,26.855,-18.555
1532385573.487,19.531,24.414,22.461,25.879,69.336
1532385573.491,32.227,24.902,38.086,26.855,61.035
1532385573.495,44.922,31.250,37.598,38.574,-0.488
1532385573.499,31.738,41.016,26.367,37.598,-20.996
1532385573.503,12.207,38.574,17.578,27.832,30.273
1532385573.507,16.113,13.184,1.953,27.832,59.570
1532385573.511,28.320,14.160,-0.488,31.250,5.371
1532385573.515,35.645,41.016,18.555,34.180,-31.738
1532385573.519,27.344,49.316,26.367,27.832,-20.996
1532385573.523,13.184,35.156,19.531,25.879,8.789
1532385573.527,33.203,37.109,27.832,27.832,44.922
1532385573.530,44.434,40.039,33.203,30.273,14.160
1532385573.534,24.902,25.391,20.020,25.391,-19.531
1532385573.538,20.508,30.762,17.578,15.625,32.227
1532385573.542,15.625,41.992,14.160,17.578,52.734
1532385573.546,27.344,42.480,0.977,26.855,6.836
1532385573.550,38.574,38.086,0.000,25.879,16.113
1532385573.554,37.109,21.973,9.766,23.926,81.055
1532385573.558,38.574,13.672,25.391,33.691,77.148
1532385573.562,34.180,18.066,39.062,35.156,15.625
1532385573.566,26.855,30.762,30.762,25.391,-4.883
1532385573.569,38.086,31.738,14.160,22.461,33.691
1532385573.573,43.457,32.715,20.020,24.902,59.082
1532385573.577,23.926,33.691,20.020,21.484,-4.395
1532385573.581,13.184,33.203,5.371,12.695,-15.625
1532385573.585,15.137,41.016,11.719,17.578,20.996
1532385573.589,21.484,36.133,18.066,18.066,55.664
1532385573.593,29.297,42.480,16.602,23.438,62.012
1532385573.597,21.973,32.227,22.949,24.902,7.812
1532385573.601,12.695,26.367,22.461,7.324,-8.789
1532385573.605,22.949,46.387,21.973,15.137,71.777
1532385573.609,33.203,36.621,25.879,29.297,83.008
1532385573.612,29.785,18.555,25.391,26.855,16.113
1532385573.616,28.320,26.855,26.855,28.320,4.883
1532385573.620,22.949,29.785,27.344,20.996,44.922
1532385573.624,23.926,21.973,19.531,13.672,70.312
1532385573.628,25.879,20.020,11.230,16.602,30.762
1532385573.632,27.832,33.203,17.090,25.879,10.742
1532385573.636,34.668,43.945,27.832,33.691,56.152
1532385573.640,34.668,33.203,30.273,21.973,78.125
1532385573.644,29.785,34.180,24.902,23.438,4.883
1532385573.648,28.809,33.203,19.531,25.879,-38.086
1532385573.652,38.574,33.691,28.320,21.973,18.066
1532385573.655,25.391,30.762,26.855,20.020,74.219
1532385573.659,21.484,26.367,18.066,20.508,55.664
1532385573.663,35.645,32.227,29.297,32.715,9.277
1532385573.667,27.832,21.973,21.484,26.855,20.020
1532385573.671,17.578,17.090,5.859,15.625,53.223
1532385573.675,24.902,23.926,23.438,17.090,55.664
1532385573.679,25.391,21.484,35.156,25.391,3.418
1532385573.683,17.578,14.160,31.250,25.391,-12.207
1532385573.687,17.578,16.602,24.902,23.926,49.316
1532385573.691,24.902,26.367,24.902,22.461,78.125
1532385573.694,21.973,29.297,35.645,20.508,28.320
1532385573.698,21.484,25.879,29.297,18.555,-18.555
1532385573.702,23.926,20.996,4.395,16.113,15.625
1532385573.706,27.832,19.531,20.996,26.855,74.219
1532385573.710,35.645,22.949,49.805,41.016,44.434
1532385573.714,31.738,4.395,32.227,26.367,-1.953
1532385573.718,20.996,9.766,20.020,13.184,-9.277
1532385573.722,18.066,20.508,24.414,19.531,30.762
1532385573.726,13.184,11.719,28.320,23.926,61.035
1532385573.730,22.461,20.996,25.879,23.438,21.484
1532385573.734,24.414,20.508,8.301,24.902,-7.324
1532385573.737,16.602,20.020,11.719,25.391,28.320
1532385573.741,20.996,29.297,41.016,24.414,83.984
1532385573.745,23.438,33.691,45.898,26.367,49.805
1532385573.749,26.367,20.996,32.715,27.344,7.324
1532385573.753,48.828,22.461,33.691,43.457,51.270
1532385573.757,41.016,24.902,35.645,32.227,43.945
1532385573.761,10.742,3.418,20.508,5.859,0.488
1532385573.765,16.602,5.371,17.578,15.625,-11.719
1532385573.769,26.855,27.832,19.531,24.414,-13.184
1532385573.773,25.879,16.113,12.207,21.973,14.160
1532385573.776,27.344,7.812,3.418,21.484,13.184
1532385573.780,30.762,27.344,17.578,21.484,-34.668
1532385573.784,34.668,31.738,38.086,20.020,-29.297
1532385573.788,32.227,25.879,33.203,19.043,40.527
1532385573.792,31.250,29.785,40.527,30.273,77.148
1532385573.796,40.527,28.809,40.039,44.922,32.715
1532385573.800,27.344,21.973,22.949,31.250,-12.695
1532385573.804,20.020,23.926,19.043,23.438,42.969
1532385573.808,24.902,15.137,9.766,34.180,79.590
1532385573.812,18.555,5.371,13.672,31.250,38.086
1532385573.816,14.648,13.672,38.086,30.273,9.766
1532385573.819,21.484,21.973,45.410,36.621,46.875
1532385573.823,22.461,22.461,28.809,26.367,70.312
1532385573.827,23.926,25.879,33.203,20.508,30.273
1532385573.831,18.555,22.949,33.203,23.926,16.113
1532385573.835,18.066,15.137,29.297,26.367,34.668
1532385573.839,46.387,26.855,28.809,37.598,52.246
1532385573.843,41.992,26.855,8.789,25.879,34.668
1532385573.847,22.949,13.672,17.090,16.602,8.789
1532385573.851,38.574,28.809,39.551,27.344,30.273
1532385573.855,18.555,36.621,35.645,21.484,71.289
1532385573.859,15.137,36.621,14.160,28.809,45.898
1532385573.862,33.203,43.945,14.160,38.086,2.441
1532385573.866,28.320,35.645,37.598,22.461,0.977
1532385573.870,24.902,13.672,33.691,18.066,70.312
1532385573.874,30.273,5.371,26.367,19.531,105.469
1532385573.878,30.762,22.461,22.949,13.184,36.133
1532385573.882,31.250,35.156,32.227,18.555,-5.859
1532385573.886,40.039,34.668,45.898,27.344,47.852
1532385573.890,47.363,17.090,28.809,24.902,104.492
1532385573.894,48.828,17.578,24.414,34.668,68.359
1532385573.898,32.227,39.062,16.113,38.086,9.766
1532385573.901,25.391,35.156,10.742,23.926,22.949
1532385573.905,24.902,13.184,27.832,12.207,63.477
1532385573.909,19.043,17.578,35.156,9.766,56.641
1532385573.913,25.879,38.574,36.621,22.461,8.789
1532385573.917,37.598,36.133,35.156,34.180,-6.836
1532385573.921,43.457,29.297,35.645,32.715,8.789
1532385573.925,44.434,16.602,37.109,32.715,34.668
1532385573.929,37.109,-0.977,32.715,23.926,27.344
1532385573.933,26.367,22.949,19.531,22.949,-3.418
1532385573.937,17.578,35.645,3.906,28.320,54.199
1532385573.941,12.695,23.926,21.484,24.414,78.613
1532385573.944,19.043,26.855,36.133,23.438,43.945
1532385573.948,35.645,34.668,33.691,28.320,3.418
1532385573.952,37.109,26.367,28.809,32.715,18.066
1532385573.956,34.180,17.578,32.227,33.691,76.660
1532385573.960,31.250,20.020,39.551,35.645,22.949
1532385573.964,28.809,17.578,36.133,37.598,-13.672
1532385573.968,21.973,23.926,27.832,32.715,28.320
1532385573.972,19.531,31.250,21.484,25.391,81.543
1532385573.976,21.973,28.320,13.672,14.160,69.824
1532385573.980,24.902,20.020,26.367,22.949,-12.207
1532385573.983,46.387,20.996,41.504,41.992,-31.250
1532385573.987,41.504,20.020,23.438,39.551,36.621
1532385573.991,20.996,16.113,19.531,28.809,56.641
1532385573.995,38.086,20.508,39.062,30.273,18.555
1532385573.999,36.133,31.738,41.016,26.367,-49.805
1532385574.003,28.809,34.668,35.645,27.344,-19.043
1532385574.007,36.621,30.273,31.250,28.809,72.754
1532385574.011,42.969,23.926,32.715,36.621,51.758
1532385574.015,43.945,27.344,40.039,39.062,7.812
1532385574.019,22.949,28.320,28.320,12.207,17.090
1532385574.023,15.625,21.484,22.949,5.859,77.637
1532385574.026,17.090,30.762,27.832,15.137,60.059
1532385574.030,19.531,35.645,31.738,19.531,-5.859
1532385574.034,26.367,25.879,40.527,20.508,20.996
1532385574.038,38.086,22.461,35.156,25.879,74.219
1532385574.042,42.969,23.438,37.598,33.691,76.660
1532385574.046,28.320,33.691,41.992,34.180,-1.953
1532385574.050,19.043,45.410,31.738,33.691,-45.898
1532385574.054,28.320,47.852,24.902,29.785,39.062
1532385574.058,26.855,41.992,32.715,27.832,57.617
1532385574.062,26.855,31.250,35.645,29.297,0.977
1532385574.066,33.691,42.480,43.945,33.203,-8.789
1532385574.069,31.250,36.621,55.176,34.668,20.508
1532385574.073,36.133,15.625,47.852,31.250,73.242
1532385574.077,43.945,32.715,45.898,37.598,30.762
1532385574.081,36.133,44.434,38.574,35.645,-30.762
1532385574.085,26.367,32.715,40.039,26.855,-0.488
1532385574.089,36.621,33.691,55.176,38.086,62.988
1532385574.093,35.156,34.668,37.598,36.133,62.500
1532385574.097,43.945,35.156,24.902,35.156,-10.742
1532385574.101,41.504,41.992,45.898,33.203,-18.555
1532385574.105,23.438,38.574,59.082,22.949,58.594
1532385574.108,25.879,34.668,49.805,30.273,65.430
1532385574.112,20.996,31.250,34.668,23.438,5.859
1532385574.116,23.438,35.156,26.855,16.602,-18.066
1532385574.120,29.785,37.598,33.203,26.855,12.695
1532385574.124,40.039,37.598,49.316,30.273,49.805
1532385574.128,41.016,43.945,45.898,36.621,18.555
1532385574.132,44.922,41.016,37.598,40.039,-8.301
1532385574.136,29.785,34.668,50.781,33.691,36.621
1532385574.140,18.555,41.504,54.199,24.902,59.570
1532385574.144,31.250,30.273,45.410,23.438,15.625
1532385574.148,32.715,21.484,38.574,24.414,-4.395
1532385574.151,25.391,26.367,34.180,21.973,29.297
1532385574.155,20.508,14.160,36.621,26.855,78.125
1532385574.159,39.062,19.531,43.457,30.273,45.898
1532385574.163,55.664,34.180,43.945,36.133,-38.086
1532385574.167,37.109,33.203,30.273,28.809,-22.461
1532385574.171,10.742,37.109,40.527,18.066,68.848
1532385574.175,23.926,30.273,63.965,22.461,95.215
1532385574.179,23.926,21.973,55.664,17.578,34.180
1532385574.183,7.324,33.691,42.480,18.555,-5.371
1532385574.187,18.555,44.922,38.086,15.625,33.691
1532385574.190,31.738,33.691,31.738,27.832,72.266
1532385574.194,52.734,26.367,39.062,49.805,44.434
1532385574.198,33.203,22.949,43.457,28.809,-2.441
1532385574.202,10.742,23.438,45.898,10.254,-0.488
1532385574.206,14.160,30.273,58.594,17.578,57.617
1532385574.210,23.438,26.367,52.246,25.879,39.062
1532385574.214,30.273,29.297,45.410,35.156,-5.859
1532385574.218,33.203,49.316,55.664,37.598,-0.488
1532385574.222,28.320,38.574,46.875,30.762,59.082
1532385574.226,25.391,17.090,48.828,28.320,62.012
1532385574.230,26.855,28.320,44.922,25.879,-2.441
1532385574.233,17.578,39.062,26.855,23.438,2.930
1532385574.237,24.414,34.668,44.434,23.438,62.500
1532385574.241,29.785,29.785,60.059,24.414,62.012
1532385574.245,32.227,33.203,53.711,30.273,19.043
1532385574.249,31.250,38.086,49.316,36.133,2.441
1532385574.253,27.832,43.945,55.176,40.527,41.016
1532385574.257,41.016,34.180,59.570,40.527,57.617
1532385574.261,49.316,27.832,49.316,39.551,11.719
1532385574.265,35.156,37.109,52.246,44.922,-0.977
1532385574.269,27.344,37.598,57.617,40.039,27.344
1532385574.273,30.273,36.133,47.852,38.574,90.820
1532385574.276,25.879,31.250,41.504,34.668,61.523
1532385574.280,23.926,24.414,40.039,23.926,-45.898
1532385574.284,30.273,20.996,54.199,24.902,-29.785
1532385574.288,29.297,32.227,62.988,22.461,26.855
1532385574.292,19.043,36.621,61.523,20.020,42.969
1532385574.296,38.086,50.293,52.246,19.531,-3.906
1532385574.300,42.480,55.664,43.945,16.602,-27.832
1532385574.304,35.156,44.434,44.434,12.695,34.668
1532385574.308,47.852,41.504,45.410,8.789,88.867
1532385574.312,46.387,30.762,39.062,14.648,62.500
1532385574.315,41.992,36.621,38.574,18.066,6.348
1532385574.319,40.527,55.176,47.852,23.926,3.906
1532385574.323,24.414,38.086,41.992,22.949,36.133
1532385574.327,16.113,11.230,42.969,18.555,33.691
1532385574.331,16.113,15.137,43.457,21.973,20.020
1532385574.335,27.832,35.645,43.945,25.391,20.020
1532385574.339,28.809,40.039,57.129,24.902,38.086
1532385574.343,15.137,35.645,50.293,23.926,50.293
1532385574.347,27.344,41.992,38.086,24.414,11.230
1532385574.351,9.766,48.340,45.898,21.973,5.859
1532385574.355,20.020,48.340,50.781,24.414,59.570
1532385574.358,38.574,43.457,28.320,18.555,43.945
1532385574.362,22.949,37.109,22.949,13.672,-9.277
1532385574.366,19.043,39.551,49.805,13.672,-25.879
1532385574.370,23.438,37.598,58.594,18.066,5.371
1532385574.374,38.086,34.180,53.711,23.926,40.039
1532385574.378,35.645,33.691,39.062,24.902,-14.160
1532385574.382,36.621,23.926,41.504,30.273,-35.645
1532385574.386,45.410,25.879,45.898,30.273,17.578
1532385574.390,35.645,45.898,48.340,29.785,62.500
1532385574.394,26.367,39.551,40.039,37.598,44.434
1532385574.397,29.297,21.973,31.250,36.621,-22.949
1532385574.401,35.645,28.809,52.246,37.109,-18.066
1532385574.405,37.109,43.457,43.945,41.504,52.734
1532385574.409,27.344,45.898,34.668,26.367,63.965
1532385574.413,29.785,32.227,50.293,26.855,8.789
1532385574.417,24.902,17.578,41.504,22.949,-20.508
1532385574.421,17.578,17.090,44.434,14.160,39.551
1532385574.425,20.508,36.133,40.039,22.949,83.496
1532385574.429,20.508,56.152,33.691,28.809,37.598
1532385574.433,18.555,48.828,41.992,29.785,31.738
1532385574.437,23.438,29.297,39.551,28.809,55.664
1532385574.440,27.832,27.832,57.617,36.621,47.363
1532385574.444,31.250,32.227,52.734,27.344,11.719
1532385574.448,24.414,34.180,36.133,18.066,-7.812
1532385574.452,12.207,32.715,37.598,21.973,9.766
1532385574.456,16.113,26.367,41.992,10.742,65.918
1532385574.460,25.391,35.156,40.527,14.648,46.875
1532385574.464,19.531,32.227,30.273,22.949,-9.277
1532385574.468,18.555,26.367,31.250,20.996,16.602
1532385574.472,27.832,35.156,41.016,28.809,66.406
1532385574.476,24.414,42.480,43.457,25.879,68.359
1532385574.480,17.090,39.551,49.316,15.625,8.301
1532385574.483,34.668,41.992,56.641,20.996,-15.625
1532385574.487,37.598,44.922,50.781,30.273,55.176
1532385574.491,18.555,35.156,40.527,20.508,101.074
1532385574.495,16.602,24.414,42.480,14.160,54.688
1532385574.499,26.367,33.203,38.086,20.996,7.324
1532385574.503,29.297,45.410,28.320,23.438,59.570
1532385574.507,24.902,38.086,39.551,24.414,93.750
1532385574.511,37.598,39.551,48.828,28.809,53.223
1532385574.515,32.715,38.574,43.945,29.297,19.043
1532385574.519,29.297,31.738,40.527,24.414,15.137
1532385574.522,45.898,22.949,50.781,28.320,59.570
1532385574.526,46.875,23.438,52.246,27.344,60.547
1532385574.530,40.039,34.668,52.246,31.738,13.672
1532385574.534,34.668,32.715,42.480,36.621,18.066
1532385574.538,34.668,35.156,28.320,24.414,44.434
1532385574.542,33.691,43.945,39.551,18.066,37.109
1532385574.546,38.574,49.316,44.922,19.531,17.090
1532385574.550,51.270,47.363,36.621,23.926,24.902
1532385574.554,43.457,42.969,40.039,23.438,70.801
1532385574.558,34.668,50.293,53.711,18.555,88.867
1532385574.562,42.480,54.199,50.293,27.832,24.414
1532385574.565,51.758,40.039,54.199,41.016,-16.602
1532385574.569,45.410,23.926,51.270,41.504,45.898
1532385574.573,37.109,32.715,37.598,34.668,102.051
1532385574.577,44.922,47.852,36.133,36.621,58.105
1532385574.581,54.199,52.246,50.781,43.945,0.000
1532385574.585,41.016,41.504,57.617,41.504,14.648
1532385574.589,21.973,29.785,51.270,22.949,71.289
1532385574.593,20.508,24.414,49.316,18.066,79.102
1532385574.597,35.156,33.691,51.758,28.320,0.000
1532385574.601,36.133,49.316,47.852,24.414,-52.734
1532385574.604,38.086,41.016,39.551,25.879,29.297
1532385574.608,43.457,34.668,42.480,36.621,95.215
1532385574.612,27.832,31.738,39.062,23.438,40.039
1532385574.616,21.973,26.855,29.785,24.414,-3.418
1532385574.620,22.949,51.758,39.062,32.715,17.090
1532385574.624,18.066,71.777,50.781,27.832,82.520
1532385574.628,22.949,53.711,50.781,18.555,68.848
1532385574.632,25.879,29.785,43.457,16.602,9.766
1532385574.636,23.438,16.602,44.434,24.414,37.109
1532385574.640,14.648,27.344,43.945,26.367,76.172
1532385574.644,24.414,43.457,37.109,34.180,36.621
1532385574.647,31.738,40.039,41.992,38.086,0.488
1532385574.651,28.809,33.203,46.387,31.738,14.160
1532385574.655,41.016,47.363,48.340,34.180,58.105
1532385574.659,35.645,41.504,59.082,33.203,61.523
1532385574.663,34.668,13.672,45.410,29.785,15.137
1532385574.667,37.109,14.648,24.414,27.832,2.441
1532385574.671,35.645,34.668,40.527,31.738,62.012
1532385574.675,45.410,49.316,62.500,42.480,103.516
1532385574.679,34.180,38.086,50.781,19.531,18.555
1532385574.683,12.695,22.461,35.645,8.789,-23.926
1532385574.687,23.438,20.996,37.109,21.484,59.570
1532385574.690,39.062,27.832,35.156,30.273,86.914
1532385574.694,36.621,26.855,44.434,26.855,32.715
1532385574.698,38.086,23.438,51.758,19.531,4.883
1532385574.702,28.809,26.367,49.316,25.391,27.832
1532385574.706,34.180,26.367,42.480,32.227,76.660
1532385574.710,41.992,24.414,32.227,25.879,57.129
1532385574.714,39.062,52.734,48.340,33.203,15.137
1532385574.718,27.344,54.199,60.547,26.367,-7.812
1532385574.722,17.090,31.738,50.293,21.973,21.973
1532385574.726,15.625,34.668,51.758,22.461,54.688
1532385574.729,15.137,27.832,37.598,18.066,29.785
1532385574.733,18.555,19.043,24.902,17.090,20.020
1532385574.737,27.832,23.926,46.387,15.625,56.152
1532385574.741,26.855,32.715,50.293,26.367,64.941
1532385574.745,27.832,30.762,46.875,30.762,15.625
1532385574.749,22.461,8.301,47.363,28.809,-0.488
1532385574.753,35.645,13.184,41.016,31.738,41.504
1532385574.757,48.828,42.969,43.945,26.855,40.527
1532385574.761,25.879,40.527,44.434,14.648,-21.973
1532385574.765,31.250,34.668,41.992,16.602,-35.645
1532385574.769,34.668,35.645,38.574,19.531,13.184
1532385574.772,26.855,28.809,40.039,19.531,74.707
1532385574.776,31.250,25.391,41.504,23.438,53.711
1532385574.780,37.109,18.066,42.969,23.438,-13.672
1532385574.784,31.738,10.742,53.223,25.391,11.230
1532385574.788,39.062,12.695,50.293,34.180,52.246
1532385574.792,40.527,17.090,40.527,32.227,54.688
1532385574.796,21.484,35.156,55.176,29.297,5.859
1532385574.800,26.855,42.480,66.406,34.668,-21.484
1532385574.804,26.855,32.227,51.270,30.273,34.180
1532385574.808,21.973,20.996,34.668,20.020,60.059
1532385574.811,26.855,18.066,41.016,18.066,22.461
1532385574.815,33.203,18.555,50.781,28.320,5.859
1532385574.819,41.016,3.418,49.805,32.715,30.762
1532385574.823,42.969,-4.883,40.039,31.738,65.430
1532385574.827,43.945,16.602,42.969,32.227,39.551
1532385574.831,32.227,28.320,55.664,25.879,3.906
1532385574.835,18.066,14.648,50.293,20.020,5.859
1532385574.839,22.949,29.297,53.711,22.949,49.805
1532385574.843,32.227,33.691,49.316,31.250,75.195
1532385574.847,36.621,23.926,37.109,37.109,23.926
1532385574.851,29.297,23.926,41.504,28.320,-8.301
1532385574.854,29.785,9.277,44.922,22.461,27.344
1532385574.858,32.715,8.301,54.688,24.414,51.758
1532385574.862,28.320,19.043,54.199,26.855,-7.812
1532385574.866,38.574,24.902,52.734,35.156,-25.879
1532385574.870,40.039,29.297,52.734,34.668,55.176
1532385574.874,34.668,3.418,40.527,23.926,82.520
1532385574.878,45.898,0.977,55.664,37.598,-6.348
1532385574.882,47.363,22.461,66.406,40.527,-34.180
1532385574.886,31.250,28.320,44.922,26.855,11.719
1532385574.890,16.602,38.574,38.574,25.391,46.387
1532385574.893,6.348,24.414,43.457,12.695,47.363
1532385574.897,12.207,30.762,49.805,20.020,-7.324
1532385574.901,20.020,32.715,55.176,27.832,-39.551
1532385574.905,25.391,23.926,52.246,24.414,44.434
1532385574.909,35.645,26.367,42.480,29.297,74.219
1532385574.913,34.668,19.531,45.898,32.715,19.531
1532385574.917,37.109,27.832,50.781,34.180,10.254
1532385574.921,42.969,36.621,51.270,35.645,50.781
1532385574.925,22.461,17.090,40.039,22.461,85.449
1532385574.929,19.043,41.016,40.039,22.949,36.133
1532385574.933,29.297,58.105,52.246,26.855,13.672
1532385574.936,18.066,22.949,38.086,13.672,62.988
1532385574.940,9.766,16.113,36.621,16.602,70.312
1532385574.944,18.555,21.973,38.086,21.484,29.297
1532385574.948,24.414,20.508,37.109,19.531,-11.230
1532385574.952,26.367,29.297,45.410,15.625,0.977
1532385574.956,29.297,48.340,45.898,22.949,54.688
1532385574.960,49.805,59.082,48.340,32.227,27.344
1532385574.964,55.664,37.109,53.711,42.969,10.254
1532385574.968,22.949,8.301,43.457,31.738,50.781
1532385574.972,19.043,21.484,40.039,18.066,86.426
1532385574.976,27.344,41.016,44.434,25.879,59.082
1532385574.979,27.344,33.691,34.668,27.344,-7.324
1532385574.983,33.203,37.598,23.438,36.133,-16.602
1532385574.987,37.598,40.527,33.691,37.598,55.176
1532385574.991,34.668,29.785,49.316,27.344,90.820
1532385574.995,35.645,36.133,54.688,30.273,5.859
1532385574.999,42.969,42.969,52.734,37.598,-49.805
1532385575.003,29.785,29.785,39.551,23.926,1.465
1532385575.007,22.461,28.320,36.133,21.973,88.379
1532385575.011,28.320,41.504,46.387,36.133,46.387
1532385575.015,33.691,40.039,35.156,36.133,-7.324
1532385575.018,46.387,21.484,30.273,41.016,-1.465
1532385575.022,41.016,33.203,51.270,46.387,54.688
1532385575.026,36.133,62.988,59.570,39.062,61.035
1532385575.030,35.645,65.918,53.223,35.156,7.812
1532385575.034,42.480,50.293,51.758,41.504,21.484
1532385575.038,45.410,30.762,53.223,41.504,36.133
1532385575.042,32.227,21.973,47.363,29.785,48.340
1532385575.046,28.809,26.367,38.574,26.367,10.742
1532385575.050,41.992,42.480,29.785,30.273,-0.488
1532385575.054,46.875,48.828,33.203,32.227,70.312
1532385575.058,37.598,49.316,45.898,26.855,65.430
1532385575.061,20.020,36.621,43.945,15.625,20.508
1532385575.065,16.602,19.531,39.551,16.602,4.395
1532385575.069,21.973,31.250,42.480,22.461,31.738
1532385575.073,26.855,33.691,40.039,18.555,63.477
1532385575.077,32.227,32.715,44.434,21.973,29.785
1532385575.081,47.363,44.922,56.641,39.062,-3.418
1532385575.085,53.711,48.340,54.199,48.828,23.926
1532385575.089,39.062,52.246,40.527,48.340,69.824
1532385575.093,62.988,57.617,44.922,61.523,59.570
1532385575.097,73.242,37.598,75.684,63.477,2.930
1532385575.100,54.199,41.016,89.355,55.176,-14.160
1532385575.104,54.199,73.730,79.102,51.758,42.969
1532385575.108,55.664,69.336,66.406,43.945,90.332
1532385575.112,50.781,59.082,66.406,44.922,53.223
1532385575.116,48.828,58.105,59.570,48.340,4.883
1532385575.120,41.504,60.059,51.270,39.551,23.926
1532385575.124,40.039,55.664,44.922,33.203,46.875
1532385575.128,43.945,45.410,40.527,34.668,23.926
1532385575.132,46.875,46.875,41.992,41.504,-2.930
1532385575.136,42.969,51.270,55.176,48.828,24.902
1532385575.140,49.316,48.340,72.266,44.922,48.828
1532385575.143,53.223,30.273,43.457,34.668,12.207
1532385575.147,35.645,24.414,21.973,20.020,-1.953
1532385575.151,23.438,27.832,36.621,16.602,15.625
1532385575.155,28.809,31.738,33.203,25.879,48.828
1532385575.159,26.855,41.504,19.531,26.367,47.363
1532385575.163,25.391,36.621,21.973,28.320,20.508
1532385575.167,38.574,30.273,30.273,26.367,32.715
1532385575.171,33.203,37.598,46.387,20.996,52.734
1532385575.175,33.203,39.551,45.410,20.508,65.918
1532385575.179,40.527,33.203,28.320,21.973,39.062
1532385575.183,53.711,19.531,33.203,36.133,-8.301
1532385575.186,52.734,11.230,33.691,33.691,20.996
1532385575.190,36.621,26.367,21.973,23.926,67.383
1532385575.194,28.320,26.855,23.438,19.531,57.129
1532385575.198,32.715,28.320,20.508,13.184,5.859
1532385575.202,44.922,38.086,9.766,16.113,-0.977
1532385575.206,49.316,19.043,30.762,11.719,60.547
1532385575.210,27.344,4.883,48.340,4.395,74.219
1532385575.214,24.902,8.301,35.645,16.602,34.180
1532385575.218,40.527,9.766,28.320,30.273,15.137
1532385575.222,22.461,22.461,39.062,35.156,33.691
1532385575.225,16.113,20.996,35.645,29.785,43.945
1532385575.229,19.531,22.461,9.277,25.879,22.461
1532385575.233,16.113,18.555,5.371,25.879,-10.742
1532385575.237,11.230,13.672,25.391,17.090,21.973
1532385575.241,4.883,13.672,39.062,15.625,58.105
1532385575.245,6.836,7.812,33.203,20.020,15.137
1532385575.249,17.090,0.000,14.648,18.555,-17.090
1532385575.253,19.043,10.254,16.602,22.461,14.160
1532385575.257,12.207,24.902,31.738,21.973,37.109
1532385575.261,18.555,16.602,26.367,14.648,12.695
1532385575.265,15.137,8.301,25.879,16.113,-9.277
1532385575.268,14.160,22.949,36.621,23.438,1.953
1532385575.272,24.414,24.902,38.086,33.203,47.363
1532385575.276,29.785,7.812,32.715,30.273,35.645
1532385575.280,25.391,15.625,21.973,19.531,10.254
1532385575.284,18.555,19.043,14.648,13.184,33.691
1532385575.288,23.926,9.766,14.160,16.113,67.871
1532385575.292,37.109,10.742,24.414,25.879,69.336
1532385575.296,37.598,11.719,23.438,22.461,23.438
1532385575.300,20.020,6.836,23.926,10.742,10.254
1532385575.304,19.043,10.254,37.598,12.695,50.293
1532385575.307,25.391,33.203,42.969,20.996,65.430
1532385575.311,29.297,56.152,37.109,27.344,36.133
1532385575.315,25.391,40.527,24.414,21.973,19.043
1532385575.319,16.602,12.207,26.855,9.766,38.574
1532385575.323,18.555,8.301,18.555,12.695,67.383
1532385575.327,22.461,21.973,16.113,18.066,53.711
1532385575.331,22.461,24.414,29.297,19.043,23.438
1532385575.335,22.461,17.090,21.484,19.043,32.227
1532385575.339,30.762,9.277,10.254,19.043,50.781
1532385575.343,28.320,-1.953,15.625,23.438,42.480
1532385575.347,19.043,11.230,25.879,22.461,7.324
1532385575.350,20.020,31.250,41.992,20.508,-7.324
1532385575.354,18.555,22.461,37.598,15.137,70.801
1532385575.358,17.578,19.531,34.180,18.066,115.723
1532385575.362,29.785,36.133,34.668,28.320,51.270
1532385575.366,31.250,32.227,21.484,25.391,-2.930
1532385575.370,19.531,19.531,17.578,18.066,22.949
1532385575.374,26.367,19.531,14.160,17.578,62.012
1532385575.378,25.879,17.578,6.836,16.602,34.668
1532385575.382,19.531,12.207,13.184,12.695,-4.395
1532385575.386,15.137,9.277,31.250,9.277,24.414
1532385575.390,23.438,19.043,33.203,10.742,55.664
1532385575.393,26.855,25.879,26.855,20.996,41.016
1532385575.397,34.180,27.832,20.508,17.090,3.418
1532385575.401,33.691,34.180,24.414,6.836,-8.301
1532385575.405,41.992,30.273,33.203,20.020,49.805
1532385575.409,48.828,21.484,28.809,30.762,70.312
1532385575.413,29.297,7.324,14.648,27.344,16.602
1532385575.417,27.832,10.254,10.742,16.113,-9.766
1532385575.421,22.461,30.273,13.184,2.930,27.344
1532385575.425,20.020,33.691,13.672,8.301,51.270
1532385575.429,24.414,8.301,25.879,11.719,15.625
1532385575.432,27.344,4.395,44.434,16.602,-10.742
1532385575.436,32.227,27.832,47.852,26.855,34.668
1532385575.440,38.086,35.156,43.457,30.273,64.941
1532385575.444,43.945,29.785,22.949,22.949,37.109
1532385575.448,38.086,29.297,9.766,21.973,15.625
1532385575.452,28.809,14.160,32.715,29.297,24.902
1532385575.456,25.391,9.766,37.109,20.508,70.801
1532385575.460,27.344,31.738,21.973,11.230,72.754
1532385575.464,30.273,35.156,25.879,15.625,10.742
1532385575.468,20.020,28.809,29.297,23.438,16.113
1532385575.472,20.996,13.672,40.527,34.668,71.289
1532385575.475,32.715,7.324,47.363,39.062,84.473
1532385575.479,29.785,20.020,32.715,27.344,25.391
1532385575.483,20.020,26.367,28.320,29.297,-15.137
1532385575.487,32.715,25.879,34.180,39.062,35.156
1532385575.491,39.062,19.531,34.180,42.969,63.965
1532385575.495,29.785,19.043,28.809,28.809,23.438
1532385575.499,33.691,27.832,40.039,23.438,-13.672
1532385575.503,37.598,27.344,51.758,36.133,12.207
1532385575.507,29.785,15.137,39.551,34.668,55.176
1532385575.511,28.809,19.043,30.762,29.297,20.996
1532385575.514,35.156,22.461,37.109,25.879,-10.742
1532385575.518,29.785,16.113,45.898,32.227,0.488
1532385575.522,27.344,29.297,40.039,36.621,67.871
1532385575.526,31.738,30.762,31.250,34.668,77.637
1532385575.530,39.062,19.531,41.992,43.457,8.789
1532385575.534,36.133,30.273,38.086,44.922,0.977
1532385575.538,34.668,42.480,30.762,31.738,45.410
1532385575.542,32.227,29.785,46.875,23.438,42.480
1532385575.546,20.020,10.742,45.898,20.996,6.836
1532385575.550,14.648,10.742,27.832,12.695,-22.461
1532385575.554,5.371,13.184,29.785,12.695,14.160
1532385575.557,21.484,24.414,40.527,21.484,55.664
1532385575.561,34.180,19.043,50.781,25.391,1.953
1532385575.565,18.555,9.766,41.992,24.414,-54.199
1532385575.569,21.973,26.855,38.574,30.762,-4.883
1532385575.573,43.945,46.387,45.410,42.969,74.219
1532385575.577,35.156,41.016,36.133,36.621,26.855
1532385575.581,15.625,33.203,35.645,22.949,-31.738
1532385575.585,24.414,35.645,30.273,22.461,2.441
1532385575.589,27.344,28.320,39.062,19.531,78.125
1532385575.593,16.113,22.461,42.480,15.137,88.379
1532385575.597,13.184,22.461,40.039,9.766,9.277
1532385575.600,18.066,15.137,39.551,18.555,-30.762
1532385575.604,28.320,26.855,35.156,27.344,36.621
1532385575.608,45.898,37.109,36.133,29.785,62.988
1532385575.612,43.457,22.949,41.504,36.133,12.695
1532385575.616,28.320,27.832,38.086,28.809,-9.766
1532385575.620,31.250,42.480,32.227,18.555,21.973
1532385575.624,37.598,38.086,47.363,23.926,73.242
1532385575.628,32.715,13.184,43.457,24.414,45.898
1532385575.632,22.461,14.648,29.297,14.648,-4.395
1532385575.636,36.621,17.578,34.180,20.996,30.273
1532385575.639,43.457,4.883,35.156,22.461,82.031
1532385575.643,28.320,24.902,19.043,21.973,33.691
1532385575.647,32.227,40.527,10.254,28.809,-29.785
1532385575.651,29.785,42.969,21.484,26.367,-5.371
1532385575.655,26.367,33.203,15.137,30.762,32.715
1532385575.659,37.109,27.344,13.672,34.668,39.551
1532385575.663,29.297,36.133,24.414,31.738,9.766
1532385575.667,30.273,38.086,24.414,35.645,-6.836
1532385575.671,38.574,31.738,28.320,40.039,47.852
1532385575.675,26.367,19.043,15.137,28.809,72.266
1532385575.679,18.066,14.160,-8.301,11.719,9.766
1532385575.682,25.391,17.578,-5.859,12.695,-50.293
1532385575.686,37.598,13.672,3.906,25.879,1.953
1532385575.690,38.086,12.207,1.953,27.832,65.430
1532385575.694,33.691,13.184,1.953,24.414,46.387
1532385575.698,28.320,20.508,9.766,20.508,-7.324
1532385575.702,26.855,39.551,5.371,20.996,-2.441
1532385575.706,33.691,48.340,5.859,25.391,41.016
1532385575.710,31.738,41.504,8.789,22.461,30.762
1532385575.714,23.438,25.391,0.000,18.066,-21.484
1532385575.718,21.973,17.578,-7.812,14.648,-39.062
1532385575.721,26.367,25.879,-4.883,12.695,15.625
1532385575.725,21.973,30.762,0.000,20.996,48.340
1532385575.729,27.832,27.832,-3.906,30.273,18.555
1532385575.733,34.180,34.180,-6.348,32.715,23.926
1532385575.737,37.109,34.180,-6.836,23.926,25.391
1532385575.741,38.574,28.809,0.000,19.531,33.203
1532385575.745,24.414,20.020,1.953,18.066,34.668
1532385575.749,27.832,30.762,2.441,21.973,-4.395
1532385575.753,33.691,40.527,8.789,30.762,33.691
1532385575.757,26.367,16.113,0.000,21.484,76.660
1532385575.761,29.297,23.926,-1.953,22.461,28.809
1532385575.764,32.227,42.969,8.789,23.926,-10.254
1532385575.768,27.344,36.133,-0.488,15.625,11.230
1532385575.772,21.484,37.598,-10.742,22.461,64.941
1532385575.776,22.949,28.809,-6.836,26.367,43.945
1532385575.780,32.715,22.461,1.465,35.645,-20.996
1532385575.784,25.879,37.598,-1.465,32.715,-14.648
1532385575.788,24.902,40.527,-1.953,26.855,5.859
1532385575.792,31.738,30.273,1.465,40.039,38.086
1532385575.796,37.598,35.156,1.465,38.086,22.949
1532385575.800,31.250,41.504,13.184,38.574,-33.691
1532385575.804,31.250,32.227,11.230,35.645,21.484
1532385575.807,43.457,40.039,2.441,34.668,78.125
1532385575.811,35.156,50.781,8.301,37.109,47.363
1532385575.815,26.367,41.992,2.441,30.273,2.441
1532385575.819,32.715,30.273,-1.953,28.320,-8.789
1532385575.823,34.180,19.531,-8.789,32.227,61.523
1532385575.827,41.016,22.949,-11.719,34.668,59.082
1532385575.831,36.621,43.945,-1.465,28.809,0.000
1532385575.835,25.391,52.246,0.000,27.832,0.977
1532385575.839,40.039,49.805,10.742,29.297,45.898
1532385575.843,40.527,40.039,14.648,24.902,56.641
1532385575.846,31.738,27.344,7.812,29.785,-0.488
1532385575.850,43.945,40.527,17.090,39.062,-4.395
1532385575.854,39.551,44.434,5.371,37.598,44.434
1532385575.858,34.668,25.391,-24.902,21.973,26.855
1532385575.862,37.109,33.691,-15.137,21.484,-3.906
1532385575.866,32.715,38.086,0.488,34.668,-22.949
1532385575.870,34.668,39.062,-2.441,36.621,15.625
1532385575.874,36.621,49.805,-3.418,26.855,68.359
1532385575.878,31.738,39.062,8.789,19.531,7.324
1532385575.882,21.973,19.043,12.695,18.555,-16.602
1532385575.886,19.043,25.391,6.836,26.855,29.297
1532385575.889,25.879,38.086,-2.441,32.227,74.219
1532385575.893,21.484,38.086,-5.371,39.551,52.246
1532385575.897,26.855,41.016,-10.742,38.086,-8.789
1532385575.901,30.273,30.273,-11.719,28.320,-33.203
1532385575.905,23.438,19.531,5.371,27.344,10.254
1532385575.909,23.926,33.691,9.766,16.602,50.293
1532385575.913,21.973,51.758,8.301,11.719,29.785
1532385575.917,12.695,48.828,5.371,12.207,3.906
1532385575.921,24.414,37.598,2.930,19.043,33.691
1532385575.925,36.133,35.645,-0.488,26.367,69.824
1532385575.928,24.902,29.785,-9.277,26.855,26.855
1532385575.932,28.320,25.879,-3.906,29.297,-2.930
1532385575.936,25.391,31.738,8.301,33.691,17.090
1532385575.940,28.320,45.898,-1.465,30.762,44.434
1532385575.944,40.527,45.898,-2.441,31.250,19.043
1532385575.948,32.715,28.809,2.441,26.367,-11.230
1532385575.952,25.391,20.020,-2.441,25.879,0.000
1532385575.956,38.086,23.438,-7.812,28.809,23.438
1532385575.960,38.086,24.414,-5.371,24.902,34.668
1532385575.964,20.996,34.180,2.441,23.438,7.812
1532385575.968,36.133,49.805,4.395,24.902,1.465
1532385575.971,41.016,44.922,-12.207,23.926,39.551
1532385575.975,34.668,46.875,-6.836,30.273,50.293
1532385575.979,47.852,45.410,16.602,41.992,13.184
1532385575.983,41.016,34.180,11.230,32.227,-9.277
1532385575.987,28.809,32.715,-3.418,21.973,31.250
1532385575.991,38.086,29.297,-3.418,28.809,63.477
1532385575.995,34.180,29.785,-6.836,31.250,25.391
1532385575.999,26.855,38.574,1.465,23.438,-51.758
1532385576.003,32.227,38.574,14.648,24.414,-25.879
1532385576.007,20.996,30.273,3.906,23.926,66.406
1532385576.011,35.156,33.691,11.230,29.785,45.410
1532385576.014,47.363,24.902,17.578,42.969,0.488
1532385576.018,39.551,9.766,6.348,38.574,15.137
1532385576.022,35.156,22.461,8.789,39.551,58.105
1532385576.026,26.855,42.480,12.207,34.668,56.152
1532385576.030,29.297,45.898,3.906,24.902,9.277
1532385576.034,37.598,37.109,-3.906,28.809,-5.859
1532385576.038,33.691,29.297,1.953,38.086,51.758
1532385576.042,22.461,15.625,5.371,28.809,64.941
1532385576.046,17.578,13.184,-0.977,18.555,30.762
1532385576.050,27.344,28.320,1.953,23.926,12.207
1532385576.053,33.691,29.297,7.812,28.320,34.668
1532385576.057,34.180,21.973,23.438,29.785,84.473
1532385576.061,44.434,29.297,21.973,27.832,62.988
1532385576.065,49.805,41.016,12.695,37.109,18.066
1532385576.069,37.598,28.320,19.043,43.457,17.090
1532385576.073,35.645,18.555,13.184,44.434,84.473
1532385576.077,31.250,23.926,-0.977,36.621,69.824
1532385576.081,43.457,26.367,9.766,34.180,-41.992
1532385576.085,47.363,18.066,11.719,36.621,-19.043
1532385576.089,35.156,12.207,1.465,31.738,78.125
1532385576.093,40.527,22.461,5.371,33.203,73.730
1532385576.096,46.387,27.344,11.230,31.738,-0.977
1532385576.100,52.734,27.832,18.555,35.645,-12.207
1532385576.104,38.574,31.250,17.090,38.086,58.105
1532385576.108,27.344,35.645,19.531,31.738,83.008
1532385576.112,43.945,35.156,18.555,26.855,40.039
1532385576.116,45.410,31.250,1.953,22.949,-8.789
1532385576.120,40.039,30.762,0.977,11.719,-2.930
1532385576.124,50.781,22.949,4.395,16.113,56.152
1532385576.128,67.871,19.043,13.672,34.180,59.570
1532385576.132,58.105,14.648,18.066,29.785,-12.695
1532385576.135,36.133,18.066,0.000,21.973,-12.695
1532385576.139,18.066,35.645,6.836,22.949,59.570
1532385576.143,13.672,37.598,15.625,27.832,58.594
1532385576.147,18.066,25.391,9.766,37.598,13.184
1532385576.151,13.672,20.020,4.883,34.668,2.441
1532385576.155,17.578,21.484,7.324,28.320,40.527
1532385576.159,13.184,26.855,9.766,27.344,48.828
1532385576.163,23.926,28.320,12.695,31.738,-2.930
1532385576.167,35.645,25.391,14.648,34.180,-15.625
1532385576.171,30.273,22.461,17.090,37.109,37.598
1532385576.175,29.785,15.137,24.902,33.203,62.500
1532385576.178,37.109,27.832,22.461,32.227,-1.465
1532385576.182,31.738,43.457,21.484,25.879,-62.500
1532385576.186,25.391,35.645,16.602,17.578,-23.926
1532385576.190,28.809,24.414,21.484,23.926,52.734
1532385576.194,16.113,11.719,22.949,24.414,46.875
1532385576.198,22.949,24.902,33.203,27.344,-9.277
1532385576.202,30.273,24.414,44.922,33.203,-0.977
1532385576.206,28.320,12.207,34.668,28.809,56.152
1532385576.210,30.762,24.902,32.227,34.180,53.711
1532385576.214,26.367,22.461,34.668,31.738,6.836
1532385576.218,32.715,23.926,35.156,27.344,-26.367
1532385576.221,29.785,33.203,33.203,20.996,23.438
1532385576.225,30.273,46.875,41.016,20.996,48.340
1532385576.229,44.922,44.922,46.875,27.344,-1.953
1532385576.233,39.062,26.855,40.039,26.367,-2.441
1532385576.237,30.273,14.648,45.410,26.855,32.227
1532385576.241,33.691,23.438,51.758,23.438,43.945
1532385576.245,32.227,41.504,36.133,20.996,45.410
1532385576.249,18.555,31.250,34.180,8.789,23.438
1532385576.253,9.766,16.113,50.293,9.277,18.066
1532385576.257,18.555,8.789,54.688,15.625,70.312
1532385576.260,30.762,33.203,53.711,19.531,65.918
1532385576.264,24.414,48.828,43.457,16.113,18.066
1532385576.268,18.066,38.086,44.922,20.996,8.789
1532385576.272,25.879,34.668,55.664,32.227,48.828
1532385576.276,22.461,31.738,51.758,24.414,49.805
1532385576.280,20.996,30.762,41.504,21.973,7.324
1532385576.284,32.715,30.762,53.223,36.133,27.344
1532385576.288,35.156,42.480,61.523,37.598,63.965
1532385576.292,30.762,43.457,42.480,23.438,56.152
1532385576.296,20.020,47.363,44.434,16.113,13.184
1532385576.300,28.320,63.965,49.316,26.367,-25.391
1532385576.303,40.039,59.082,36.621,30.762,35.645
1532385576.307,40.527,53.223,40.039,39.551,69.336
1532385576.311,45.898,60.547,62.500,45.410,19.531
1532385576.315,27.832,55.664,53.223,28.320,-20.508
1532385576.319,30.273,53.223,38.574,37.109,-17.090
1532385576.323,35.156,67.871,52.246,32.227,38.574
1532385576.327,20.508,69.824,59.082,20.020,31.250
1532385576.331,24.902,73.730,55.176,26.855,-27.344
1532385576.335,41.504,80.078,47.852,34.180,-24.414
1532385576.339,33.203,76.172,39.062,42.480,29.785
1532385576.342,29.297,64.941,42.969,45.898,75.684
1532385576.346,31.250,57.617,51.270,32.227,26.855
1532385576.350,22.949,58.594,56.152,22.949,-9.766
1532385576.354,30.273,77.148,56.641,32.715,24.414
1532385576.358,32.715,79.590,34.180,36.133,51.758
1532385576.362,38.086,66.406,41.504,41.016,33.203
1532385576.366,47.363,66.895,56.641,41.504,-7.812
1532385576.370,40.039,48.828,47.852,27.832,15.625
1532385576.374,35.156,36.133,47.852,24.902,62.012
1532385576.378,33.691,49.805,44.922,26.367,13.184
1532385576.382,28.809,58.594,40.527,16.113,-13.184
1532385576.385,29.785,62.500,51.758,21.484,14.160
1532385576.389,39.062,55.664,61.523,33.691,30.273
1532385576.393,37.598,48.340,42.969,39.551,24.414
1532385576.397,32.227,49.316,41.992,24.414,-8.301
1532385576.401,31.250,43.457,58.105,9.766,-32.715
1532385576.405,26.367,30.273,53.223,20.020,48.828
1532385576.409,27.344,23.926,42.969,21.973,98.145
1532385576.413,29.785,30.273,44.922,30.273,37.598
1532385576.417,16.113,19.531,41.016,24.414,0.000
1532385576.421,14.160,24.902,42.480,10.254,17.578
1532385576.425,27.344,41.016,51.758,28.320,67.383
1532385576.428,25.879,26.855,46.875,32.715,42.969
1532385576.432,18.066,13.184,50.781,26.367,-9.766
1532385576.436,13.184,20.020,52.246,26.367,12.207
1532385576.440,7.324,29.785,47.852,23.926,60.547
1532385576.444,11.230,21.973,43.945,19.043,42.480
1532385576.448,17.090,16.113,44.922,25.879,-14.648
1532385576.452,22.949,18.555,48.340,43.457,4.395
1532385576.456,27.832,20.508,40.039,41.992,55.664
1532385576.460,31.738,22.461,40.527,34.668,59.082
1532385576.464,33.691,15.625,40.039,40.527,24.902
1532385576.467,37.598,0.000,46.387,38.086,-8.301
1532385576.471,28.320,-6.836,60.547,31.250,30.762
1532385576.475,21.484,20.020,49.316,34.180,65.430
1532385576.479,22.949,41.016,47.363,26.855,-12.695
1532385576.483,19.531,32.227,50.781,26.367,-54.199
1532385576.487,23.438,18.555,45.410,29.785,31.738
1532385576.491,30.273,18.555,49.805,31.250,61.523
1532385576.495,26.855,26.367,55.664,33.691,9.766
1532385576.499,37.598,31.250,60.059,36.621,-6.348
1532385576.503,39.062,29.785,59.570,33.691,9.766
1532385576.507,25.391,24.902,52.734,17.090,43.457
1532385576.510,16.602,19.531,48.340,-0.488,41.992
1532385576.514,9.277,15.625,45.410,5.371,25.879
1532385576.518,11.719,18.555,54.199,15.625,7.324
1532385576.522,14.648,22.949,62.012,12.695,52.734
1532385576.526,11.230,18.066,54.688,18.555,82.520
1532385576.530,15.625,12.207,59.570,20.508,25.391
1532385576.534,9.766,21.484,69.336,15.137,22.949
1532385576.538,-10.254,20.996,65.430,7.812,62.988
1532385576.542,-17.090,26.367,66.406,-3.906,73.242
1532385576.546,-10.254,37.109,64.941,-5.371,28.320
1532385576.549,-4.883,36.621,62.988,4.395,-6.836
1532385576.553,-19.531,39.062,65.430,4.883,47.852
1532385576.557,-20.020,45.410,67.383,-3.418,65.918
1532385576.561,-4.395,36.133,61.035,-7.812,22.949
1532385576.565,-21.484,34.180,60.059,-19.043,22.949
1532385576.569,-18.555,34.180,64.453,-23.438,51.758
1532385576.573,0.000,30.762,58.105,-13.184,79.590
1532385576.577,5.371,46.875,43.457,-3.906,52.246
1532385576.581,4.395,41.992,57.129,-5.371,-0.488
1532385576.585,-2.441,26.367,62.012,-4.395,-0.488
1532385576.589,6.836,34.180,60.547,3.906,23.926
1532385576.592,2.930,32.715,67.383,3.418,40.039
1532385576.596,-1.953,39.551,66.895,-2.441,27.344
1532385576.600,9.277,48.828,69.824,1.953,-20.996
1532385576.604,16.602,37.598,50.781,10.254,30.273
1532385576.608,25.879,13.184,38.574,21.484,80.566
1532385576.612,34.668,-2.441,60.059,32.715,27.344
1532385576.616,27.832,2.441,74.707,29.297,-30.762
1532385576.620,25.391,13.184,71.289,28.809,-7.812
1532385576.624,34.668,24.414,63.965,38.086,65.430
1532385576.628,21.973,16.113,57.617,39.551,38.086
1532385576.632,26.367,3.418,62.500,37.109,-14.648
1532385576.635,38.086,3.418,66.895,36.133,-13.672
1532385576.639,22.949,5.859,56.152,31.738,5.859
1532385576.643,23.926,4.395,42.969,27.832,40.039
1532385576.647,47.852,7.812,56.641,37.109,48.828
1532385576.651,49.805,13.672,61.035,40.039,26.855
1532385576.655,33.691,8.789,40.527,30.273,59.570
1532385576.659,41.992,-0.488,43.457,29.297,64.453
1532385576.663,56.152,-1.465,56.152,38.086,18.066
1532385576.667,66.895,7.324,40.527,50.781,-6.348
1532385576.671,60.059,14.160,25.879,48.340,20.996
1532385576.674,45.898,30.273,36.621,48.340,98.145
1532385576.678,52.246,42.969,42.480,53.223,59.082
1532385576.682,65.430,33.691,38.086,50.293,-5.371
1532385576.686,58.594,20.508,43.457,49.805,23.926
1532385576.690,54.199,22.949,54.688,44.434,48.340
1532385576.694,48.828,13.672,42.480,35.156,34.668
1532385576.698,54.199,16.113,37.109,45.898,9.766
1532385576.702,68.848,30.273,50.293,60.547,10.742
1532385576.706,62.988,20.996,46.875,54.688,36.133
1532385576.710,53.223,18.555,36.621,47.363,37.109
1532385576.714,57.129,18.066,27.832,45.898,2.441
1532385576.717,60.059,23.926,32.227,43.945,-6.836
1532385576.721,52.246,34.668,44.922,46.387,32.227
1532385576.725,41.504,26.367,46.387,32.715,32.227
1532385576.729,44.922,36.621,50.781,33.691,-14.648
1532385576.733,52.246,32.715,33.691,39.062,-32.227
1532385576.737,57.617,11.719,31.250,36.621,-9.766
1532385576.741,65.918,24.414,42.480,41.016,40.527
1532385576.745,47.852,44.922,31.250,32.227,26.855
1532385576.749,47.852,49.316,32.227,43.457,-3.906
1532385576.753,54.199,41.992,43.945,37.109,24.414
1532385576.756,30.762,31.738,48.340,19.531,73.242
1532385576.760,40.039,23.438,42.969,26.367,79.590
1532385576.764,58.594,21.973,38.086,34.668,35.156
1532385576.768,48.340,27.832,32.227,33.203,22.461
1532385576.772,49.316,31.738,25.879,30.762,55.176
1532385576.776,49.316,41.504,40.527,40.039,51.758
1532385576.780,46.875,48.340,41.016,42.969,-10.254
1532385576.784,52.734,32.227,17.578,35.156,-18.555
1532385576.788,39.551,32.227,33.691,40.527,31.250
1532385576.792,41.504,44.922,51.758,49.805,59.082
1532385576.796,45.898,36.621,39.062,37.109,39.551
1532385576.799,36.133,32.715,43.945,30.762,5.859
1532385576.803,35.645,35.156,48.828,38.086,47.363
1532385576.807,35.156,23.926,35.645,33.691,89.355
1532385576.811,34.180,28.320,33.203,30.273,35.156
1532385576.815,29.785,44.434,32.227,32.715,-5.859
1532385576.819,22.949,37.598,27.832,28.809,6.836
1532385576.823,23.438,32.715,37.109,24.902,41.504
1532385576.827,16.602,37.598,39.551,26.367,45.410
1532385576.831,16.113,36.133,43.945,24.902,18.555
1532385576.835,19.531,45.898,53.223,26.367,18.066
1532385576.839,22.461,49.805,48.828,23.926,41.016
1532385576.842,29.297,44.434,39.551,8.789,42.480
1532385576.846,30.762,37.598,38.086,5.371,-0.488
1532385576.850,25.879,37.109,31.250,4.395,-5.371
1532385576.854,22.461,40.039,33.203,6.348,62.988
1532385576.858,27.832,33.691,27.832,6.836,81.055
1532385576.862,29.297,23.926,15.625,4.883,43.457
1532385576.866,17.578,25.391,44.434,9.766,-8.301
1532385576.870,13.672,29.297,56.641,15.625,22.949
1532385576.874,23.438,34.668,40.527,27.344,86.914
1532385576.878,33.203,44.434,50.293,35.645,51.270
1532385576.881,29.785,41.504,49.316,29.297,23.438
1532385576.885,25.391,38.086,33.203,28.809,42.480
1532385576.889,20.996,35.645,33.691,21.484,90.820
1532385576.893,24.414,35.645,41.992,25.879,93.750
1532385576.897,19.043,34.180,37.598,30.273,20.508
1532385576.901,18.555,36.621,31.250,11.230,2.930
1532385576.905,25.879,38.574,45.410,15.137,49.805
1532385576.909,19.531,33.691,49.805,28.320,61.523
1532385576.913,17.578,35.156,50.293,27.344,42.480
1532385576.917,26.855,44.922,54.688,35.156,29.297
1532385576.921,27.344,46.875,45.898,33.203,24.414
1532385576.924,27.344,36.621,37.109,30.762,51.758
1532385576.928,20.508,23.926,36.621,31.250,65.430
1532385576.932,26.367,26.855,40.039,25.391,24.414
1532385576.936,23.438,34.668,39.062,19.531,37.109
1532385576.940,10.254,28.809,43.945,14.648,81.543
1532385576.944,20.508,34.180,53.711,19.531,41.504
1532385576.948,22.949,46.387,47.363,22.461,-21.484
1532385576.952,9.277,38.574,45.410,14.160,4.883
1532385576.956,22.949,33.203,46.387,31.250,77.637
1532385576.960,37.109,23.926,46.875,41.504,75.684
1532385576.963,25.391,29.785,44.434,25.879,0.000
1532385576.967,15.137,53.223,32.715,12.695,-25.879
1532385576.971,7.324,49.805,40.527,13.672,46.875
1532385576.975,17.090,39.551,48.828,19.043,73.242
1532385576.979,27.832,41.504,50.781,20.996,-0.977
1532385576.983,29.297,45.898,51.758,14.160,-27.832
1532385576.987,26.855,46.387,45.898,14.160,38.086
1532385576.991,26.855,44.922,33.203,20.996,72.754
1532385576.995,34.180,36.133,39.551,23.926,43.457
1532385576.999,30.762,26.855,52.246,20.996,-4.395
1532385577.003,28.320,33.203,47.852,15.137,15.625
1532385577.006,37.598,40.039,40.527,20.996,64.453
1532385577.010,34.668,33.691,40.527,29.297,57.617
1532385577.014,20.996,36.133,36.133,17.090,16.113
1532385577.018,9.766,43.457,42.969,4.883,24.414
1532385577.022,17.090,46.875,51.758,20.996,84.961
1532385577.026,14.160,43.457,41.992,33.691,83.984
1532385577.030,11.719,37.598,29.785,26.367,31.250
1532385577.034,31.738,42.480,26.855,28.320,15.137
1532385577.038,39.062,34.180,45.410,29.785,9.766
1532385577.042,34.180,22.461,61.523,20.996,37.109
1532385577.046,27.832,27.832,57.617,22.461,34.668
1532385577.049,37.598,34.180,41.504,26.855,-6.348
1532385577.053,42.480,20.996,30.762,28.809,-6.348
1532385577.057,37.109,26.855,34.668,14.648,25.879
1532385577.061,23.926,41.992,32.715,6.348,25.391
1532385577.065,26.855,38.574,36.621,12.695,-10.254
1532385577.069,36.133,42.969,45.898,32.227,16.602
1532385577.073,32.715,41.504,39.551,49.316,85.938
1532385577.077,23.438,30.273,39.062,41.992,44.434
1532385577.081,29.785,28.809,55.176,44.434,-28.320
1532385577.085,31.250,31.250,49.316,42.480,-13.184
1532385577.088,31.738,30.762,41.016,44.922,56.641
1532385577.092,21.973,25.879,38.086,44.922,72.266
1532385577.096,25.879,32.715,36.621,48.828,38.086
1532385577.100,34.668,44.922,43.457,49.805,12.695
1532385577.104,9.766,25.879,30.273,40.527,29.785
1532385577.108,11.719,21.973,31.250,41.016,69.824
1532385577.112,34.180,40.527,48.828,45.898,24.414
1532385577.116,38.086,35.645,50.293,45.410,3.906
1532385577.120,28.809,33.203,49.316,34.668,5.859
1532385577.124,26.855,39.062,55.176,33.691,28.320
1532385577.128,37.598,37.109,50.293,38.574,66.406
1532385577.131,49.316,34.668,49.316,48.828,17.090
1532385577.135,42.969,26.855,48.828,54.199,29.785
1532385577.139,32.715,20.020,36.133,41.504,77.148
1532385577.143,34.668,29.785,37.109,35.156,52.734
1532385577.147,38.086,30.273,39.551,42.480,12.207
1532385577.151,52.734,18.555,55.176,54.199,20.508
1532385577.155,45.410,16.113,70.312,47.852,58.594
1532385577.159,31.250,11.719,59.570,34.668,59.082
1532385577.163,38.574,19.531,49.316,41.504,16.602
1532385577.167,34.180,24.414,45.898,41.992,-9.277
1532385577.170,40.039,21.484,51.270,39.062,32.227
1532385577.174,53.711,22.461,49.805,44.434,87.402
1532385577.178,44.922,22.949,48.828,43.945,32.227
1532385577.182,37.109,21.973,59.570,39.062,-32.715
1532385577.186,38.574,8.301,53.223,41.504,14.160
1532385577.190,46.387,2.441,38.574,44.922,89.355
1532385577.194,49.805,20.020,45.898,44.922,56.152
1532385577.198,45.410,37.598,64.941,50.781,-31.738
1532385577.202,47.852,15.625,62.988,44.434,-17.578
1532385577.206,29.785,5.859,48.340,31.738,46.875
1532385577.210,21.973,26.855,44.922,31.738,43.945
1532385577.213,39.062,34.668,46.387,46.875,18.555
1532385577.217,32.227,28.809,49.316,39.062,14.160
1532385577.221,20.020,14.160,56.641,28.809,48.828
1532385577.225,36.621,0.488,51.758,31.250,68.848
1532385577.229,48.340,11.719,45.410,42.480,47.363
1532385577.233,42.969,29.785,47.363,51.270,-8.789
1532385577.237,47.363,29.785,59.082,39.062,9.277
1532385577.241,45.410,19.531,61.035,32.715,65.918
1532385577.245,40.527,22.949,51.270,31.738,35.156
1532385577.249,41.504,21.973,47.363,29.297,3.418
1532385577.253,33.203,0.977,34.180,27.832,15.137
1532385577.256,22.949,13.672,39.062,17.578,60.547
1532385577.260,30.762,38.086,51.758,15.137,26.367
1532385577.264,36.621,31.738,43.457,20.996,-29.297
1532385577.268,32.227,20.020,40.527,15.625,5.371
1532385577.272,24.902,18.555,42.480,14.648,67.871
1532385577.276,31.250,21.484,48.828,31.250,62.988
1532385577.280,35.156,18.555,48.340,39.062,4.395
1532385577.284,20.996,22.949,37.109,29.297,-19.531
1532385577.288,16.602,20.020,49.805,18.555,18.555
1532385577.292,19.043,16.602,41.016,12.695,69.336
1532385577.295,20.996,17.578,39.062,21.973,11.230
1532385577.299,23.438,15.137,57.617,14.160,-45.410
1532385577.303,15.137,20.996,53.711,16.602,0.000
1532385577.307,18.555,22.949,34.180,27.344,59.082
1532385577.311,23.438,31.738,36.133,24.902,50.293
1532385577.315,25.879,23.438,52.734,26.855,-5.371
1532385577.319,26.855,9.766,41.992,19.043,-10.254
1532385577.323,36.621,33.691,42.480,31.738,21.973
1532385577.327,33.691,43.945,49.316,34.668,51.270
1532385577.331,12.207,19.043,42.480,20.020,51.758
1532385577.335,21.973,17.090,37.109,24.414,28.809
1532385577.338,26.855,25.391,35.645,23.438,36.133
1532385577.342,27.344,31.738,42.480,34.668,47.852
1532385577.346,31.250,8.789,41.016,41.016,14.160
1532385577.350,39.551,-4.883,30.273,32.715,-18.555
1532385577.354,47.363,31.250,34.180,30.273,38.086
1532385577.358,43.457,48.340,55.664,34.180,53.223
1532385577.362,28.809,31.250,57.129,29.785,0.488
1532385577.366,18.555,26.855,48.828,27.832,-2.930
1532385577.370,26.855,37.598,35.645,32.227,26.855
1532385577.374,40.527,40.527,32.715,34.668,67.383
1532385577.377,36.621,30.273,43.457,30.273,41.504
1532385577.381,35.156,14.160,35.156,24.414,-8.301
1532385577.385,41.992,23.438,27.832,31.250,0.000
1532385577.389,41.016,29.297,39.551,41.504,56.641
1532385577.393,39.062,22.949,49.805,36.621,76.172
1532385577.397,33.691,36.133,47.852,25.879,8.789
1532385577.401,26.367,37.109,44.434,25.879,-32.227
1532385577.405,27.344,19.531,44.922,25.879,65.430
1532385577.409,30.273,16.602,47.363,26.855,121.582
1532385577.413,31.250,23.926,35.645,26.855,39.551
1532385577.417,37.598,29.785,32.227,30.762,-15.137
1532385577.420,32.715,20.508,41.504,34.668,39.062
1532385577.424,9.766,13.184,42.480,16.602,83.984
1532385577.428,10.742,27.832,41.992,11.719,25.879
1532385577.432,34.668,40.039,39.062,21.484,-22.949
1532385577.436,29.785,20.508,41.992,25.879,-13.184
1532385577.440,21.973,18.555,47.852,25.879,36.621
1532385577.444,27.832,30.273,44.434,25.391,41.992
1532385577.448,26.367,11.719,41.504,29.785,7.324
1532385577.452,33.203,16.113,36.621,32.715,-4.883
1532385577.456,32.715,32.227,27.344,27.344,32.227
1532385577.459,23.438,31.738,31.250,16.113,52.734
1532385577.463,38.086,29.785,46.387,26.367,12.695
1532385577.467,48.828,24.902,47.363,29.785,-11.719
1532385577.471,35.156,25.879,40.039,11.719,31.738
1532385577.475,24.902,19.043,33.203,6.348,61.523
1532385577.479,20.996,0.977,28.320,8.789,2.930
1532385577.483,20.508,14.648,29.297,4.883,-76.172
1532385577.487,31.738,40.039,28.320,20.020,-7.324
1532385577.491,35.645,41.992,23.926,25.879,67.383
1532385577.495,28.809,32.715,25.879,22.461,38.574
1532385577.499,27.344,40.039,41.504,27.344,17.090
1532385577.502,35.156,54.688,50.293,23.438,46.875
1532385577.506,30.273,46.875,49.805,19.531,79.590
1532385577.510,21.484,27.344,38.574,16.602,63.965
1532385577.514,17.090,28.320,33.203,10.742,8.301
1532385577.518,25.879,36.133,31.738,17.578,1.953
1532385577.522,24.902,37.109,33.203,21.973,48.828
1532385577.526,29.785,28.809,30.762,19.531,74.219
1532385577.530,40.527,24.414,28.809,26.855,15.625
1532385577.534,36.133,36.621,42.969,31.250,-14.160
1532385577.538,28.809,42.969,44.922,24.414,29.785
1532385577.542,22.461,41.504,44.434,19.531,56.152
1532385577.545,29.297,41.992,57.129,28.809,12.207
1532385577.549,19.043,36.133,43.945,23.438,-16.602
1532385577.553,20.996,31.738,24.414,17.090,16.602
1532385577.557,23.438,43.945,28.320,15.137,37.109
1532385577.561,20.020,51.270,38.574,16.113,16.602
1532385577.565,27.344,51.270,40.039,25.879,-6.348
1532385577.569,31.738,39.062,34.180,24.414,20.020
1532385577.573,42.969,37.109,31.738,34.180,94.238
1532385577.577,37.598,46.387,36.621,30.762,61.523
1532385577.581,32.715,46.387,45.410,24.902,-13.184
1532385577.584,38.086,40.527,46.875,39.062,7.812
1532385577.588,38.086,45.410,45.410,37.598,77.148
1532385577.592,30.762,48.828,38.086,23.926,98.633
1532385577.596,35.156,45.410,33.691,23.438,25.879
1532385577.600,43.945,44.922,29.785,29.785,-6.836
1532385577.604,21.973,45.898,20.508,23.438,40.039
1532385577.608,16.113,50.781,23.926,20.020,63.477
1532385577.612,28.320,41.504,38.086,18.066,6.348
1532385577.616,27.344,21.973,39.062,21.973,-38.574
1532385577.620,23.438,25.879,36.133,17.090,-31.250
1532385577.624,27.832,34.668,34.180,13.672,7.324
1532385577.627,35.645,34.668,24.414,29.785,28.809
1532385577.631,28.320,46.875,25.879,35.156,8.789
1532385577.635,18.066,46.875,32.227,25.391,8.301
1532385577.639,17.090,46.387,36.133,27.832,55.664
1532385577.643,24.902,38.574,27.832,30.762,77.148
1532385577.647,31.250,21.484,20.996,32.715,24.414
1532385577.651,30.273,28.809,25.879,36.621,-3.418
1532385577.655,29.297,37.598,27.344,33.691,29.297
1532385577.659,32.227,27.832,23.438,32.715,50.781
1532385577.663,34.668,27.832,25.879,31.738,3.418
1532385577.666,41.016,45.898,31.250,35.156,-40.039
1532385577.670,34.180,38.574,26.367,33.203,-7.812
1532385577.674,38.574,20.508,31.250,35.156,39.551
1532385577.678,27.344,21.973,31.738,25.879,25.391
1532385577.682,17.090,37.598,24.414,8.789,-24.414
1532385577.686,24.902,35.645,27.832,18.066,-0.488
1532385577.690,18.066,27.344,29.297,22.461,57.617
1532385577.694,25.879,41.504,40.527,27.832,45.410
1532385577.698,42.969,54.688,42.969,31.738,-18.066
1532385577.702,31.738,44.434,31.250,20.508,-13.184
1532385577.706,17.578,30.762,33.203,21.973,84.961
1532385577.709,26.855,41.016,37.598,28.320,75.684
1532385577.713,31.250,41.992,40.039,31.738,-5.859
1532385577.717,29.297,32.715,31.250,36.621,-11.719
1532385577.721,21.973,24.902,26.367,31.250,17.090
1532385577.725,34.668,23.926,43.457,29.297,47.852
1532385577.729,31.738,28.320,46.875,39.551,9.277
1532385577.733,14.648,10.742,34.180,34.668,-17.090
1532385577.737,17.090,4.883,19.531,20.996,41.992
1532385577.741,21.484,26.855,14.160,17.578,81.543
1532385577.745,31.250,23.438,26.367,22.949,53.223
1532385577.749,28.320,15.625,43.945,28.320,11.719
1532385577.752,20.996,16.113,51.758,31.250,13.672
1532385577.756,24.414,17.090,36.621,23.926,65.918
1532385577.760,35.645,28.809,30.762,30.273,53.711
