timestamps,TP9,AF7,AF8,TP10,Right AUX
1532402300.250,-12.207,22.461,31.738,-10.742,34.180
1532402300.254,-24.414,20.996,32.715,-10.742,50.781
1532402300.258,-20.996,23.438,24.902,-8.789,34.180
1532402300.262,-9.766,23.438,25.391,41.992,5.859
1532402300.266,-4.395,25.391,16.113,7.812,39.551
1532402300.269,-5.371,27.344,-2.930,-48.340,57.129
1532402300.273,-6.348,32.715,-11.719,-31.738,10.254
1532402300.277,-10.742,32.715,-15.137,-25.879,15.137
1532402300.281,-33.691,24.902,-11.230,25.879,57.129
1532402300.285,-22.949,23.438,-9.766,18.066,59.570
1532402300.289,-32.227,26.367,-12.695,-32.715,14.160
1532402300.293,-31.738,29.297,-13.672,-17.090,17.090
1532402300.297,-19.043,29.785,-12.695,-30.762,33.691
1532402300.301,-21.484,26.855,-7.324,-29.785,41.992
1532402300.305,-16.113,24.414,-0.977,-17.090,53.223
1532402300.309,-32.227,23.438,1.465,-26.855,34.180
1532402300.312,-37.109,26.367,-2.441,-5.859,7.324
1532402300.316,-45.410,29.785,-5.371,2.441,23.926
1532402300.320,-51.758,32.227,-4.395,-43.945,59.570
1532402300.324,-17.578,29.785,2.930,-11.230,40.039
1532402300.328,-18.555,28.809,5.371,-11.719,15.137
1532402300.332,-16.113,29.785,7.324,-38.086,12.207
1532402300.336,-16.113,23.926,12.207,-24.902,23.438
1532402300.340,-44.434,22.949,9.766,-32.227,35.156
1532402300.344,-40.527,27.832,7.812,15.625,28.320
1532402300.348,-32.227,24.414,8.301,6.836,18.555
1532402300.351,-16.602,23.926,7.812,-40.527,13.184
1532402300.355,-11.230,25.879,9.277,-27.344,11.230
1532402300.359,-19.531,28.809,10.254,-26.367,2.930
1532402300.363,-17.090,29.297,13.184,-37.598,0.000
1532402300.367,2.441,27.344,14.648,-7.812,13.184
1532402300.371,10.742,27.344,14.160,7.812,22.949
1532402300.375,-7.812,28.320,18.555,-37.598,3.906
1532402300.379,7.324,26.367,20.996,-33.691,11.230
1532402300.383,6.348,21.973,16.113,-13.184,50.781
1532402300.387,-7.324,22.949,13.672,-16.113,57.129
1532402300.391,-1.465,23.438,14.160,-30.762,29.297
1532402300.394,15.625,26.367,17.090,-5.859,19.531
1532402300.398,21.484,28.320,19.531,6.348,52.246
1532402300.402,11.230,26.367,19.043,-27.344,70.801
1532402300.406,-7.812,27.344,19.531,-0.977,37.598
1532402300.410,-8.789,29.297,18.555,-4.395,-9.766
1532402300.414,-10.254,28.320,22.949,-19.043,-0.488
1532402300.418,-41.992,27.832,27.344,3.418,16.602
1532402300.422,-41.504,31.250,21.484,-20.996,21.973
1532402300.426,-25.391,30.762,16.602,-16.113,31.250
1532402300.430,-20.508,30.762,20.020,-10.742,-8.789
1532402300.434,-1.953,33.203,21.973,-10.254,-4.883
1532402300.437,-6.348,30.273,23.926,-1.953,34.180
1532402300.441,-25.391,31.250,22.949,-9.277,12.207
1532402300.445,-8.789,36.621,21.484,-9.766,-7.324
1532402300.449,-9.277,35.645,24.902,-20.508,18.555
1532402300.453,-16.602,31.738,26.855,-14.648,27.832
1532402300.457,-1.465,32.227,24.902,9.277,3.418
1532402300.461,21.973,36.621,20.020,52.246,37.109
1532402300.465,24.902,36.621,20.508,16.602,45.898
1532402300.469,-6.348,32.227,23.438,-35.156,25.879
1532402300.473,-30.273,32.715,20.020,-30.762,3.906
1532402300.476,-7.812,30.762,20.508,-21.973,13.184
1532402300.480,19.043,30.762,20.020,-7.324,35.156
1532402300.484,10.254,34.180,22.461,-9.277,27.832
1532402300.488,-23.438,32.227,26.855,7.324,14.648
1532402300.492,0.977,34.668,23.926,-3.906,-3.418
1532402300.496,13.184,30.762,21.484,-13.184,13.184
1532402300.500,26.367,28.809,20.996,-12.695,13.184
1532402300.504,63.477,32.227,23.438,1.953,-0.488
1532402300.508,59.570,33.203,26.367,18.066,0.977
1532402300.512,46.875,34.180,26.367,-24.902,-25.879
1532402300.516,24.414,33.203,26.367,-32.715,-21.973
1532402300.519,11.719,34.180,26.367,17.090,25.391
1532402300.523,9.766,39.062,20.996,8.789,32.227
1532402300.527,20.996,36.133,23.926,-2.441,28.809
1532402300.531,31.250,27.832,28.320,-3.418,20.020
1532402300.535,-0.977,27.344,25.391,-30.273,23.438
1532402300.539,-12.207,33.203,24.902,22.949,10.742
1532402300.543,-7.324,33.691,23.438,60.059,19.531
1532402300.547,-14.648,31.738,21.973,0.488,48.340
1532402300.551,-26.367,28.809,23.438,-45.898,28.809
1532402300.555,-36.133,28.320,26.367,-52.246,-2.930
1532402300.558,-46.387,28.809,31.250,-10.254,-15.137
1532402300.562,-73.730,30.762,29.297,5.371,12.207
1532402300.566,-85.938,34.180,24.902,29.785,25.391
1532402300.570,-86.426,32.227,25.391,1.465,-2.930
1532402300.574,-84.961,33.691,26.855,-23.926,5.859
1532402300.578,-93.262,37.109,25.391,3.418,27.344
1532402300.582,-98.633,33.203,26.367,-19.043,31.250
1532402300.586,-86.914,31.738,28.320,-28.320,16.602
1532402300.590,-70.312,34.180,23.438,-10.742,1.465
1532402300.594,-69.824,34.180,20.996,7.812,-8.301
1532402300.598,-80.078,34.668,24.902,-20.996,-11.230
1532402300.601,-62.012,34.180,26.367,-31.250,6.836
1532402300.605,-34.180,35.645,21.484,3.906,24.902
1532402300.609,-22.461,32.715,21.973,-22.949,-1.465
1532402300.613,-24.902,25.391,25.879,-46.875,-37.598
1532402300.617,-34.180,23.926,23.438,-30.273,-5.371
1532402300.621,-49.805,28.320,24.414,-25.391,32.715
1532402300.625,-25.879,26.367,26.367,-28.809,25.879
1532402300.629,-20.996,28.320,18.066,-19.531,-9.766
1532402300.633,-37.109,28.320,17.578,-12.207,-9.766
1532402300.637,-41.992,24.414,23.926,-5.371,19.531
1532402300.641,-48.828,30.762,16.113,-41.992,11.230
1532402300.644,-52.734,33.691,15.625,-39.062,16.602
1532402300.648,-77.148,29.297,23.926,1.465,23.438
1532402300.652,-57.129,26.855,25.879,-28.320,-19.043
1532402300.656,-58.594,29.785,21.973,-39.551,-7.324
1532402300.660,-78.613,25.879,22.461,-5.859,10.742
1532402300.664,-61.035,23.926,28.320,16.602,1.465
1532402300.668,-52.246,22.949,32.227,-6.836,39.551
1532402300.672,-41.504,24.414,31.250,-1.953,26.367
1532402300.676,-32.715,30.762,27.832,9.277,14.160
1532402300.680,-49.316,31.250,27.344,-35.156,37.598
1532402300.683,-58.105,27.344,24.902,-11.230,59.082
1532402300.687,-29.785,27.832,23.438,19.531,37.109
1532402300.691,-35.156,26.855,20.508,-18.066,15.137
1532402300.695,-41.504,20.996,26.855,-20.996,16.113
1532402300.699,-52.246,22.461,31.250,18.066,15.625
1532402300.703,-46.387,25.391,27.832,-10.742,34.180
1532402300.707,-23.926,25.879,28.320,-24.414,30.273
1532402300.711,-23.926,31.250,24.414,25.879,-8.789
1532402300.715,-39.551,30.762,21.973,-3.906,-10.742
1532402300.719,-26.855,25.391,29.297,-4.395,36.133
1532402300.723,-50.293,21.484,31.738,-3.906,40.039
1532402300.726,-93.750,14.160,32.715,-14.648,30.762
1532402300.730,-62.012,16.602,32.227,-2.441,21.484
1532402300.734,-37.598,20.508,34.668,9.277,28.809
1532402300.738,-65.430,20.508,36.621,-11.230,36.133
1532402300.742,-76.660,23.926,30.762,-49.805,13.672
1532402300.746,-67.871,26.367,27.832,-0.488,20.020
1532402300.750,-35.156,25.391,28.809,16.113,22.461
1532402300.754,-52.246,22.461,28.809,-9.766,24.902
1532402300.758,-79.102,19.043,29.785,-7.324,27.832
1532402300.762,-73.730,17.090,30.273,-21.973,37.598
1532402300.766,-59.082,19.531,30.273,10.742,62.500
1532402300.769,-32.715,24.902,27.832,-4.395,41.992
1532402300.773,-20.020,27.832,23.438,-20.996,14.648
1532402300.777,-61.523,20.996,28.809,-5.859,41.504
1532402300.781,-78.613,19.043,32.715,-23.438,61.035
1532402300.785,-59.082,21.484,27.344,-13.672,57.129
1532402300.789,-44.434,23.926,25.391,-5.859,53.711
1532402300.793,-25.391,25.879,31.250,-9.277,12.695
1532402300.797,-32.227,24.414,35.645,23.926,6.836
1532402300.801,-55.176,23.438,31.250,-9.277,28.320
1532402300.805,-47.363,23.926,25.391,-28.320,22.461
1532402300.808,-49.805,22.461,32.227,4.395,13.184
1532402300.812,-68.359,22.461,35.156,39.062,-18.555
1532402300.816,-62.988,25.391,31.738,3.906,14.160
1532402300.820,-62.012,21.484,37.109,-5.859,62.500
1532402300.824,-42.969,24.902,32.715,49.316,18.555
1532402300.828,-35.156,30.762,27.344,20.996,0.488
1532402300.832,-60.059,29.785,31.250,10.742,-1.953
1532402300.836,-68.359,29.785,32.715,0.488,13.184
1532402300.840,-64.453,27.344,37.109,4.395,26.367
1532402300.844,-49.316,23.926,38.574,10.742,16.113
1532402300.848,-63.965,23.438,32.227,-15.625,34.180
1532402300.851,-62.012,29.785,27.344,-12.207,19.531
1532402300.855,-56.152,34.668,25.391,-3.906,8.301
1532402300.859,-65.430,31.738,26.367,29.785,24.902
1532402300.863,-52.246,27.344,24.902,-7.812,46.387
1532402300.867,-36.621,27.344,24.902,-27.344,57.129
1532402300.871,-67.383,27.344,27.832,-0.977,41.016
1532402300.875,-81.055,28.809,24.902,-0.488,12.207
1532402300.879,-61.523,27.344,24.902,30.762,20.508
1532402300.883,-73.242,26.367,25.391,12.695,27.344
1532402300.887,-93.262,29.297,27.344,-22.949,46.387
1532402300.891,-86.914,30.273,27.344,-6.836,32.715
1532402300.894,-88.379,30.273,27.344,-22.949,9.277
1532402300.898,-88.867,29.785,28.320,0.488,38.574
1532402300.902,-103.516,29.785,28.320,5.371,47.363
1532402300.906,-104.004,26.855,33.203,-11.230,50.293
1532402300.910,-87.402,22.461,41.992,33.691,21.973
1532402300.914,-88.867,27.832,36.621,-2.930,1.953
1532402300.918,-87.891,34.180,27.344,-47.852,33.691
1532402300.922,-98.145,33.691,26.855,-6.836,41.504
1532402300.926,-111.816,31.250,26.855,-8.301,21.484
1532402300.930,-103.027,30.273,30.273,-8.789,19.043
1532402300.933,-87.402,33.691,30.762,-8.789,-1.953
1532402300.937,-83.496,34.668,27.832,-30.762,39.062
1532402300.941,-87.402,31.738,25.879,16.602,31.738
1532402300.945,-71.777,33.203,25.391,8.789,11.719
1532402300.949,-91.309,34.668,21.973,-42.969,22.461
1532402300.953,-112.793,25.879,26.367,5.859,29.297
1532402300.957,-86.914,24.902,29.297,-9.277,33.203
1532402300.961,-57.129,29.785,28.809,-36.621,0.488
1532402300.965,-62.988,31.738,28.320,16.113,7.812
1532402300.969,-100.098,29.297,29.785,9.277,33.691
1532402300.973,-128.418,27.344,31.250,-32.715,4.395
1532402300.976,-91.309,33.691,25.879,-34.180,-7.324
1532402300.980,-104.004,36.133,23.926,-8.789,30.273
1532402300.984,-137.207,28.809,25.391,-5.371,34.180
1532402300.988,-120.605,28.320,24.414,-12.695,29.297
1532402300.992,-125.977,33.691,25.879,-16.602,18.555
1532402300.996,-115.234,29.297,27.832,-9.766,30.762
1532402301.000,-115.723,28.320,28.320,28.809,35.645
1532402301.004,-128.418,30.273,28.320,-6.348,40.039
1532402301.008,-131.348,28.809,28.809,0.488,31.250
1532402301.012,-116.211,29.785,30.273,1.953,-0.977
1532402301.015,-101.074,31.738,29.297,-36.621,9.766
1532402301.019,-119.141,29.297,28.809,-15.625,43.457
1532402301.023,-107.910,30.273,28.809,11.230,42.480
1532402301.027,-106.934,30.762,29.297,19.531,-7.812
1532402301.031,-93.262,26.855,30.762,-12.207,-14.160
1532402301.035,-78.125,26.855,30.273,-19.043,6.836
1532402301.039,-78.613,28.809,28.809,-16.113,21.484
1532402301.043,-79.102,28.809,31.738,-18.066,8.301
1532402301.047,-88.867,25.879,29.785,-18.555,-2.930
1532402301.051,-88.867,26.367,29.297,2.441,9.277
1532402301.055,-89.355,24.902,33.691,-3.418,20.020
1532402301.058,-85.449,24.414,34.180,-20.020,26.367
1532402301.062,-101.074,23.438,34.180,17.578,42.969
1532402301.066,-103.516,19.531,31.250,-15.625,43.945
1532402301.070,-109.375,16.602,29.785,-31.738,30.762
1532402301.074,-111.328,20.996,29.785,34.180,5.859
1532402301.078,-110.352,21.973,30.273,10.254,25.879
1532402301.082,-108.398,15.625,34.180,-48.828,36.133
1532402301.086,-106.445,17.090,32.715,-17.090,37.109
1532402301.090,-98.633,22.461,29.297,-12.207,31.250
1532402301.094,-74.219,25.391,32.715,-30.273,4.395
1532402301.098,-97.656,25.879,33.203,10.742,16.113
1532402301.101,-94.238,23.438,34.180,9.766,58.594
1532402301.105,-80.566,20.996,34.180,-35.156,47.363
1532402301.109,-73.730,21.484,33.203,-11.230,-2.930
1532402301.113,-73.730,24.414,33.203,1.465,-26.367
1532402301.117,-81.055,27.344,31.738,1.953,16.602
1532402301.121,-65.430,26.855,34.180,-7.812,31.738
1532402301.125,-68.359,25.879,36.133,-5.859,11.230
1532402301.129,-84.473,22.461,34.180,31.250,17.090
1532402301.133,-59.570,26.855,25.879,-31.738,7.812
1532402301.137,-66.895,29.785,25.391,-59.082,19.531
1532402301.140,-75.684,28.809,28.809,5.859,40.527
1532402301.144,-54.688,27.832,31.738,15.137,35.645
1532402301.148,-39.551,27.344,29.785,4.883,32.227
1532402301.152,-57.129,29.297,30.273,-22.461,35.645
1532402301.156,-73.730,28.320,35.156,-27.832,25.391
1532402301.160,-68.848,26.367,36.133,6.348,9.277
1532402301.164,-74.707,28.320,33.203,14.160,7.324
1532402301.168,-87.402,29.785,29.297,-22.949,22.949
1532402301.172,-84.961,27.344,32.227,-43.945,8.301
1532402301.176,-65.918,23.438,36.133,5.859,-2.930
1532402301.180,-78.613,22.949,39.551,41.016,20.508
1532402301.183,-77.637,30.762,33.203,-14.160,6.836
1532402301.187,-80.078,33.691,26.855,-28.320,23.438
1532402301.191,-75.195,31.738,27.832,-5.371,39.551
1532402301.195,-54.199,31.738,31.738,0.488,15.137
1532402301.199,-55.664,30.762,32.715,-4.883,31.250
1532402301.203,-51.758,32.227,29.785,-3.906,39.551
1532402301.207,-66.895,32.715,27.344,19.043,12.695
1532402301.211,-66.895,31.250,29.297,14.648,-19.043
1532402301.215,-73.730,29.297,33.203,-16.602,-28.809
1532402301.219,-86.426,27.832,29.785,-18.066,33.691
1532402301.223,-76.172,28.809,27.832,-10.254,53.223
1532402301.226,-90.820,28.320,28.320,-15.137,11.230
1532402301.230,-91.797,29.785,26.855,-17.090,-8.789
1532402301.234,-76.172,33.203,30.273,22.949,-5.859
1532402301.238,-63.477,27.344,37.109,0.488,34.180
1532402301.242,-63.477,23.438,33.691,-33.203,49.316
1532402301.246,-78.613,26.367,24.414,-17.578,36.621
1532402301.250,-61.035,28.809,25.391,-13.672,28.809
1532402301.254,-34.180,30.762,26.367,1.953,26.367
1532402301.258,-22.949,32.227,28.320,6.836,7.812
1532402301.262,-49.805,31.738,31.250,-16.113,5.371
1532402301.265,-63.965,30.273,31.738,-25.391,40.039
1532402301.269,-56.152,35.645,28.320,-20.996,53.711
1532402301.273,-55.176,35.156,28.320,0.488,15.137
1532402301.277,-86.426,27.344,35.156,-12.207,-17.578
1532402301.281,-98.633,29.785,33.691,16.113,6.348
1532402301.285,-73.242,30.762,31.250,22.461,58.594
1532402301.289,-49.805,29.785,30.762,-35.156,68.848
1532402301.293,-60.059,29.785,31.738,-9.277,27.344
1532402301.297,-83.496,24.902,30.762,7.324,30.762
1532402301.301,-72.266,27.344,29.785,-1.953,31.738
1532402301.305,-51.758,30.762,32.227,-12.695,33.691
1532402301.308,-39.551,27.832,32.715,-11.230,46.387
1532402301.312,-37.598,27.832,35.645,18.555,3.906
1532402301.316,-60.547,25.879,37.598,22.461,8.301
1532402301.320,-48.828,31.250,32.715,-12.695,50.293
1532402301.324,-49.316,37.598,29.785,-15.137,34.668
1532402301.328,-73.730,28.320,33.691,-20.020,27.344
1532402301.332,-81.543,20.996,37.109,-5.859,27.832
1532402301.336,-79.590,26.855,33.203,0.000,19.531
1532402301.340,-56.641,28.320,27.344,-21.973,34.668
1532402301.344,-32.715,27.832,26.367,-6.836,31.250
1532402301.347,-41.504,24.902,31.250,14.648,22.949
1532402301.351,-73.730,25.879,30.273,-20.020,30.762
1532402301.355,-82.520,28.809,30.762,-26.367,20.996
1532402301.359,-56.152,26.367,31.738,2.441,23.438
1532402301.363,-41.016,27.832,31.738,-6.348,28.809
1532402301.367,-42.969,25.879,31.250,-36.621,58.105
1532402301.371,-59.082,22.461,27.832,-31.250,38.574
1532402301.375,-47.852,22.461,28.809,35.156,12.695
1532402301.379,-20.996,22.949,28.320,20.020,29.297
1532402301.383,-2.930,28.320,22.949,-42.480,30.273
1532402301.387,1.953,27.344,25.879,-20.020,28.320
1532402301.390,10.254,20.508,30.762,2.930,22.949
1532402301.394,36.133,21.973,25.879,-2.930,0.977
1532402301.398,20.508,19.043,23.438,-27.344,12.207
1532402301.402,16.113,22.461,28.809,-9.766,19.043
1532402301.406,40.527,34.180,26.367,-3.906,15.137
1532402301.410,57.129,34.180,27.832,-7.812,8.789
1532402301.414,41.992,32.227,30.273,-22.949,-22.949
1532402301.418,16.602,33.203,29.785,-17.578,5.371
1532402301.422,-3.906,28.320,31.250,2.441,45.898
1532402301.426,1.953,24.902,29.785,-12.207,41.016
1532402301.430,9.766,25.879,28.809,-13.184,21.973
1532402301.433,-2.441,25.391,30.762,17.578,26.855
1532402301.437,-26.855,27.344,27.344,-30.762,27.832
1532402301.441,-13.184,25.391,27.832,-45.898,20.996
1532402301.445,-3.906,24.902,32.227,-20.508,36.133
1532402301.449,5.859,30.273,30.762,-14.160,31.738
1532402301.453,16.602,30.762,29.297,-17.578,10.254
1532402301.457,-13.672,29.297,27.832,-27.832,15.137
1532402301.461,-3.906,30.762,30.273,28.809,28.320
1532402301.465,8.789,29.785,31.738,20.508,31.738
1532402301.469,-16.602,29.785,29.297,-38.574,56.152
1532402301.472,-10.742,30.762,29.297,-12.207,45.410
1532402301.476,12.695,27.344,31.250,11.230,30.762
1532402301.480,29.785,25.879,31.250,-2.441,34.668
1532402301.484,36.621,28.809,29.785,-8.301,34.668
1532402301.488,33.691,28.320,33.691,26.855,41.992
1532402301.492,20.020,27.832,29.785,-5.859,2.441
1532402301.496,-21.973,25.879,12.695,-42.480,-4.395
1532402301.500,-23.438,28.320,0.000,-7.324,35.156
1532402301.504,17.578,33.691,-3.906,11.719,23.926
1532402301.508,-13.672,31.738,-4.883,17.090,16.113
1532402301.512,-49.805,27.344,-3.418,-0.488,19.043
1532402301.515,-20.020,30.273,2.441,21.973,30.273
1532402301.519,-15.625,35.645,3.418,11.230,46.387
1532402301.523,-27.832,32.227,5.371,-15.625,62.500
1532402301.527,-11.230,29.297,3.906,0.488,49.805
1532402301.531,10.254,37.109,-7.324,-7.812,44.434
1532402301.535,6.348,40.039,-2.930,12.695,55.664
1532402301.539,-1.465,28.809,14.160,35.645,32.227
1532402301.543,3.418,25.391,14.648,-9.766,14.648
1532402301.547,-20.508,29.297,19.531,-19.043,11.230
1532402301.551,-55.664,27.832,22.949,-7.812,24.414
1532402301.555,-49.316,21.973,21.973,-12.695,2.441
1532402301.558,-14.160,22.461,19.531,-8.789,8.301
1532402301.562,-14.648,23.438,20.996,-4.883,23.926
1532402301.566,-47.852,17.578,26.367,6.836,23.926
1532402301.570,-31.738,19.043,23.438,-27.344,37.598
1532402301.574,-33.691,20.508,24.414,-16.113,25.391
1532402301.578,-49.805,21.484,22.949,17.090,26.367
1532402301.582,-4.395,26.367,18.555,-21.973,23.926
1532402301.586,3.418,28.809,20.508,-16.602,27.832
1532402301.590,-28.809,25.391,23.926,15.625,41.992
1532402301.594,-15.137,22.949,26.855,-12.207,-9.277
1532402301.597,-13.184,25.879,27.344,-21.973,19.531
1532402301.601,-14.160,24.902,26.855,3.906,52.734
1532402301.605,-18.066,24.414,29.785,0.000,42.969
1532402301.609,4.883,28.809,26.855,-20.508,42.969
1532402301.613,11.230,26.367,23.438,-9.766,9.766
1532402301.617,-9.766,20.508,29.785,-8.301,21.973
1532402301.621,-20.996,21.973,31.738,27.344,48.828
1532402301.625,-11.719,25.879,28.320,20.996,39.062
1532402301.629,16.113,24.902,30.273,-2.930,9.766
1532402301.633,13.672,23.926,31.250,-10.742,-10.742
1532402301.637,-17.090,24.902,28.320,-9.277,-5.371
1532402301.640,-26.855,23.438,31.250,-0.488,-1.953
1532402301.644,-22.949,21.973,35.156,-7.812,17.578
1532402301.648,-30.273,26.367,30.273,13.672,36.621
1532402301.652,-26.367,28.320,25.391,4.883,29.297
1532402301.656,-52.734,24.414,33.203,-3.906,38.574
1532402301.660,-62.988,20.508,36.133,-11.719,23.438
1532402301.664,-33.691,23.926,30.762,-24.414,20.020
1532402301.668,-41.992,30.273,26.367,-20.020,50.293
1532402301.672,-67.383,28.320,28.320,-7.324,29.785
1532402301.676,-49.805,24.414,29.785,-20.020,0.977
1532402301.680,-29.297,27.832,30.273,-8.789,4.883
1532402301.683,-6.836,29.785,32.715,-1.953,19.531
1532402301.687,-30.273,29.297,30.273,-2.441,44.434
1532402301.691,-41.016,29.785,28.809,16.113,9.277
1532402301.695,10.254,26.367,30.273,8.301,-11.719
1532402301.699,0.977,30.762,30.273,-27.344,22.949
1532402301.703,-33.203,36.133,29.297,35.156,46.387
1532402301.707,10.254,37.598,27.832,46.875,53.711
1532402301.711,21.973,37.598,24.902,-54.688,15.625
1532402301.715,-14.648,31.738,32.227,-13.672,12.207
1532402301.719,-17.578,32.227,33.691,19.531,43.457
1532402301.722,-6.836,39.062,33.203,-10.742,41.992
1532402301.726,1.953,43.457,33.203,-20.508,15.625
1532402301.730,-13.672,39.062,33.691,-8.789,0.977
1532402301.734,-27.344,38.574,37.598,5.371,3.906
1532402301.738,-40.039,43.457,36.621,-20.020,19.043
1532402301.742,-58.594,35.156,36.621,-38.086,22.461
1532402301.746,-43.945,33.203,39.551,3.906,1.953
1532402301.750,-26.855,41.016,40.527,-9.277,4.395
1532402301.754,-37.109,38.574,38.574,-61.523,21.973
1532402301.758,-72.754,42.969,42.480,-53.223,8.789
1532402301.762,-86.426,56.152,44.434,-51.270,-4.395
1532402301.765,-50.293,54.688,44.922,-23.926,35.156
1532402301.769,-40.039,56.152,37.598,-64.453,41.016
1532402301.773,-51.758,61.523,36.133,-100.098,5.371
1532402301.777,-53.223,56.641,47.363,-61.035,11.230
1532402301.781,-48.340,62.012,48.828,-36.133,55.664
1532402301.785,-43.457,71.289,48.340,-70.801,58.105
1532402301.789,-67.871,66.895,48.340,-104.492,40.527
1532402301.793,-52.734,70.312,49.316,-76.172,36.621
1532402301.797,-42.969,76.660,53.711,-72.754,24.414
1532402301.801,-75.195,79.590,58.105,-112.305,56.641
1532402301.804,-82.520,79.102,61.035,-101.074,52.734
1532402301.808,-85.449,79.590,60.547,-78.125,7.812
1532402301.812,-76.660,80.566,57.617,-107.910,2.441
1532402301.816,-57.129,75.195,59.082,-108.887,14.648
1532402301.820,-72.266,70.801,61.035,-84.473,30.273
1532402301.824,-73.242,69.824,56.641,-85.449,33.203
1532402301.828,-34.180,68.359,49.805,-79.590,26.367
1532402301.832,-22.461,68.848,43.945,-88.379,10.742
1532402301.836,-16.113,62.012,45.898,-70.801,31.250
1532402301.840,-7.812,56.641,39.062,-66.406,45.898
1532402301.844,-9.277,49.805,35.156,-83.984,41.992
1532402301.847,4.883,41.016,37.598,-57.617,36.621
1532402301.851,1.953,40.527,31.250,-60.059,35.156
1532402301.855,3.906,33.691,27.344,-58.594,55.664
1532402301.859,32.715,29.297,27.832,-32.227,32.227
1532402301.863,59.570,30.762,26.855,-52.734,27.832
1532402301.867,53.711,29.297,27.344,-51.270,36.621
1532402301.871,57.129,26.855,24.414,-23.926,10.742
1532402301.875,53.711,21.484,23.926,0.488,-3.906
1532402301.879,50.293,17.090,20.996,-0.488,39.062
1532402301.883,58.105,20.996,14.648,-18.066,60.059
1532402301.887,67.871,22.949,18.555,-4.883,56.152
1532402301.890,63.477,16.113,25.879,30.762,37.109
1532402301.894,26.855,12.207,24.414,29.297,44.434
1532402301.898,5.371,12.695,20.996,29.785,64.941
1532402301.902,27.344,7.812,21.973,30.762,59.570
1532402301.906,36.133,5.859,19.531,9.277,35.156
1532402301.910,29.297,8.301,15.137,14.160,14.648
1532402301.914,42.480,12.207,14.648,8.789,5.371
1532402301.918,47.852,13.184,18.066,51.270,8.301
1532402301.922,49.805,11.230,16.113,44.922,1.953
1532402301.926,42.969,13.672,12.207,-6.836,0.000
1532402301.929,47.363,12.695,14.648,-0.977,-2.930
1532402301.933,59.570,15.137,17.090,31.738,5.859
1532402301.937,59.082,20.508,14.648,30.762,34.668
1532402301.941,60.059,16.602,15.137,29.785,20.996
1532402301.945,63.965,15.625,22.949,81.055,18.555
1532402301.949,85.449,20.020,19.043,35.645,42.480
1532402301.953,80.566,14.160,16.113,40.039,47.363
1532402301.957,67.383,8.789,20.020,59.570,13.184
1532402301.961,55.664,11.719,16.602,17.578,-3.418
1532402301.965,79.102,12.207,19.043,26.367,15.137
1532402301.969,80.566,12.695,23.926,39.551,48.828
1532402301.972,64.453,15.137,20.508,43.945,15.137
1532402301.976,87.402,18.066,19.043,50.293,-26.367
1532402301.980,92.285,16.602,24.414,38.086,9.277
1532402301.984,92.773,16.113,22.461,31.250,46.875
1532402301.988,109.375,16.602,20.020,32.227,44.434
1532402301.992,83.008,17.090,24.414,24.902,12.207
1532402301.996,51.758,18.066,26.855,22.461,20.508
1532402302.000,68.848,18.555,25.879,19.531,57.129
1532402302.004,63.965,21.484,22.949,22.461,56.152
1532402302.008,55.664,17.578,26.855,34.668,32.227
1532402302.012,65.430,18.555,28.809,27.832,-5.371
1532402302.015,76.660,27.344,26.367,27.832,0.000
1532402302.019,66.406,26.367,28.320,32.715,50.781
1532402302.023,56.641,24.414,32.715,40.527,14.648
1532402302.027,78.125,28.809,32.227,60.059,-0.488
1532402302.031,93.262,29.297,29.785,42.969,4.883
1532402302.035,96.680,26.367,31.250,26.367,0.977
1532402302.039,106.934,25.391,30.762,20.020,27.832
1532402302.043,88.867,23.926,30.762,26.367,33.691
1532402302.047,85.938,22.461,32.227,40.039,34.668
1532402302.051,92.773,24.902,27.832,8.789,3.418
1532402302.054,63.965,29.785,24.902,-9.766,7.324
1532402302.058,65.918,33.203,25.391,68.359,34.668
1532402302.062,70.312,31.738,26.367,43.457,17.090
1532402302.066,45.410,26.367,27.832,-22.461,26.367
1532402302.070,55.176,23.926,27.832,14.160,52.734
1532402302.074,59.082,26.855,26.367,5.371,36.133
1532402302.078,17.578,24.902,26.855,9.277,12.207
1532402302.082,11.230,26.367,26.367,11.719,25.391
1532402302.086,24.902,27.832,25.391,8.789,54.199
1532402302.090,44.922,25.391,26.367,19.043,40.039
1532402302.094,41.504,27.832,23.926,-6.348,21.973
1532402302.097,29.785,26.855,25.391,12.207,23.926
1532402302.101,37.598,24.902,26.855,27.344,36.133
1532402302.105,33.203,31.250,25.391,-4.883,43.457
1532402302.109,46.387,32.227,27.832,-1.953,5.859
1532402302.113,57.617,28.320,29.785,37.109,-19.043
1532402302.117,47.852,29.297,28.320,7.324,0.000
1532402302.121,62.012,29.785,24.902,-12.207,37.109
1532402302.125,61.523,25.879,28.809,7.324,39.551
1532402302.129,48.340,20.508,32.227,11.719,22.949
1532402302.133,43.945,23.438,29.785,29.785,34.668
1532402302.136,22.949,26.855,26.367,-27.344,60.547
1532402302.140,17.090,27.832,26.367,-39.062,38.574
1532402302.144,45.410,30.762,30.762,34.668,13.184
1532402302.148,78.125,25.391,37.109,62.012,15.137
1532402302.152,69.336,26.855,33.203,-5.859,-11.719
1532402302.156,39.551,36.133,25.391,-42.969,-5.859
1532402302.160,41.016,39.062,20.508,-12.695,20.996
1532402302.164,77.148,44.922,15.137,-6.348,37.109
1532402302.168,80.566,46.387,18.555,-16.602,36.133
1532402302.172,59.570,43.457,18.555,-17.090,19.531
1532402302.176,61.035,40.039,15.625,-22.949,47.363
1532402302.179,22.949,39.551,20.996,-17.090,49.316
1532402302.183,7.324,38.574,26.367,38.086,33.691
1532402302.187,36.621,38.086,23.438,-6.836,58.105
1532402302.191,38.086,39.551,20.508,-54.199,29.297
1532402302.195,1.465,34.180,27.344,-0.977,-0.977
1532402302.199,-5.859,31.250,25.879,-35.156,38.086
1532402302.203,-8.789,33.203,26.367,-35.156,61.523
1532402302.207,-22.461,29.785,27.832,16.113,34.668
1532402302.211,-30.273,27.344,27.832,8.301,-12.695
1532402302.215,-17.578,31.738,28.320,-17.090,-17.090
1532402302.219,-29.297,33.203,28.320,-26.855,27.832
1532402302.222,-59.082,31.738,33.203,4.395,31.250
1532402302.226,-49.316,33.203,28.809,10.742,25.879
1532402302.230,-28.320,33.203,29.785,25.879,18.555
1532402302.234,-14.648,36.133,31.250,18.066,30.273
1532402302.238,-36.133,32.715,30.762,-25.879,47.852
1532402302.242,-51.270,31.738,32.227,-11.230,17.578
1532402302.246,-28.320,37.109,27.344,21.484,5.859
1532402302.250,-15.625,34.180,27.344,-2.930,5.859
1532402302.254,-16.113,32.227,27.832,-19.043,-4.395
1532402302.258,4.883,36.621,29.297,-11.719,7.812
1532402302.261,-16.113,37.109,32.227,-3.906,-11.719
1532402302.265,-34.180,33.691,31.250,11.230,15.137
1532402302.269,-11.230,37.109,27.832,-6.836,25.879
1532402302.273,-25.879,40.527,25.879,-31.250,-5.371
1532402302.277,-33.203,35.645,30.762,-16.113,18.555
1532402302.281,-17.090,33.203,33.691,-2.930,25.391
1532402302.285,-20.996,37.109,30.273,-11.719,41.504
1532402302.289,-13.184,38.574,29.785,1.465,42.969
1532402302.293,-25.879,36.621,35.156,22.949,-3.418
1532402302.297,-49.805,36.133,35.645,-9.766,7.812
1532402302.301,-55.176,35.645,32.715,-25.391,60.547
1532402302.304,-49.805,35.156,34.668,-5.859,68.359
1532402302.308,-43.457,36.133,29.785,-46.387,50.293
1532402302.312,-27.344,33.203,30.273,2.441,25.391
1532402302.316,-41.504,32.227,33.203,-3.906,37.598
1532402302.320,-40.527,33.203,31.738,-43.945,35.645
1532402302.324,-4.883,26.367,37.109,41.504,34.180
1532402302.328,-20.508,31.250,30.273,-1.953,37.109
1532402302.332,-8.301,38.574,23.438,-79.102,10.254
1532402302.336,16.113,35.645,28.809,-6.836,12.695
1532402302.340,0.488,35.156,29.297,7.812,30.762
1532402302.344,-16.113,35.156,27.344,-9.766,-3.906
1532402302.347,2.441,31.738,27.344,-19.043,2.441
1532402302.351,-3.906,29.297,26.367,-39.551,24.414
1532402302.355,-31.250,32.227,26.855,-30.762,16.602
1532402302.359,-20.020,36.133,23.438,-31.250,28.809
1532402302.363,-0.977,34.668,26.367,-10.742,25.391
1532402302.367,-3.906,30.762,31.250,-6.836,33.691
1532402302.371,-5.371,28.320,32.227,-36.133,39.551
1532402302.375,-9.766,33.203,30.273,-5.859,20.508
1532402302.379,7.812,36.133,27.832,7.812,2.930
1532402302.383,6.348,35.645,26.855,-8.789,34.180
1532402302.386,-12.207,35.156,26.367,-46.875,66.895
1532402302.390,3.906,37.109,26.855,-48.340,32.715
1532402302.394,-13.672,34.668,31.738,-17.578,-10.254
1532402302.398,-31.738,27.832,36.621,-15.625,33.691
1532402302.402,-33.203,24.902,33.691,-16.602,72.754
1532402302.406,-15.625,29.785,32.227,-4.883,42.480
1532402302.410,1.953,35.645,30.762,2.441,4.395
1532402302.414,-21.973,33.691,28.809,-27.344,13.672
1532402302.418,-41.504,28.320,35.156,-14.160,34.668
1532402302.422,-28.320,28.809,35.156,-13.184,27.832
1532402302.426,-32.227,29.785,33.203,-20.508,28.809
1532402302.429,-18.555,25.879,34.668,-17.090,16.602
1532402302.433,-1.953,29.297,29.785,-33.691,0.977
1532402302.437,7.812,32.715,32.227,-16.602,36.621
1532402302.441,19.531,32.715,35.645,-20.020,52.734
1532402302.445,24.414,33.691,38.574,31.738,33.203
1532402302.449,0.977,33.691,34.668,24.414,19.531
1532402302.453,4.395,35.156,26.367,-56.152,7.812
1532402302.457,33.203,37.598,27.344,-27.832,17.578
1532402302.461,31.738,35.645,30.273,5.371,26.855
1532402302.465,26.367,34.180,33.203,28.809,14.160
1532402302.469,26.855,41.016,30.762,-13.672,26.855
1532402302.472,30.273,38.086,32.227,-42.969,30.762
1532402302.476,5.371,25.391,41.016,-14.648,0.000
1532402302.480,32.715,24.902,42.969,0.488,17.578
1532402302.484,54.199,37.598,31.738,-18.066,81.543
1532402302.488,27.832,38.574,33.203,-10.742,70.801
1532402302.492,45.410,36.621,32.715,17.578,6.836
1532402302.496,52.734,40.039,17.578,-54.688,11.719
1532402302.500,35.645,36.133,22.949,-46.875,32.715
1532402302.504,25.879,32.227,33.203,1.953,31.250
1532402302.508,20.996,29.297,34.668,-3.418,31.738
1532402302.511,17.090,29.785,31.250,2.930,26.367
1532402302.515,44.434,29.785,29.785,24.414,33.691
1532402302.519,26.855,27.832,32.227,0.977,41.016
1532402302.523,-3.418,27.832,30.762,-8.789,37.598
1532402302.527,1.465,22.949,32.227,0.000,29.785
1532402302.531,15.137,22.461,35.645,-4.395,33.691
1532402302.535,28.320,24.414,38.574,30.273,42.969
1532402302.539,4.395,23.438,34.180,20.508,56.641
1532402302.543,3.906,25.879,32.715,-11.719,32.715
1532402302.547,26.855,23.926,36.621,-1.465,26.367
1532402302.551,15.137,23.438,35.645,0.000,43.457
1532402302.554,27.832,24.902,34.668,-11.230,38.086
1532402302.558,39.551,25.879,34.668,14.160,15.625
1532402302.562,35.645,32.715,29.297,-1.953,4.883
1532402302.566,58.594,35.645,24.902,4.395,25.391
1532402302.570,46.875,30.762,27.344,27.832,36.133
1532402302.574,25.391,31.738,27.344,-33.691,-5.371
1532402302.578,28.320,27.344,31.738,-27.832,-14.160
1532402302.582,34.180,25.879,32.715,-6.836,14.160
1532402302.586,25.391,29.297,31.738,1.465,33.203
1532402302.590,32.715,32.227,26.855,-13.184,40.527
1532402302.593,47.363,33.691,27.832,-32.227,33.691
1532402302.597,8.301,29.297,36.133,-8.301,42.480
1532402302.601,-14.648,31.250,33.203,-8.301,58.105
1532402302.605,2.441,32.715,29.297,-11.230,57.617
1532402302.609,5.371,32.227,28.809,-27.832,13.672
1532402302.613,3.418,34.180,29.297,-23.926,16.113
1532402302.617,-15.625,33.203,29.297,-10.254,17.090
1532402302.621,-35.156,31.250,31.738,1.465,10.742
1532402302.625,-44.922,32.227,27.344,-7.324,33.691
1532402302.629,-68.848,31.738,25.879,-27.344,1.465
1532402302.633,-64.941,31.738,29.297,-10.254,-18.555
1532402302.636,-57.129,29.785,26.367,-32.715,2.930
1532402302.640,-63.965,26.855,28.320,-15.137,25.391
1532402302.644,-66.895,26.855,28.320,33.203,35.156
1532402302.648,-29.297,27.832,22.949,-14.160,25.879
1532402302.652,-16.602,23.926,27.344,-32.227,15.625
1532402302.656,-8.789,23.438,29.785,-10.254,34.668
1532402302.660,-8.301,25.879,29.785,-8.789,13.672
1532402302.664,-24.414,27.344,27.832,-30.762,-3.906
1532402302.668,-21.973,27.832,26.855,3.906,30.273
1532402302.672,-11.230,29.785,26.367,26.855,41.992
1532402302.676,-7.324,37.109,21.973,-21.484,24.414
1532402302.679,-12.207,36.621,27.832,-8.301,26.367
1532402302.683,-23.926,33.691,29.785,-5.859,24.414
1532402302.687,-18.066,36.133,22.949,-22.949,32.227
1532402302.691,16.602,41.992,23.438,0.000,2.441
1532402302.695,30.762,40.527,22.461,-21.484,-10.254
1532402302.699,11.719,36.621,21.973,-29.785,37.109
1532402302.703,11.719,39.062,25.879,13.184,35.645
1532402302.707,34.668,37.109,23.926,-19.043,44.434
1532402302.711,14.160,34.668,24.414,-38.086,17.578
1532402302.715,2.441,41.992,19.531,4.883,-7.324
1532402302.718,15.137,41.016,20.996,28.320,47.363
1532402302.722,-33.203,29.297,33.691,5.859,66.895
1532402302.726,-73.730,28.809,36.133,-23.926,37.598
1532402302.730,-83.984,25.391,39.062,-12.207,24.902
1532402302.734,-65.918,24.414,39.062,-9.766,43.945
1532402302.738,-51.270,27.344,38.086,-17.578,42.969
1532402302.742,-60.059,26.367,39.062,-9.766,51.270
1532402302.746,-45.898,21.973,41.504,-9.766,35.156
1532402302.750,-33.691,26.367,38.086,5.371,10.254
1532402302.754,-52.246,35.645,31.738,23.438,23.438
1532402302.758,-27.344,33.203,31.738,-30.273,17.090
1532402302.761,-7.324,27.832,36.621,-32.227,2.441
1532402302.765,-19.531,27.832,38.086,7.324,23.438
1532402302.769,-22.949,26.855,38.574,0.488,48.828
1532402302.773,-31.250,28.809,38.574,-20.996,4.395
1532402302.777,-22.461,28.809,39.551,16.113,-23.926
1532402302.781,-12.207,26.855,38.574,38.086,0.488
1532402302.785,-12.695,27.832,37.109,-21.973,38.086
1532402302.789,-4.883,28.809,38.574,-6.348,44.434
1532402302.793,4.883,26.855,34.180,-12.695,7.812
1532402302.797,-5.371,28.809,36.133,26.855,8.301
1532402302.801,-12.207,31.250,41.504,67.871,42.480
1532402302.804,-25.391,28.809,39.551,-36.133,23.438
1532402302.808,-24.902,28.809,36.621,-38.086,4.883
1532402302.812,-21.973,26.855,38.086,-1.953,-26.855
1532402302.816,-12.695,29.785,36.133,20.020,-31.250
1532402302.820,-5.859,32.715,30.273,19.531,48.340
1532402302.824,0.488,29.297,30.762,-34.180,51.270
1532402302.828,0.977,28.809,33.691,-37.598,24.902
1532402302.832,-3.418,35.645,33.691,18.555,49.316
1532402302.836,-20.508,38.086,34.180,21.973,39.551
1532402302.840,-32.715,35.645,29.297,-33.691,34.668
1532402302.843,-21.973,31.738,28.809,-33.691,24.414
1532402302.847,-5.371,30.273,33.691,-11.719,19.531
1532402302.851,-0.488,33.203,34.668,0.000,27.344
1532402302.855,-17.090,33.203,33.203,-27.832,14.160
1532402302.859,-29.297,28.809,33.203,-14.648,34.668
1532402302.863,-22.461,29.297,32.715,-1.465,26.367
1532402302.867,2.441,32.227,28.809,-26.367,22.949
1532402302.871,5.371,31.738,28.320,-0.488,25.879
1532402302.875,10.254,34.180,24.414,24.414,17.090
1532402302.879,10.742,38.574,19.531,-5.859,17.090
1532402302.883,-0.488,36.133,22.949,-13.672,31.738
1532402302.886,20.020,34.180,23.926,16.602,42.480
1532402302.890,24.902,36.133,20.996,0.977,21.973
1532402302.894,-0.977,31.250,23.926,-1.465,2.441
1532402302.898,10.254,33.691,21.484,20.508,3.418
1532402302.902,20.508,39.551,17.090,-1.465,32.715
1532402302.906,19.043,37.598,23.438,-4.883,33.691
1532402302.910,12.695,36.621,29.785,16.602,-8.789
1532402302.914,-20.996,33.203,31.250,-13.184,-38.086
1532402302.918,7.324,28.320,28.320,-32.227,6.348
1532402302.922,49.316,31.250,24.902,-1.953,42.480
1532402302.926,36.133,35.156,24.902,46.387,28.320
1532402302.929,21.973,31.738,21.484,15.625,-4.395
1532402302.933,19.531,29.297,24.414,-39.551,0.488
1532402302.937,18.555,29.297,23.926,-21.484,35.156
1532402302.941,28.809,28.320,21.973,27.832,6.836
1532402302.945,20.508,28.809,26.367,32.227,-4.395
1532402302.949,15.625,28.809,22.461,-16.602,26.855
1532402302.953,37.598,31.250,24.902,-20.508,10.742
1532402302.957,59.082,32.715,27.344,-14.160,1.465
1532402302.961,56.152,34.180,24.902,-3.906,9.277
1532402302.965,27.344,35.156,23.926,-5.371,8.789
1532402302.968,33.691,36.133,27.832,12.207,7.324
1532402302.972,53.711,35.645,31.250,34.180,13.672
1532402302.976,30.762,35.645,30.762,-7.812,16.602
1532402302.980,19.531,37.109,28.809,-27.344,1.465
1532402302.984,34.668,32.227,26.367,-30.273,22.461
1532402302.988,39.551,30.273,33.203,-22.461,61.035
1532402302.992,29.297,34.668,30.273,5.859,22.949
1532402302.996,17.090,36.621,22.461,-0.488,-5.371
1532402303.000,45.898,36.621,25.879,-19.043,10.254
1532402303.004,68.359,34.668,28.809,-20.020,39.062
1532402303.008,54.199,33.691,34.180,1.953,23.438
1532402303.011,45.410,37.598,34.180,-8.789,-25.391
1532402303.015,66.895,36.621,31.738,-10.254,5.859
1532402303.019,80.078,38.086,32.227,40.527,34.668
1532402303.023,48.340,36.133,30.762,14.648,32.715
1532402303.027,30.273,33.691,27.344,-23.438,22.949
1532402303.031,56.152,35.156,30.273,-13.184,19.531
1532402303.035,65.918,34.180,31.738,-12.207,32.715
1532402303.039,35.645,34.180,34.180,2.930,14.648
1532402303.043,34.180,34.668,38.086,11.230,-11.719
1532402303.047,33.203,32.227,35.156,-4.883,12.207
1532402303.050,32.715,32.227,32.715,6.348,28.809
1532402303.054,35.645,32.715,38.574,6.348,15.137
1532402303.058,7.812,35.156,37.109,6.348,-0.488
1532402303.062,18.555,35.156,33.203,-9.277,16.602
1532402303.066,30.273,23.926,41.992,0.000,36.133
1532402303.070,17.090,28.320,36.133,-12.695,45.410
1532402303.074,23.926,41.504,24.902,-25.879,18.555
1532402303.078,24.902,40.527,25.879,-2.441,-1.953
1532402303.082,23.926,39.551,25.391,0.977,32.227
1532402303.086,31.738,38.086,27.832,18.066,68.359
1532402303.090,27.344,34.180,29.297,-0.488,18.066
1532402303.093,26.367,35.156,24.414,-56.152,-18.066
1532402303.097,33.203,37.109,20.996,-40.039,5.859
1532402303.101,33.203,33.203,20.996,-5.371,21.973
1532402303.105,41.504,32.227,23.438,-25.879,27.344
1532402303.109,41.504,31.738,26.367,-3.418,-3.418
1532402303.113,28.809,31.738,25.879,24.414,4.883
1532402303.117,21.484,36.621,21.484,-38.574,12.695
1532402303.121,31.250,32.227,25.879,-18.555,13.672
1532402303.125,23.926,26.855,32.227,29.297,25.391
1532402303.129,-7.812,27.832,27.344,-4.395,27.344
1532402303.133,-9.766,30.762,26.855,-14.160,5.859
1532402303.136,-13.184,29.785,30.762,14.648,8.789
1532402303.140,-14.648,29.785,29.785,11.230,16.602
1532402303.144,-27.344,27.344,25.879,-13.672,4.395
1532402303.148,-19.043,27.344,27.344,-10.742,32.715
1532402303.152,-2.930,30.273,32.715,-18.555,38.574
1532402303.156,-14.160,28.320,36.621,5.859,10.742
1532402303.160,-7.324,29.785,34.668,0.488,5.371
1532402303.164,23.438,29.297,34.180,0.000,33.691
1532402303.168,10.742,32.715,30.273,0.977,45.410
1532402303.172,-5.859,34.180,26.855,-14.648,31.250
1532402303.175,7.812,34.668,28.809,15.625,26.855
1532402303.179,0.488,35.156,28.320,-11.230,30.273
1532402303.183,22.461,29.297,29.297,-21.973,48.340
1532402303.187,13.672,26.855,32.227,0.000,51.758
1532402303.191,-4.395,27.344,29.297,-19.531,27.832
1532402303.195,0.000,25.391,30.273,-14.160,10.254
1532402303.199,-15.625,24.902,32.227,-16.113,28.320
1532402303.203,-10.254,24.902,33.203,-0.977,44.922
1532402303.207,-16.113,25.391,32.715,30.273,47.363
1532402303.211,-33.691,29.785,27.344,-29.297,32.227
1532402303.215,-7.812,33.691,28.809,-43.457,21.484
1532402303.218,-0.977,27.344,36.133,13.184,40.527
1532402303.222,-5.859,23.926,32.715,30.273,19.531
1532402303.226,-4.883,30.762,28.320,10.254,20.020
1532402303.230,-10.742,32.715,28.320,19.043,18.555
1532402303.234,2.930,33.203,27.832,-5.859,1.465
1532402303.238,28.320,36.133,27.344,-26.855,28.809
1532402303.242,24.902,31.250,30.273,5.371,47.363
1532402303.246,-9.277,24.902,31.250,-7.324,41.992
1532402303.250,-6.348,30.273,30.273,-2.930,27.344
1532402303.254,34.180,32.715,31.738,22.461,39.062
1532402303.258,8.789,30.273,29.785,-4.883,45.410
1532402303.261,-27.344,27.344,30.762,-34.180,29.297
1532402303.265,-10.254,27.832,32.715,10.254,34.668
1532402303.269,18.555,32.715,31.738,50.781,39.551
1532402303.273,12.695,38.574,31.250,31.738,30.762
1532402303.277,-15.625,39.062,27.344,-24.902,28.320
1532402303.281,-15.137,39.062,27.344,-12.207,28.809
1532402303.285,22.949,36.621,30.762,8.301,47.852
1532402303.289,27.344,34.180,28.320,13.184,47.852
1532402303.293,-5.371,34.668,27.344,20.020,-2.930
1532402303.297,-9.277,33.691,29.297,-5.371,-19.531
1532402303.300,-1.465,35.156,27.832,-15.625,9.766
1532402303.304,14.648,39.062,28.320,-0.977,27.832
1532402303.308,4.883,38.086,28.809,27.344,14.648
1532402303.312,29.785,36.133,25.879,-4.395,15.137
1532402303.316,41.992,35.645,26.367,-20.020,20.996
1532402303.320,16.602,36.133,25.879,-1.953,30.762
1532402303.324,24.414,34.180,27.344,3.906,33.691
1532402303.328,17.578,32.227,33.203,14.648,23.926
1532402303.332,19.531,33.691,31.738,19.043,10.742
1532402303.336,15.625,32.715,30.762,-11.719,40.527
1532402303.340,7.324,26.367,34.668,-35.645,53.711
1532402303.343,35.156,21.973,39.062,0.488,-3.418
1532402303.347,38.574,35.645,32.227,11.719,20.020
1532402303.351,-0.488,42.969,27.832,5.859,30.762
1532402303.355,20.020,36.621,30.273,1.953,5.371
1532402303.359,28.320,36.621,25.879,-10.254,13.184
1532402303.363,6.348,38.574,25.391,1.465,18.066
1532402303.367,14.160,41.504,25.879,18.066,52.734
1532402303.371,19.531,45.898,22.461,-25.879,55.176
1532402303.375,38.086,45.410,21.973,-39.062,24.414
1532402303.379,50.293,37.598,29.297,19.531,49.316
1532402303.382,24.902,33.691,32.715,14.160,41.016
1532402303.386,18.066,35.156,31.738,-8.789,33.203
1532402303.390,45.898,37.109,30.273,17.578,29.297
1532402303.394,37.598,38.086,25.879,-0.488,9.766
1532402303.398,32.227,33.691,25.879,-11.230,35.156
1532402303.402,58.594,36.133,27.344,-0.488,67.383
1532402303.406,29.297,38.086,22.461,-13.672,30.762
1532402303.410,12.207,29.297,24.414,8.789,-22.949
1532402303.414,37.598,29.297,26.367,10.254,-16.113
1532402303.418,29.785,35.156,25.391,20.020,29.785
1532402303.422,46.387,36.621,24.902,-11.719,55.664
1532402303.425,49.316,34.180,26.855,-9.277,24.902
1532402303.429,28.320,32.715,26.367,16.113,3.906
1532402303.433,39.551,34.668,20.996,-5.859,14.648
1532402303.437,9.277,28.320,27.344,14.648,32.715
1532402303.441,0.488,27.832,26.855,-13.672,25.879
1532402303.445,23.438,33.203,27.344,-37.598,19.531
1532402303.449,41.992,33.203,31.250,-4.883,9.277
1532402303.453,39.062,33.203,30.273,8.301,-12.695
1532402303.457,23.438,32.715,33.691,44.434,1.465
1532402303.461,36.621,29.785,31.250,-5.859,16.113
1532402303.465,27.832,31.250,28.809,-7.812,20.996
1532402303.468,16.602,38.574,28.320,16.113,16.602
1532402303.472,11.230,37.598,30.762,-12.207,2.441
1532402303.476,21.484,32.715,29.785,-16.113,21.484
1532402303.480,9.277,31.738,30.762,-3.906,25.391
1532402303.484,-20.508,33.203,33.203,6.836,17.578
1532402303.488,-4.395,31.738,34.668,33.203,28.809
1532402303.492,3.418,32.715,32.715,28.809,13.184
1532402303.496,-6.348,33.203,29.297,-5.859,25.391
1532402303.500,-2.441,32.227,32.227,-11.230,37.598
1532402303.504,-7.324,31.250,33.691,-2.441,9.277
1532402303.507,-19.043,27.344,33.203,-19.531,-0.977
1532402303.511,-16.602,29.785,34.180,0.000,8.301
1532402303.515,-18.555,30.273,35.645,11.230,-0.488
1532402303.519,-2.930,27.344,29.297,-9.766,11.719
1532402303.523,2.441,29.785,25.879,-10.742,22.949
1532402303.527,23.926,31.738,28.320,-3.418,5.859
1532402303.531,29.297,33.203,27.832,-8.301,-18.555
1532402303.535,-15.625,31.738,27.832,-5.859,10.742
1532402303.539,-21.973,28.320,27.344,-8.301,55.176
1532402303.543,-9.277,27.344,24.902,-34.180,23.438
1532402303.547,-3.418,27.344,30.273,2.441,16.113
1532402303.550,6.348,30.273,29.297,23.438,13.184
1532402303.554,8.301,31.738,23.438,-16.113,18.066
1532402303.558,-44.434,25.391,27.832,-19.043,47.852
1532402303.562,-52.246,24.414,34.668,22.949,17.578
1532402303.566,-15.625,29.297,28.809,-8.301,12.207
1532402303.570,-24.902,31.250,21.973,-49.316,36.621
1532402303.574,-39.062,29.297,29.297,-13.672,19.043
1532402303.578,-40.527,26.367,31.250,4.395,15.625
1532402303.582,-29.297,31.738,28.320,-22.949,30.273
1532402303.586,-14.648,30.273,31.250,42.969,44.922
1532402303.590,-23.926,26.367,34.668,39.062,30.762
1532402303.593,-48.340,24.902,35.645,-41.992,11.230
1532402303.597,-52.734,22.949,36.133,-13.184,13.184
1532402303.601,-23.438,32.227,31.738,7.812,22.461
1532402303.605,-24.902,34.180,31.738,20.020,32.227
1532402303.609,-32.715,27.832,36.621,20.996,18.555
1532402303.613,-7.812,26.367,35.645,20.508,-21.973
1532402303.617,-15.625,31.738,30.273,-14.160,16.113
1532402303.621,-21.484,32.715,30.273,-29.785,57.129
1532402303.625,-9.277,24.414,33.203,6.836,20.508
1532402303.629,-18.066,24.902,40.039,32.227,9.277
1532402303.632,-3.418,33.691,34.180,-6.348,15.137
1532402303.636,6.348,38.086,25.879,-24.902,46.875
1532402303.640,-58.594,35.645,27.344,29.297,44.922
1532402303.644,-90.332,32.715,26.855,-1.465,-10.254
1532402303.648,-92.285,29.297,30.762,-22.949,-6.348
1532402303.652,-96.680,32.227,33.203,-11.230,14.160
1532402303.656,-83.008,38.086,27.832,9.766,38.086
1532402303.660,-64.941,35.645,30.273,27.832,43.945
1532402303.664,-88.379,28.320,34.180,-1.465,55.664
1532402303.668,-100.586,30.273,27.344,-30.762,65.918
1532402303.672,-59.082,34.668,28.809,-14.160,28.320
1532402303.675,-65.918,37.598,34.180,13.184,14.648
1532402303.679,-100.586,40.527,29.297,15.625,17.090
1532402303.683,-102.051,35.645,28.809,39.062,21.484
1532402303.687,-74.219,31.738,31.738,12.207,21.484
1532402303.691,-57.617,33.691,31.738,-33.203,0.000
1532402303.695,-75.195,37.109,28.809,-24.414,-11.230
1532402303.699,-82.031,35.645,30.273,4.395,26.367
1532402303.703,-81.055,32.715,32.715,-13.672,58.594
1532402303.707,-69.336,34.668,30.762,-2.930,68.848
1532402303.711,-72.266,30.273,35.645,12.207,32.715
1532402303.715,-98.633,28.320,33.691,-10.254,8.789
1532402303.718,-71.289,40.039,25.879,-33.203,4.883
1532402303.722,-62.012,39.551,25.879,-20.996,14.160
1532402303.726,-85.938,31.250,28.809,30.762,5.371
1532402303.730,-74.707,36.621,25.879,-3.418,-27.832
1532402303.734,-53.223,38.086,23.926,-40.039,1.465
1532402303.738,-62.012,33.691,31.250,18.066,20.996
1532402303.742,-80.078,35.156,30.273,12.207,-0.977
1532402303.746,-68.848,34.180,27.344,2.930,0.977
1532402303.750,-49.805,33.203,29.785,35.156,12.207
1532402303.754,-54.688,37.109,27.344,-3.906,-13.672
1532402303.757,-65.430,38.086,29.785,-9.766,-7.812
1532402303.761,-81.055,36.621,31.250,26.367,23.438
1532402303.765,-81.055,37.598,28.320,8.301,26.367
1532402303.769,-53.223,40.039,28.320,-3.418,38.086
1532402303.773,-48.340,37.109,30.762,10.254,51.270
1532402303.777,-34.180,35.156,32.715,-0.977,54.688
1532402303.781,-42.969,33.203,31.738,-11.230,45.898
1532402303.785,-77.148,28.809,31.250,-14.160,26.855
1532402303.789,-50.293,29.785,28.809,3.418,30.273
1532402303.793,-29.297,32.227,26.367,-15.137,13.184
1532402303.797,-20.020,29.785,27.832,-16.602,-3.906
1532402303.800,-18.066,30.273,32.227,48.340,30.273
1532402303.804,-13.184,30.762,33.691,27.344,51.270
1532402303.808,-20.996,32.715,27.832,-43.945,34.180
1532402303.812,-22.461,34.668,29.785,-26.855,35.645
1532402303.816,-9.766,32.715,32.227,-6.348,42.969
1532402303.820,-34.668,35.645,29.297,17.578,28.320
1532402303.824,-29.785,34.668,32.227,29.297,20.508
1532402303.828,-40.527,30.762,33.203,-12.207,42.480
1532402303.832,-39.062,33.203,31.738,-7.324,48.340
1532402303.836,-42.480,32.715,36.621,17.578,48.340
1532402303.839,-35.156,30.273,32.715,0.488,35.645
1532402303.843,-30.762,34.668,25.391,-18.066,33.691
1532402303.847,-36.621,32.715,32.227,9.277,39.551
1532402303.851,-11.719,27.832,36.621,33.203,46.387
1532402303.855,-25.879,28.809,37.109,18.555,56.152
1532402303.859,-37.598,29.785,33.203,-17.090,20.508
1532402303.863,-30.273,31.738,30.762,-19.043,7.324
1532402303.867,-44.922,32.715,30.273,-5.859,29.297
1532402303.871,-60.059,30.762,30.273,1.465,36.621
1532402303.875,-46.387,29.785,32.715,-15.137,20.020
1532402303.879,-47.852,32.715,33.203,-22.461,3.906
1532402303.882,-49.805,35.156,30.762,14.648,10.254
1532402303.886,-17.090,32.227,32.715,24.902,50.293
1532402303.890,22.949,31.738,33.203,-4.883,21.484
1532402303.894,5.859,32.227,33.203,-8.301,-17.090
1532402303.898,-2.930,32.227,31.738,-4.395,12.695
1532402303.902,23.926,33.203,28.320,8.789,46.387
1532402303.906,46.875,36.133,30.273,25.391,59.082
1532402303.910,41.016,39.062,31.738,13.672,35.156
1532402303.914,39.551,35.156,35.645,-13.184,12.207
1532402303.918,14.160,31.738,41.016,-13.672,19.531
1532402303.922,38.086,34.668,34.180,16.113,16.113
1532402303.925,53.711,35.156,31.738,15.137,3.906
1532402303.929,27.344,34.180,32.715,-6.836,23.926
1532402303.933,43.457,29.785,34.180,-17.090,11.719
1532402303.937,45.410,28.809,37.109,-10.742,19.531
1532402303.941,41.992,33.691,35.156,26.855,20.996
1532402303.945,24.414,40.039,26.367,9.277,18.555
1532402303.949,52.246,43.457,20.996,-3.418,34.180
1532402303.953,56.152,36.621,30.762,2.930,38.086
1532402303.957,14.160,31.738,39.551,-8.301,31.738
1532402303.961,30.762,30.762,34.668,-4.395,7.812
1532402303.964,29.297,28.809,39.062,8.301,20.996
1532402303.968,14.160,31.738,42.969,24.414,30.762
1532402303.972,49.805,29.785,41.016,16.113,12.695
1532402303.976,42.480,26.367,44.434,-31.738,15.625
1532402303.980,-4.883,23.438,50.781,-30.273,11.719
1532402303.984,4.883,23.926,49.316,-2.441,26.855
1532402303.988,9.766,28.809,46.387,12.695,26.855
1532402303.992,-27.832,24.414,46.875,14.160,2.930
1532402303.996,-46.387,27.832,43.945,-34.668,-1.465
1532402304.000,-32.227,33.691,41.992,-9.766,27.832
1532402304.004,-39.062,28.809,45.898,39.551,42.480
1532402304.007,-76.172,28.320,43.457,-10.254,30.273
1532402304.011,-65.430,29.785,41.504,27.832,23.926
1532402304.015,-53.711,27.832,43.945,34.668,36.621
1532402304.019,-67.383,28.809,38.086,-15.137,39.551
1532402304.023,-55.664,29.297,38.086,0.000,21.484
1532402304.027,-18.066,29.297,41.504,-7.812,27.832
1532402304.031,-2.930,27.832,37.598,-6.836,23.926
1532402304.035,-45.898,27.832,36.133,-6.348,24.414
1532402304.039,-57.617,29.785,34.180,0.977,32.715
1532402304.043,-41.016,27.832,36.621,13.184,19.531
1532402304.047,-54.688,25.879,41.016,9.277,19.043
1532402304.050,-50.781,30.273,41.504,8.301,17.578
1532402304.054,-42.480,32.715,39.062,2.930,31.250
1532402304.058,-57.617,29.785,36.133,1.465,48.828
1532402304.062,-29.297,32.715,30.273,20.508,41.992
1532402304.066,-1.953,35.645,30.762,15.625,24.414
1532402304.070,-49.316,28.320,37.598,3.418,42.480
1532402304.074,-51.758,25.879,38.086,-32.715,28.809
1532402304.078,-32.227,29.785,35.645,9.766,6.348
1532402304.082,-29.785,29.785,34.668,21.484,16.602
1532402304.086,-46.387,30.273,30.762,30.762,41.992
1532402304.089,-59.082,30.762,28.809,14.160,53.223
1532402304.093,-37.109,31.250,30.762,-40.039,32.715
1532402304.097,-26.855,30.762,34.668,-2.441,6.348
1532402304.101,-47.363,30.273,33.203,2.441,21.484
1532402304.105,-59.570,31.738,30.762,3.418,52.246
1532402304.109,-30.273,32.715,31.250,6.836,24.414
1532402304.113,-27.344,35.156,28.320,25.391,-14.648
1532402304.117,-64.941,32.227,26.855,15.137,-19.531
1532402304.121,-63.477,30.762,30.762,-18.066,3.906
1532402304.125,-45.410,33.203,32.227,-5.859,35.156
1532402304.129,-42.480,29.785,34.668,23.926,26.367
1532402304.132,-53.223,29.785,37.109,13.184,20.020
1532402304.136,-55.664,32.227,36.621,63.965,43.945
1532402304.140,-44.922,34.180,32.227,28.320,51.270
1532402304.144,-53.223,30.273,33.203,-43.457,31.250
1532402304.148,-77.148,30.762,34.180,18.066,16.602
1532402304.152,-71.289,33.691,28.809,18.066,23.438
1532402304.156,-65.430,27.832,32.715,24.902,13.672
1532402304.160,-70.801,28.809,30.762,5.371,-6.348
1532402304.164,-60.547,32.227,25.391,-18.555,-22.949
1532402304.168,-59.082,33.691,24.902,-6.348,15.137
1532402304.171,-94.727,31.738,26.855,-16.113,44.922
1532402304.175,-113.770,28.809,30.762,13.184,-9.277
1532402304.179,-94.727,29.297,28.320,7.812,6.348
1532402304.183,-56.152,31.250,28.320,-12.695,37.598
1532402304.187,-55.664,32.227,30.762,41.992,43.945
1532402304.191,-90.820,29.785,26.855,5.371,41.016
1532402304.195,-78.613,28.809,24.902,-44.434,25.879
1532402304.199,-71.289,30.762,24.414,-16.113,34.668
1532402304.203,-83.008,31.250,25.391,20.508,41.016
1532402304.207,-61.523,27.832,33.691,24.902,39.551
1532402304.211,-61.523,32.715,28.320,-33.203,1.953
1532402304.214,-69.824,36.133,21.484,-30.762,0.000
1532402304.218,-47.363,32.715,24.902,2.930,33.691
1532402304.222,-18.066,32.715,28.809,59.082,9.766
1532402304.226,-9.766,34.668,27.344,4.883,-17.090
1532402304.230,-51.270,35.156,27.344,-55.664,-0.488
1532402304.234,-45.410,31.250,35.156,-9.277,3.418
1532402304.238,-18.555,33.691,35.156,37.598,22.949
1532402304.242,-25.879,40.527,25.879,16.113,51.270
1532402304.246,-6.836,35.645,29.297,-18.555,36.621
1532402304.250,-10.254,33.691,29.785,7.324,16.113
1532402304.254,-12.207,35.645,25.879,31.250,21.484
1532402304.257,14.160,33.203,26.855,-5.371,-4.883
1532402304.261,1.465,31.738,25.879,-30.273,-15.625
1532402304.265,2.441,34.668,29.297,0.977,15.625
1532402304.269,28.809,35.156,32.715,31.738,43.945
1532402304.273,-6.836,32.715,33.203,-2.441,0.488
1532402304.277,-31.738,31.250,29.297,-20.020,-28.809
1532402304.281,-8.301,30.762,31.250,4.883,4.883
1532402304.285,-7.324,30.762,33.691,23.438,44.434
1532402304.289,-5.859,33.203,28.320,22.461,38.086
1532402304.293,-5.859,33.691,27.832,-15.625,11.230
1532402304.296,-9.277,25.391,33.691,0.000,7.812
1532402304.300,0.000,28.320,32.715,31.250,1.953
1532402304.304,21.484,34.180,27.344,-9.277,6.836
1532402304.308,-19.043,32.227,25.391,-24.414,37.598
1532402304.312,-56.152,27.344,28.809,-19.531,15.625
1532402304.316,-33.691,25.391,31.250,-12.695,1.465
1532402304.320,-19.043,28.809,29.785,-1.953,50.293
1532402304.324,-3.906,26.367,33.203,-9.766,70.801
1532402304.328,-20.020,29.297,31.250,6.348,68.848
1532402304.332,-12.207,40.527,24.902,27.344,36.133
1532402304.336,29.785,41.504,23.438,-24.414,34.668
1532402304.339,25.391,35.645,27.344,-60.059,34.668
1532402304.343,11.230,32.227,32.715,-20.020,19.531
1532402304.347,-3.906,27.832,33.691,14.160,38.574
1532402304.351,-20.508,28.809,31.738,20.020,6.348
1532402304.355,-26.367,33.203,31.738,12.207,-11.230
1532402304.359,-12.207,37.109,30.273,-12.207,1.465
1532402304.363,-0.977,38.086,29.297,-23.926,15.625
1532402304.367,-6.348,35.156,31.250,5.859,49.805
1532402304.371,-4.395,38.086,23.926,4.395,36.621
1532402304.375,-28.809,29.297,28.320,12.207,27.344
1532402304.379,-39.062,24.414,38.086,15.137,25.391
1532402304.382,-13.184,31.738,28.320,9.766,24.902
1532402304.386,3.906,34.668,22.949,22.949,64.453
1532402304.390,-12.207,35.645,20.996,0.977,56.641
1532402304.394,-20.020,33.691,18.555,-42.969,-3.418
1532402304.398,-10.254,31.738,27.344,-29.785,7.324
1532402304.402,-8.789,32.227,33.203,18.555,53.711
1532402304.406,-7.812,32.227,27.832,7.812,43.945
1532402304.410,-10.254,26.367,30.762,-6.836,4.883
1532402304.414,-21.484,30.762,30.273,-18.066,-49.316
1532402304.418,-13.672,32.715,30.762,-26.367,8.301
1532402304.421,-0.977,30.273,32.227,-6.348,50.293
1532402304.425,-45.898,32.715,25.391,-14.648,11.719
1532402304.429,-46.875,35.156,29.297,19.043,32.715
1532402304.433,-9.766,33.203,31.738,1.953,57.617
1532402304.437,-18.066,33.203,28.809,-12.695,57.129
1532402304.441,-15.625,33.203,29.297,4.395,54.199
1532402304.445,-18.066,28.320,31.250,-5.859,49.316
1532402304.449,1.953,22.949,34.668,4.395,24.902
1532402304.453,11.719,24.414,30.762,17.090,8.789
1532402304.457,-3.418,30.762,25.391,20.508,31.738
1532402304.461,-14.648,29.297,26.855,-27.832,8.301
1532402304.464,-20.508,22.461,35.645,-12.207,4.883
1532402304.468,-28.320,23.438,35.645,2.441,54.199
1532402304.472,-27.832,29.297,26.855,0.488,53.223
1532402304.476,-33.203,29.785,27.344,57.617,31.738
1532402304.480,-16.602,31.738,30.273,6.836,18.066
1532402304.484,-13.672,26.367,35.645,-45.410,21.973
1532402304.488,-36.621,20.020,36.133,3.906,41.504
1532402304.492,-29.785,25.879,30.273,11.230,7.324
1532402304.496,-23.438,31.250,28.809,13.672,2.441
1532402304.500,-19.043,30.273,27.344,5.371,59.570
1532402304.504,-21.973,26.367,27.832,-1.953,62.500
1532402304.507,-34.668,25.879,30.762,-3.906,33.691
1532402304.511,-35.156,31.738,31.738,-3.418,33.203
1532402304.515,-42.480,29.785,29.297,13.672,62.988
1532402304.519,-43.945,27.344,24.414,-12.207,52.734
1532402304.523,-17.578,28.809,23.438,-40.039,30.762
1532402304.527,-32.715,24.414,28.809,-11.230,18.555
1532402304.531,-40.039,23.926,31.250,9.277,11.719
1532402304.535,-14.160,27.832,25.879,5.859,41.504
1532402304.539,-21.973,29.785,25.391,-10.254,40.527
1532402304.543,-35.645,26.855,28.809,-12.207,14.648
1532402304.546,-9.766,26.367,31.738,4.395,54.199
1532402304.550,-22.461,24.902,30.273,33.203,37.598
1532402304.554,-34.668,29.297,22.949,-14.648,12.207
1532402304.558,-26.367,30.273,20.508,-41.504,30.762
1532402304.562,-22.949,27.344,22.461,-8.789,23.926
1532402304.566,-31.738,27.344,22.949,-7.324,44.434
1532402304.570,-41.504,23.926,24.902,-25.391,17.090
1532402304.574,-39.062,25.391,22.461,19.043,5.371
1532402304.578,-24.902,28.809,24.902,42.969,19.043
1532402304.582,-7.324,31.250,25.391,-25.879,7.324
1532402304.586,-23.926,31.250,20.996,-20.020,13.184
1532402304.589,-38.086,25.879,27.344,16.113,28.809
1532402304.593,-17.578,26.855,32.227,-1.465,19.531
1532402304.597,-9.277,29.785,28.320,7.324,15.137
1532402304.601,-19.531,30.762,25.391,15.625,29.297
1532402304.605,-21.484,30.762,28.320,-10.742,44.434
1532402304.609,-16.113,29.785,29.785,-28.809,39.551
1532402304.613,-5.859,23.926,31.738,36.133,29.297
1532402304.617,-13.672,25.391,31.250,60.059,36.133
1532402304.621,-1.953,31.250,25.879,-28.809,50.293
1532402304.625,0.000,28.320,24.902,-34.668,45.898
1532402304.628,-22.949,20.508,30.273,-4.883,29.785
1532402304.632,-16.113,23.438,32.227,5.371,-6.836
1532402304.636,-21.484,29.785,25.879,7.324,8.301
1532402304.640,-22.461,27.832,24.414,-11.719,37.109
1532402304.644,-8.789,23.926,31.250,-13.672,45.410
1532402304.648,-6.836,24.414,35.156,25.879,41.504
1532402304.652,-14.160,27.344,28.809,25.879,45.410
1532402304.656,-13.184,25.879,29.297,-0.488,47.852
1532402304.660,-2.441,22.461,34.668,-8.301,26.855
1532402304.664,-4.395,22.949,35.645,-28.809,17.578
1532402304.668,12.695,28.809,33.691,-4.395,20.508
1532402304.671,-14.648,29.297,30.273,1.953,19.531
1532402304.675,-32.715,24.902,31.250,-9.766,-1.953
1532402304.679,-34.180,28.809,33.691,17.578,15.137
1532402304.683,-67.871,26.367,33.203,17.090,42.480
1532402304.687,-45.410,26.855,32.227,-1.465,50.781
1532402304.691,-30.273,29.297,32.715,-16.113,5.371
1532402304.695,-62.500,27.832,33.203,-17.578,-16.602
1532402304.699,-85.938,27.344,34.180,-18.555,19.043
1532402304.703,-74.707,26.367,38.574,22.949,28.809
1532402304.707,-43.945,31.250,29.785,16.602,43.457
1532402304.711,-51.270,27.344,28.320,-27.832,22.949
1532402304.714,-80.078,22.461,39.062,6.836,7.324
1532402304.718,-72.754,30.762,32.227,-6.348,44.922
1532402304.722,-49.805,35.645,29.785,9.277,13.672
1532402304.726,-49.316,36.133,27.832,-0.977,12.207
1532402304.730,-53.711,32.227,25.879,-48.340,27.832
1532402304.734,-35.645,28.809,31.250,13.184,38.086
1532402304.738,-37.109,30.762,30.273,17.090,61.035
1532402304.742,-27.832,32.227,28.809,-30.762,20.020
1532402304.746,-16.602,30.762,34.180,-9.277,-20.996
1532402304.750,-43.457,32.227,34.180,-5.859,-9.766
1532402304.753,-46.875,32.227,32.227,-22.949,24.902
1532402304.757,-53.711,27.832,30.762,8.301,28.809
1532402304.761,-50.293,30.273,27.344,7.812,28.809
1532402304.765,-41.504,36.133,22.461,-17.090,37.109
1532402304.769,-33.203,34.180,25.879,7.812,32.715
1532402304.773,0.977,26.855,33.203,-13.184,11.230
1532402304.777,-0.488,28.320,32.715,19.043,27.832
1532402304.781,-12.207,34.180,26.367,20.996,35.156
1532402304.785,-0.488,33.691,25.879,-32.715,32.715
1532402304.789,0.000,33.691,28.320,-18.066,62.012
1532402304.793,-7.324,29.785,30.273,-4.883,57.129
1532402304.796,11.719,24.902,31.250,42.969,17.090
1532402304.800,21.973,28.809,27.344,37.109,28.809
1532402304.804,-23.926,31.250,21.973,-31.738,43.945
1532402304.808,-8.301,27.832,26.367,-14.648,15.137
1532402304.812,39.551,27.832,31.738,44.434,16.602
1532402304.816,60.059,27.344,28.809,17.090,42.969
1532402304.820,41.992,29.785,25.879,-26.367,38.086
1532402304.824,30.762,35.156,23.926,26.855,-2.930
1532402304.828,44.922,32.227,25.879,20.508,12.207
1532402304.832,38.574,30.762,28.809,-23.926,3.906
1532402304.836,39.062,32.715,26.367,8.789,6.836
1532402304.839,52.246,33.203,23.926,9.766,46.387
1532402304.843,70.801,32.227,29.297,-5.371,20.020
1532402304.847,45.410,26.367,33.691,-5.859,2.930
1532402304.851,58.594,26.855,34.180,7.812,22.949
1532402304.855,64.941,25.879,31.250,27.832,20.508
1532402304.859,35.645,23.926,25.391,2.930,11.230
1532402304.863,52.246,33.691,22.949,-30.273,20.508
1532402304.867,74.707,37.598,28.320,-8.301,35.645
1532402304.871,92.285,30.273,33.203,7.324,35.645
1532402304.875,64.941,23.438,33.203,-14.160,4.395
1532402304.878,55.664,26.855,26.855,-3.418,7.324
1532402304.882,67.871,32.227,22.949,-0.977,23.438
1532402304.886,99.609,29.785,26.367,23.438,44.922
1532402304.890,93.750,30.273,23.926,25.879,41.504
1532402304.894,56.152,31.738,23.438,-27.832,20.996
1532402304.898,62.988,32.227,28.320,7.324,40.039
1532402304.902,51.270,30.273,27.832,27.344,55.664
1532402304.906,49.805,28.320,29.297,-15.625,45.410
1532402304.910,50.293,27.832,34.180,-10.254,11.230
1532402304.914,59.082,29.785,34.668,27.344,-15.137
1532402304.918,61.523,28.320,32.227,22.461,19.531
1532402304.921,27.832,27.344,30.273,-31.738,30.273
1532402304.925,25.391,30.273,34.180,-7.812,-2.441
1532402304.929,44.922,30.273,31.250,46.387,-21.484
1532402304.933,41.016,30.273,24.414,33.691,-20.996
1532402304.937,37.109,34.668,21.484,-52.734,31.738
1532402304.941,41.016,36.621,25.879,-47.363,41.992
1532402304.945,53.711,28.320,34.180,0.488,1.465
1532402304.949,74.219,29.297,31.738,-8.789,3.418
1532402304.953,73.242,31.738,29.785,-18.066,21.973
1532402304.957,44.434,27.832,35.645,14.648,41.992
1532402304.960,40.527,25.879,31.250,4.395,47.852
1532402304.964,59.570,26.855,32.227,-12.695,49.805
1532402304.968,26.855,29.785,31.738,11.230,48.828
1532402304.972,0.488,30.762,26.855,-20.996,12.695
1532402304.976,11.230,26.855,34.180,-16.602,3.418
1532402304.980,-3.418,22.461,37.598,10.254,32.227
1532402304.984,-16.113,23.438,36.621,21.484,42.969
1532402304.988,4.395,26.855,31.738,14.648,25.391
1532402304.992,-10.742,21.973,30.762,0.488,-3.906
1532402304.996,-16.602,20.020,31.738,11.719,0.000
1532402305.000,-7.324,26.855,28.320,-20.508,36.133
1532402305.003,-12.207,29.785,29.297,-19.531,52.734
1532402305.007,20.020,24.414,32.715,8.301,59.082
1532402305.011,18.555,20.020,34.668,7.812,21.484
1532402305.015,5.859,22.949,33.691,31.250,19.531
1532402305.019,36.133,27.344,29.785,-15.137,66.895
1532402305.023,29.297,24.902,29.297,-44.922,56.152
1532402305.027,5.371,17.090,33.691,5.859,23.438
1532402305.031,35.156,19.043,34.180,30.273,14.648
1532402305.035,55.176,22.461,34.668,19.531,21.973
1532402305.039,42.480,28.320,25.879,-6.348,36.621
1532402305.043,77.637,26.367,29.297,2.930,14.648
1532402305.046,76.172,22.461,33.203,8.301,3.906
1532402305.050,52.246,30.273,24.902,0.000,0.977
1532402305.054,65.430,34.668,23.926,-25.391,1.465
1532402305.058,76.172,31.738,29.297,20.996,8.789
1532402305.062,71.289,26.855,28.809,13.184,7.324
1532402305.066,90.820,32.227,24.902,-6.836,33.203
1532402305.070,89.844,35.156,28.320,9.277,42.480
1532402305.074,70.801,29.785,28.320,-18.555,14.160
1532402305.078,74.219,26.855,32.227,-0.977,34.668
1532402305.082,62.012,27.344,32.715,-3.418,43.457
1532402305.085,68.848,29.297,28.320,-9.766,41.016
1532402305.089,66.895,29.297,29.297,46.387,34.180
1532402305.093,74.219,28.809,31.738,9.277,19.531
1532402305.097,67.871,30.273,33.203,-29.297,20.020
1532402305.101,68.359,34.668,32.715,15.625,20.996
1532402305.105,85.449,36.621,25.879,-19.531,18.555
1532402305.109,105.469,35.156,26.855,-28.809,-8.301
1532402305.113,122.559,36.133,35.156,-10.742,-1.465
1532402305.117,89.844,36.133,35.645,2.441,25.879
1532402305.121,83.496,33.691,33.203,22.461,34.668
1532402305.125,114.258,31.738,31.738,15.625,43.457
1532402305.128,104.004,31.250,30.273,3.906,36.621
1532402305.132,72.754,31.250,30.762,6.836,17.090
1532402305.136,79.102,34.668,28.320,17.578,46.875
1532402305.140,81.543,38.086,28.809,19.531,58.105
1532402305.144,60.059,31.738,31.738,-9.766,36.621
1532402305.148,56.641,29.785,32.715,-30.273,36.133
1532402305.152,59.570,35.645,29.297,10.742,32.227
1532402305.156,54.688,32.715,31.250,34.180,27.344
1532402305.160,82.520,29.785,32.227,-5.859,4.883
1532402305.164,89.355,32.227,32.227,14.160,13.672
1532402305.168,55.176,36.621,30.762,-5.859,33.203
1532402305.171,28.809,35.156,27.344,-55.664,20.996
1532402305.175,17.090,36.621,26.367,-28.320,5.859
1532402305.179,18.555,40.527,25.879,-0.977,26.855
1532402305.183,37.598,41.504,22.461,-12.207,33.203
1532402305.187,53.223,35.156,27.832,-1.465,36.621
1532402305.191,15.625,34.668,32.715,-4.883,23.438
1532402305.195,7.324,38.574,32.227,-21.973,41.504
1532402305.199,31.738,35.156,33.691,-17.578,66.406
1532402305.203,34.668,33.691,26.855,-16.113,44.922
1532402305.207,36.133,31.250,26.367,15.137,30.273
1532402305.210,57.129,35.156,28.809,17.090,13.184
1532402305.214,67.871,38.086,28.320,-25.879,41.992
1532402305.218,71.289,32.227,31.738,-19.043,67.871
1532402305.222,54.688,31.250,32.715,-16.602,59.082
1532402305.226,38.086,33.691,26.855,-15.137,31.250
1532402305.230,39.062,31.738,28.809,4.883,-0.488
1532402305.234,37.109,29.785,36.621,6.348,15.137
1532402305.238,51.270,31.738,36.133,14.160,31.250
1532402305.242,32.227,30.762,31.250,12.695,19.531
1532402305.246,17.090,31.250,29.297,30.273,14.160
1532402305.250,39.551,33.203,30.273,3.418,9.766
1532402305.253,45.898,33.203,29.297,-33.203,10.254
1532402305.257,64.941,33.691,29.785,7.324,30.762
1532402305.261,63.965,35.645,26.367,17.578,19.531
1532402305.265,32.227,33.203,22.949,-20.996,29.297
1532402305.269,28.320,32.227,26.367,26.367,53.711
1532402305.273,51.270,35.645,27.832,42.969,37.109
1532402305.277,60.547,36.133,30.273,-30.762,12.695
1532402305.281,8.301,35.645,33.203,-22.949,-0.977
1532402305.285,-2.930,32.715,32.715,13.672,14.648
1532402305.289,33.203,29.297,30.762,1.953,26.367
1532402305.293,29.297,27.344,32.227,-15.625,-8.789
1532402305.296,25.391,29.297,31.250,0.000,-9.766
1532402305.300,24.902,31.738,27.344,9.766,20.996
1532402305.304,31.250,31.250,28.320,-0.977,24.414
1532402305.308,24.902,30.762,31.250,7.812,27.344
1532402305.312,8.301,30.762,30.762,46.387,0.488
1532402305.316,7.324,33.203,28.320,26.855,20.508
1532402305.320,4.883,31.738,30.762,2.930,48.828
1532402305.324,17.090,33.203,31.738,8.301,28.320
1532402305.328,27.344,37.598,29.297,13.184,6.836
1532402305.332,24.902,36.621,24.902,15.625,32.227
1532402305.335,27.832,32.227,30.762,23.926,35.156
1532402305.339,14.648,26.855,35.645,23.926,15.625
1532402305.343,6.348,26.855,29.785,4.395,0.000
1532402305.347,15.137,26.855,29.785,-5.859,20.508
1532402305.351,60.547,29.297,33.203,0.488,36.133
1532402305.355,43.457,30.762,31.738,-23.926,0.488
1532402305.359,11.230,24.414,33.691,12.207,17.090
1532402305.363,34.180,26.855,33.203,46.387,41.504
1532402305.367,33.203,32.227,26.855,-28.809,25.879
1532402305.371,34.668,31.738,23.926,-45.898,9.766
1532402305.375,55.664,30.273,20.020,14.648,18.066
1532402305.378,63.477,32.715,16.113,5.371,20.020
1532402305.382,35.156,29.297,17.090,-30.273,17.578
1532402305.386,42.969,26.367,20.508,17.578,31.738
1532402305.390,71.289,33.691,18.555,27.344,18.555
1532402305.394,60.547,37.109,15.625,7.324,-15.137
1532402305.398,52.246,38.086,18.555,9.766,-8.789
1532402305.402,87.891,38.086,21.484,4.883,55.664
1532402305.406,55.176,35.645,19.043,7.324,65.430
1532402305.410,19.043,28.809,20.020,16.113,22.461
1532402305.414,40.527,31.250,20.020,-0.488,1.465
1532402305.417,48.340,38.574,16.602,6.836,29.785
1532402305.421,66.895,39.551,18.066,5.859,32.715
1532402305.425,63.965,36.621,23.438,-10.254,4.883
1532402305.429,48.340,33.691,24.414,8.301,-5.371
1532402305.433,62.500,33.203,23.926,26.367,7.324
1532402305.437,34.668,30.273,26.855,3.906,44.434
1532402305.441,4.883,29.297,24.902,-22.461,43.945
1532402305.445,9.277,33.203,24.414,21.973,28.320
1532402305.449,12.207,34.180,24.414,38.574,15.625
1532402305.453,2.930,35.156,16.113,-9.277,29.297
1532402305.457,-0.977,33.203,21.484,-18.066,40.527
1532402305.460,20.020,34.668,29.297,10.254,24.902
1532402305.464,12.695,35.645,31.250,34.668,-3.418
1532402305.468,24.902,36.133,29.297,5.371,28.320
1532402305.472,77.148,35.156,28.809,29.297,80.078
1532402305.476,86.426,38.086,25.879,29.785,44.922
1532402305.480,57.617,38.574,20.020,-45.898,29.785
1532402305.484,66.895,32.227,22.949,6.836,61.523
1532402305.488,69.336,31.738,26.855,21.973,55.664
1532402305.492,62.988,37.598,22.461,-22.461,-8.301
1532402305.496,72.754,39.551,21.973,-11.719,-11.719
1532402305.500,76.172,33.691,29.297,-18.555,26.367
1532402305.503,51.758,33.691,28.809,28.320,24.414
1532402305.507,47.852,33.203,19.043,19.531,25.879
1532402305.511,51.270,29.785,18.555,-36.133,35.156
1532402305.515,57.617,28.320,29.297,13.184,41.504
1532402305.519,81.543,29.297,29.297,12.695,20.020
1532402305.523,70.801,34.180,23.438,-18.555,5.371
1532402305.527,57.129,32.715,27.344,-20.020,9.277
1532402305.531,54.199,31.738,32.227,13.184,13.184
1532402305.535,66.895,33.691,33.203,5.859,5.859
1532402305.539,88.867,30.273,31.738,-31.738,26.367
1532402305.542,92.285,31.250,28.320,-19.043,37.598
1532402305.546,63.477,33.691,29.785,-4.395,24.414
1532402305.550,59.082,29.297,35.645,8.789,44.434
1532402305.554,67.871,27.344,36.133,-3.418,39.062
1532402305.558,54.199,29.297,34.668,7.812,4.395
1532402305.562,62.988,31.250,33.203,22.949,17.090
1532402305.566,73.730,31.250,32.715,-21.484,24.414
1532402305.570,43.457,29.785,34.668,-13.184,16.113
1532402305.574,-2.441,29.297,31.250,6.348,-3.418
1532402305.578,2.441,30.762,29.785,0.000,-1.953
1532402305.582,4.883,29.297,32.227,19.043,39.551
1532402305.585,-8.789,26.855,39.062,16.602,41.504
1532402305.589,-14.160,30.273,35.156,20.996,39.062
1532402305.593,15.137,36.133,22.949,20.508,37.598
1532402305.597,27.832,35.156,24.414,-1.465,32.227
1532402305.601,7.324,31.250,27.832,0.000,39.062
1532402305.605,19.043,32.227,25.391,1.953,67.871
1532402305.609,47.363,32.715,22.949,-6.348,69.336
1532402305.613,43.457,33.203,26.855,-10.742,29.785
1532402305.617,20.508,34.180,27.832,-17.090,8.789
1532402305.621,9.766,35.156,26.367,-18.555,37.598
1532402305.625,11.230,34.180,24.902,-0.977,51.758
1532402305.628,40.039,34.668,21.484,-0.488,10.254
1532402305.632,15.137,33.203,23.438,-21.973,2.441
1532402305.636,-36.133,26.855,23.438,-26.855,26.855
1532402305.640,-25.391,22.461,24.414,-2.930,12.695
1532402305.644,-22.461,23.438,26.367,6.348,3.418
1532402305.648,-30.273,24.902,24.414,-15.625,17.090
1532402305.652,-8.301,23.438,26.855,-41.016,33.203
1532402305.656,8.789,23.438,31.738,3.906,34.180
1532402305.660,-15.137,25.391,31.250,12.695,21.484
1532402305.664,-24.414,23.926,33.691,0.000,-9.766
1532402305.667,4.395,25.879,34.180,35.645,25.879
1532402305.671,35.645,29.297,28.320,-4.395,40.039
1532402305.675,49.316,31.250,25.879,-23.438,0.488
1532402305.679,68.848,29.785,27.344,9.277,23.926
1532402305.683,103.516,28.809,28.809,25.879,30.762
1532402305.687,102.051,31.250,29.785,12.695,35.156
1532402305.691,88.379,34.180,22.461,-15.137,32.227
1532402305.695,91.309,34.180,17.578,-30.762,8.301
1532402305.699,114.746,30.273,25.879,-2.930,15.625
1532402305.703,114.746,34.668,24.414,18.066,54.199
1532402305.707,71.777,36.133,20.508,-24.414,49.316
1532402305.710,77.148,37.598,16.113,-33.203,0.977
1532402305.714,93.262,36.621,17.090,-22.949,-10.254
1532402305.718,88.379,32.227,24.414,7.812,34.180
1532402305.722,102.051,31.250,23.926,12.695,35.645
1532402305.726,109.863,30.762,19.531,-17.090,18.066
1532402305.730,108.398,28.320,20.996,-30.762,1.465
1532402305.734,91.309,24.902,26.367,47.363,19.531
1532402305.738,71.289,26.855,22.949,24.902,49.316
1532402305.742,55.176,27.832,20.996,-61.523,22.461
1532402305.746,-2.441,27.344,23.926,-20.020,20.020
1532402305.750,-5.371,32.715,22.949,-0.488,45.410
1532402305.753,-12.207,32.715,24.414,-5.859,18.555
1532402305.757,-40.039,25.391,29.785,-13.184,26.855
1532402305.761,-21.484,23.926,32.227,-5.371,34.668
1532402305.765,-30.762,24.414,31.738,21.973,25.879
1532402305.769,-32.715,24.902,29.297,19.043,28.320
1532402305.773,-12.207,26.855,26.367,-4.883,-22.461
1532402305.777,14.160,24.902,31.738,-13.184,-34.668
1532402305.781,0.488,20.508,34.180,2.441,29.785
1532402305.785,-7.812,24.414,29.785,14.648,58.105
1532402305.789,-9.277,25.391,34.668,31.250,39.062
1532402305.792,-15.137,21.973,34.668,37.109,20.020
1532402305.796,-6.836,24.414,27.832,-14.160,20.508
1532402305.800,-4.883,27.832,30.273,-4.395,21.484
1532402305.804,-15.137,26.367,33.691,-2.441,51.758
1532402305.808,-18.555,28.809,33.691,0.488,32.227
1532402305.812,-27.344,34.180,32.227,10.742,-18.555
1532402305.816,-34.668,35.156,29.297,8.301,-15.137
1532402305.820,-37.598,34.180,30.273,3.906,41.992
1532402305.824,-20.996,33.691,29.785,-31.250,70.312
1532402305.828,-10.254,31.738,31.738,-8.301,41.016
1532402305.832,-36.133,27.344,35.645,11.719,15.625
1532402305.835,-38.086,32.715,29.297,12.695,16.602
1532402305.839,-37.109,36.133,26.855,-7.324,28.809
1532402305.843,-42.969,31.738,30.273,-27.344,21.484
1532402305.847,-31.738,32.227,32.227,-10.742,7.812
1532402305.851,-19.531,35.156,31.250,-16.113,30.273
1532402305.855,-21.973,31.738,31.250,-15.625,34.180
1532402305.859,-9.766,30.273,28.320,7.812,23.438
1532402305.863,25.879,34.668,25.391,-7.812,28.320
1532402305.867,22.461,32.227,27.344,-11.719,50.781
1532402305.871,-0.977,29.297,25.391,-27.344,48.828
1532402305.874,20.020,30.273,26.855,-12.695,18.555
1532402305.878,42.969,29.785,23.438,-4.883,17.578
1532402305.882,30.273,26.855,25.879,-15.625,26.855
1532402305.886,2.930,20.508,32.715,2.441,42.480
1532402305.890,0.977,20.508,28.320,-4.395,32.715
1532402305.894,8.789,24.902,25.879,-7.812,-14.160
1532402305.898,25.391,23.926,26.855,-3.418,-1.465
1532402305.902,39.062,22.949,27.832,-8.789,20.020
1532402305.906,16.113,21.973,29.785,-13.184,37.598
1532402305.910,3.418,21.484,31.250,5.859,17.090
1532402305.914,10.254,22.949,28.320,33.691,-23.926
1532402305.917,34.668,26.367,25.391,-19.043,5.371
1532402305.921,50.781,26.367,25.391,-63.477,30.762
1532402305.925,41.504,24.902,30.273,7.324,29.297
1532402305.929,20.508,24.414,25.879,14.160,0.000
1532402305.933,15.625,23.926,20.020,-16.602,-10.254
1532402305.937,27.832,25.391,22.461,-14.648,37.109
1532402305.941,41.016,26.367,23.926,-12.695,37.109
1532402305.945,35.156,26.367,25.879,13.672,34.668
1532402305.949,8.301,24.414,27.832,16.602,50.781
1532402305.953,-6.348,25.391,22.949,-28.320,12.695
1532402305.957,-5.371,24.414,24.902,-31.738,13.672
1532402305.960,-8.789,20.508,31.738,-21.484,13.672
1532402305.964,-26.855,21.484,28.809,0.977,7.812
1532402305.968,-6.836,23.926,24.902,11.230,41.016
1532402305.972,20.020,20.508,27.832,-28.809,21.973
1532402305.976,6.836,20.996,25.391,-24.902,-13.672
1532402305.980,-1.465,20.508,26.855,-4.395,20.508
1532402305.984,7.324,11.719,36.133,23.438,35.156
1532402305.988,11.230,19.531,29.297,16.602,51.270
1532402305.992,24.902,36.621,17.578,-26.855,6.836
1532402305.996,39.062,45.898,15.625,-59.570,-27.344
1532402305.999,20.020,45.898,13.672,-41.992,20.020
1532402306.003,2.930,41.504,15.625,4.395,46.387
1532402306.007,16.602,43.457,16.602,-27.344,35.645
1532402306.011,18.066,43.945,15.137,-30.762,0.000
1532402306.015,28.320,44.922,16.113,10.742,11.719
1532402306.019,22.949,46.875,16.113,-17.090,55.176
1532402306.023,14.160,45.410,15.137,-50.781,37.598
1532402306.027,3.418,40.527,17.090,-23.438,18.555
1532402306.031,-4.883,37.598,22.949,21.484,14.160
1532402306.035,-22.461,41.016,17.578,-8.301,6.348
1532402306.039,-26.367,41.016,13.184,-44.434,26.367
1532402306.042,-23.926,35.156,18.066,-20.996,12.695
1532402306.046,-6.836,35.645,21.484,-1.465,3.418
1532402306.050,-5.371,35.645,22.461,0.977,-3.418
1532402306.054,-38.086,33.691,21.484,-17.090,17.578
1532402306.058,-55.664,34.668,22.949,28.320,34.668
1532402306.062,-57.617,32.227,24.902,14.160,36.621
1532402306.066,-101.562,29.785,24.414,-44.922,61.523
1532402306.070,-103.027,29.785,25.391,3.906,46.875
1532402306.074,-60.059,31.738,24.414,32.715,11.719
1532402306.078,-52.246,35.156,18.555,-17.578,-14.648
1532402306.082,-73.242,34.668,16.602,-31.250,-21.973
1532402306.085,-98.633,29.785,22.461,-10.742,32.715
1532402306.089,-97.168,26.367,24.902,2.441,41.016
1532402306.093,-93.262,26.855,20.020,-1.465,-20.996
1532402306.097,-90.332,30.762,17.090,-6.348,-24.902
1532402306.101,-79.102,30.762,21.484,2.441,11.719
1532402306.105,-104.492,31.738,20.996,-28.320,8.301
1532402306.109,-80.078,32.227,19.531,10.742,2.441
1532402306.113,-34.668,32.715,19.531,62.500,1.953
1532402306.117,-71.289,30.762,20.508,-18.555,15.625
1532402306.121,-96.680,26.855,23.926,-50.293,37.109
1532402306.124,-69.824,26.855,25.391,11.230,28.809
1532402306.128,-62.500,27.344,26.367,7.812,-6.348
1532402306.132,-102.051,26.367,28.809,-1.465,-15.625
1532402306.136,-132.324,25.879,27.344,-26.367,8.789
1532402306.140,-133.301,29.297,24.414,1.465,24.414
1532402306.144,-149.902,30.273,24.414,62.500,31.738
1532402306.148,-168.457,27.832,24.414,-9.277,35.645
1532402306.152,-161.621,27.832,26.855,-41.504,22.461
1532402306.156,-156.250,27.344,22.949,1.953,55.664
1532402306.160,-136.230,25.391,20.508,2.930,56.152
1532402306.164,-133.789,21.484,25.879,25.391,4.395
1532402306.167,-140.137,19.043,25.391,-2.930,27.344
1532402306.171,-158.203,20.996,25.391,-38.086,34.180
1532402306.175,-133.789,23.438,24.414,-12.207,-41.992
1532402306.179,-133.789,24.902,26.367,-1.953,-35.645
1532402306.183,-138.672,19.531,31.738,-6.348,5.859
1532402306.187,-110.840,16.602,31.250,14.160,20.996
1532402306.191,-115.723,21.484,25.391,-10.254,-0.977
1532402306.195,-140.625,23.438,21.973,-28.809,-19.043
1532402306.199,-155.273,20.020,31.250,-5.371,8.789
1532402306.203,-125.977,23.438,29.785,31.738,27.832
1532402306.206,-114.746,24.902,24.902,33.691,34.668
1532402306.210,-132.324,27.832,22.461,-23.438,-0.488
1532402306.214,-138.184,32.715,19.043,-11.719,1.465
1532402306.218,-121.094,31.738,17.090,-4.883,42.969
1532402306.222,-148.926,32.227,17.090,9.766,29.785
1532402306.226,-167.969,37.598,14.648,24.902,18.066
1532402306.230,-134.766,35.156,14.160,-25.391,17.578
1532402306.234,-108.398,32.227,20.996,-39.062,8.789
1532402306.238,-126.465,34.180,22.949,8.301,26.855
1532402306.242,-153.320,27.832,21.973,-1.465,32.227
1532402306.246,-166.016,23.438,21.484,-26.367,9.766
1532402306.249,-159.668,26.367,20.996,6.836,14.160
1532402306.253,-151.855,30.762,19.043,-19.043,24.902
1532402306.257,-162.598,26.367,20.020,-9.766,8.789
1532402306.261,-155.273,25.391,23.438,24.414,10.254
1532402306.265,-145.508,27.832,20.020,-14.160,19.043
1532402306.269,-146.973,26.855,17.578,-15.625,11.719
1532402306.273,-138.672,27.344,22.461,11.719,38.574
1532402306.277,-132.324,26.855,22.461,2.930,30.273
1532402306.281,-115.234,25.391,23.926,26.367,-3.418
1532402306.285,-101.562,25.391,25.879,27.344,35.645
1532402306.289,-125.000,26.367,23.926,11.230,52.734
1532402306.292,-143.555,24.414,24.414,8.789,5.859
1532402306.296,-138.184,23.926,24.902,11.230,6.348
1532402306.300,-119.141,27.832,26.855,15.625,38.086
1532402306.304,-82.031,30.273,27.832,1.465,34.668
1532402306.308,-79.590,28.809,23.438,-1.953,18.555
1532402306.312,-93.750,28.809,23.438,7.324,14.160
1532402306.316,-77.148,27.832,30.762,21.484,15.625
1532402306.320,-67.383,28.320,28.809,15.625,17.578
1532402306.324,-57.617,34.180,26.855,0.488,38.086
1532402306.328,-44.922,38.574,21.973,-14.160,41.016
1532402306.331,-48.340,35.645,24.414,-3.418,-0.488
1532402306.335,-72.754,31.250,27.832,16.602,3.418
1532402306.339,-78.125,32.715,20.508,41.016,25.879
1532402306.343,-63.965,29.785,20.508,-22.461,-2.930
1532402306.347,-67.871,32.227,18.066,-35.156,-14.648
1532402306.351,-64.941,36.621,16.602,-10.254,-14.648
1532402306.355,-58.105,33.691,24.902,-16.602,-4.395
1532402306.359,-93.262,30.273,25.879,-16.602,17.090
1532402306.363,-116.699,25.879,23.926,-16.113,6.836
1532402306.367,-75.684,29.785,22.949,0.977,14.160
1532402306.371,-59.570,38.086,20.020,5.859,11.719
1532402306.374,-101.074,33.691,26.855,-4.883,-11.719
1532402306.378,-108.398,31.250,29.297,-7.812,6.836
1532402306.382,-73.242,34.180,26.367,1.465,14.160
1532402306.386,-72.266,24.902,32.715,15.625,10.254
1532402306.390,-92.285,20.508,32.227,12.207,-0.977
1532402306.394,-96.680,22.461,28.809,26.855,1.465
1532402306.398,-88.379,24.414,26.367,-12.207,21.484
1532402306.402,-88.379,28.809,24.414,-40.039,20.020
1532402306.406,-104.980,27.832,26.855,16.602,17.090
1532402306.410,-110.840,27.832,26.855,5.371,-12.207
1532402306.414,-114.258,30.762,25.879,-26.367,-46.387
1532402306.417,-120.605,29.297,30.273,-9.766,-23.438
1532402306.421,-111.816,27.344,34.180,33.203,25.879
1532402306.425,-98.145,26.367,31.250,22.461,20.508
1532402306.429,-103.027,25.391,30.762,-32.715,2.930
1532402306.433,-79.590,29.297,28.809,-14.648,31.250
1532402306.437,-67.383,30.273,26.367,3.906,37.598
1532402306.441,-94.238,26.855,29.785,0.000,6.348
1532402306.445,-98.633,26.855,29.297,6.348,-1.953
1532402306.449,-90.820,26.855,23.438,0.977,10.254
1532402306.453,-100.098,28.809,21.973,-27.344,12.695
1532402306.456,-124.023,31.250,26.855,16.113,5.859
1532402306.460,-102.539,29.785,24.414,19.043,-13.184
1532402306.464,-86.914,29.785,16.602,-24.902,-10.254
1532402306.468,-89.355,29.785,14.648,-27.344,-1.465
1532402306.472,-77.148,30.273,9.766,8.301,-12.207
1532402306.476,-61.523,30.273,10.254,23.926,-4.395
1532402306.480,-89.355,19.531,23.438,-21.484,8.789
1532402306.484,-122.070,13.672,27.344,6.348,18.555
1532402306.488,-103.027,18.066,24.902,9.766,20.996
1532402306.492,-97.656,20.508,23.926,-26.855,27.832
1532402306.496,-120.117,19.531,25.879,-19.531,33.203
1532402306.499,-126.953,20.996,26.367,8.301,33.203
1532402306.503,-110.352,21.973,21.973,-3.418,22.461
1532402306.507,-104.492,21.484,22.949,-43.945,39.551
1532402306.511,-95.703,19.531,29.297,-6.836,31.250
1532402306.515,-75.195,13.184,36.621,14.648,2.930
1532402306.519,-76.172,9.766,34.180,-39.062,8.301
1532402306.523,-78.125,12.695,30.273,-22.949,23.926
1532402306.527,-72.266,15.625,30.762,15.625,13.184
1532402306.531,-65.430,12.695,29.297,-22.461,3.418
1532402306.535,-62.988,15.137,31.250,-13.184,-1.953
1532402306.539,-83.984,19.531,33.203,23.926,14.160
1532402306.542,-94.727,18.066,28.320,-8.301,21.484
1532402306.546,-89.844,17.090,23.926,-10.254,17.578
1532402306.550,-78.613,17.578,32.715,13.184,24.902
1532402306.554,-86.914,21.973,41.992,16.602,20.020
1532402306.558,-95.215,20.020,41.016,5.371,20.020
1532402306.562,-88.379,10.254,39.551,-0.977,24.414
1532402306.566,-84.473,17.090,39.062,37.598,32.227
1532402306.570,-90.332,20.508,30.762,34.668,22.949
1532402306.574,-105.469,14.160,24.414,-23.926,12.695
1532402306.578,-113.770,19.043,24.414,-18.066,12.695
1532402306.581,-107.910,24.414,21.973,-19.043,6.348
1532402306.585,-83.984,23.438,25.879,-16.113,17.578
1532402306.589,-69.824,22.461,29.297,11.230,21.973
1532402306.593,-76.660,24.902,24.902,-20.996,4.883
1532402306.597,-80.078,24.902,20.508,-14.160,20.020
1532402306.601,-86.426,20.508,23.926,19.531,44.434
1532402306.605,-52.246,23.926,25.879,-16.602,35.156
1532402306.609,-47.852,24.902,23.926,-10.742,21.484
1532402306.613,-93.750,22.949,26.367,-0.977,-0.488
1532402306.617,-84.473,27.344,24.414,5.859,10.742
1532402306.621,-55.664,30.273,22.461,-1.953,54.688
1532402306.624,-41.504,28.320,25.879,-9.277,62.988
1532402306.628,-55.176,29.785,25.879,3.906,23.438
1532402306.632,-69.824,28.809,26.855,17.090,19.043
1532402306.636,-63.965,25.879,27.832,7.324,23.926
1532402306.640,-62.012,25.391,26.367,-0.488,20.508
1532402306.644,-51.270,24.902,26.855,10.254,-2.930
1532402306.648,-43.945,26.855,27.344,6.348,-10.742
1532402306.652,-66.406,28.320,26.367,-1.953,10.742
1532402306.656,-80.078,27.832,27.344,16.113,22.461
1532402306.660,-89.355,24.414,29.785,39.551,19.531
1532402306.663,-112.793,24.414,26.367,0.977,17.090
1532402306.667,-100.098,22.949,28.809,-8.789,27.344
1532402306.671,-62.988,20.508,32.227,11.719,20.508
1532402306.675,-93.750,21.973,31.250,9.277,39.062
1532402306.679,-120.117,24.902,27.344,6.836,36.621
1532402306.683,-124.023,28.320,23.438,25.879,5.859
1532402306.687,-129.395,26.367,23.926,22.949,17.578
1532402306.691,-128.418,28.320,24.902,-19.043,16.113
1532402306.695,-108.398,33.691,25.391,-7.324,-17.578
1532402306.699,-57.129,35.156,23.926,8.789,-13.672
1532402306.703,-33.203,33.691,22.949,19.531,16.113
1532402306.706,-52.246,32.227,22.461,-8.301,51.270
1532402306.710,-49.316,31.738,23.926,-10.254,35.645
1532402306.714,-24.902,35.156,24.414,-0.488,-0.977
1532402306.718,2.441,34.180,22.461,-1.953,34.668
1532402306.722,14.160,30.762,23.438,19.531,79.590
1532402306.726,4.883,29.785,24.414,-7.324,51.758
1532402306.730,51.758,29.297,21.973,-20.996,27.832
1532402306.734,51.758,26.367,21.973,-12.695,63.965
1532402306.738,18.066,25.879,27.832,21.484,74.219
1532402306.742,45.898,30.762,25.391,-1.953,37.109
1532402306.746,51.270,32.227,20.508,11.719,31.738
1532402306.749,56.641,30.273,25.391,44.922,32.227
1532402306.753,55.664,30.762,21.973,-47.852,21.484
1532402306.757,22.949,31.738,20.020,-46.387,25.391
1532402306.761,7.812,24.414,30.273,34.180,22.949
1532402306.765,18.066,22.949,24.902,18.555,45.410
1532402306.769,40.039,30.762,19.043,-48.340,59.570
1532402306.773,44.434,30.273,22.461,-8.301,43.457
1532402306.777,45.898,25.879,22.461,12.695,30.273
1532402306.781,61.035,25.391,26.367,-15.137,20.996
1532402306.785,65.430,30.762,20.996,-25.391,38.086
1532402306.788,65.430,33.203,15.625,-9.277,90.332
1532402306.792,77.637,29.785,19.043,-15.625,41.504
1532402306.796,84.473,27.832,19.531,-24.902,5.859
1532402306.800,49.316,24.902,20.020,19.043,35.156
1532402306.804,29.297,24.414,21.973,30.273,53.711
1532402306.808,41.992,30.762,20.508,12.207,68.359
1532402306.812,47.852,30.273,20.020,-9.766,25.879
1532402306.816,63.477,23.438,19.531,-14.160,23.926
1532402306.820,52.734,24.414,19.531,22.949,55.664
1532402306.824,41.016,30.762,17.090,16.602,51.758
1532402306.828,53.711,28.320,14.648,-12.695,41.992
1532402306.831,98.145,27.344,17.090,-28.320,13.672
1532402306.835,100.098,28.320,16.602,-23.926,11.719
1532402306.839,55.664,29.297,17.090,-10.742,42.969
1532402306.843,77.148,34.668,18.066,-5.859,14.648
1532402306.847,97.168,34.180,14.648,26.855,5.859
1532402306.851,99.609,31.738,12.207,0.977,41.504
1532402306.855,94.727,32.715,13.672,-38.086,62.988
1532402306.859,95.703,32.227,17.090,-29.785,49.316
1532402306.863,69.336,32.715,15.625,-21.484,20.508
1532402306.867,41.992,33.203,17.090,1.953,31.250
1532402306.871,46.387,31.738,19.531,33.203,44.434
1532402306.874,55.664,28.320,18.066,-9.766,33.691
1532402306.878,70.312,31.738,14.160,-33.691,41.504
1532402306.882,34.668,30.762,18.066,-0.488,36.133
1532402306.886,11.719,29.785,20.996,15.137,41.016
1532402306.890,14.160,31.738,20.020,-8.301,41.504
1532402306.894,31.738,31.250,20.508,-35.645,25.879
1532402306.898,41.016,32.715,23.438,-0.977,24.902
1532402306.902,10.742,28.809,25.879,23.926,26.855
1532402306.906,8.301,29.785,22.461,11.230,44.922
1532402306.910,25.391,30.273,20.020,10.254,26.855
1532402306.913,22.461,23.926,22.461,24.902,8.789
1532402306.917,25.391,24.414,21.484,4.395,52.246
1532402306.921,38.574,26.367,19.531,-33.691,57.617
1532402306.925,56.152,23.438,23.926,-22.949,22.461
1532402306.929,70.801,23.438,23.438,-4.883,4.395
1532402306.933,60.059,25.391,20.508,-30.273,7.324
1532402306.937,50.781,22.949,24.902,19.531,41.992
1532402306.941,69.824,23.926,23.926,29.297,65.918
1532402306.945,102.539,27.344,24.414,-44.922,41.016
1532402306.949,118.652,27.344,24.902,-25.391,17.090
1532402306.953,102.539,23.926,23.438,-0.977,16.602
1532402306.956,99.121,22.461,24.414,9.277,16.113
1532402306.960,83.984,24.414,22.461,-15.625,32.227
1532402306.964,78.613,23.438,24.414,-14.160,37.598
1532402306.968,95.215,20.996,27.832,-6.836,31.250
1532402306.972,82.031,23.926,26.367,-5.859,28.320
1532402306.976,82.031,21.973,25.879,0.977,7.324
1532402306.980,90.332,18.066,29.297,-5.859,49.316
1532402306.984,79.590,20.996,26.367,13.184,67.383
1532402306.988,86.914,24.414,20.020,-18.066,74.707
1532402306.992,87.891,23.438,24.414,-41.504,18.555
1532402306.995,76.172,21.484,28.809,-24.414,-10.742
1532402306.999,83.008,21.484,23.926,-5.371,61.523
1532402307.003,97.656,24.414,27.832,21.484,73.730
1532402307.007,108.887,24.902,27.832,6.348,57.617
1532402307.011,128.418,22.461,25.391,-14.160,49.316
1532402307.015,118.164,22.949,29.785,-20.996,29.297
1532402307.019,105.469,22.461,27.832,-12.695,23.438
1532402307.023,126.953,26.855,23.438,-5.859,23.438
1532402307.027,139.648,26.855,25.391,17.090,24.902
1532402307.031,132.324,28.320,23.926,5.859,23.926
1532402307.035,125.000,32.227,21.973,-2.441,15.625
1532402307.038,124.023,25.391,26.367,9.766,33.691
1532402307.042,116.211,26.855,26.855,-7.324,30.273
1532402307.046,85.938,30.762,29.297,11.719,15.137
1532402307.050,78.613,30.762,31.738,6.348,18.066
1532402307.054,99.609,33.203,28.809,12.207,19.531
1532402307.058,78.125,28.320,32.227,40.527,14.648
1532402307.062,45.410,24.414,35.645,13.184,16.602
1532402307.066,45.410,28.320,31.250,-19.043,47.852
1532402307.070,71.289,32.715,30.273,7.324,67.871
1532402307.074,93.750,35.156,34.180,24.902,13.672
1532402307.078,120.117,33.691,31.738,-0.488,5.859
1532402307.081,101.562,31.250,32.227,-13.672,35.645
1532402307.085,73.730,31.738,32.715,2.441,42.969
1532402307.089,78.613,30.762,32.227,23.438,46.387
1532402307.093,86.914,33.203,31.738,9.766,34.180
1532402307.097,87.891,35.645,31.738,11.230,40.527
1532402307.101,67.383,33.203,34.180,35.645,53.711
1532402307.105,78.613,32.715,29.785,10.742,53.223
1532402307.109,93.262,34.668,26.367,-7.324,41.992
1532402307.113,88.379,34.668,28.320,24.902,24.902
1532402307.117,69.336,34.180,30.273,17.578,41.504
1532402307.120,66.895,33.203,31.250,-10.742,54.688
1532402307.124,61.035,28.809,34.180,17.578,35.156
1532402307.128,41.992,25.879,34.180,8.301,44.434
1532402307.132,56.152,28.320,33.691,9.766,47.852
1532402307.136,69.336,28.809,33.203,24.414,35.645
1532402307.140,51.758,29.297,30.762,-5.371,47.363
1532402307.144,47.363,29.785,30.762,-13.672,30.273
1532402307.148,60.547,30.273,28.809,-8.301,25.879
1532402307.152,51.270,24.414,31.250,1.465,45.410
1532402307.156,32.715,19.043,36.133,33.203,40.527
1532402307.160,25.879,27.344,25.391,-8.789,27.832
1532402307.163,42.969,33.691,18.066,-56.641,33.203
1532402307.167,69.336,33.691,23.926,21.484,56.152
1532402307.171,72.754,32.715,27.832,26.855,22.949
1532402307.175,62.988,30.762,26.855,-17.578,-8.301
1532402307.179,46.875,32.715,26.367,-8.301,3.906
1532402307.183,44.922,30.762,25.879,-15.137,15.625
1532402307.187,70.312,29.785,23.438,-15.625,35.156
1532402307.191,62.012,33.203,24.414,-7.324,17.578
1532402307.195,24.414,32.715,23.438,-5.859,-3.906
1532402307.199,-9.766,30.762,20.996,-6.836,-14.648
1532402307.203,-19.043,33.691,19.531,8.301,-1.465
1532402307.206,-8.789,36.621,20.508,-13.184,29.785
1532402307.210,20.020,36.133,23.926,-33.203,14.160
1532402307.214,-24.414,34.180,24.902,-8.301,4.883
1532402307.218,-65.918,31.250,27.344,7.812,39.551
1532402307.222,-62.012,33.691,22.461,-8.789,30.762
1532402307.226,-53.223,35.645,21.973,11.719,22.461
1532402307.230,-24.414,35.156,23.438,9.766,30.273
1532402307.234,-61.523,33.203,21.484,-11.230,59.570
1532402307.238,-80.566,31.250,27.832,1.465,51.758
1532402307.242,-62.500,31.738,29.785,-2.930,44.922
1532402307.245,-85.449,28.320,28.809,2.441,45.898
1532402307.249,-107.910,29.785,25.879,-4.883,10.254
1532402307.253,-94.238,34.180,24.414,-6.836,15.625
1532402307.257,-75.195,30.273,27.832,5.859,19.531
1532402307.261,-96.680,26.367,27.344,13.672,2.441
1532402307.265,-86.914,30.273,24.414,35.645,37.598
1532402307.269,-74.707,32.715,25.391,16.602,45.898
1532402307.273,-99.121,29.785,27.344,-34.180,21.484
1532402307.277,-102.539,29.785,26.855,-11.230,23.926
1532402307.281,-84.961,29.297,26.855,23.926,26.855
1532402307.285,-80.566,27.344,26.855,2.441,50.781
1532402307.288,-90.820,30.273,24.414,24.902,41.504
1532402307.292,-72.266,28.809,23.926,50.781,16.602
1532402307.296,-76.172,30.762,21.973,-31.738,30.762
1532402307.300,-98.145,34.180,20.020,-24.902,54.199
1532402307.304,-85.449,33.203,22.949,18.066,47.852
1532402307.308,-43.457,32.227,22.949,4.395,35.156
1532402307.312,-31.738,32.715,23.926,-4.883,24.414
1532402307.316,-60.059,33.203,24.414,-22.949,17.578
1532402307.320,-57.129,35.156,22.461,5.859,38.574
1532402307.324,-64.453,30.762,27.832,18.066,39.062
1532402307.328,-73.242,27.832,28.809,2.930,34.668
1532402307.331,-40.527,29.297,22.461,-16.602,34.668
1532402307.335,-12.695,30.273,21.484,-2.441,41.016
1532402307.339,0.977,28.320,26.367,16.602,33.203
1532402307.343,-1.465,30.273,25.879,-18.066,16.602
1532402307.347,-14.160,30.273,23.438,-9.766,10.254
1532402307.351,-14.160,29.785,22.949,-10.254,5.859
1532402307.355,-7.324,33.691,20.508,-10.254,11.230
1532402307.359,-17.578,28.809,19.531,-10.742,23.438
1532402307.363,-22.461,27.832,20.996,-21.484,34.668
1532402307.367,-1.465,30.762,24.902,19.043,42.480
1532402307.370,-4.883,29.785,26.367,-10.742,44.434
1532402307.374,-36.621,32.715,25.391,-19.531,53.223
1532402307.378,-57.129,33.691,24.902,12.695,17.578
1532402307.382,-34.180,32.227,21.973,18.066,27.344
1532402307.386,-7.812,32.227,19.043,3.906,86.426
1532402307.390,-1.953,33.203,18.555,-30.762,55.176
1532402307.394,38.574,33.691,22.461,-28.809,14.160
1532402307.398,46.875,31.250,25.391,-37.598,31.250
1532402307.402,13.184,36.621,22.949,-19.531,47.363
1532402307.406,6.836,40.527,21.484,13.672,25.879
1532402307.410,14.648,41.016,21.973,-0.488,-0.488
1532402307.413,-29.297,39.062,24.414,-24.902,-30.762
1532402307.417,-76.660,36.133,26.855,0.488,-11.719
1532402307.421,-76.660,35.156,28.320,22.461,25.879
1532402307.425,-85.938,33.203,28.809,15.137,24.414
1532402307.429,-88.867,31.738,28.809,5.371,31.738
1532402307.433,-81.055,29.785,27.832,8.301,47.852
1532402307.437,-89.844,27.344,25.879,7.324,61.523
1532402307.441,-102.051,27.344,26.855,-8.789,37.598
1532402307.445,-81.543,30.273,29.785,29.297,-1.953
1532402307.449,-67.383,29.297,28.809,32.227,19.043
1532402307.452,-80.566,27.344,29.297,-21.484,19.043
1532402307.456,-99.121,22.461,33.203,-6.836,7.812
1532402307.460,-96.191,22.949,31.738,8.789,37.109
1532402307.464,-76.660,24.414,28.320,6.348,43.945
1532402307.468,-66.895,24.414,28.320,24.902,27.344
1532402307.472,-75.195,30.273,26.367,23.438,21.484
1532402307.476,-59.570,33.203,23.926,0.977,34.180
1532402307.480,-45.898,26.855,28.809,24.414,37.109
1532402307.484,-71.289,25.879,28.809,3.906,60.059
1532402307.488,-82.520,33.203,21.484,-16.602,66.406
1532402307.492,-65.430,36.133,22.949,-0.977,36.621
1532402307.495,-60.547,30.762,25.391,-0.488,22.461
1532402307.499,-54.199,24.902,25.391,23.438,40.527
1532402307.503,-57.129,26.855,26.855,49.316,69.824
1532402307.507,-66.406,25.879,28.809,32.715,62.988
1532402307.511,-77.148,27.832,29.297,-11.230,36.621
1532402307.515,-67.871,30.273,27.832,-18.066,45.410
1532402307.519,-64.941,24.902,29.785,16.113,66.406
1532402307.523,-82.031,22.461,30.762,15.625,54.688
1532402307.527,-74.707,25.391,28.320,10.742,14.160
1532402307.531,-70.312,29.297,25.879,15.137,-2.441
1532402307.535,-51.270,28.809,25.391,-7.812,12.695
1532402307.538,-54.199,26.367,27.344,13.184,43.945
1532402307.542,-61.523,26.367,26.855,27.344,46.875
1532402307.546,-42.969,27.832,24.902,-15.625,40.527
1532402307.550,-22.461,29.297,28.320,-14.648,33.203
1532402307.554,6.348,30.762,29.297,24.902,33.691
1532402307.558,10.254,30.762,26.855,5.859,33.691
1532402307.562,-29.297,28.809,29.785,-25.391,36.621
1532402307.566,-45.898,30.762,29.297,0.488,57.617
1532402307.570,-35.645,35.156,27.344,33.203,62.012
1532402307.574,-57.129,37.109,22.949,-16.602,49.805
1532402307.577,-36.133,28.320,27.832,1.953,37.109
1532402307.581,-4.395,27.344,31.250,6.836,17.090
1532402307.585,-31.738,29.785,31.250,-33.203,33.691
1532402307.589,-37.598,26.367,33.691,10.254,29.297
1532402307.593,-46.387,26.855,31.738,2.441,-17.090
1532402307.597,-63.477,26.367,32.227,-2.441,-2.930
1532402307.601,-44.434,26.367,36.133,25.391,47.852
1532402307.605,-44.922,31.738,30.273,-12.695,55.664
1532402307.609,-81.055,31.738,31.250,1.465,36.621
1532402307.613,-74.219,23.438,34.668,34.668,25.391
1532402307.617,-75.684,24.414,26.855,-18.066,47.852
1532402307.620,-80.078,26.855,27.344,-28.320,68.848
1532402307.624,-76.172,23.926,32.715,2.930,42.480
1532402307.628,-83.984,24.414,31.250,17.090,6.836
1532402307.632,-41.992,26.367,30.273,14.160,32.715
1532402307.636,-34.668,26.367,32.715,17.090,42.969
1532402307.640,-74.219,26.855,31.738,11.230,36.621
1532402307.644,-27.344,29.297,28.809,-19.531,24.902
1532402307.648,-39.062,29.297,29.297,19.531,25.879
1532402307.652,-54.199,31.250,29.297,15.625,21.973
1532402307.656,-25.879,34.180,25.391,-21.484,3.418
1532402307.660,-76.660,30.762,25.879,7.324,22.461
1532402307.663,-62.988,32.227,29.297,6.836,24.902
1532402307.667,-47.363,36.133,27.832,14.160,38.574
1532402307.671,-84.961,35.156,23.438,-3.906,73.730
1532402307.675,-77.637,34.668,25.391,-9.766,52.246
1532402307.679,-79.590,29.785,30.762,-3.418,34.668
1532402307.683,-65.918,26.367,32.227,14.648,62.500
1532402307.687,-66.406,27.832,32.227,29.297,63.477
1532402307.691,-51.758,30.273,29.297,-7.324,33.203
1532402307.695,-41.016,29.785,32.227,1.465,14.160
1532402307.699,-49.316,32.227,33.691,12.207,21.973
1532402307.702,-2.441,36.133,28.809,-5.859,33.691
1532402307.706,-12.695,37.109,28.320,8.789,36.133
1532402307.710,-75.684,34.180,31.250,12.695,24.414
1532402307.714,-80.078,35.156,30.762,23.926,-14.160
1532402307.718,-56.641,37.598,26.367,24.414,5.371
1532402307.722,-23.926,37.598,29.297,30.762,28.809
1532402307.726,-33.691,33.691,32.227,36.133,43.457
1532402307.730,-44.434,30.273,28.320,-1.953,33.691
1532402307.734,-53.711,29.297,29.785,-20.996,10.254
1532402307.738,-89.355,28.320,27.832,-10.742,27.832
1532402307.742,-89.844,29.297,24.902,2.441,32.715
1532402307.745,-62.988,33.203,25.879,14.648,1.953
1532402307.749,-25.879,37.598,26.367,3.418,-4.883
1532402307.753,0.977,34.180,28.809,20.020,37.109
1532402307.757,0.977,30.273,30.762,5.859,33.203
1532402307.761,2.930,38.574,26.367,-25.391,-18.066
1532402307.765,37.598,44.922,25.391,18.066,-3.418
1532402307.769,19.043,45.410,24.902,25.879,52.246
1532402307.773,-12.207,40.527,22.949,-7.324,0.000
1532402307.777,-19.531,36.133,26.367,-21.484,-14.160
1532402307.781,-39.062,35.645,25.391,-7.812,9.766
1532402307.785,-39.062,37.109,27.832,3.418,20.996
1532402307.788,-34.180,36.621,29.297,8.301,25.879
1532402307.792,-65.430,33.691,26.855,23.926,3.906
1532402307.796,-109.863,32.715,29.297,10.254,8.789
1532402307.800,-114.746,37.109,31.250,-3.906,43.945
1532402307.804,-107.422,33.691,29.785,-4.395,79.102
1532402307.808,-66.406,31.250,27.832,47.363,68.359
1532402307.812,-64.941,40.039,24.414,11.719,22.461
1532402307.816,-64.941,40.527,19.531,-49.316,13.184
1532402307.820,-44.434,40.039,17.090,-7.812,18.066
1532402307.824,-45.410,40.527,21.973,-12.207,20.020
1532402307.827,-6.348,40.039,26.367,17.578,20.996
1532402307.831,5.371,38.574,29.297,22.461,8.789
1532402307.835,-1.953,41.016,28.809,-28.809,-0.488
1532402307.839,8.789,41.992,25.879,-25.879,34.668
1532402307.843,-6.836,38.574,25.391,-13.184,41.016
1532402307.847,4.395,38.086,24.902,-9.277,26.855
1532402307.851,24.414,34.668,30.762,12.207,48.340
1532402307.855,20.508,34.668,26.855,20.996,49.805
1532402307.859,7.812,37.598,22.949,-11.719,37.109
1532402307.863,9.277,38.574,29.785,-0.977,24.902
1532402307.867,-6.348,37.598,29.297,4.883,16.113
1532402307.870,-14.160,33.203,28.809,2.930,4.883
1532402307.874,3.418,34.180,27.832,-5.859,27.344
1532402307.878,8.789,33.691,23.926,-15.137,44.922
1532402307.882,5.859,34.668,25.879,7.324,30.762
1532402307.886,18.555,40.527,26.367,12.695,56.641
1532402307.890,14.648,40.039,27.344,13.184,36.133
1532402307.894,0.488,38.086,29.297,10.254,7.324
1532402307.898,-13.184,40.039,27.344,2.441,40.039
1532402307.902,-26.855,39.062,27.344,-6.836,53.711
1532402307.906,-30.762,37.598,30.762,-11.719,47.363
1532402307.909,-66.406,36.133,28.809,9.766,9.277
1532402307.913,-69.336,33.691,28.809,6.836,-18.066
1532402307.917,-41.992,33.203,27.344,-15.625,22.461
1532402307.921,-63.477,34.668,23.926,5.371,36.621
1532402307.925,-99.609,35.156,25.391,16.602,39.551
1532402307.929,-97.168,34.180,27.344,5.371,60.059
1532402307.933,-83.984,34.180,27.344,18.066,67.871
1532402307.937,-81.543,38.574,25.391,31.738,78.613
1532402307.941,-67.383,37.598,27.344,3.906,62.012
1532402307.945,-88.867,32.227,28.809,-23.438,45.410
1532402307.949,-113.281,34.668,28.320,-15.137,47.852
1532402307.952,-74.707,39.062,27.832,-11.719,42.480
1532402307.956,-70.801,38.086,28.809,44.434,58.594
1532402307.960,-96.191,38.086,29.785,59.082,46.875
1532402307.964,-119.141,29.785,23.926,-23.438,12.695
1532402307.968,-115.723,27.344,23.926,-17.090,41.992
1532402307.972,-102.051,31.250,28.320,-5.859,18.066
1532402307.976,-68.848,30.762,27.832,3.906,-6.348
1532402307.980,-59.082,28.320,30.762,30.273,1.953
1532402307.984,-117.676,25.879,29.785,8.789,23.926
1532402307.988,-127.930,34.180,23.438,-20.508,77.637
1532402307.992,-107.422,31.738,28.320,-3.906,26.367
1532402307.995,-100.586,28.809,33.203,16.113,1.953
1532402307.999,-93.750,32.715,31.738,34.668,71.777
1532402308.003,-91.309,32.715,29.297,32.715,50.781
1532402308.007,-98.145,33.691,28.809,-15.137,29.785
1532402308.011,-83.984,37.598,29.785,-22.949,7.324
1532402308.015,-67.871,38.086,31.250,-5.859,5.859
1532402308.019,-72.754,31.738,32.715,-0.488,29.785
1532402308.023,-75.684,29.297,31.250,45.898,38.086
1532402308.027,-56.641,31.738,25.879,37.598,32.227
1532402308.031,-58.594,30.762,23.438,-32.227,19.531
1532402308.034,-46.387,29.785,24.414,-14.648,29.785
1532402308.038,-18.555,28.809,28.809,2.441,49.316
1532402308.042,-32.715,29.297,29.785,20.508,32.227
1532402308.046,-27.344,32.227,27.344,21.973,28.809
1532402308.050,-15.137,34.180,24.902,9.766,38.086
1532402308.054,-40.527,34.180,22.949,-0.488,12.207
1532402308.058,-46.387,32.715,24.414,-14.648,25.391
1532402308.062,-21.484,30.762,28.320,-7.324,20.508
1532402308.066,-35.156,29.785,29.297,-12.207,30.273
1532402308.070,-35.645,28.809,27.832,-5.371,36.133
1532402308.074,-27.832,30.762,27.344,-17.578,16.602
1532402308.077,-19.531,33.691,28.320,22.461,35.156
1532402308.081,-20.508,30.762,33.203,43.457,54.688
1532402308.085,-58.105,29.297,31.738,-30.762,48.340
1532402308.089,-34.668,30.273,27.832,-21.973,20.508
1532402308.093,-1.953,33.203,31.738,10.742,1.953
1532402308.097,-11.230,34.180,32.227,27.832,5.859
1532402308.101,-34.180,29.297,28.320,26.855,7.324
1532402308.105,-28.809,28.320,26.367,-13.672,35.156
1532402308.109,-19.531,27.832,29.297,-26.367,38.574
1532402308.113,-21.973,28.320,31.250,-12.695,11.719
1532402308.117,-25.391,29.297,29.785,-12.207,19.043
1532402308.120,-29.785,26.855,29.297,3.418,43.945
1532402308.124,-7.324,24.902,28.320,11.230,45.410
1532402308.128,-10.254,23.926,27.832,1.953,30.762
1532402308.132,-38.086,26.367,31.250,-11.719,4.395
1532402308.136,-44.434,29.785,30.762,11.230,18.066
1532402308.140,-37.109,29.297,30.762,17.578,47.852
1532402308.144,-18.066,25.391,34.668,-19.043,23.438
1532402308.148,-20.996,26.367,35.156,-13.672,22.461
1532402308.152,-18.066,26.367,34.180,-0.977,28.320
1532402308.156,3.418,18.555,37.598,20.020,16.113
1532402308.159,-5.371,21.973,37.598,11.719,10.742
1532402308.163,-7.324,32.227,30.762,1.465,6.348
1532402308.167,-6.836,35.645,28.809,34.180,39.551
1532402308.171,-33.203,34.668,34.180,8.789,69.336
1532402308.175,-40.527,32.227,35.156,-9.277,30.273
1532402308.179,-12.207,34.668,33.203,38.574,10.742
1532402308.183,-0.977,35.156,31.738,16.602,23.926
1532402308.187,-35.645,33.203,32.227,-7.324,51.758
1532402308.191,-46.875,35.645,31.250,5.859,24.414
1532402308.195,-12.695,37.109,30.273,7.324,-28.320
1532402308.199,6.348,36.621,29.297,0.488,2.930
1532402308.202,26.367,38.086,28.320,3.418,33.691
1532402308.206,29.297,43.457,29.785,-5.371,24.902
1532402308.210,17.090,43.945,31.738,9.766,6.836
1532402308.214,40.527,40.039,33.203,26.367,4.395
1532402308.218,41.992,38.086,30.273,11.719,12.207
1532402308.222,28.809,40.527,25.879,34.668,35.156
1532402308.226,72.266,51.758,20.508,13.184,43.457
1532402308.230,66.406,52.734,22.461,-13.672,29.297
1532402308.234,37.109,41.992,28.320,-10.742,56.641
1532402308.238,49.805,38.574,27.832,-9.277,61.523
1532402308.241,38.086,41.992,24.902,8.789,13.184
1532402308.245,27.832,38.086,26.367,14.648,20.020
1532402308.249,43.457,38.086,29.785,40.039,29.785
1532402308.253,51.270,44.434,28.809,40.039,5.371
1532402308.257,38.574,41.504,30.762,-0.977,4.395
1532402308.261,13.672,39.551,31.250,-16.113,31.250
1532402308.265,12.207,36.621,30.762,4.883,36.621
1532402308.269,17.090,36.133,28.809,15.137,25.391
1532402308.273,17.578,40.039,27.344,21.973,26.855
1532402308.277,6.348,40.039,29.297,14.160,37.109
1532402308.281,-4.395,40.527,29.297,9.277,44.922
1532402308.284,8.789,44.434,28.320,21.973,37.598
1532402308.288,11.719,44.434,26.855,26.367,37.598
1532402308.292,14.648,40.527,26.367,-4.883,29.785
1532402308.296,35.156,41.016,23.438,9.766,18.066
1532402308.300,44.922,40.039,31.738,16.113,32.715
1532402308.304,16.113,38.086,33.691,-10.742,48.828
1532402308.308,-2.441,37.598,25.391,15.137,51.758
1532402308.312,-13.672,36.621,27.832,13.672,15.625
1532402308.316,-22.949,34.180,30.762,31.250,23.438
1532402308.320,-37.109,33.203,31.250,18.555,52.734
1532402308.324,-52.734,32.715,28.320,-31.738,25.391
1532402308.327,-32.227,34.668,26.855,-0.977,2.441
1532402308.331,-33.203,33.691,29.785,15.137,28.809
1532402308.335,-29.297,33.691,32.227,3.418,44.922
1532402308.339,-5.859,38.086,27.344,4.883,49.805
1532402308.343,-22.461,37.109,25.391,-3.906,30.273
1532402308.347,-53.223,37.109,26.367,11.719,17.090
1532402308.351,-45.410,37.109,23.438,10.742,22.461
1532402308.355,-26.367,39.062,23.926,-5.859,20.020
1532402308.359,-17.090,39.551,24.902,-5.859,34.668
1532402308.363,-20.020,36.621,28.320,4.883,18.555
1532402308.366,-17.578,39.062,27.344,1.953,25.391
1532402308.370,7.324,41.016,22.461,32.227,30.273
1532402308.374,12.207,37.109,25.879,47.363,0.000
1532402308.378,6.836,32.227,30.762,-19.531,22.461
1532402308.382,21.484,31.738,32.715,-17.090,22.461
1532402308.386,8.301,35.645,31.738,17.578,45.410
1532402308.390,-9.277,33.203,30.273,7.324,30.273
1532402308.394,-2.441,30.273,32.715,-0.488,-8.789
1532402308.398,33.691,32.715,29.297,2.441,15.137
1532402308.402,42.480,33.691,27.832,-1.465,67.383
1532402308.406,20.508,30.762,34.180,0.488,72.754
1532402308.409,12.207,30.273,33.203,8.301,20.508
1532402308.413,-15.625,30.762,31.738,41.992,-2.441
1532402308.417,0.488,29.785,32.715,47.363,36.133
1532402308.421,19.043,29.785,30.762,-1.465,67.871
1532402308.425,2.441,26.367,31.738,-15.137,33.691
1532402308.429,24.902,27.344,32.227,0.488,14.648
1532402308.433,31.250,30.762,34.180,7.812,1.465
1532402308.437,46.387,27.832,31.738,18.555,18.066
1532402308.441,73.242,24.902,29.785,23.926,29.297
1532402308.445,32.227,27.344,31.738,11.230,46.875
1532402308.449,26.855,27.344,29.785,1.465,44.434
1532402308.452,23.926,24.414,34.668,17.090,35.156
1532402308.456,0.000,24.414,36.621,26.367,53.223
1532402308.460,-23.926,25.391,34.180,26.367,37.598
1532402308.464,-44.922,22.949,38.086,36.133,15.625
1532402308.468,-29.297,24.414,34.180,-10.742,26.855
1532402308.472,-29.297,24.902,31.250,-11.230,35.156
1532402308.476,-77.148,23.926,34.668,37.109,32.715
1532402308.480,-92.285,27.344,33.203,31.738,23.438
1532402308.484,-80.078,30.273,35.645,-7.812,20.996
1532402308.488,-83.496,27.344,35.645,-0.488,17.578
1532402308.491,-68.359,28.809,32.227,-5.859,12.695
1532402308.495,-40.527,33.691,29.297,-15.625,15.137
1532402308.499,-22.461,33.691,28.809,11.719,12.207
1532402308.503,-19.531,32.715,30.273,7.812,34.668
1532402308.507,-29.297,33.691,32.715,-1.465,28.809
1532402308.511,-52.734,33.203,31.738,23.438,14.160
1532402308.515,-53.223,30.762,27.344,24.902,51.270
1532402308.519,-24.414,27.344,25.391,-14.160,62.012
1532402308.523,-25.391,26.855,31.250,-7.812,38.086
1532402308.527,-28.809,25.879,33.203,1.953,25.879
1532402308.531,-28.809,26.367,33.203,9.766,15.137
1532402308.534,-33.691,29.785,33.203,-6.836,0.000
1532402308.538,-27.344,31.738,28.320,-19.531,19.043
1532402308.542,-53.711,28.809,31.738,19.531,22.461
1532402308.546,-95.215,21.484,33.691,0.488,20.996
1532402308.550,-83.984,23.438,30.273,-17.090,20.020
1532402308.554,-59.082,30.762,32.715,6.348,43.457
1532402308.558,-31.738,32.715,32.715,17.090,43.457
1532402308.562,-33.203,28.320,32.227,12.207,10.742
1532402308.566,-40.527,27.344,32.715,-4.883,23.926
1532402308.570,-11.719,30.273,26.367,-16.602,36.133
1532402308.574,-18.555,27.832,27.832,3.906,20.508
1532402308.577,-50.781,22.949,27.832,10.742,10.742
1532402308.581,-60.059,20.020,22.461,-31.738,18.555
1532402308.585,-57.617,21.973,25.879,-25.879,46.387
1532402308.589,-57.129,26.855,30.762,1.953,39.551
1532402308.593,-84.473,25.879,32.227,8.789,-10.254
1532402308.597,-119.629,26.367,30.273,6.836,-11.230
1532402308.601,-102.539,33.691,27.344,3.906,17.578
1532402308.605,-71.777,34.180,27.344,0.000,63.477
1532402308.609,-71.777,36.621,27.344,-20.508,47.363
1532402308.613,-66.406,33.691,28.320,9.277,23.438
1532402308.616,-59.082,25.879,32.715,9.766,36.133
1532402308.620,-76.172,26.855,32.227,-8.789,40.527
1532402308.624,-41.992,28.809,29.785,16.602,47.852
1532402308.628,-29.785,30.273,26.855,21.973,36.133
1532402308.632,-41.016,30.273,22.461,-14.648,22.461
1532402308.636,-4.395,28.809,25.391,-22.949,27.344
1532402308.640,1.953,22.461,35.645,20.020,25.879
1532402308.644,-37.598,18.555,36.621,33.203,2.930
1532402308.648,-40.527,21.973,28.809,2.930,-0.488
1532402308.652,-1.953,26.855,27.832,11.719,19.043
1532402308.656,8.301,24.902,29.297,49.805,35.156
1532402308.659,-2.930,27.832,30.273,27.832,36.133
1532402308.663,5.371,31.738,27.344,-15.137,3.906
1532402308.667,37.598,27.832,26.855,-3.906,20.508
1532402308.671,46.387,23.926,31.738,13.184,14.160
1532402308.675,13.184,20.996,31.738,0.488,-23.926
1532402308.679,15.137,20.020,32.227,20.020,-4.395
1532402308.683,45.410,24.902,33.203,37.598,26.855
1532402308.687,47.363,28.809,25.879,-5.859,47.363
1532402308.691,0.488,27.832,23.926,-21.484,41.016
1532402308.695,-9.766,24.902,26.367,-1.953,27.832
1532402308.698,13.672,21.484,28.320,2.441,49.316
1532402308.702,1.465,19.531,32.715,22.461,53.711
1532402308.706,12.695,22.461,28.809,9.277,49.805
1532402308.710,7.324,22.461,26.855,-17.578,44.922
1532402308.714,-6.836,21.973,28.320,-20.020,-12.695
1532402308.718,14.648,25.391,26.855,20.996,-25.879
1532402308.722,38.574,28.809,24.902,22.461,30.273
1532402308.726,30.273,27.832,22.461,-25.879,43.457
1532402308.730,5.859,25.879,24.414,-14.160,8.301
1532402308.734,13.672,25.391,27.344,32.227,-4.395
1532402308.738,2.441,23.438,27.344,0.000,26.855
1532402308.741,-2.930,27.832,21.484,-46.387,26.367
1532402308.745,21.973,32.715,23.926,-4.395,25.879
1532402308.749,22.461,33.203,26.855,0.977,12.207
1532402308.753,22.461,32.715,28.320,8.301,20.508
1532402308.757,18.555,31.738,26.855,12.207,22.461
1532402308.761,11.719,31.738,29.785,32.227,10.742
1532402308.765,27.832,34.668,28.320,25.391,16.113
1532402308.769,48.828,34.180,22.949,-31.738,19.043
1532402308.773,54.199,32.715,23.926,-19.043,-10.254
1532402308.777,63.965,29.785,24.902,-12.207,-20.508
1532402308.781,69.336,30.762,25.391,-7.324,16.602
1532402308.784,96.191,34.180,20.996,-3.418,34.180
1532402308.788,116.699,32.227,22.949,-5.371,53.223
1532402308.792,93.750,30.762,25.879,25.391,30.762
1532402308.796,75.195,32.227,20.020,-17.090,8.789
1532402308.800,49.316,33.691,20.020,-33.203,0.000
1532402308.804,14.648,31.738,26.855,9.277,37.109
1532402308.808,2.930,30.762,30.762,30.762,36.133
1532402308.812,14.160,32.715,29.297,-4.883,-8.789
1532402308.816,-8.301,35.156,25.391,-25.879,12.695
1532402308.820,-34.180,34.180,24.414,33.691,23.926
1532402308.823,-28.320,34.668,28.320,20.996,0.000
1532402308.827,-6.348,36.133,25.391,-22.461,20.508
1532402308.831,8.789,31.738,28.320,-2.441,15.137
1532402308.835,31.250,27.344,31.738,13.184,29.297
1532402308.839,59.082,30.273,28.809,17.090,57.617
1532402308.843,73.730,35.156,24.902,-5.371,18.066
1532402308.847,71.777,34.668,23.438,5.371,16.113
1532402308.851,53.711,31.738,28.320,32.715,36.133
1532402308.855,65.430,32.227,29.785,0.000,20.996
1532402308.859,83.008,32.227,29.785,-12.207,15.625
1532402308.863,52.734,26.855,34.668,35.156,30.273
1532402308.866,11.230,26.367,33.203,38.086,33.691
1532402308.870,-17.578,31.738,25.391,-10.254,58.105
1532402308.874,-33.203,33.691,31.250,-2.441,63.965
1532402308.878,-0.977,31.738,34.180,14.160,22.949
1532402308.882,14.160,32.227,33.203,29.297,28.320
1532402308.886,-7.812,29.297,36.621,32.227,33.691
1532402308.890,16.602,27.344,37.598,11.230,-3.418
1532402308.894,34.668,34.180,34.668,7.324,-17.090
1532402308.898,20.508,36.133,30.762,2.441,-13.184
1532402308.902,23.926,33.203,33.691,27.832,16.113
1532402308.906,37.109,35.156,34.180,38.086,38.086
1532402308.909,18.555,35.645,30.762,0.977,10.254
1532402308.913,-2.930,35.156,29.297,-9.277,-21.973
1532402308.917,5.371,36.621,30.762,36.133,11.719
1532402308.921,40.039,37.598,28.809,30.273,73.242
1532402308.925,29.785,38.574,27.832,-16.602,51.270
1532402308.929,-6.836,34.668,31.250,-6.836,-16.602
1532402308.933,-8.789,32.227,33.691,12.207,13.672
1532402308.937,20.508,33.691,34.668,37.109,67.871
1532402308.941,41.992,36.621,33.691,9.277,14.648
1532402308.945,25.391,36.133,31.738,-13.672,-20.020
1532402308.948,26.367,35.645,30.273,0.977,12.695
1532402308.952,30.762,37.109,30.273,15.137,-5.371
1532402308.956,56.152,33.691,30.273,13.672,17.578
1532402308.960,65.430,33.203,25.391,-14.160,46.875
1532402308.964,37.598,34.180,26.367,-1.465,22.461
1532402308.968,24.902,32.227,28.320,4.883,42.480
1532402308.972,18.555,30.762,30.273,20.508,58.105
1532402308.976,27.344,33.203,29.785,19.043,50.781
1532402308.980,66.895,35.645,25.879,-23.926,46.387
1532402308.984,39.062,33.691,26.367,-7.812,51.270
1532402308.988,7.324,31.250,28.809,11.719,55.664
1532402308.991,36.133,34.668,25.879,2.930,36.133
1532402308.995,18.555,35.156,27.832,-3.906,-1.465
1532402308.999,-13.184,36.621,29.297,0.488,-2.441
1532402309.003,-32.715,39.062,25.391,-0.977,43.457
1532402309.007,-33.203,40.527,28.320,18.555,46.875
1532402309.011,-53.223,39.551,31.738,26.367,-23.438
1532402309.015,-62.988,40.527,28.809,15.137,-19.531
1532402309.019,-25.391,43.945,26.367,0.977,48.828
1532402309.023,-9.277,41.504,26.367,10.742,59.082
1532402309.027,-21.484,42.480,23.926,6.836,45.898
1532402309.030,-3.418,42.480,25.391,-16.113,13.184
1532402309.034,23.926,40.039,25.391,8.789,28.320
1532402309.038,3.418,38.086,24.414,19.531,58.594
1532402309.042,-27.832,38.086,28.809,0.977,21.484
1532402309.046,-2.441,41.992,28.320,-3.906,5.859
1532402309.050,2.441,40.039,31.738,0.000,-7.812
1532402309.054,-6.836,42.969,34.668,-7.324,12.695
1532402309.058,5.371,44.434,33.691,16.113,29.297
1532402309.062,5.859,42.480,31.250,33.203,21.973
1532402309.066,-14.648,44.922,27.344,16.113,51.270
1532402309.070,-18.066,45.898,26.367,-2.930,48.828
1532402309.073,21.484,44.434,28.809,-5.371,39.062
1532402309.077,27.832,38.574,29.297,9.766,29.785
1532402309.081,31.738,40.039,31.250,32.227,14.160
1532402309.085,52.246,41.016,33.203,18.066,30.273
1532402309.089,21.484,36.133,33.203,1.953,29.785
1532402309.093,21.973,35.645,31.738,2.441,-6.348
1532402309.097,30.273,36.133,30.762,-0.977,26.855
1532402309.101,12.207,38.086,32.227,17.090,78.613
1532402309.105,28.320,37.598,29.785,24.414,43.945
1532402309.109,15.625,38.086,26.855,16.113,28.320
1532402309.113,1.465,39.551,24.902,20.508,39.062
1532402309.116,-18.555,34.180,26.855,45.410,23.926
1532402309.120,-43.945,32.227,26.855,2.441,39.551
1532402309.124,-36.621,36.621,27.344,-34.668,41.992
1532402309.128,-35.645,38.574,30.273,-10.254,25.879
1532402309.132,-21.973,41.016,30.273,4.883,9.766
1532402309.136,-50.781,40.527,32.227,16.113,-1.953
1532402309.140,-82.031,38.086,31.250,25.879,30.273
1532402309.144,-80.078,37.109,29.297,14.648,37.598
1532402309.148,-66.895,39.551,31.738,-12.695,16.602
1532402309.152,-64.453,41.016,27.832,-0.977,29.297
1532402309.155,-38.574,37.109,30.273,29.785,41.504
1532402309.159,-11.230,35.645,31.738,7.324,36.621
1532402309.163,-40.039,36.621,26.855,-0.488,42.969
1532402309.167,-55.664,29.785,30.762,19.043,54.199
1532402309.171,-48.828,29.297,34.668,26.855,61.523
1532402309.175,-55.176,31.250,31.250,-4.883,40.039
1532402309.179,-67.871,33.691,29.297,-5.859,17.090
1532402309.183,-81.055,37.109,27.344,5.859,35.156
1532402309.187,-79.590,31.738,27.344,-3.906,67.871
1532402309.191,-76.660,30.273,31.250,14.648,29.785
1532402309.195,-53.223,30.762,30.273,75.684,-7.324
1532402309.198,-19.531,33.691,25.879,8.789,14.648
1532402309.202,-40.039,36.133,29.297,-35.156,43.945
1532402309.206,-67.871,30.762,34.668,11.719,62.988
1532402309.210,-72.754,28.320,34.180,20.996,54.199
1532402309.214,-65.918,26.367,33.691,28.809,46.387
1532402309.218,-55.664,27.832,32.227,20.020,55.176
1532402309.222,-37.598,30.762,29.785,16.602,60.059
1532402309.226,-25.879,30.273,27.344,31.738,47.852
1532402309.230,-57.617,26.855,28.320,0.488,37.109
1532402309.234,-41.992,28.809,30.273,0.488,6.348
1532402309.238,-24.414,35.645,27.832,10.254,32.227
1532402309.241,-43.457,33.691,25.879,-20.020,33.691
1532402309.245,-56.641,27.344,30.273,1.465,25.879
1532402309.249,-51.758,24.414,35.156,3.906,39.062
1532402309.253,-46.875,29.297,30.273,-1.465,23.438
1532402309.257,-20.508,37.598,25.879,9.277,47.852
1532402309.261,8.301,37.109,29.297,3.906,24.414
1532402309.265,0.000,34.180,32.227,1.953,9.277
1532402309.269,-14.648,31.250,35.156,15.625,42.969
1532402309.273,4.883,32.715,33.691,-2.441,8.301
1532402309.277,-18.555,34.180,30.273,14.648,9.766
1532402309.280,-50.781,30.762,34.180,28.809,35.156
1532402309.284,-29.297,30.762,35.645,-9.277,18.066
1532402309.288,-22.949,33.691,31.250,12.695,16.602
1532402309.292,-25.391,36.621,25.391,30.762,1.953
1532402309.296,-4.883,36.621,25.879,-0.977,25.391
1532402309.300,26.855,31.738,33.691,11.719,31.250
1532402309.304,-3.418,30.762,35.156,3.418,48.828
1532402309.308,-41.504,31.250,33.691,-4.883,57.129
1532402309.312,-18.555,30.762,31.250,-5.859,20.020
1532402309.316,-4.395,30.273,29.785,14.160,33.691
1532402309.320,-7.324,28.320,27.344,11.719,48.828
1532402309.323,-14.648,28.809,25.879,-13.672,23.926
