timestamps,TP9,AF7,AF8,TP10,Right AUX
1532280301.517,26.855,32.715,30.762,22.949,-17.578
1532280301.521,12.207,28.809,30.762,-4.883,-97.656
1532280301.525,13.184,25.391,31.738,8.301,37.109
1532280301.529,25.879,27.832,32.715,20.020,146.484
1532280301.533,31.250,31.738,27.344,7.324,37.598
1532280301.537,28.320,32.227,27.344,7.812,-96.680
1532280301.541,17.578,26.855,33.203,8.789,-25.879
1532280301.545,21.973,26.367,31.738,13.672,134.277
1532280301.549,34.668,27.832,30.273,12.695,94.727
1532280301.552,31.738,23.438,33.203,9.766,-77.148
1532280301.556,29.297,21.484,34.180,16.602,-52.246
1532280301.560,41.016,22.949,31.250,14.160,127.441
1532280301.564,43.457,19.531,33.203,12.695,117.676
1532280301.568,40.039,16.113,36.133,27.832,-43.457
1532280301.572,38.574,19.043,36.621,31.250,-42.969
1532280301.576,40.039,20.020,36.133,34.668,100.586
1532280301.580,36.621,20.508,35.156,28.320,162.109
1532280301.584,37.598,22.949,34.668,29.297,9.766
1532280301.588,41.016,22.461,35.156,41.504,-106.445
1532280301.592,33.203,22.461,33.203,25.879,48.828
1532280301.595,21.973,24.902,31.738,21.973,183.594
1532280301.599,24.414,23.926,33.203,22.949,46.875
1532280301.603,38.574,23.926,34.668,20.020,-89.355
1532280301.607,31.250,25.391,33.203,26.367,1.953
1532280301.611,20.996,21.973,30.762,17.090,163.086
1532280301.615,29.297,21.973,32.715,18.066,126.953
1532280301.619,33.691,26.367,34.668,26.855,-72.754
1532280301.623,26.855,27.832,29.297,18.555,-81.543
1532280301.627,24.902,28.320,27.832,13.184,116.211
1532280301.631,19.043,27.344,29.785,9.766,128.418
1532280301.635,14.648,23.438,31.738,21.973,-60.059
1532280301.638,20.020,22.461,32.715,30.273,-91.309
1532280301.642,22.949,24.902,28.320,19.531,54.688
1532280301.646,24.902,26.367,28.320,23.926,154.297
1532280301.650,22.949,24.902,31.738,32.715,35.156
1532280301.654,24.414,21.484,32.227,26.367,-84.473
1532280301.658,30.273,21.484,30.273,14.648,30.273
1532280301.662,41.504,25.391,25.879,20.020,145.996
1532280301.666,39.551,29.297,26.367,33.203,62.012
1532280301.670,24.902,25.879,31.738,21.973,-73.242
1532280301.674,19.043,23.926,31.250,11.230,-11.719
1532280301.677,30.273,27.344,30.762,16.113,127.441
1532280301.681,38.086,23.438,31.738,17.578,75.195
1532280301.685,31.250,21.973,27.832,16.113,-66.895
1532280301.689,31.738,28.320,29.297,12.695,-41.504
1532280301.693,38.086,27.832,34.180,24.902,127.930
1532280301.697,29.785,22.949,37.109,26.367,125.977
1532280301.701,24.902,25.391,37.109,18.555,-38.086
1532280301.705,24.902,26.367,35.156,23.438,-68.359
1532280301.709,26.855,22.461,33.691,25.879,75.195
1532280301.713,34.668,24.414,31.738,13.184,148.438
1532280301.717,21.484,25.879,32.715,15.137,4.395
1532280301.720,18.555,23.438,34.668,22.461,-101.562
1532280301.724,26.855,25.391,35.156,24.414,33.203
1532280301.728,12.207,25.879,33.203,22.461,172.363
1532280301.732,15.625,22.949,31.738,15.137,103.516
1532280301.736,25.391,22.461,33.203,3.906,-77.148
1532280301.740,29.785,28.320,28.809,1.953,-58.594
1532280301.744,32.227,34.668,25.391,8.789,152.832
1532280301.748,24.902,34.668,23.926,10.254,152.832
1532280301.752,23.926,34.180,22.949,4.883,-54.199
1532280301.756,27.344,34.668,25.391,6.836,-74.707
1532280301.759,29.297,36.621,25.879,14.160,93.750
1532280301.763,41.504,36.621,25.879,21.484,159.180
1532280301.767,46.875,35.156,23.926,20.996,-0.488
1532280301.771,33.691,33.691,25.879,8.789,-114.258
1532280301.775,32.715,32.715,31.738,16.113,43.945
1532280301.779,33.203,32.227,32.227,25.391,146.973
1532280301.783,41.016,33.691,32.227,31.250,15.625
1532280301.787,49.316,32.227,34.668,32.227,-99.609
1532280301.791,47.363,27.344,38.086,31.738,7.812
1532280301.795,51.270,28.809,39.062,35.156,165.039
1532280301.799,52.246,33.203,40.527,34.668,91.309
1532280301.802,42.969,37.598,35.645,38.086,-74.219
1532280301.806,30.273,40.527,28.320,27.344,-76.172
1532280301.810,41.016,42.969,27.344,19.043,104.004
1532280301.814,46.387,40.527,29.297,27.344,139.648
1532280301.818,46.387,40.527,30.762,20.996,-45.410
1532280301.822,34.180,38.086,31.738,15.137,-92.285
1532280301.826,24.902,37.109,33.203,27.832,77.148
1532280301.830,32.715,39.062,30.762,22.461,146.973
1532280301.834,37.598,37.598,27.344,10.254,10.254
1532280301.838,41.504,38.086,31.250,25.391,-108.398
1532280301.842,41.016,35.156,31.738,22.949,1.953
1532280301.845,34.668,36.133,30.273,11.230,146.484
1532280301.849,39.551,41.016,26.855,17.578,45.898
1532280301.853,52.246,39.062,24.414,26.855,-104.004
1532280301.857,44.434,36.621,28.320,26.367,-24.902
1532280301.861,42.969,40.039,28.320,22.949,130.859
1532280301.865,41.504,41.016,27.344,18.555,84.961
1532280301.869,47.852,41.016,26.855,10.254,-76.660
1532280301.873,45.898,41.016,24.902,7.324,-61.523
1532280301.877,39.551,37.598,26.367,8.789,120.117
1532280301.881,37.109,37.109,27.832,9.277,104.004
1532280301.884,28.320,37.109,28.809,15.625,-53.223
1532280301.888,24.902,34.180,31.250,20.508,-66.406
1532280301.892,20.996,32.715,29.297,20.508,74.219
1532280301.896,26.855,36.133,28.809,25.391,142.090
1532280301.900,29.785,41.016,24.414,17.578,11.230
1532280301.904,16.602,39.062,23.926,12.207,-105.957
1532280301.908,12.695,34.180,30.762,17.090,19.043
1532280301.912,16.113,34.668,29.785,15.625,164.551
1532280301.916,20.508,36.133,26.855,20.020,41.992
1532280301.920,32.227,32.715,28.320,20.020,-126.465
1532280301.924,24.902,25.391,31.738,20.996,-28.320
1532280301.927,16.602,22.949,33.691,23.438,163.574
1532280301.931,33.203,28.320,32.715,29.297,138.184
1532280301.935,47.363,32.715,32.715,36.621,-22.461
1532280301.939,45.410,33.691,33.691,30.273,-56.641
1532280301.943,35.156,29.785,34.180,32.227,87.891
1532280301.947,34.180,31.250,35.645,31.738,136.230
1532280301.951,38.574,35.156,34.180,32.227,-30.273
1532280301.955,38.574,33.691,35.156,33.691,-80.566
1532280301.959,36.133,33.203,38.086,30.273,75.684
1532280301.963,31.250,32.715,36.621,18.555,147.949
1532280301.967,36.133,34.180,33.691,28.320,18.066
1532280301.970,45.898,37.109,28.809,35.156,-98.145
1532280301.974,47.363,37.598,22.949,19.531,34.668
1532280301.978,41.504,36.621,24.902,27.832,161.133
1532280301.982,34.668,34.668,31.738,31.738,54.688
1532280301.986,24.902,32.715,33.691,21.973,-86.426
1532280301.990,29.785,29.297,37.598,33.691,-36.133
1532280301.994,41.016,25.879,38.086,41.016,148.926
1532280301.998,48.340,27.832,35.156,38.086,131.836
1532280302.002,48.828,31.250,33.203,36.621,-57.129
1532280302.006,38.086,32.227,30.762,36.621,-62.988
1532280302.009,29.297,31.738,31.250,39.551,120.605
1532280302.013,27.832,31.738,29.785,30.762,152.344
1532280302.017,29.785,30.273,32.227,26.367,-43.457
1532280302.021,29.785,28.320,33.691,35.156,-128.418
1532280302.025,33.691,28.320,30.273,23.926,50.293
1532280302.029,31.250,25.879,33.203,19.531,175.293
1532280302.033,24.414,22.949,35.156,35.645,69.336
1532280302.037,31.738,25.879,32.227,35.645,-82.520
1532280302.041,45.898,30.273,28.809,29.785,-20.020
1532280302.045,36.621,26.367,26.855,32.227,148.926
1532280302.049,41.504,25.879,29.297,32.227,91.797
1532280302.052,47.852,26.367,29.297,20.508,-74.219
1532280302.056,37.109,22.461,28.809,31.250,-44.922
1532280302.060,43.945,24.902,31.250,39.062,97.168
1532280302.064,37.598,23.438,29.785,25.391,105.469
1532280302.068,37.109,22.949,25.391,23.926,-37.109
1532280302.072,44.434,25.879,23.926,26.367,-59.082
1532280302.076,38.086,20.996,22.461,30.273,104.980
1532280302.080,41.016,21.973,22.949,28.320,147.461
1532280302.084,36.621,20.996,25.879,24.414,4.395
1532280302.088,28.809,18.066,23.438,26.367,-87.402
1532280302.092,23.438,16.602,20.020,20.508,45.898
1532280302.095,28.320,20.508,20.020,21.484,181.641
1532280302.099,35.156,21.973,22.461,23.438,57.129
1532280302.103,27.344,19.531,22.949,13.184,-87.891
1532280302.107,27.344,20.508,20.508,16.602,8.301
1532280302.111,39.062,22.461,19.043,29.785,176.270
1532280302.115,38.086,24.902,20.508,22.949,93.262
1532280302.119,34.180,26.855,21.484,10.742,-108.887
1532280302.123,39.551,26.855,21.973,22.461,-71.777
1532280302.127,36.133,26.855,19.531,26.855,116.211
1532280302.131,29.785,26.367,17.090,16.602,150.391
1532280302.134,33.203,26.855,20.996,19.531,-17.090
1532280302.138,34.668,25.879,20.508,23.438,-84.961
1532280302.142,38.086,25.879,17.578,31.250,98.633
1532280302.146,37.109,27.832,16.602,21.973,176.270
1532280302.150,40.039,31.250,14.648,9.766,11.230
1532280302.154,42.480,33.203,13.184,20.020,-105.469
1532280302.158,35.156,29.297,13.184,16.602,-5.859
1532280302.162,29.785,27.832,19.043,12.207,144.043
1532280302.166,30.273,31.738,20.020,20.020,64.941
1532280302.170,33.691,34.180,13.184,24.902,-90.332
1532280302.174,34.180,33.691,10.254,15.137,-36.133
1532280302.177,34.668,32.227,16.113,8.301,99.121
1532280302.181,28.809,32.715,22.461,17.578,65.430
1532280302.185,28.320,34.668,19.531,19.043,-94.727
1532280302.189,29.297,32.715,16.113,25.879,-100.098
1532280302.193,28.320,30.762,19.043,40.039,81.055
1532280302.197,30.273,30.762,22.461,33.203,98.633
1532280302.201,32.715,28.320,22.461,28.320,-66.895
1532280302.205,39.551,28.809,18.555,31.250,-70.312
1532280302.209,42.969,28.320,17.090,31.250,87.402
1532280302.213,46.387,24.902,19.531,40.039,155.762
1532280302.216,45.410,27.832,20.996,41.992,3.418
1532280302.220,45.898,29.785,20.508,42.480,-116.699
1532280302.224,49.316,26.855,20.996,50.293,21.973
1532280302.228,46.387,26.367,20.020,40.527,170.898
1532280302.232,49.316,28.809,19.531,41.016,51.270
1532280302.236,48.340,26.855,21.973,48.340,-118.652
1532280302.240,42.969,24.902,24.902,48.340,-62.500
1532280302.244,45.898,24.902,24.414,52.734,118.164
1532280302.248,62.500,25.879,19.531,53.223,127.441
1532280302.252,72.266,24.414,19.043,55.664,-60.059
1532280302.256,66.895,27.344,17.578,50.293,-114.258
1532280302.259,58.105,35.645,17.090,48.340,56.641
1532280302.263,61.035,39.551,20.996,53.223,149.902
1532280302.267,63.965,40.527,26.367,55.664,-7.324
1532280302.271,59.082,35.645,21.484,53.711,-106.934
1532280302.275,58.594,32.227,18.555,56.641,48.340
1532280302.279,62.012,31.738,26.367,59.082,159.180
1532280302.283,60.547,24.902,18.555,50.781,28.809
1532280302.287,62.500,25.879,13.672,34.668,-100.098
1532280302.291,58.594,34.180,19.043,35.156,12.207
1532280302.295,47.363,40.527,19.043,45.898,169.434
1532280302.299,40.527,37.109,12.695,41.504,57.129
1532280302.302,43.457,33.203,12.207,29.297,-136.719
1532280302.306,43.457,36.133,17.578,17.090,-62.988
1532280302.310,36.621,31.738,19.531,28.809,125.977
1532280302.314,30.273,30.273,20.508,38.574,102.051
1532280302.318,33.691,29.785,22.461,28.809,-101.562
1532280302.322,36.133,26.855,21.973,26.367,-126.465
1532280302.326,29.785,23.926,21.973,41.992,75.684
1532280302.330,23.926,22.461,23.438,35.156,149.414
1532280302.334,25.391,25.879,20.996,16.113,0.000
1532280302.338,30.273,27.344,19.043,17.578,-102.539
1532280302.341,33.203,27.344,22.949,29.785,21.973
1532280302.345,33.203,30.273,23.438,38.574,154.297
1532280302.349,32.227,31.738,25.391,27.832,46.875
1532280302.353,39.062,31.738,24.902,25.391,-74.219
1532280302.357,45.410,33.203,23.926,32.715,-2.930
1532280302.361,36.621,33.691,27.832,25.879,141.602
1532280302.365,25.879,29.297,25.391,34.180,94.727
1532280302.369,33.691,27.832,21.973,30.762,-73.730
1532280302.373,42.480,29.785,21.484,23.438,-61.035
1532280302.377,37.598,28.809,22.461,30.273,108.398
1532280302.381,39.551,30.273,23.438,26.367,125.488
1532280302.384,51.758,36.621,23.926,36.621,-56.641
1532280302.388,46.387,38.086,24.902,44.434,-105.469
1532280302.392,51.270,33.691,24.902,46.875,71.289
1532280302.396,49.805,31.250,27.832,61.523,141.113
1532280302.400,36.133,30.762,27.832,36.133,-53.711
1532280302.404,49.316,32.227,24.902,23.438,-156.738
1532280302.408,47.852,30.762,24.414,46.875,-0.488
1532280302.412,40.527,27.832,27.832,45.410,137.695
1532280302.416,26.855,25.879,28.320,28.809,51.270
1532280302.420,14.160,24.414,28.320,34.180,-108.887
1532280302.424,21.484,22.949,32.715,32.715,-24.414
1532280302.427,28.320,21.484,33.691,27.344,137.207
1532280302.431,37.598,25.879,29.297,28.320,90.332
1532280302.435,31.738,26.367,30.273,34.668,-79.590
1532280302.439,20.020,23.926,33.691,34.668,-107.422
1532280302.443,22.949,21.973,35.156,44.434,76.660
1532280302.447,31.738,24.902,34.668,51.758,138.184
1532280302.451,38.574,27.832,32.715,56.641,-48.828
1532280302.455,41.992,26.367,31.250,51.758,-114.746
1532280302.459,51.270,25.879,27.344,40.527,66.406
1532280302.463,50.293,24.902,30.273,57.617,133.301
1532280302.466,37.598,26.855,30.762,47.852,-10.254
1532280302.470,43.457,31.738,36.621,44.922,-142.578
1532280302.474,40.527,26.855,35.645,55.664,-47.363
1532280302.478,37.598,20.996,30.762,45.898,90.332
1532280302.482,37.598,21.973,36.621,45.898,-24.902
1532280302.486,33.203,24.414,36.133,48.828,-149.414
1532280302.490,37.109,24.902,36.133,48.828,-70.312
1532280302.494,36.621,25.879,36.621,48.340,77.148
1532280302.498,33.203,26.855,39.062,54.199,53.223
1532280302.502,26.855,26.367,40.527,51.758,-146.484
1532280302.506,19.531,28.809,40.039,47.852,-161.133
1532280302.509,23.926,29.785,39.551,48.340,34.668
1532280302.513,30.762,32.227,38.574,57.129,67.871
1532280302.517,34.180,37.598,39.062,69.336,-94.727
1532280302.521,33.203,41.016,39.062,59.570,-172.363
1532280302.525,28.809,41.992,35.156,40.527,4.395
1532280302.529,30.273,48.828,33.203,38.574,108.398
1532280302.533,19.531,51.270,37.598,37.598,-34.668
1532280302.537,5.371,49.805,40.527,32.715,-130.859
1532280302.541,2.930,52.734,41.504,40.527,-38.574
1532280302.545,3.418,53.223,43.945,22.949,118.164
1532280302.548,11.230,54.688,41.504,14.648,92.773
1532280302.552,17.578,58.105,36.621,28.320,-92.285
1532280302.556,18.066,63.477,32.715,23.926,-79.102
1532280302.560,6.348,66.406,30.273,24.902,131.348
1532280302.564,3.906,66.406,32.715,21.484,122.070
1532280302.568,13.672,63.965,34.180,18.066,-71.289
1532280302.572,14.160,62.500,32.227,24.902,-98.633
1532280302.576,15.137,63.965,31.738,31.250,88.867
1532280302.580,17.090,63.965,32.227,33.691,137.695
1532280302.584,20.508,63.965,32.715,38.086,-20.996
1532280302.588,20.508,65.918,33.691,52.734,-101.562
1532280302.591,23.926,70.312,29.297,45.410,28.809
1532280302.595,32.715,70.312,24.414,38.574,148.438
1532280302.599,44.922,71.777,23.438,42.969,12.207
1532280302.603,38.574,75.195,20.996,33.203,-145.020
1532280302.607,30.762,78.125,20.020,25.879,-13.672
1532280302.611,30.273,83.008,19.531,23.438,178.711
1532280302.615,26.367,84.473,19.531,23.926,75.684
1532280302.619,30.273,83.008,20.020,31.738,-128.418
1532280302.623,25.879,79.590,20.508,40.527,-42.480
1532280302.627,14.648,77.637,23.438,42.480,159.668
1532280302.631,13.184,79.590,20.020,34.668,167.969
1532280302.634,7.812,77.148,19.043,36.133,2.930
1532280302.638,-3.906,73.730,27.344,44.434,-78.613
1532280302.642,-8.789,71.777,29.785,25.391,82.520
1532280302.646,1.953,66.406,33.203,26.855,201.172
1532280302.650,11.719,68.848,33.203,35.645,49.805
1532280302.654,20.508,77.637,28.320,25.391,-61.523
1532280302.658,14.648,76.172,30.273,24.902,59.570
1532280302.662,20.020,78.613,25.391,10.742,169.922
1532280302.666,17.578,81.055,21.973,11.230,83.008
1532280302.670,6.348,77.148,25.879,16.113,-67.383
1532280302.673,13.184,77.637,22.949,12.695,0.977
1532280302.677,13.672,76.172,21.973,15.137,184.082
1532280302.681,12.207,71.777,25.879,10.254,102.539
1532280302.685,7.324,65.918,30.273,16.602,-66.895
1532280302.689,6.348,64.941,28.809,20.996,-18.555
1532280302.693,9.766,67.871,21.484,13.672,190.430
1532280302.697,15.625,66.406,20.020,19.043,218.750
1532280302.701,15.137,62.988,24.414,15.625,8.789
1532280302.705,8.789,64.453,21.484,9.277,-69.824
1532280302.709,12.207,62.012,18.066,15.625,105.957
1532280302.713,19.043,57.129,20.996,19.043,199.707
1532280302.716,17.578,55.664,22.461,19.043,34.668
1532280302.720,14.648,57.129,24.414,22.949,-108.398
1532280302.724,19.531,60.547,20.020,17.090,32.227
1532280302.728,26.367,62.988,15.625,16.113,193.848
1532280302.732,21.484,61.523,13.672,26.855,75.684
1532280302.736,21.973,62.500,12.207,16.113,-86.914
1532280302.740,17.578,62.988,11.719,5.859,-13.184
1532280302.744,19.043,61.035,11.230,9.766,172.852
1532280302.748,29.785,62.500,16.113,20.020,145.508
1532280302.752,22.949,57.129,20.020,20.508,-36.133
1532280302.756,24.414,53.711,20.996,15.137,-43.457
1532280302.759,26.855,55.176,24.414,20.996,131.348
1532280302.763,31.250,55.176,21.973,23.926,174.316
1532280302.767,38.574,55.176,23.438,28.809,18.066
1532280302.771,21.973,51.270,22.949,35.645,-65.430
1532280302.775,12.207,49.805,16.602,29.297,74.707
1532280302.779,30.273,55.176,12.695,21.973,174.316
1532280302.783,31.738,57.617,14.648,36.621,67.871
1532280302.787,35.645,54.688,18.066,42.480,-52.246
1532280302.791,43.945,52.734,18.066,36.133,42.480
1532280302.795,40.039,53.223,15.625,32.715,185.059
1532280302.798,33.691,55.176,11.719,21.973,107.910
1532280302.802,21.484,54.199,10.254,18.066,-67.871
1532280302.806,26.855,52.734,4.883,20.020,-28.320
1532280302.810,34.668,48.828,5.371,23.926,151.367
1532280302.814,25.391,45.410,11.230,26.367,145.996
1532280302.818,33.203,46.875,13.184,28.320,-46.875
1532280302.822,41.016,45.410,12.207,32.715,-114.746
1532280302.826,33.691,45.898,9.766,35.645,64.453
1532280302.830,45.898,46.875,12.207,39.551,172.852
1532280302.834,56.152,42.969,12.695,43.457,18.555
1532280302.838,49.316,42.480,10.254,37.598,-113.281
1532280302.841,47.852,44.434,11.719,34.180,53.711
1532280302.845,39.551,43.945,15.625,38.574,194.336
1532280302.849,37.109,42.969,15.625,41.992,69.336
1532280302.853,32.227,42.969,17.578,44.922,-87.891
1532280302.857,28.320,43.945,18.555,46.875,-1.465
1532280302.861,37.598,42.480,20.996,38.086,149.902
1532280302.865,33.691,42.480,24.414,33.691,91.797
1532280302.869,35.645,45.898,25.391,34.180,-64.941
1532280302.873,38.574,48.340,23.438,31.250,-52.246
1532280302.877,35.156,45.410,23.438,41.016,138.672
1532280302.881,26.855,41.504,28.320,47.363,174.805
1532280302.884,14.648,41.016,32.715,43.457,-20.508
1532280302.888,22.461,40.039,36.133,49.805,-53.223
1532280302.892,26.367,40.039,35.156,40.039,118.164
1532280302.896,26.855,42.480,32.715,35.156,180.176
1532280302.900,37.598,48.340,29.785,37.598,0.000
1532280302.904,41.992,52.734,26.855,31.250,-116.211
1532280302.908,34.180,51.270,24.414,29.785,27.832
1532280302.912,35.156,49.316,24.414,28.809,176.758
1532280302.916,34.180,48.340,29.785,39.062,80.078
1532280302.920,21.484,43.457,33.691,41.504,-100.098
1532280302.923,23.926,39.551,37.598,34.668,0.977
1532280302.927,30.273,40.039,37.598,32.227,169.922
1532280302.931,27.344,40.527,36.133,38.574,113.281
1532280302.935,31.250,39.062,34.668,31.250,-54.199
1532280302.939,33.203,38.574,35.645,31.738,-40.039
1532280302.943,33.203,40.039,36.133,44.922,136.719
1532280302.947,26.855,41.016,33.203,41.992,146.484
1532280302.951,27.344,41.992,33.691,39.551,-31.738
1532280302.955,30.273,40.039,35.645,44.434,-83.008
1532280302.959,31.250,44.434,34.180,41.992,43.945
1532280302.963,37.598,48.340,31.250,37.598,110.840
1532280302.966,34.668,46.875,30.762,39.551,18.066
1532280302.970,33.203,43.457,35.156,30.273,-95.703
1532280302.974,17.578,39.551,40.527,20.020,10.254
1532280302.978,14.160,37.598,41.992,31.250,183.105
1532280302.982,28.320,39.551,36.621,34.668,81.543
1532280302.986,25.879,41.504,35.645,31.738,-93.262
1532280302.990,27.344,42.969,35.156,34.668,-24.902
1532280302.994,30.762,43.457,34.668,26.367,165.527
1532280302.998,19.531,41.992,34.668,29.785,131.348
1532280303.002,20.508,40.527,34.668,32.715,-93.750
1532280303.005,28.809,37.109,35.645,39.062,-80.078
1532280303.009,28.809,35.645,37.109,55.664,107.910
1532280303.013,25.391,37.109,37.109,49.805,161.621
1532280303.017,30.273,35.156,37.109,46.387,-6.836
1532280303.021,37.598,34.180,37.598,41.992,-114.258
1532280303.025,27.832,33.691,37.109,39.551,52.246
1532280303.029,19.531,32.715,36.621,43.945,170.898
1532280303.033,21.484,34.668,34.668,41.016,44.434
1532280303.037,26.855,32.227,35.645,37.598,-99.609
1532280303.041,30.273,34.180,37.598,37.598,-5.371
1532280303.045,20.996,34.668,37.109,33.691,179.688
1532280303.048,28.809,31.250,38.574,27.832,95.215
1532280303.052,33.691,32.227,38.574,29.297,-113.770
1532280303.056,24.414,35.645,37.598,28.320,-46.875
1532280303.060,32.715,36.133,38.086,32.715,137.695
1532280303.064,30.762,32.715,41.504,38.086,115.234
1532280303.068,28.809,32.227,43.945,38.574,-60.059
1532280303.072,29.785,33.691,42.480,36.133,-70.801
1532280303.076,29.297,33.691,43.945,27.832,114.746
1532280303.080,27.832,31.738,45.898,30.762,156.738
1532280303.084,32.715,31.250,42.480,31.738,-15.137
1532280303.088,30.273,35.645,36.133,19.531,-88.379
1532280303.091,31.250,41.016,33.691,25.879,50.781
1532280303.095,38.574,37.109,42.480,41.992,180.664
1532280303.099,23.438,33.691,46.387,27.344,34.668
1532280303.103,19.531,33.203,46.875,19.531,-122.559
1532280303.107,31.738,30.762,50.293,33.203,9.277
1532280303.111,30.762,32.227,45.898,36.133,156.738
1532280303.115,22.949,36.621,41.016,22.949,85.938
1532280303.119,25.391,36.133,38.574,20.020,-80.078
1532280303.123,27.832,32.227,40.039,26.855,-46.875
1532280303.127,26.367,28.809,44.434,29.785,144.043
1532280303.130,30.273,30.762,44.434,31.738,134.277
1532280303.134,27.832,35.156,40.527,25.391,-62.500
1532280303.138,27.344,37.598,40.039,19.531,-115.234
1532280303.142,18.555,37.598,42.969,17.578,49.805
1532280303.146,9.277,31.738,47.852,19.531,139.648
1532280303.150,22.461,29.297,51.758,21.484,-15.137
1532280303.154,15.625,33.691,50.293,22.461,-122.070
1532280303.158,16.113,37.598,43.457,20.996,25.391
1532280303.162,28.320,38.086,37.598,15.625,175.293
1532280303.166,33.203,36.621,39.062,22.949,67.383
1532280303.170,36.133,34.180,44.922,38.086,-97.168
1532280303.173,34.668,36.133,42.969,37.598,-28.809
1532280303.177,41.016,40.527,35.645,40.527,151.855
1532280303.181,47.363,39.062,38.574,40.527,110.352
1532280303.185,42.480,34.668,46.387,41.016,-88.867
1532280303.189,36.133,32.715,47.363,40.527,-53.711
1532280303.193,38.086,33.203,43.945,39.062,142.090
1532280303.197,39.551,30.762,44.922,43.945,161.133
1532280303.201,28.809,31.250,47.363,45.898,-25.879
1532280303.205,35.645,36.621,41.504,37.109,-82.031
1532280303.209,43.945,37.598,38.574,33.691,80.566
1532280303.213,38.574,37.109,40.527,39.062,168.945
1532280303.216,40.527,36.133,41.504,35.156,38.574
1532280303.220,27.344,36.133,40.039,25.391,-90.820
1532280303.224,23.438,38.574,40.039,26.367,22.461
1532280303.228,29.297,37.109,41.504,32.715,169.922
1532280303.232,26.855,36.133,40.527,32.227,88.867
1532280303.236,27.832,33.691,40.527,26.855,-61.523
1532280303.240,24.414,31.250,43.457,20.996,-42.480
1532280303.244,21.973,30.273,44.922,29.297,115.234
1532280303.248,19.531,29.785,42.480,24.902,141.113
1532280303.252,20.508,30.762,37.109,18.555,-22.461
1532280303.255,34.668,31.738,36.621,42.480,-41.504
1532280303.259,35.645,31.738,41.016,44.434,96.680
1532280303.263,27.832,29.297,41.016,32.715,142.090
1532280303.267,24.902,24.902,42.969,36.621,-0.977
1532280303.271,33.691,24.902,43.457,39.062,-107.910
1532280303.275,35.156,30.273,39.551,39.551,57.617
1532280303.279,35.156,33.203,36.133,36.133,179.199
1532280303.283,39.062,31.738,34.180,24.414,25.391
1532280303.287,35.645,27.832,34.668,29.297,-95.215
1532280303.291,28.320,28.320,36.133,32.227,27.832
1532280303.295,27.344,30.273,37.598,33.203,185.059
1532280303.298,40.039,32.227,37.598,34.668,82.520
1532280303.302,43.945,32.715,38.086,29.785,-115.723
1532280303.306,36.133,27.344,37.109,31.738,-48.340
1532280303.310,34.180,26.855,35.645,30.762,146.484
1532280303.314,36.621,27.832,34.180,32.715,133.789
1532280303.318,40.527,24.414,32.227,36.621,-44.434
1532280303.322,45.898,25.879,31.250,41.504,-88.379
1532280303.326,43.945,25.879,31.738,44.434,79.590
1532280303.330,40.039,27.832,34.668,36.133,165.039
1532280303.334,38.086,30.273,36.133,23.438,14.160
1532280303.338,40.527,30.762,35.156,19.043,-102.539
1532280303.341,37.598,32.227,34.180,30.273,3.418
1532280303.345,43.945,30.762,33.691,38.574,148.438
1532280303.349,42.480,31.738,33.691,39.551,57.129
1532280303.353,37.109,29.297,38.086,43.457,-73.730
1532280303.357,30.762,26.367,40.527,44.922,16.602
1532280303.361,31.738,26.855,38.574,49.316,168.945
1532280303.365,35.156,27.344,39.062,45.410,106.934
1532280303.369,24.414,26.855,38.086,41.992,-79.590
1532280303.373,36.621,27.344,36.133,53.223,-49.805
1532280303.377,42.969,27.344,35.156,48.828,131.348
1532280303.380,37.598,28.320,34.668,36.133,95.215
1532280303.384,45.410,30.273,37.109,39.551,-86.914
1532280303.388,46.875,27.832,39.062,46.387,-94.238
1532280303.392,40.527,27.344,38.574,41.992,78.613
1532280303.396,44.434,28.320,38.086,40.039,146.973
1532280303.400,46.387,26.367,38.574,42.969,-4.883
1532280303.404,34.180,26.367,38.086,43.457,-123.535
1532280303.408,36.133,25.391,36.133,41.504,24.902
1532280303.412,41.992,24.902,36.621,46.875,166.504
1532280303.416,36.133,28.320,37.598,51.270,43.945
1532280303.420,41.016,27.832,37.109,37.598,-125.488
1532280303.423,43.457,27.344,37.598,34.668,-61.035
1532280303.427,42.480,30.273,38.086,47.852,142.090
1532280303.431,38.086,30.762,37.109,38.086,114.258
1532280303.435,35.156,30.273,40.039,34.668,-78.613
1532280303.439,35.645,27.344,38.574,48.340,-63.965
1532280303.443,37.598,26.855,38.086,50.781,115.723
1532280303.447,38.574,26.367,39.551,44.434,136.230
1532280303.451,35.156,26.367,39.551,39.551,-45.898
1532280303.455,41.016,30.273,39.062,38.086,-83.008
1532280303.459,43.457,30.273,39.551,42.969,80.078
1532280303.462,40.527,30.762,44.434,46.387,155.273
1532280303.466,43.945,34.668,46.875,48.828,20.020
1532280303.470,49.805,34.180,45.410,46.387,-118.652
1532280303.474,45.410,32.715,40.527,43.945,19.531
1532280303.478,44.922,33.691,40.527,45.898,155.762
1532280303.482,42.480,33.203,44.434,45.410,54.688
1532280303.486,38.574,32.715,43.457,45.410,-89.844
1532280303.490,42.480,30.762,43.457,48.340,-35.156
1532280303.494,45.898,28.809,44.922,52.734,142.578
1532280303.498,46.387,32.715,46.387,50.781,101.074
1532280303.502,47.363,36.621,47.363,47.363,-71.777
1532280303.505,45.410,36.133,46.387,49.316,-47.852
1532280303.509,40.527,34.180,45.898,39.551,128.418
1532280303.513,40.039,33.691,46.387,35.645,168.457
1532280303.517,41.016,36.133,45.898,40.039,-20.020
1532280303.521,41.992,37.598,45.898,34.180,-117.676
1532280303.525,35.645,39.062,45.898,44.434,72.754
1532280303.529,28.809,38.086,43.945,46.387,173.340
1532280303.533,31.738,37.109,40.527,34.668,35.645
1532280303.537,35.645,37.598,41.992,37.109,-79.590
1532280303.541,38.574,37.598,42.480,38.086,28.320
1532280303.545,31.738,39.551,41.016,36.133,180.664
1532280303.548,29.785,42.480,42.480,31.250,72.266
1532280303.552,34.668,41.016,41.992,26.367,-85.449
1532280303.556,34.668,38.574,39.062,28.320,-45.898
1532280303.560,24.414,37.109,41.016,24.902,94.727
1532280303.564,21.973,35.645,40.527,24.902,91.797
1532280303.568,33.203,37.109,40.527,31.250,-53.711
1532280303.572,31.738,36.621,42.969,34.180,-88.379
1532280303.576,38.086,37.109,43.945,34.668,75.684
1532280303.580,32.715,36.133,45.410,34.180,141.602
1532280303.584,26.367,36.133,43.457,32.227,-5.371
1532280303.587,34.180,36.621,43.945,33.691,-109.863
1532280303.591,33.203,36.133,43.945,38.086,27.832
1532280303.595,32.715,36.621,44.922,39.062,178.223
1532280303.599,45.898,34.668,48.340,38.086,36.133
1532280303.603,50.781,35.645,45.898,34.668,-128.906
1532280303.607,41.016,37.109,41.504,36.621,-1.465
1532280303.611,40.527,40.527,40.527,33.691,200.195
1532280303.615,38.574,45.410,35.156,29.297,115.723
1532280303.619,40.039,45.898,32.715,29.785,-72.754
1532280303.623,39.551,39.551,39.062,30.762,-20.996
1532280303.627,35.156,36.621,41.504,36.133,145.508
1532280303.630,35.645,40.039,37.598,37.598,129.883
1532280303.634,37.598,44.434,31.250,36.621,-62.500
1532280303.638,38.574,46.875,31.738,37.109,-117.676
1532280303.642,34.668,42.480,35.645,35.645,65.918
1532280303.646,30.762,35.156,37.109,39.551,151.855
1532280303.650,31.738,35.156,33.203,39.062,-1.465
1532280303.654,37.109,38.574,27.832,36.133,-95.703
1532280303.658,32.715,38.574,27.344,30.762,24.414
1532280303.662,23.926,36.621,27.344,25.879,117.188
1532280303.666,24.902,34.180,30.273,35.156,20.020
1532280303.670,28.320,31.738,34.668,41.504,-116.211
1532280303.673,35.156,32.227,35.156,42.480,-32.715
1532280303.677,38.086,33.691,33.691,41.016,160.645
1532280303.681,31.738,31.738,33.691,38.574,116.211
1532280303.685,36.621,27.832,33.203,37.598,-65.430
1532280303.689,37.109,28.320,32.227,35.156,-61.035
1532280303.693,29.785,29.297,33.203,30.273,112.305
1532280303.697,28.320,29.785,34.668,22.461,130.859
1532280303.701,26.367,31.250,33.691,17.578,-45.410
1532280303.705,23.438,30.273,32.227,20.508,-122.070
1532280303.709,25.879,28.320,32.227,25.391,62.012
1532280303.712,32.715,29.297,33.203,26.367,177.734
1532280303.716,15.137,28.809,36.133,28.809,29.297
1532280303.720,12.207,27.344,36.621,29.785,-88.379
1532280303.724,34.180,28.809,38.086,32.715,36.621
1532280303.728,34.668,30.273,39.551,35.156,183.105
1532280303.732,33.691,31.250,35.645,36.133,72.754
1532280303.736,14.648,31.250,35.645,35.156,-92.285
1532280303.740,20.020,29.297,39.062,37.109,-20.508
1532280303.744,35.156,27.832,39.062,40.039,140.137
1532280303.748,31.250,28.809,40.039,35.645,102.539
1532280303.752,19.043,28.320,38.086,36.621,-79.590
1532280303.755,21.484,27.344,36.133,37.598,-78.613
1532280303.759,24.902,29.297,34.180,24.902,65.430
1532280303.763,17.090,31.250,35.645,22.949,100.098
1532280303.767,30.762,29.785,38.086,30.273,-25.391
1532280303.771,26.367,25.879,37.109,33.691,-102.539
1532280303.775,30.762,25.391,35.645,39.062,70.312
1532280303.779,24.902,30.273,33.691,40.039,194.824
1532280303.783,27.344,35.645,33.691,39.062,41.504
1532280303.787,40.527,38.086,30.762,32.227,-93.750
1532280303.791,24.414,37.598,31.250,31.738,23.926
1532280303.794,28.809,37.109,34.180,30.273,184.082
1532280303.798,35.156,39.551,33.691,15.625,74.219
1532280303.802,24.902,41.992,29.785,12.695,-100.586
1532280303.806,21.484,46.875,21.973,12.207,-6.836
1532280303.810,29.785,45.898,21.973,17.090,138.672
1532280303.814,25.391,38.086,29.785,21.973,87.891
1532280303.818,16.602,36.621,34.668,19.531,-65.430
1532280303.822,25.879,37.598,31.738,20.996,-84.961
1532280303.826,37.109,41.016,26.367,21.484,85.449
1532280303.830,25.391,43.457,29.785,23.926,154.785
1532280303.834,33.691,40.039,34.180,24.414,-5.859
1532280303.837,42.480,36.621,31.250,23.438,-112.793
1532280303.841,40.527,36.621,29.785,26.367,-0.977
1532280303.845,33.691,37.109,28.320,27.344,156.738
1532280303.849,27.344,38.086,28.809,25.391,56.152
1532280303.853,44.434,39.062,34.180,30.273,-101.562
1532280303.857,39.551,34.668,35.645,39.551,-21.484
1532280303.861,35.645,33.691,33.691,32.715,154.297
1532280303.865,27.832,35.645,35.156,28.809,112.305
1532280303.869,28.809,33.691,35.156,29.785,-72.266
1532280303.873,41.504,33.203,30.762,25.391,-33.203
1532280303.877,37.598,34.668,27.832,24.414,137.207
1532280303.880,31.738,34.668,27.832,26.367,111.816
1532280303.884,22.949,34.180,26.367,25.391,-64.453
1532280303.888,27.832,30.762,28.320,32.715,-105.469
1532280303.892,48.828,31.738,31.250,36.133,74.219
1532280303.896,33.691,31.250,30.762,28.809,176.758
1532280303.900,19.531,27.832,32.227,28.809,3.418
1532280303.904,35.645,30.762,32.715,28.320,-123.047
1532280303.908,42.969,30.762,32.715,30.273,14.160
1532280303.912,50.293,31.250,34.180,29.297,145.996
1532280303.916,44.922,33.691,36.621,27.832,41.016
1532280303.919,39.062,34.668,38.086,30.273,-128.418
1532280303.923,49.316,34.180,35.645,31.738,-39.551
1532280303.927,51.758,32.227,37.598,35.156,132.324
1532280303.931,44.434,33.203,38.086,33.203,80.566
1532280303.935,42.969,34.180,34.668,36.133,-56.641
1532280303.939,46.387,33.203,35.156,35.156,-76.172
1532280303.943,48.340,32.715,35.645,39.062,80.566
1532280303.947,50.781,34.180,38.086,46.875,147.461
1532280303.951,41.016,33.203,37.109,41.504,-26.855
1532280303.955,37.598,32.715,35.156,41.504,-81.543
1532280303.959,36.621,34.668,36.133,39.062,72.754
1532280303.962,36.621,34.180,34.668,37.109,166.992
1532280303.966,39.551,34.668,36.621,40.039,24.414
1532280303.970,43.457,34.668,36.621,34.668,-79.102
1532280303.974,49.805,36.133,35.645,36.133,43.457
1532280303.978,41.016,37.109,37.109,33.691,144.043
1532280303.982,32.227,37.109,36.621,25.391,57.617
1532280303.986,29.297,36.621,34.180,32.227,-78.613
1532280303.990,38.574,35.645,34.180,35.156,-24.414
1532280303.994,39.551,36.621,34.668,37.109,148.926
1532280303.998,36.621,36.133,34.180,40.039,131.836
1532280304.002,40.039,35.156,35.156,41.992,-56.641
1532280304.005,41.016,33.691,35.156,43.945,-52.734
1532280304.009,41.016,35.645,35.645,42.480,121.582
1532280304.013,37.598,37.598,35.645,42.969,149.414
1532280304.017,46.387,37.598,33.691,42.480,-37.109
1532280304.021,46.387,36.621,33.203,40.039,-102.539
1532280304.025,39.062,36.133,35.645,40.039,71.289
1532280304.029,47.852,37.109,36.621,40.527,166.504
1532280304.033,45.898,37.598,37.598,36.621,40.039
1532280304.037,41.504,38.086,39.551,37.598,-93.262
1532280304.041,41.016,39.551,38.086,36.621,-10.742
1532280304.044,41.016,39.551,37.598,35.156,144.043
1532280304.048,25.879,40.039,38.574,36.621,56.641
1532280304.052,22.949,38.086,39.551,32.715,-127.441
1532280304.056,38.086,33.691,42.969,35.645,-52.246
1532280304.060,36.621,34.180,43.457,39.062,134.766
1532280304.064,40.527,38.086,41.992,37.598,117.676
1532280304.068,36.133,40.039,42.480,33.691,-66.406
1532280304.072,33.203,40.527,41.016,30.762,-72.754
1532280304.076,34.180,39.551,39.551,33.691,108.398
1532280304.080,38.086,40.039,40.527,27.344,141.602
1532280304.084,43.457,41.992,42.969,26.367,-17.578
1532280304.087,47.852,39.062,41.504,30.273,-87.402
1532280304.091,51.270,38.086,38.086,20.996,64.941
1532280304.095,53.711,39.551,41.016,21.973,190.430
1532280304.099,53.711,38.574,43.457,34.180,54.199
1532280304.103,48.340,34.668,44.922,42.480,-97.656
1532280304.107,44.434,32.227,44.434,48.340,-11.719
1532280304.111,36.621,33.691,43.945,51.758,151.855
1532280304.115,28.809,33.691,44.434,47.363,71.289
1532280304.119,31.250,31.738,43.945,42.969,-120.117
1532280304.123,36.621,32.715,46.875,47.852,-63.965
1532280304.127,32.227,32.715,43.945,51.758,138.672
1532280304.130,36.133,35.156,41.504,47.852,140.625
1532280304.134,43.945,38.086,43.945,44.922,-43.457
1532280304.138,41.504,37.598,41.992,38.574,-96.680
1532280304.142,34.668,36.621,39.062,36.621,76.660
1532280304.146,33.691,37.598,40.039,38.574,155.762
1532280304.150,40.039,34.668,40.039,34.180,-9.766
1532280304.154,37.109,32.227,34.668,27.344,-96.680
1532280304.158,32.227,33.691,35.156,28.320,43.945
1532280304.162,28.809,30.273,36.621,32.227,162.109
1532280304.166,32.227,31.250,36.133,29.785,63.965
1532280304.169,33.691,32.715,36.133,27.832,-108.398
1532280304.173,34.668,31.250,37.109,29.785,-15.137
1532280304.177,35.156,29.297,36.133,33.691,155.762
1532280304.181,34.668,28.320,34.180,35.645,63.477
1532280304.185,38.574,27.832,34.668,39.062,-108.398
1532280304.189,25.391,26.855,36.133,40.039,-77.148
1532280304.193,26.367,26.855,37.598,39.551,99.609
1532280304.197,31.738,26.855,37.598,37.109,126.953
1532280304.201,29.297,28.320,36.621,35.156,-40.039
1532280304.205,32.715,27.832,36.133,34.668,-77.148
1532280304.209,25.879,25.879,35.645,34.180,83.984
1532280304.212,25.391,26.367,36.621,33.203,154.297
1532280304.216,27.832,28.320,38.574,31.250,9.766
1532280304.220,28.320,30.273,38.574,24.902,-125.977
1532280304.224,30.762,29.785,39.062,35.156,-1.953
1532280304.228,36.621,27.344,39.062,43.945,153.809
1532280304.232,38.574,27.344,38.086,41.016,67.871
1532280304.236,41.992,30.273,39.551,39.062,-98.145
1532280304.240,46.387,32.227,38.086,37.109,-24.902
1532280304.244,41.992,33.203,36.621,33.203,158.203
1532280304.248,39.551,30.762,37.598,35.156,99.609
1532280304.251,44.434,31.738,35.156,42.480,-108.398
1532280304.255,44.922,35.156,33.691,40.039,-101.562
1532280304.259,47.363,36.621,35.645,35.156,73.730
1532280304.263,49.316,38.574,37.109,31.250,109.863
1532280304.267,46.875,37.598,38.574,36.621,-53.711
1532280304.271,47.363,36.133,37.109,42.480,-103.516
1532280304.275,48.828,37.109,36.621,43.945,98.633
1532280304.279,45.410,38.574,39.551,40.527,179.688
1532280304.283,46.387,35.156,41.016,37.109,28.809
1532280304.287,41.992,34.668,42.480,41.504,-83.496
1532280304.291,34.668,36.133,41.504,42.480,21.484
1532280304.294,47.363,35.645,40.527,38.086,165.039
1532280304.298,47.363,35.645,39.551,34.180,83.008
1532280304.302,36.133,36.133,38.574,28.809,-89.355
1532280304.306,36.133,35.645,37.598,28.809,-29.785
1532280304.310,29.785,35.156,37.109,29.297,153.320
1532280304.314,17.578,35.156,41.504,22.461,125.000
1532280304.318,10.254,35.645,41.992,11.230,-58.594
1532280304.322,14.160,38.086,37.598,8.789,-87.891
1532280304.326,21.973,38.086,37.109,19.043,95.215
1532280304.330,22.949,35.645,45.410,26.855,159.180
1532280304.334,21.973,35.645,49.805,22.949,0.977
1532280304.337,22.461,35.645,46.387,16.602,-89.844
1532280304.341,22.461,35.156,48.340,16.602,50.293
1532280304.345,22.461,39.062,52.246,18.555,159.668
1532280304.349,23.438,37.598,54.688,16.113,27.832
1532280304.353,22.461,31.250,57.129,9.766,-100.098
1532280304.357,15.137,32.715,56.152,10.742,-13.672
1532280304.361,10.742,36.133,56.152,8.789,121.094
1532280304.365,12.695,36.133,57.617,9.277,86.426
1532280304.369,8.789,35.645,55.176,9.766,-74.707
1532280304.373,7.324,35.645,54.688,4.883,-29.785
1532280304.376,14.648,37.109,57.129,10.254,155.273
1532280304.380,14.160,36.621,56.152,12.695,113.281
1532280304.384,-1.953,35.645,60.059,10.254,-49.805
1532280304.388,-5.859,34.668,62.500,6.348,-57.129
1532280304.392,4.395,33.203,60.547,5.859,103.027
1532280304.396,1.953,31.738,63.477,5.859,136.230
1532280304.400,-4.395,32.715,63.965,1.953,-25.391
1532280304.404,-4.395,35.156,62.012,9.766,-111.816
1532280304.408,-0.488,32.715,62.500,18.066,20.508
1532280304.412,-3.418,31.250,65.918,15.625,146.973
1532280304.416,1.465,31.738,65.430,9.766,49.805
1532280304.419,1.953,32.227,64.453,13.184,-87.891
1532280304.423,-0.977,33.203,64.941,24.414,-9.277
1532280304.427,3.906,34.668,65.918,24.414,146.973
1532280304.431,-0.977,34.180,66.895,13.672,104.980
1532280304.435,2.441,34.668,66.895,15.137,-66.895
1532280304.439,9.766,37.598,63.965,21.484,-58.594
1532280304.443,5.371,41.504,62.988,19.043,103.516
1532280304.447,0.977,43.457,63.965,16.602,111.328
1532280304.451,4.395,40.039,65.918,12.695,-41.016
1532280304.455,0.000,39.551,62.988,13.184,-57.617
1532280304.459,-2.930,40.527,58.105,5.859,78.125
1532280304.462,-2.930,35.156,60.059,2.441,129.395
1532280304.466,-3.418,34.668,60.059,11.719,-2.930
1532280304.470,-0.977,38.574,58.594,11.230,-93.262
1532280304.474,-2.930,36.133,60.059,12.207,36.621
1532280304.478,-5.371,34.180,62.012,14.648,152.344
1532280304.482,-11.719,36.133,61.035,10.742,43.457
1532280304.486,-1.953,34.180,60.547,12.695,-103.516
1532280304.490,1.465,34.180,61.035,11.719,-22.461
1532280304.494,-5.371,38.086,59.570,9.277,156.738
1532280304.498,2.441,40.527,56.152,13.672,125.488
1532280304.501,0.000,41.504,54.688,7.324,-106.445
1532280304.505,-4.883,39.062,52.246,4.395,-100.098
1532280304.509,-1.953,36.133,52.246,13.672,130.371
1532280304.513,1.465,37.109,52.734,17.090,154.297
1532280304.517,2.441,37.109,51.758,15.137,-40.039
1532280304.521,1.465,34.668,48.340,14.160,-92.773
1532280304.525,3.418,31.250,45.410,19.531,79.590
1532280304.529,8.789,29.785,47.852,19.531,156.250
1532280304.533,14.160,32.715,47.852,19.531,17.090
1532280304.537,21.484,33.203,48.828,20.020,-101.074
1532280304.541,23.926,33.203,48.340,23.438,-1.465
1532280304.544,22.461,29.785,45.898,28.320,131.348
1532280304.548,23.926,29.297,43.945,26.855,41.504
1532280304.552,30.273,29.297,43.945,30.273,-118.652
1532280304.556,29.297,28.320,44.922,33.691,-52.734
1532280304.560,26.855,32.715,46.387,29.785,106.445
1532280304.564,26.367,31.738,48.828,32.715,88.867
1532280304.568,27.344,30.762,45.410,33.203,-74.707
1532280304.572,31.738,33.203,44.434,29.785,-69.336
1532280304.576,29.785,34.180,44.922,36.133,107.910
1532280304.580,29.297,35.645,43.457,31.250,130.859
1532280304.583,29.297,36.621,42.480,22.461,-32.715
1532280304.587,31.738,38.086,42.969,26.855,-107.422
1532280304.591,35.645,39.062,43.945,33.203,55.664
1532280304.595,27.832,35.156,46.875,31.738,149.414
1532280304.599,24.902,34.180,47.363,26.855,0.977
1532280304.603,28.320,35.645,43.945,21.973,-136.230
1532280304.607,18.066,34.180,42.480,28.320,-25.879
1532280304.611,24.414,36.133,41.504,33.691,128.418
1532280304.615,36.621,37.598,39.062,37.109,76.660
1532280304.619,35.156,37.598,40.527,40.039,-71.289
1532280304.623,31.738,37.109,42.969,39.062,-39.551
1532280304.626,34.180,33.691,42.480,37.598,137.695
1532280304.630,29.297,32.227,42.969,36.621,125.977
1532280304.634,28.809,34.668,46.875,41.992,-70.312
1532280304.638,40.039,34.668,44.434,44.922,-104.492
1532280304.642,43.945,35.156,41.504,44.922,48.828
1532280304.646,38.086,36.621,41.504,41.992,132.324
1532280304.650,32.227,37.598,38.086,33.203,-11.230
1532280304.654,30.273,40.039,38.086,31.250,-106.445
1532280304.658,34.180,40.527,36.621,34.180,42.480
1532280304.662,41.016,40.039,35.645,35.645,174.316
1532280304.666,30.762,41.992,35.645,31.250,56.152
1532280304.669,32.227,41.992,37.109,22.461,-115.723
1532280304.673,39.551,38.574,38.574,27.832,-0.977
1532280304.677,35.156,36.621,38.574,29.785,159.668
1532280304.681,31.250,36.621,40.527,20.508,74.219
1532280304.685,30.762,36.133,38.574,29.297,-98.633
1532280304.689,31.738,36.133,32.227,30.762,-50.781
1532280304.693,28.320,36.621,31.738,20.508,130.371
1532280304.697,22.461,35.645,35.156,16.602,129.395
1532280304.701,20.020,32.227,36.133,20.020,-45.410
1532280304.705,22.461,30.762,36.133,23.438,-83.496
1532280304.708,22.461,30.273,37.109,22.461,74.707
1532280304.712,26.855,29.785,36.133,26.855,148.438
1532280304.716,25.391,30.273,33.691,22.461,16.113
1532280304.720,18.066,30.273,32.715,15.137,-86.914
1532280304.724,21.484,29.785,30.762,18.555,35.645
1532280304.728,29.297,29.785,30.273,27.832,185.547
1532280304.732,31.738,31.250,33.203,34.180,73.730
1532280304.736,30.273,31.738,31.738,36.621,-102.051
1532280304.740,21.484,30.762,29.785,24.902,-34.668
1532280304.744,26.367,28.320,31.738,23.438,130.859
1532280304.748,32.715,24.902,32.715,37.598,102.539
1532280304.751,33.203,22.461,34.180,43.457,-80.566
1532280304.755,38.574,25.391,33.203,44.434,-97.656
1532280304.759,36.621,32.227,28.809,40.039,97.656
1532280304.763,29.785,34.668,27.344,34.668,160.156
1532280304.767,24.414,31.250,30.273,34.180,-27.832
1532280304.771,34.180,32.715,33.203,36.133,-101.562
1532280304.775,39.551,32.227,34.668,41.016,68.848
1532280304.779,45.410,31.250,33.691,35.156,150.879
1532280304.783,45.410,33.203,34.180,25.391,-0.977
1532280304.787,44.922,31.738,31.250,29.785,-110.840
1532280304.791,44.434,30.762,30.762,33.691,10.742
1532280304.794,35.645,31.250,31.738,29.297,173.828
1532280304.798,34.180,34.180,31.250,22.949,64.941
1532280304.802,37.598,35.156,31.250,29.785,-88.379
1532280304.806,40.527,34.180,28.809,38.574,-25.879
1532280304.810,37.598,33.203,25.879,37.598,130.859
1532280304.814,37.598,32.715,26.367,34.180,121.094
1532280304.818,35.156,31.738,28.809,32.227,-78.613
1532280304.822,30.762,30.762,29.785,38.086,-70.312
1532280304.826,31.738,27.832,29.785,41.992,110.840
1532280304.830,37.109,26.855,26.855,42.969,139.648
1532280304.833,41.016,34.668,20.020,38.574,-10.742
1532280304.837,45.410,41.504,16.602,36.621,-124.023
1532280304.841,47.363,41.992,19.043,36.621,15.137
1532280304.845,43.945,41.016,18.555,28.320,160.645
1532280304.849,35.645,40.039,19.043,21.973,28.809
1532280304.853,35.645,36.133,20.996,31.250,-92.773
1532280304.857,48.828,34.668,22.461,45.410,8.301
1532280304.861,46.387,36.621,20.020,42.480,161.621
1532280304.865,41.016,36.133,20.020,33.203,91.309
1532280304.869,42.969,35.156,26.367,37.109,-106.934
1532280304.873,41.016,29.785,29.297,41.504,-57.617
1532280304.876,38.574,25.879,29.297,46.387,125.977
1532280304.880,40.039,30.762,28.320,46.387,123.535
1532280304.884,41.016,35.156,26.367,45.898,-70.801
1532280304.888,40.039,35.156,26.855,49.805,-109.863
1532280304.892,41.016,35.156,29.785,46.875,93.750
1532280304.896,33.203,34.668,28.809,44.434,151.855
1532280304.900,36.133,34.180,25.391,42.969,-26.855
1532280304.904,41.992,32.715,26.855,39.062,-128.418
1532280304.908,42.480,31.738,28.809,37.598,43.457
1532280304.912,51.758,31.250,27.344,33.691,197.754
1532280304.916,54.688,29.297,23.438,27.832,63.477
1532280304.919,44.922,28.320,22.461,21.484,-116.211
1532280304.923,39.062,27.344,24.902,23.926,-33.691
1532280304.927,37.109,26.855,25.879,34.180,159.668
1532280304.931,35.156,27.832,27.832,36.133,105.957
1532280304.935,33.691,29.785,27.832,34.180,-74.219
1532280304.939,33.203,32.227,26.855,34.180,-38.574
1532280304.943,32.227,34.668,26.367,38.086,120.605
1532280304.947,31.738,30.762,26.367,39.551,141.113
1532280304.951,30.762,29.297,27.344,35.645,-21.484
1532280304.955,30.273,33.203,28.809,34.180,-91.309
1532280304.958,34.668,33.203,30.762,34.180,62.012
1532280304.962,34.668,31.738,29.785,27.344,133.789
1532280304.966,29.297,32.715,29.297,24.902,-8.301
1532280304.970,29.297,32.715,32.227,26.855,-84.961
1532280304.974,30.762,31.250,32.715,27.832,61.035
1532280304.978,31.250,35.156,32.715,29.297,166.992
1532280304.982,33.691,38.086,34.668,32.715,56.641
1532280304.986,33.203,37.598,35.156,36.133,-74.707
1532280304.990,37.598,37.109,33.691,41.992,-0.488
1532280304.994,41.504,40.527,32.715,41.992,167.969
1532280304.998,41.992,42.480,32.227,34.180,111.328
1532280305.001,39.062,40.039,29.297,33.691,-69.336
1532280305.005,36.133,40.039,30.762,31.250,-48.828
1532280305.009,36.133,38.086,35.156,27.344,133.301
1532280305.013,27.344,35.645,35.156,29.785,170.898
1532280305.017,26.367,37.109,34.668,27.344,-31.250
1532280305.021,36.621,38.574,35.645,20.020,-118.164
1532280305.025,37.109,39.062,36.621,24.902,79.590
1532280305.029,35.645,37.109,35.156,32.715,173.828
1532280305.033,36.133,36.621,32.227,32.715,12.695
1532280305.037,41.992,41.016,30.273,37.598,-102.539
1532280305.040,50.781,41.504,29.297,42.969,50.293
1532280305.044,51.270,38.574,30.762,39.551,215.820
1532280305.048,44.434,36.621,33.203,38.574,97.656
1532280305.052,45.898,36.133,32.227,41.016,-86.426
1532280305.056,45.898,32.715,34.668,43.945,-4.395
1532280305.060,40.039,29.297,34.668,42.480,150.391
1532280305.064,47.363,26.367,35.156,42.480,96.191
1532280305.068,52.246,23.926,33.691,51.270,-64.453
1532280305.072,46.875,25.391,27.344,46.387,-71.289
1532280305.076,43.457,26.855,25.879,38.574,114.258
1532280305.080,43.457,26.367,28.320,38.086,147.461
1532280305.083,41.016,26.367,28.809,43.457,-20.508
1532280305.087,48.828,22.461,31.738,51.758,-101.562
1532280305.091,62.012,23.438,32.227,56.641,35.156
1532280305.095,67.871,33.203,23.926,58.105,171.875
1532280305.099,63.965,36.621,22.461,56.152,14.648
1532280305.103,50.781,32.227,26.855,49.316,-126.465
1532280305.107,43.945,28.809,26.855,40.527,15.137
1532280305.111,42.969,29.297,26.855,38.086,146.973
1532280305.115,43.457,30.762,28.809,40.039,73.730
1532280305.119,43.457,32.227,29.785,38.086,-133.301
1532280305.123,40.527,32.227,30.273,34.668,-117.188
1532280305.126,42.480,33.203,31.738,37.109,126.953
1532280305.130,46.875,33.691,33.691,40.527,147.461
1532280305.134,46.875,33.203,33.691,39.551,-29.297
1532280305.138,48.828,34.180,32.227,37.598,-83.496
1532280305.142,49.316,32.227,31.738,40.527,61.035
1532280305.146,43.945,31.738,34.180,41.504,136.230
1532280305.150,41.016,32.227,38.086,39.551,7.812
1532280305.154,40.039,28.809,37.109,42.969,-64.453
1532280305.158,41.016,30.762,34.180,36.621,43.945
1532280305.162,38.574,35.156,32.227,23.926,148.438
1532280305.165,29.297,35.645,34.180,25.391,20.508
1532280305.169,26.367,34.668,34.180,25.879,-119.141
1532280305.173,30.762,31.738,32.227,27.832,23.926
1532280305.177,31.738,29.785,34.668,31.250,176.270
1532280305.181,34.668,30.762,37.109,28.320,96.680
1532280305.185,34.668,33.691,32.715,25.391,-65.430
1532280305.189,30.273,34.180,32.227,25.391,-54.199
1532280305.193,31.250,31.738,35.156,30.762,117.188
1532280305.197,35.645,32.227,35.645,33.691,133.301
1532280305.201,30.762,34.668,36.133,29.785,-55.176
1532280305.205,28.320,33.203,37.109,34.180,-84.473
1532280305.208,28.809,30.273,39.551,40.039,112.793
1532280305.212,28.320,27.344,43.457,43.945,211.426
1532280305.216,25.391,23.926,41.992,35.645,12.695
1532280305.220,23.926,24.414,40.527,29.785,-113.770
1532280305.224,28.809,24.414,38.574,32.715,61.523
1532280305.228,32.715,26.367,35.645,32.715,207.520
1532280305.232,33.691,31.738,31.250,26.367,77.637
1532280305.236,33.203,35.645,26.367,21.484,-96.680
1532280305.240,34.668,37.109,27.344,22.949,-19.531
1532280305.244,30.762,38.086,27.832,26.855,148.926
1532280305.248,27.344,38.086,26.855,25.879,122.559
1532280305.251,28.320,38.086,26.367,19.043,-51.758
1532280305.255,30.762,38.086,24.414,21.973,-59.082
1532280305.259,31.738,36.133,23.926,26.367,96.191
1532280305.263,31.738,38.574,20.996,17.090,127.930
1532280305.267,30.762,39.551,20.996,15.137,-32.227
1532280305.271,29.297,38.574,26.855,24.902,-100.586
1532280305.275,29.297,39.551,27.832,26.855,86.426
1532280305.279,28.809,38.574,26.855,25.879,180.176
1532280305.283,31.738,36.621,28.320,32.227,19.043
1532280305.287,34.180,34.180,31.250,34.180,-93.262
1532280305.290,33.691,30.273,36.133,33.691,22.949
1532280305.294,34.180,26.855,37.598,41.992,160.156
1532280305.298,37.109,26.367,37.598,43.457,45.410
1532280305.302,38.086,28.809,36.133,38.086,-107.910
1532280305.306,39.062,38.086,29.297,40.039,-17.578
1532280305.310,39.062,41.992,25.391,38.574,160.645
1532280305.314,39.551,37.598,26.855,36.621,123.535
1532280305.318,34.180,38.086,29.785,31.250,-95.703
1532280305.322,30.273,40.527,27.832,29.297,-99.121
1532280305.326,31.738,37.109,28.320,34.668,116.211
1532280305.330,23.926,34.668,29.785,29.785,139.160
1532280305.333,19.043,34.668,26.367,20.996,-44.922
1532280305.337,25.879,33.691,26.855,21.973,-115.723
1532280305.341,33.691,34.180,28.809,28.320,36.133
1532280305.345,33.691,36.621,27.832,30.762,148.926
1532280305.349,32.227,34.668,26.367,29.297,25.391
1532280305.353,35.156,36.133,21.973,24.414,-105.957
1532280305.357,35.156,39.062,20.020,25.879,-1.465
1532280305.361,33.203,36.621,21.973,25.879,171.387
1532280305.365,40.039,36.621,25.391,26.855,115.234
1532280305.369,40.527,36.621,25.879,30.273,-63.965
1532280305.372,40.039,38.086,22.949,28.809,-29.297
1532280305.376,44.922,40.527,21.973,30.762,154.785
1532280305.380,36.133,40.527,22.949,25.391,98.633
1532280305.384,33.203,39.551,21.973,21.484,-89.355
1532280305.388,36.621,39.551,22.461,23.438,-89.355
1532280305.392,39.062,40.039,20.508,30.273,109.863
1532280305.396,37.598,39.551,22.461,33.691,164.062
1532280305.400,28.320,38.086,26.367,22.461,-19.043
1532280305.404,24.902,37.109,27.344,20.996,-98.145
1532280305.408,27.344,35.645,26.855,28.320,54.199
1532280305.412,24.414,32.715,25.879,33.203,188.965
1532280305.415,28.320,32.227,28.320,38.574,54.199
1532280305.419,30.762,34.668,22.949,35.645,-138.672
1532280305.423,27.832,37.598,19.043,35.645,-27.832
1532280305.427,30.762,39.062,21.973,42.969,156.250
1532280305.431,29.785,39.551,22.949,42.969,83.984
1532280305.435,32.715,41.016,23.438,46.387,-80.078
1532280305.439,34.180,42.480,21.973,38.574,-77.637
1532280305.443,35.156,43.457,21.973,22.461,81.055
1532280305.447,39.551,45.898,21.973,32.715,109.375
1532280305.451,35.645,46.875,23.438,39.551,-68.848
1532280305.455,32.227,44.922,22.949,35.156,-99.609
1532280305.458,35.156,42.480,22.949,36.133,74.219
1532280305.462,38.086,41.992,25.391,39.551,129.395
1532280305.466,41.016,44.434,25.879,42.969,3.418
1532280305.470,39.551,43.945,27.344,41.016,-88.379
1532280305.474,32.227,40.039,28.809,31.738,36.621
1532280305.478,34.668,37.598,28.809,27.832,142.090
1532280305.482,40.039,36.621,27.832,30.273,0.977
1532280305.486,43.945,39.062,26.855,32.715,-113.281
1532280305.490,37.598,41.016,29.297,31.738,-2.930
1532280305.494,31.738,37.598,31.250,33.691,177.734
1532280305.497,40.527,38.086,30.762,37.109,104.980
1532280305.501,45.410,42.480,29.785,41.016,-97.168
1532280305.505,46.875,45.898,27.832,42.969,-35.645
1532280305.509,52.734,48.340,25.879,47.363,132.324
1532280305.513,45.410,48.340,23.926,44.434,112.793
1532280305.517,36.133,44.434,28.809,39.062,-58.594
1532280305.521,41.992,43.457,30.762,40.039,-118.652
1532280305.525,43.945,45.410,29.297,40.039,44.922
1532280305.529,39.062,46.387,27.832,35.156,161.621
1532280305.533,39.062,47.363,24.902,31.250,37.598
1532280305.537,40.039,44.922,24.902,32.715,-80.078
1532280305.540,33.691,40.039,25.879,21.484,26.855
1532280305.544,22.461,39.062,29.297,15.625,177.734
1532280305.548,22.949,37.598,32.715,22.461,64.941
1532280305.552,28.320,34.668,30.273,29.297,-102.539
1532280305.556,33.203,34.668,25.879,31.738,-11.230
1532280305.560,39.062,38.086,24.414,29.297,142.090
1532280305.564,37.109,39.062,25.391,29.297,122.070
1532280305.568,38.574,36.621,26.855,25.879,-64.941
1532280305.572,46.875,39.062,27.832,33.203,-86.426
1532280305.576,41.016,40.039,22.461,34.668,90.332
1532280305.580,38.086,38.574,21.973,25.391,108.398
1532280305.583,39.062,36.133,29.785,26.367,-23.438
1532280305.587,37.598,36.133,30.762,27.832,-73.242
1532280305.591,34.180,33.203,29.297,24.414,73.730
1532280305.595,32.227,29.785,31.738,25.879,173.828
1532280305.599,38.086,32.227,28.320,27.832,12.207
1532280305.603,37.109,34.180,24.414,30.762,-104.492
1532280305.607,27.344,35.645,23.438,29.785,17.578
1532280305.611,26.855,34.180,26.855,25.879,172.363
1532280305.615,33.691,32.227,31.738,24.902,71.289
1532280305.619,36.133,30.762,31.250,23.438,-122.559
1532280305.622,29.297,27.344,29.297,21.484,-71.777
1532280305.626,24.902,27.344,27.832,30.273,141.113
1532280305.630,31.250,31.738,24.902,35.156,149.414
1532280305.634,35.156,37.109,21.484,36.621,-37.109
1532280305.638,36.621,36.133,22.461,43.945,-70.801
1532280305.642,33.691,30.762,28.809,41.016,106.934
1532280305.646,33.203,31.250,29.785,37.598,177.246
1532280305.650,37.109,34.180,26.367,43.945,-15.625
1532280305.654,39.551,34.180,24.902,45.410,-129.395
1532280305.658,35.645,32.227,24.902,42.969,27.832
1532280305.662,27.344,29.785,28.809,37.598,178.223
1532280305.665,22.461,28.809,30.273,32.227,51.758
1532280305.669,27.344,30.273,29.297,37.109,-85.449
1532280305.673,30.273,29.297,29.785,42.480,14.160
1532280305.677,27.344,32.715,24.902,30.762,130.371
1532280305.681,27.344,37.598,19.043,23.926,65.918
1532280305.685,25.879,37.109,22.461,29.297,-71.777
1532280305.689,25.391,33.691,30.273,30.762,-58.105
1532280305.693,33.203,32.715,31.250,34.180,142.090
1532280305.697,37.109,32.715,31.738,38.574,146.973
1532280305.701,40.039,30.762,35.156,41.992,-84.961
1532280305.705,41.504,31.738,35.156,40.527,-131.348
1532280305.708,45.410,33.203,32.715,44.434,77.637
1532280305.712,48.340,35.156,31.250,48.340,157.715
1532280305.716,41.504,37.598,30.762,41.504,-15.625
1532280305.720,46.875,38.574,29.297,40.039,-122.070
1532280305.724,48.828,38.574,28.320,41.992,27.832
1532280305.728,43.945,40.527,27.832,36.133,176.270
1532280305.732,46.387,42.969,27.832,34.180,81.543
1532280305.736,45.898,41.016,30.273,35.156,-70.801
1532280305.740,48.828,37.109,32.715,34.668,-3.906
1532280305.744,48.340,38.086,32.227,30.762,187.500
1532280305.747,41.992,39.551,31.738,25.879,137.695
1532280305.751,39.551,36.621,35.156,35.645,-79.590
1532280305.755,36.133,37.109,39.062,40.527,-77.148
1532280305.759,27.832,41.016,38.574,34.180,94.727
1532280305.763,19.531,43.457,38.086,31.250,118.652
1532280305.767,13.184,39.062,40.527,30.762,-48.340
1532280305.771,14.160,35.645,39.551,31.250,-83.008
1532280305.775,23.438,37.109,40.527,38.086,86.914
1532280305.779,25.391,35.645,42.480,38.086,161.133
1532280305.783,28.809,38.086,38.574,38.574,33.691
1532280305.787,31.738,43.457,34.668,40.527,-74.707
1532280305.790,34.180,44.922,33.691,39.551,23.926
1532280305.794,36.133,44.922,32.715,35.156,178.711
1532280305.798,41.992,45.898,31.738,33.203,78.613
1532280305.802,42.969,46.387,34.180,38.086,-116.211
1532280305.806,38.574,47.363,36.621,40.527,-46.387
1532280305.810,37.109,44.922,37.598,41.016,148.926
1532280305.814,34.668,41.992,36.621,40.527,117.676
1532280305.818,39.551,43.457,38.086,40.039,-94.238
1532280305.822,45.898,47.363,37.598,37.109,-94.727
1532280305.826,42.969,45.898,33.691,35.645,105.957
1532280305.829,42.480,45.898,34.180,30.762,150.391
1532280305.833,38.086,47.363,37.109,27.344,-32.715
1532280305.837,39.062,47.363,37.109,32.227,-127.441
1532280305.841,44.922,47.363,35.645,33.203,39.551
1532280305.845,38.086,47.852,36.621,33.691,167.480
1532280305.849,32.227,45.410,39.551,33.691,8.301
1532280305.853,33.691,42.969,41.992,35.156,-128.906
1532280305.857,36.621,44.922,42.480,37.598,15.137
1532280305.861,32.715,47.363,39.551,29.297,139.160
1532280305.865,29.785,49.805,34.180,25.879,59.570
1532280305.869,30.762,49.805,35.645,33.691,-78.125
1532280305.872,28.809,43.457,39.551,36.621,-15.625
1532280305.876,27.832,41.992,38.086,36.133,129.883
1532280305.880,29.785,44.434,38.086,29.785,99.609
1532280305.884,33.203,43.457,35.645,24.902,-47.852
1532280305.888,34.180,44.922,32.227,26.855,-44.434
1532280305.892,29.785,48.828,33.691,27.832,108.887
1532280305.896,28.320,44.922,37.598,29.297,143.066
1532280305.900,34.180,41.016,41.992,37.109,-43.457
1532280305.904,38.574,42.480,40.039,37.109,-129.883
1532280305.908,42.969,47.852,34.180,35.156,44.922
1532280305.912,54.199,54.199,27.344,37.598,154.785
1532280305.915,49.805,52.246,28.320,38.086,15.625
1532280305.919,48.828,47.852,35.156,35.156,-118.164
1532280305.923,47.363,46.387,40.527,37.109,-18.066
1532280305.927,35.645,45.410,38.574,35.645,141.113
1532280305.931,46.875,47.363,37.109,35.645,89.844
1532280305.935,50.293,49.805,40.527,36.621,-79.102
1532280305.939,38.086,48.828,41.504,37.598,-45.410
1532280305.943,39.551,50.293,39.062,39.062,143.555
1532280305.947,39.551,53.223,40.527,40.527,148.926
1532280305.951,37.109,53.223,39.551,38.574,-36.133
1532280305.954,44.922,54.199,33.691,32.227,-86.914
1532280305.958,46.875,57.129,32.715,28.320,72.754
1532280305.962,35.156,54.688,33.691,24.414,130.371
1532280305.966,33.691,49.316,36.621,33.691,-4.883
1532280305.970,37.109,49.805,39.062,37.109,-79.590
1532280305.974,40.527,52.246,34.180,30.762,55.176
1532280305.978,44.922,52.734,33.691,32.715,166.504
1532280305.982,40.039,54.199,38.086,33.691,50.293
1532280305.986,41.992,50.293,40.039,37.598,-95.703
1532280305.990,47.363,43.945,42.480,44.434,-24.902
1532280305.994,43.945,44.434,42.480,47.363,168.945
1532280305.997,45.898,45.898,40.039,45.410,105.957
1532280306.001,46.387,47.363,37.109,35.645,-110.840
1532280306.005,47.363,51.270,34.668,36.621,-78.613
1532280306.009,48.340,53.711,31.738,40.039,127.441
1532280306.013,42.480,50.293,34.668,40.527,123.535
1532280306.017,42.969,44.434,39.551,38.574,-53.223
1532280306.021,41.992,43.945,38.574,39.551,-89.844
1532280306.025,45.898,48.828,33.691,44.434,65.918
1532280306.029,53.711,53.711,29.297,42.480,187.500
1532280306.033,47.363,51.270,36.621,39.062,22.949
1532280306.037,35.156,48.340,41.992,30.762,-114.258
1532280306.040,36.133,47.363,38.086,22.949,27.344
1532280306.044,37.109,45.410,36.621,24.414,172.363
1532280306.048,33.691,44.434,38.574,25.879,91.797
1532280306.052,35.156,42.480,38.086,25.879,-68.848
1532280306.056,30.762,41.504,39.551,32.227,17.090
1532280306.060,28.320,39.551,41.992,33.203,166.016
1532280306.064,22.949,38.086,43.945,31.250,121.094
1532280306.068,16.602,38.086,43.457,27.832,-59.570
1532280306.072,20.020,39.062,41.016,22.949,-88.867
1532280306.076,20.996,37.109,42.969,29.785,115.723
1532280306.079,28.320,36.133,45.410,34.668,138.672
1532280306.083,29.785,41.504,41.992,25.391,-72.754
1532280306.087,25.391,43.945,36.133,20.508,-120.117
1532280306.091,24.414,41.016,36.133,28.320,44.434
1532280306.095,26.367,39.551,41.016,28.809,155.762
1532280306.099,26.367,41.504,44.434,24.414,-0.488
1532280306.103,15.137,35.645,46.875,25.391,-147.461
1532280306.107,13.184,31.250,48.828,28.320,5.371
1532280306.111,20.996,33.203,46.387,28.320,161.133
1532280306.115,32.227,33.691,44.434,22.949,65.918
1532280306.119,33.203,32.227,44.434,24.414,-108.887
1532280306.122,31.738,31.738,44.922,33.691,-51.270
1532280306.126,35.645,34.180,44.434,28.809,159.668
1532280306.130,42.969,37.109,41.992,25.879,132.812
1532280306.134,38.086,36.133,41.504,33.203,-55.176
1532280306.138,28.809,35.156,40.527,28.809,-62.012
1532280306.142,31.738,33.203,40.039,24.414,83.984
1532280306.146,31.250,32.715,39.062,29.297,141.602
1532280306.150,33.691,33.203,39.551,27.832,-6.836
1532280306.154,37.598,36.133,38.574,29.297,-104.492
1532280306.158,37.109,36.133,38.574,36.133,54.688
1532280306.162,24.414,29.785,43.457,36.133,172.363
1532280306.165,19.531,25.879,45.898,38.086,44.922
1532280306.169,36.133,24.414,46.387,38.086,-105.957
1532280306.173,36.621,26.367,41.016,35.156,1.953
1532280306.177,23.926,24.414,41.504,33.203,183.105
1532280306.181,26.367,26.855,42.480,24.902,73.242
1532280306.185,38.574,32.227,39.062,28.809,-108.887
1532280306.189,41.016,30.762,41.992,39.551,-46.387
1532280306.193,37.109,31.738,41.504,38.574,139.160
1532280306.197,35.645,36.133,34.668,31.738,128.418
1532280306.201,37.109,36.621,34.180,29.785,-59.570
1532280306.204,40.039,27.344,39.551,31.738,-93.750
1532280306.208,35.156,25.391,37.598,31.738,100.098
1532280306.212,31.738,27.832,35.156,29.297,170.898
1532280306.216,25.391,19.043,41.504,28.809,-9.277
1532280306.220,28.320,17.090,41.992,25.879,-104.980
1532280306.224,30.762,20.020,38.086,24.414,25.391
1532280306.228,30.762,21.484,38.086,27.344,155.762
1532280306.232,29.297,23.438,35.156,27.344,38.086
1532280306.236,21.484,20.508,33.691,30.273,-126.953
1532280306.240,27.832,20.020,36.621,26.855,-45.410
1532280306.244,28.320,18.555,34.668,25.879,113.281
1532280306.247,19.043,14.648,35.645,30.273,74.219
1532280306.251,24.414,19.043,37.598,30.273,-89.844
1532280306.255,28.320,22.461,39.062,32.715,-65.430
1532280306.259,27.832,20.508,44.922,38.574,113.770
1532280306.263,29.297,22.949,45.410,37.109,135.254
1532280306.267,33.203,27.832,41.016,28.809,-41.504
1532280306.271,38.086,28.320,40.039,31.738,-104.004
1532280306.275,36.133,29.297,37.598,38.574,86.914
1532280306.279,32.227,29.785,35.645,33.203,186.523
1532280306.283,20.020,23.438,39.062,22.461,18.555
1532280306.286,16.602,22.461,41.992,28.809,-80.566
1532280306.290,30.273,28.320,40.527,33.691,48.828
1532280306.294,41.016,29.297,40.039,31.250,187.012
1532280306.298,38.574,28.320,37.109,31.250,72.754
1532280306.302,27.832,30.273,33.691,22.461,-103.516
1532280306.306,12.695,28.809,36.621,19.043,-18.066
1532280306.310,14.648,22.949,40.527,23.926,153.320
1532280306.314,20.508,22.949,40.527,29.297,131.348
1532280306.318,20.996,24.414,40.527,27.344,-62.012
1532280306.322,28.809,29.297,37.109,19.043,-104.492
1532280306.326,43.945,34.180,33.203,27.344,83.008
1532280306.329,49.316,35.645,33.691,36.621,134.277
1532280306.333,42.969,32.715,38.086,42.969,-7.812
1532280306.337,43.945,27.832,43.457,52.246,-80.566
1532280306.341,45.410,29.785,44.922,56.152,52.246
1532280306.345,41.992,35.156,39.551,47.363,153.809
1532280306.349,43.457,38.086,34.668,35.156,5.859
1532280306.353,41.016,36.621,33.203,31.738,-116.699
1532280306.357,42.480,36.133,34.180,33.203,-10.742
1532280306.361,43.945,34.180,35.645,41.504,156.738
1532280306.365,40.527,30.762,36.133,44.434,74.219
1532280306.369,37.598,33.203,36.621,36.133,-111.328
1532280306.372,32.715,35.645,34.668,35.645,-50.293
1532280306.376,29.785,32.715,33.203,37.109,130.859
1532280306.380,30.273,32.227,34.668,30.273,81.055
1532280306.384,26.367,29.785,38.086,29.785,-112.793
1532280306.388,26.855,26.855,41.504,39.062,-99.121
1532280306.392,23.926,26.855,39.062,42.969,91.309
1532280306.396,26.367,26.367,40.039,38.086,134.766
1532280306.400,25.879,28.320,41.016,32.715,-41.992
1532280306.404,18.555,31.250,34.180,25.879,-97.168
1532280306.408,27.344,34.180,30.273,18.555,76.660
1532280306.411,31.738,32.715,31.738,22.461,170.898
1532280306.415,30.762,30.762,33.203,27.344,28.320
1532280306.419,29.297,30.273,37.109,31.250,-123.535
1532280306.423,29.297,29.297,37.109,30.273,-16.113
1532280306.427,40.039,31.738,31.738,37.109,164.551
1532280306.431,41.504,32.715,33.691,44.434,84.473
1532280306.435,28.320,27.344,37.109,34.180,-80.566
1532280306.439,22.949,28.320,38.574,28.809,-30.273
1532280306.443,25.391,29.785,38.086,32.227,148.926
1532280306.447,35.156,29.785,38.574,38.574,133.789
1532280306.451,36.133,32.715,40.527,42.969,-41.016
1532280306.454,30.273,35.156,39.062,40.527,-68.848
1532280306.458,27.344,33.203,41.504,40.527,65.918
1532280306.462,32.715,32.715,41.992,41.992,143.066
1532280306.466,33.691,36.133,37.598,36.621,-6.836
1532280306.470,30.762,39.551,36.133,28.809,-129.395
1532280306.474,32.227,40.527,35.156,29.297,46.387
1532280306.478,39.062,40.527,35.645,27.344,150.391
1532280306.482,40.039,40.039,33.691,29.297,11.230
1532280306.486,40.039,34.180,32.227,34.668,-98.145
1532280306.490,41.504,31.250,39.062,35.645,-3.906
1532280306.494,42.969,34.668,39.551,40.527,148.438
1532280306.497,46.387,35.645,33.691,38.574,84.961
1532280306.501,45.898,38.086,31.738,30.762,-98.145
1532280306.505,45.410,38.574,31.738,34.180,-81.055
1532280306.509,38.574,36.133,33.691,41.992,131.836
1532280306.513,31.738,35.156,35.156,38.574,169.922
1532280306.517,34.668,33.203,34.668,38.086,-23.438
1532280306.521,36.621,33.203,35.156,36.621,-91.797
1532280306.525,40.039,33.203,36.621,37.109,81.055
1532280306.529,43.457,31.738,39.062,46.875,162.598
1532280306.533,44.922,30.273,39.551,52.246,13.184
1532280306.536,48.828,30.273,40.039,53.223,-104.980
1532280306.540,52.734,31.738,38.574,50.293,0.977
1532280306.544,51.270,34.668,36.621,47.852,150.879
1532280306.548,51.270,34.668,38.086,46.387,42.969
1532280306.552,52.734,32.715,39.062,42.480,-137.695
1532280306.556,53.711,34.180,35.156,41.016,-25.879
1532280306.560,51.758,35.645,36.621,41.016,135.254
1532280306.564,52.734,36.621,38.574,40.039,46.875
1532280306.568,54.688,35.156,37.109,40.527,-110.352
1532280306.572,58.105,32.227,36.133,36.133,-78.125
1532280306.576,61.035,34.180,33.203,34.180,109.863
1532280306.579,62.012,34.668,35.645,37.109,142.578
1532280306.583,57.617,33.691,38.086,40.527,-50.293
1532280306.587,54.688,32.715,38.086,41.992,-112.793
1532280306.591,51.758,31.250,37.109,44.434,52.246
1532280306.595,45.898,32.715,37.109,52.734,141.602
1532280306.599,43.457,33.691,38.574,54.688,1.953
1532280306.603,42.480,35.645,39.551,57.617,-137.695
1532280306.607,42.480,35.645,40.527,59.570,12.695
1532280306.611,44.922,33.691,39.062,54.688,158.691
1532280306.615,47.852,34.180,38.086,58.105,45.410
1532280306.618,51.758,34.668,40.527,55.664,-104.004
1532280306.622,52.734,37.109,41.992,41.992,-52.734
1532280306.626,52.246,34.668,41.016,50.293,135.742
1532280306.630,52.246,33.203,41.992,55.176,129.395
1532280306.634,52.734,32.715,42.480,44.434,-60.059
1532280306.638,45.410,30.273,41.016,41.504,-79.590
1532280306.642,45.410,30.273,41.016,41.992,104.492
1532280306.646,42.969,32.227,41.992,44.434,154.785
1532280306.650,34.668,35.645,41.992,41.504,-35.156
1532280306.654,36.133,35.156,41.504,43.945,-112.793
1532280306.658,38.086,33.691,42.480,43.945,45.410
1532280306.661,33.203,33.203,45.898,38.574,134.766
1532280306.665,25.879,32.715,44.434,34.180,10.742
1532280306.669,31.250,34.180,42.969,38.574,-120.117
1532280306.673,34.668,36.133,43.457,38.574,-10.254
1532280306.677,35.156,37.109,43.945,40.527,155.273
1532280306.681,36.133,37.109,45.898,41.016,77.148
1532280306.685,33.203,36.621,45.410,35.156,-75.195
1532280306.689,34.668,36.133,45.410,40.527,-30.762
1532280306.693,36.133,37.109,45.410,41.504,115.723
1532280306.697,39.062,39.062,45.898,35.645,123.535
1532280306.701,38.086,40.527,47.363,34.668,-87.891
1532280306.704,32.715,40.527,46.875,35.645,-123.047
1532280306.708,35.645,39.551,46.387,33.691,81.543
1532280306.712,32.227,37.598,45.410,30.273,128.906
1532280306.716,24.902,36.621,45.410,34.668,-21.484
1532280306.720,34.668,37.598,46.875,41.504,-120.117
1532280306.724,33.691,36.133,46.875,40.527,11.719
1532280306.728,33.691,34.180,48.340,39.551,169.922
1532280306.732,37.598,36.133,48.340,47.852,57.617
1532280306.736,34.180,36.621,46.875,49.805,-103.027
1532280306.740,39.062,35.645,47.363,44.434,-21.484
1532280306.743,36.621,35.156,46.387,34.180,138.672
1532280306.747,35.156,33.203,45.410,34.668,91.309
1532280306.751,39.551,33.203,46.387,40.039,-54.688
1532280306.755,39.551,33.203,43.945,34.180,-9.277
1532280306.759,33.203,34.668,40.527,27.832,146.973
1532280306.763,36.133,35.156,42.480,30.273,142.578
1532280306.767,33.203,34.180,43.945,27.344,-2.930
1532280306.771,26.855,36.133,42.969,23.926,-56.641
1532280306.775,30.273,36.133,41.504,33.691,77.148
1532280306.779,33.203,33.691,43.945,38.574,164.062
1532280306.783,36.621,36.621,45.410,34.668,14.160
1532280306.786,35.156,38.086,47.363,37.109,-118.652
1532280306.790,35.645,35.645,49.805,42.969,9.277
1532280306.794,36.621,32.715,50.293,48.828,164.062
1532280306.798,41.016,33.203,51.270,42.480,36.621
1532280306.802,41.992,35.645,48.828,27.344,-142.090
1532280306.806,32.227,34.668,47.852,34.668,-31.738
1532280306.810,29.785,36.621,47.363,37.109,166.504
1532280306.814,27.344,37.598,49.316,29.297,102.539
1532280306.818,24.902,36.133,51.270,32.227,-125.977
1532280306.822,27.832,34.180,47.363,32.715,-102.539
1532280306.826,35.645,33.691,46.387,39.062,128.906
1532280306.829,42.969,32.715,47.363,37.598,142.578
1532280306.833,34.180,28.320,48.340,32.715,-53.223
1532280306.837,25.391,26.367,50.781,31.738,-124.023
1532280306.841,34.668,29.297,49.805,36.621,30.273
1532280306.845,38.574,33.203,43.945,43.457,150.879
1532280306.849,34.668,33.691,42.969,37.109,22.461
1532280306.853,31.738,31.738,47.363,33.691,-86.914
1532280306.857,38.086,30.273,49.805,45.898,6.348
1532280306.861,35.645,30.273,49.316,42.480,116.699
1532280306.865,29.297,31.738,45.410,33.691,45.898
1532280306.868,30.762,32.715,43.457,37.109,-104.492
1532280306.872,24.414,32.715,40.527,29.297,-24.414
1532280306.876,20.996,31.738,39.551,28.809,150.879
1532280306.880,20.020,31.738,41.016,33.691,119.629
1532280306.884,24.414,35.156,38.086,28.320,-81.055
1532280306.888,26.367,34.668,39.551,31.250,-100.586
1532280306.892,19.043,30.762,41.992,33.203,101.074
1532280306.896,23.926,28.809,44.434,33.691,136.230
1532280306.900,40.527,32.227,45.898,34.180,-63.477
1532280306.904,43.457,34.180,41.016,24.902,-131.348
1532280306.908,35.156,31.250,40.527,25.879,36.621
1532280306.911,30.273,30.762,41.504,32.227,166.016
1532280306.915,32.715,32.715,40.527,30.273,48.340
1532280306.919,34.668,31.738,41.016,28.320,-110.840
1532280306.923,31.250,30.762,41.504,33.691,12.207
1532280306.927,29.297,32.227,42.480,32.227,173.340
1532280306.931,29.785,36.621,41.992,31.738,78.125
1532280306.935,35.156,38.086,41.992,40.527,-76.172
1532280306.939,39.551,36.133,43.945,43.945,-50.781
1532280306.943,38.086,34.668,43.457,33.691,117.676
1532280306.947,40.039,34.668,40.039,34.668,145.996
1532280306.951,36.621,33.203,40.039,44.434,-38.574
1532280306.954,35.645,31.738,41.992,45.410,-70.312
1532280306.958,41.016,30.273,42.969,44.434,104.492
1532280306.962,41.016,33.203,38.086,39.062,185.547
1532280306.966,41.016,35.156,38.574,32.715,20.996
1532280306.970,40.039,34.668,43.457,36.621,-115.723
1532280306.974,40.527,37.598,41.992,38.086,61.035
1532280306.978,40.039,37.598,44.434,44.922,184.570
1532280306.982,34.180,34.668,47.852,39.062,20.996
1532280306.986,32.227,29.785,46.387,32.715,-103.027
1532280306.990,34.668,30.762,42.969,40.039,7.324
1532280306.993,33.203,33.691,41.504,36.133,162.598
1532280306.997,27.832,31.250,42.480,26.855,82.031
1532280307.001,25.879,35.156,41.992,31.250,-96.191
1532280307.005,37.109,38.086,42.969,34.668,-60.059
1532280307.009,44.434,35.645,42.969,34.180,117.188
1532280307.013,37.109,35.156,43.457,38.574,118.164
1532280307.017,41.992,37.598,41.992,37.598,-67.871
1532280307.021,46.387,37.598,41.504,30.762,-106.934
1532280307.025,39.551,36.621,40.527,34.180,67.383
1532280307.029,34.180,37.598,40.039,34.180,114.746
1532280307.033,41.016,40.039,37.109,30.273,-21.484
1532280307.036,38.086,37.598,36.621,27.344,-105.957
1532280307.040,25.391,33.691,41.016,23.926,5.371
1532280307.044,18.066,34.180,43.945,29.785,127.441
1532280307.048,12.207,34.180,41.016,34.668,27.344
1532280307.052,12.695,32.715,40.527,35.156,-98.145
1532280307.056,20.508,31.250,41.504,30.762,-25.879
1532280307.060,26.855,33.203,37.598,30.273,126.465
1532280307.064,38.574,37.109,38.086,38.086,80.078
1532280307.068,46.875,38.086,40.039,46.387,-102.539
1532280307.072,47.363,38.574,38.574,44.434,-79.590
1532280307.075,54.199,38.574,40.527,50.781,132.324
1532280307.079,57.617,37.109,40.527,52.734,116.699
1532280307.083,54.688,38.086,37.109,42.480,-74.707
1532280307.087,55.664,38.574,38.086,44.922,-91.797
1532280307.091,60.059,39.551,39.062,53.223,74.707
1532280307.095,60.059,37.598,36.133,55.664,161.621
1532280307.099,50.781,35.645,37.109,51.270,-1.465
1532280307.103,45.898,35.156,40.039,51.270,-113.770
1532280307.107,40.039,36.133,38.086,47.363,25.879
1532280307.111,36.133,37.598,36.621,44.434,165.527
1532280307.115,35.156,37.109,37.109,44.434,64.453
1532280307.118,33.203,38.086,38.574,39.062,-114.746
1532280307.122,30.273,34.668,38.086,35.645,-51.270
1532280307.126,25.391,35.645,35.645,36.133,126.953
1532280307.130,25.879,40.527,33.203,34.668,103.027
1532280307.134,28.320,39.551,34.180,31.738,-62.012
1532280307.138,26.855,38.086,33.691,28.320,-84.961
1532280307.142,29.297,41.016,34.668,27.832,114.746
1532280307.146,31.738,41.992,38.574,34.180,176.758
1532280307.150,30.762,40.527,36.133,30.762,-4.395
1532280307.154,33.203,39.551,35.645,23.926,-106.934
1532280307.158,29.297,39.062,36.133,24.414,11.230
1532280307.161,26.367,40.039,35.156,22.461,131.348
1532280307.165,25.879,39.551,32.715,20.508,30.762
1532280307.169,21.484,39.062,34.180,17.090,-97.656
1532280307.173,22.949,39.551,36.621,16.113,-15.137
1532280307.177,20.508,40.039,37.598,19.531,126.465
1532280307.181,15.137,37.109,34.668,12.695,61.035
1532280307.185,24.414,40.039,37.598,15.625,-76.172
1532280307.189,26.855,43.457,39.551,27.832,-52.734
1532280307.193,25.879,39.062,37.109,29.297,92.285
1532280307.197,33.203,35.156,37.598,30.273,103.027
1532280307.200,38.086,41.992,34.668,35.156,-78.613
1532280307.204,33.203,44.922,36.621,29.297,-107.910
1532280307.208,24.902,40.527,38.086,18.555,93.262
1532280307.212,24.902,42.969,34.668,18.555,178.223
1532280307.216,28.320,45.898,33.203,22.949,6.836
1532280307.220,26.367,45.898,30.273,10.254,-125.977
1532280307.224,19.531,45.410,26.367,0.488,19.043
1532280307.228,24.414,41.992,26.855,11.719,183.105
1532280307.232,26.855,40.039,29.785,17.090,62.012
1532280307.236,25.391,39.062,33.203,18.555,-97.656
1532280307.240,26.367,39.551,38.086,19.043,18.066
1532280307.243,37.109,41.504,37.598,22.461,169.922
1532280307.247,30.273,41.992,34.668,21.973,76.172
1532280307.251,20.508,41.016,30.762,16.113,-73.730
1532280307.255,27.344,40.527,30.273,15.137,-23.438
1532280307.259,22.949,41.504,32.227,11.719,126.953
1532280307.263,23.926,38.086,28.320,5.371,112.793
1532280307.267,21.484,35.156,28.320,4.883,-54.199
1532280307.271,17.578,36.133,29.297,7.324,-86.914
1532280307.275,18.555,34.668,32.715,12.695,96.191
1532280307.279,15.625,34.180,35.156,11.230,172.852
1532280307.283,17.578,32.715,30.762,8.301,18.066
1532280307.286,19.531,29.297,28.809,3.906,-107.422
1532280307.290,6.836,29.785,28.320,4.395,26.855
1532280307.294,11.230,29.785,26.855,10.254,185.547
1532280307.298,18.555,27.344,27.344,8.301,57.129
1532280307.302,13.672,28.809,24.414,4.395,-108.398
1532280307.306,13.184,31.738,21.973,6.836,-4.395
1532280307.310,15.625,31.250,26.367,12.695,151.855
1532280307.314,2.930,28.320,31.250,8.301,69.336
1532280307.318,2.441,25.391,28.809,-1.465,-95.215
1532280307.322,10.254,24.902,26.855,-1.465,-95.703
1532280307.325,2.441,25.879,30.273,23.438,98.145
1532280307.329,12.695,26.855,28.809,19.531,142.578
1532280307.333,12.695,26.855,29.297,12.695,-53.223
1532280307.337,-0.488,20.996,28.809,7.812,-112.305
1532280307.341,5.371,24.414,22.461,1.953,48.340
1532280307.345,10.742,26.855,24.902,18.066,146.484
1532280307.349,8.301,25.391,26.367,19.043,-26.855
1532280307.353,9.277,27.832,22.461,11.719,-145.020
1532280307.357,24.414,28.320,20.508,20.020,4.883
1532280307.361,40.039,30.273,21.484,10.742,125.488
1532280307.365,42.480,30.273,19.531,13.184,35.156
1532280307.368,44.922,29.297,20.508,40.527,-122.070
1532280307.372,41.504,30.762,21.973,39.551,-49.805
1532280307.376,37.598,31.738,20.020,31.738,132.812
1532280307.380,39.551,32.715,19.043,25.879,77.148
1532280307.384,41.504,33.203,19.043,24.902,-124.023
1532280307.388,42.969,32.227,19.531,30.273,-129.395
1532280307.392,45.410,29.297,17.578,28.320,68.359
1532280307.396,48.828,29.297,19.531,27.344,99.609
1532280307.400,46.875,31.250,20.508,13.672,-94.238
1532280307.404,30.762,30.273,21.484,4.395,-171.875
1532280307.407,38.574,28.320,22.949,18.066,0.000
1532280307.411,49.805,28.809,20.996,18.555,110.840
1532280307.415,41.992,30.273,23.438,21.484,-15.137
1532280307.419,46.387,32.227,22.949,23.926,-150.391
1532280307.423,40.527,31.250,20.996,29.297,-35.156
1532280307.427,33.691,32.227,25.391,41.992,154.297
1532280307.431,29.297,33.691,27.832,39.551,76.660
1532280307.435,28.320,32.715,25.879,34.668,-114.746
1532280307.439,23.438,31.738,25.879,36.621,-78.125
1532280307.443,23.926,31.250,28.809,38.086,112.305
1532280307.447,23.438,32.227,27.832,36.621,128.906
1532280307.450,20.508,32.715,27.832,34.180,-68.359
1532280307.454,22.949,30.762,27.344,23.438,-94.238
1532280307.458,20.508,30.762,24.902,14.648,55.664
1532280307.462,29.297,30.762,26.367,18.066,103.516
1532280307.466,24.902,30.762,27.344,23.926,-35.645
1532280307.470,22.949,29.297,23.926,7.812,-130.859
1532280307.474,24.902,30.273,26.367,17.090,30.273
1532280307.478,36.133,31.250,30.273,34.668,144.043
1532280307.482,40.527,32.715,28.809,18.555,1.465
1532280307.486,30.762,33.203,27.344,18.066,-118.164
1532280307.490,33.691,29.297,26.855,23.438,-11.719
1532280307.493,33.203,28.809,27.344,22.949,154.297
1532280307.497,39.062,29.297,30.273,23.438,94.727
1532280307.501,49.805,32.715,35.156,22.461,-114.746
1532280307.505,43.945,39.551,29.785,11.719,-40.527
1532280307.509,39.551,45.410,21.484,8.789,171.875
1532280307.513,35.156,49.805,23.438,8.789,153.320
1532280307.517,20.508,46.875,28.320,-7.324,-34.668
1532280307.521,20.020,43.945,30.762,-13.184,-83.008
1532280307.525,25.391,45.410,28.320,-7.812,90.332
1532280307.529,21.484,46.387,25.879,-12.695,172.363
1532280307.532,13.184,46.875,26.855,-12.207,20.996
1532280307.536,13.672,45.410,30.273,-12.207,-106.445
1532280307.540,22.461,47.852,31.738,-13.672,32.227
1532280307.544,20.020,46.387,27.344,-7.812,167.480
1532280307.548,14.648,42.480,24.414,-8.789,61.523
1532280307.552,15.137,43.457,26.855,-3.906,-70.312
1532280307.556,14.648,44.922,26.367,0.000,18.066
1532280307.560,22.461,45.410,23.438,-13.672,180.176
1532280307.564,27.832,47.363,23.438,-9.766,132.324
1532280307.568,19.531,46.387,20.020,2.441,-69.824
1532280307.572,25.391,41.992,20.020,4.883,-63.965
1532280307.575,24.902,39.551,24.414,14.648,143.555
1532280307.579,25.391,43.945,21.973,16.602,158.691
1532280307.583,27.832,49.316,18.555,19.531,-31.738
1532280307.587,29.297,48.340,18.555,24.414,-92.773
1532280307.591,32.227,45.898,20.508,27.344,76.660
1532280307.595,29.297,48.828,15.137,23.438,200.684
1532280307.599,33.691,50.781,12.207,11.719,12.695
1532280307.603,29.785,49.316,18.066,6.836,-110.352
1532280307.607,17.090,43.457,21.484,7.812,54.688
1532280307.611,15.137,37.598,21.973,10.254,198.730
1532280307.615,23.926,36.621,28.320,10.742,90.332
1532280307.618,15.625,37.109,32.227,1.465,-99.121
1532280307.622,19.043,41.992,29.785,-0.977,-3.418
1532280307.626,22.461,44.434,28.809,2.441,172.852
1532280307.630,14.648,43.945,28.809,-2.930,117.188
1532280307.634,10.254,43.457,30.762,-7.324,-53.711
1532280307.638,1.465,40.039,29.785,-10.742,-69.336
1532280307.642,6.836,41.504,31.738,-4.395,103.027
1532280307.646,20.996,42.969,34.180,-0.977,162.109
1532280307.650,21.973,42.480,35.156,-6.348,0.977
1532280307.654,15.625,44.434,35.645,-6.348,-65.430
1532280307.657,13.672,43.457,34.180,-7.324,86.914
1532280307.661,20.508,42.480,34.180,-0.488,184.082
1532280307.665,22.461,42.969,36.133,6.348,44.434
1532280307.669,19.043,40.039,36.621,0.000,-91.309
1532280307.673,16.113,38.574,34.668,0.488,28.320
1532280307.677,20.508,37.598,36.133,6.348,174.316
1532280307.681,27.344,38.574,38.086,7.324,58.594
1532280307.685,27.832,41.992,33.203,5.859,-111.816
1532280307.689,20.996,41.504,31.250,11.230,-13.184
1532280307.693,18.066,36.621,33.203,11.719,176.270
1532280307.697,20.020,35.645,37.109,7.324,146.484
1532280307.700,20.508,41.016,38.086,13.184,-58.105
1532280307.704,26.855,40.527,36.133,20.996,-42.480
1532280307.708,22.949,33.203,37.598,19.043,151.855
1532280307.712,11.230,29.297,41.016,15.137,181.641
1532280307.716,5.859,25.879,41.992,20.508,9.766
1532280307.720,21.484,26.367,41.504,20.508,-67.383
1532280307.724,30.273,31.738,40.039,21.973,93.262
1532280307.728,16.113,31.250,39.551,24.414,172.363
1532280307.732,12.207,29.785,43.945,20.508,30.273
1532280307.736,12.207,33.203,41.992,15.625,-80.078
1532280307.740,19.043,34.180,37.109,16.602,-12.207
1532280307.743,28.809,31.250,37.109,19.043,137.207
1532280307.747,28.809,28.809,38.086,26.367,93.750
1532280307.751,25.879,29.297,38.086,28.320,-82.520
1532280307.755,27.344,28.320,38.574,25.879,-41.992
1532280307.759,27.344,25.391,37.598,23.926,117.676
1532280307.763,36.621,25.879,37.598,22.461,134.766
1532280307.767,34.668,30.273,39.062,31.250,-41.504
1532280307.771,39.551,32.227,33.691,37.109,-93.262
1532280307.775,46.387,28.809,31.250,31.738,96.680
1532280307.779,35.156,26.367,32.227,31.250,178.223
1532280307.782,31.738,27.832,31.250,34.668,18.555
1532280307.786,36.133,25.879,32.715,39.062,-83.008
1532280307.790,36.133,21.484,31.738,38.086,38.086
1532280307.794,31.250,22.461,30.762,38.086,166.504
1532280307.798,34.180,25.879,34.180,37.109,41.992
1532280307.802,39.062,28.809,34.668,24.414,-136.719
1532280307.806,34.668,25.879,32.227,29.785,-31.250
1532280307.810,39.062,26.855,31.738,41.504,159.180
1532280307.814,41.992,31.738,32.715,39.062,119.629
1532280307.818,38.574,32.227,33.203,29.785,-87.402
1532280307.822,32.227,31.738,30.762,24.414,-98.633
1532280307.825,30.273,31.738,30.273,23.438,112.793
1532280307.829,36.133,34.180,33.203,23.438,160.156
1532280307.833,30.762,36.621,33.691,18.555,-24.414
1532280307.837,29.297,36.621,32.227,20.996,-82.520
1532280307.841,25.879,34.180,35.156,26.367,75.684
1532280307.845,28.320,32.715,33.203,22.461,158.203
1532280307.849,32.715,38.574,30.273,21.973,21.484
1532280307.853,28.809,40.039,34.180,21.973,-108.398
1532280307.857,32.227,33.691,33.691,20.020,25.391
1532280307.861,36.133,36.621,28.320,21.484,163.086
1532280307.864,40.527,40.039,26.367,30.762,67.383
1532280307.868,43.945,39.551,27.832,32.715,-61.035
1532280307.872,44.434,37.109,28.809,35.645,-2.441
1532280307.876,43.945,34.668,27.344,38.574,145.020
1532280307.880,45.410,39.062,28.320,37.109,86.426
1532280307.884,47.852,38.086,29.785,35.156,-99.121
1532280307.888,41.992,33.203,27.344,38.574,-67.871
1532280307.892,41.504,32.715,27.832,37.109,124.512
1532280307.896,51.758,33.203,28.809,42.480,145.996
1532280307.900,47.852,34.668,27.344,48.828,-38.086
1532280307.904,40.527,35.156,24.902,40.527,-101.074
1532280307.907,46.387,32.715,26.855,38.574,71.289
1532280307.911,43.945,32.715,27.832,41.016,159.180
1532280307.915,41.504,34.668,29.297,42.480,15.625
1532280307.919,50.781,34.180,31.250,41.016,-114.258
1532280307.923,49.316,35.156,29.785,38.574,0.488
1532280307.927,46.387,38.574,26.367,38.086,157.715
1532280307.931,48.340,41.016,27.832,33.203,65.430
1532280307.935,42.480,35.645,32.227,31.738,-90.332
1532280307.939,33.203,30.273,32.227,35.156,-20.020
1532280307.943,33.203,29.297,31.250,41.992,152.344
1532280307.947,38.574,29.297,31.738,38.086,129.883
1532280307.950,34.668,29.297,30.762,28.320,-54.199
1532280307.954,33.691,26.855,28.320,28.320,-84.473
1532280307.958,35.156,29.785,29.297,32.227,75.195
1532280307.962,31.738,31.738,26.367,30.762,102.051
1532280307.966,24.902,28.809,24.902,28.809,-34.668
1532280307.970,22.949,29.785,25.879,26.855,-76.660
1532280307.974,25.879,30.273,24.902,30.762,70.312
1532280307.978,29.297,29.297,25.879,31.738,164.551
1532280307.982,35.156,26.855,24.414,29.297,3.418
1532280307.986,38.574,23.438,20.996,33.691,-126.465
1532280307.989,41.016,22.949,20.508,40.039,7.324
1532280307.993,48.828,24.902,20.508,40.039,166.504
1532280307.997,49.316,28.320,19.531,35.645,82.031
1532280308.001,45.898,25.879,15.625,37.109,-89.355
1532280308.005,51.270,22.949,15.625,36.133,-41.992
1532280308.009,45.410,23.438,17.578,28.320,137.207
1532280308.013,40.527,23.438,18.066,29.297,129.395
1532280308.017,39.062,25.391,18.555,26.367,-61.523
1532280308.021,31.738,26.855,14.648,15.625,-96.680
1532280308.025,39.551,27.344,16.113,25.879,121.582
1532280308.029,33.691,25.879,20.996,34.180,202.637
1532280308.032,29.785,25.391,21.484,31.250,7.812
1532280308.036,32.715,27.344,20.020,29.297,-107.910
1532280308.040,40.039,29.297,19.531,29.785,18.066
1532280308.044,44.434,30.762,18.555,28.320,153.320
1532280308.048,35.156,33.203,20.020,25.879,72.266
1532280308.052,26.367,34.180,21.973,28.809,-105.957
1532280308.056,25.879,33.203,20.508,24.902,-31.250
1532280308.060,31.738,36.133,20.996,27.344,139.648
1532280308.064,26.367,34.668,22.949,27.832,84.961
1532280308.068,23.438,29.297,21.484,27.344,-72.266
1532280308.072,23.438,30.273,19.531,26.367,-67.383
1532280308.075,18.066,32.227,20.508,22.949,111.816
1532280308.079,18.066,30.762,22.949,24.902,126.953
1532280308.083,19.043,33.203,27.344,23.438,-47.363
1532280308.087,19.531,34.180,30.762,29.785,-87.891
1532280308.091,34.668,33.203,29.785,37.109,61.523
1532280308.095,35.645,35.645,28.320,31.250,143.555
1532280308.099,30.273,34.180,29.785,31.250,-5.859
1532280308.103,45.410,32.715,30.762,27.832,-140.625
1532280308.107,56.641,35.645,28.809,32.715,30.273
1532280308.111,51.758,40.527,22.949,41.016,202.637
1532280308.114,42.480,41.992,22.949,34.668,76.172
1532280308.118,47.852,40.039,27.344,30.762,-88.379
1532280308.122,47.852,37.598,26.367,37.598,-2.930
1532280308.126,53.223,38.086,23.438,41.992,182.129
1532280308.130,62.500,41.016,26.367,41.504,128.906
1532280308.134,51.758,40.527,24.414,36.621,-55.664
1532280308.138,45.898,35.645,20.996,30.762,-70.801
1532280308.142,41.504,31.250,22.949,28.809,119.629
1532280308.146,37.109,28.809,23.926,24.414,175.293
1532280308.150,41.992,30.273,29.297,24.902,-39.551
1532280308.154,34.668,33.203,32.227,27.344,-127.441
1532280308.157,29.785,30.273,29.785,25.879,35.156
1532280308.161,36.621,28.320,27.832,23.438,116.699
1532280308.165,39.551,31.250,25.879,19.531,-12.695
1532280308.169,35.156,31.250,29.297,24.902,-100.586
1532280308.173,31.250,27.832,31.738,34.180,42.480
1532280308.177,31.250,27.832,31.738,28.809,161.133
1532280308.181,29.297,27.344,30.762,28.809,51.758
1532280308.185,28.320,29.785,32.715,33.691,-92.285
1532280308.189,31.250,29.297,33.691,29.297,-9.766
1532280308.193,32.227,25.879,30.273,36.621,166.992
1532280308.197,37.598,26.855,31.738,39.062,109.863
1532280308.200,37.109,25.391,34.180,31.250,-86.426
1532280308.204,41.016,24.902,36.621,37.109,-84.473
1532280308.208,48.340,26.855,38.574,44.434,93.262
1532280308.212,49.316,25.879,35.156,31.738,149.902
1532280308.216,56.641,24.902,34.180,29.297,-0.977
1532280308.220,62.500,29.297,37.109,37.109,-116.211
1532280308.224,66.406,29.297,39.062,39.551,22.461
1532280308.228,52.734,24.414,36.621,45.898,163.086
1532280308.232,43.945,22.461,36.133,44.922,25.879
1532280308.236,50.781,22.949,41.504,52.734,-125.488
1532280308.239,44.434,24.902,39.062,63.965,-6.348
1532280308.243,44.922,24.414,36.621,64.941,178.711
1532280308.247,47.852,25.879,40.527,59.082,83.496
1532280308.251,46.387,27.832,38.086,51.758,-101.074
1532280308.255,35.156,24.902,38.574,49.316,-30.273
1532280308.259,42.969,21.973,37.598,49.316,121.582
1532280308.263,44.922,20.508,32.227,37.598,110.840
1532280308.267,39.551,20.508,29.785,35.645,-64.453
1532280308.271,42.969,25.879,32.227,41.992,-107.910
1532280308.275,35.645,25.391,33.691,40.039,99.121
1532280308.279,33.203,23.438,30.762,32.715,143.555
1532280308.282,36.133,29.297,30.273,28.320,-32.715
1532280308.286,32.227,32.227,30.273,16.113,-113.770
1532280308.290,17.578,27.832,26.367,14.648,9.766
1532280308.294,19.043,29.297,28.320,29.785,146.484
1532280308.298,37.109,31.738,32.715,28.809,45.410
1532280308.302,33.691,33.203,33.691,24.414,-118.652
1532280308.306,32.715,35.645,36.621,28.809,-1.953
1532280308.310,29.785,31.250,39.551,34.180,191.895
1532280308.314,15.625,23.926,34.668,31.250,102.051
1532280308.318,24.902,23.926,36.621,34.668,-66.406
1532280308.321,31.250,28.809,39.062,35.156,-34.668
1532280308.325,23.926,31.250,34.668,29.785,128.418
1532280308.329,27.344,35.156,30.273,31.250,149.902
1532280308.333,22.461,30.273,28.809,31.250,-47.852
1532280308.337,15.137,32.227,36.621,34.180,-132.324
1532280308.341,14.160,38.574,38.086,24.414,19.043
1532280308.345,20.508,35.645,32.227,16.113,125.977
1532280308.349,30.273,38.086,28.320,17.578,2.930
1532280308.353,30.273,40.527,29.297,20.996,-99.609
1532280308.357,27.344,33.691,28.320,25.391,41.992
1532280308.361,20.508,27.832,26.367,21.973,179.688
1532280308.364,26.855,33.691,27.344,16.602,55.664
1532280308.368,29.297,38.574,25.391,15.137,-124.512
1532280308.372,28.320,35.645,25.391,17.578,-32.227
1532280308.376,39.551,29.785,32.227,24.902,165.039
1532280308.380,40.039,24.902,33.203,30.273,110.840
1532280308.384,30.762,27.832,31.738,29.297,-75.684
1532280308.388,30.273,33.691,27.832,31.738,-73.730
1532280308.392,34.180,31.738,25.391,28.809,98.145
1532280308.396,38.086,34.668,23.438,34.668,143.066
1532280308.400,45.898,40.039,19.531,33.691,-50.293
1532280308.404,41.992,35.645,20.508,37.598,-118.164
1532280308.407,31.738,29.297,22.461,45.898,68.848
1532280308.411,45.898,29.297,22.949,46.387,153.320
1532280308.415,53.223,32.715,23.926,54.199,8.301
1532280308.419,53.711,34.668,21.484,51.270,-127.930
1532280308.423,50.293,29.785,18.555,43.457,-15.625
1532280308.427,41.016,25.391,19.531,37.598,154.297
1532280308.431,46.387,25.391,20.996,43.457,62.500
1532280308.435,52.246,24.902,22.461,55.176,-97.168
1532280308.439,49.316,26.367,21.484,51.270,-56.641
1532280308.443,43.457,27.344,20.996,49.805,124.512
1532280308.446,49.316,25.879,20.508,50.293,115.234
1532280308.450,54.688,27.344,21.484,49.805,-69.824
1532280308.454,50.781,29.785,22.461,50.293,-81.543
1532280308.458,47.852,27.344,20.508,48.828,93.262
1532280308.462,50.293,28.809,26.855,54.199,142.578
1532280308.466,52.246,32.715,31.738,55.176,-14.648
1532280308.470,50.293,33.203,27.344,48.828,-81.543
1532280308.474,54.688,31.250,24.414,51.758,51.270
1532280308.478,53.223,32.227,25.391,52.734,151.855
1532280308.482,45.410,34.180,25.391,46.387,27.344
1532280308.486,43.457,32.715,23.438,40.039,-110.352
1532280308.489,46.387,31.250,27.832,45.898,-18.555
1532280308.493,49.805,33.691,33.691,56.641,124.023
1532280308.497,46.875,30.762,29.785,50.293,73.730
1532280308.501,41.992,26.855,24.902,42.969,-105.469
1532280308.505,38.086,26.855,26.367,33.691,-73.242
1532280308.509,32.715,25.391,27.832,40.039,143.066
1532280308.513,35.156,25.391,32.227,48.340,152.832
1532280308.517,40.039,27.344,31.250,38.574,-50.293
1532280308.521,35.645,31.738,32.715,38.086,-95.215
1532280308.525,33.691,30.762,37.109,47.363,65.918
1532280308.529,31.250,25.879,37.598,43.945,159.180
1532280308.532,27.344,27.832,38.086,43.457,14.160
1532280308.536,19.043,28.809,33.691,48.828,-108.398
1532280308.540,8.789,28.320,31.738,38.086,20.020
1532280308.544,15.137,25.391,33.203,28.320,166.016
1532280308.548,17.090,27.344,37.109,32.227,69.824
1532280308.552,13.184,29.785,34.668,27.832,-80.566
1532280308.556,20.996,29.297,34.180,29.297,-4.883
1532280308.560,24.902,29.297,37.109,34.180,163.086
1532280308.564,28.809,34.668,35.156,30.762,112.793
1532280308.568,36.621,34.180,34.180,38.086,-83.984
1532280308.571,43.945,26.855,31.738,45.410,-53.223
1532280308.575,47.852,32.227,34.668,51.758,157.227
1532280308.579,52.246,35.156,36.133,46.875,144.043
1532280308.583,49.316,30.273,33.203,40.527,-69.336
1532280308.587,45.410,31.738,32.715,49.805,-72.754
1532280308.591,44.922,30.762,34.180,52.246,114.258
1532280308.595,41.016,30.273,35.645,47.363,183.594
1532280308.599,42.480,33.691,34.668,43.945,15.625
1532280308.603,33.691,30.762,30.273,32.715,-105.957
1532280308.607,30.762,26.367,26.367,27.832,23.926
1532280308.611,32.715,27.832,28.320,39.551,171.387
1532280308.614,30.273,30.762,30.762,39.062,85.938
1532280308.618,29.297,28.320,31.250,32.227,-101.562
1532280308.622,27.344,26.367,29.785,31.250,-65.430
1532280308.626,30.762,25.879,29.785,40.039,124.512
1532280308.630,31.738,20.996,30.273,33.691,117.188
1532280308.634,38.574,22.949,28.320,34.180,-30.762
1532280308.638,44.434,25.879,31.250,43.457,-39.062
1532280308.642,35.645,23.926,33.691,35.645,100.098
1532280308.646,34.180,22.461,32.715,35.156,155.273
1532280308.650,31.738,20.996,32.227,33.203,-20.996
1532280308.653,34.668,20.508,34.180,43.457,-81.055
1532280308.657,42.480,20.996,37.109,50.293,85.449
1532280308.661,43.945,28.320,33.203,41.992,177.246
1532280308.665,34.180,35.645,27.344,33.203,25.391
1532280308.669,32.227,37.598,24.902,30.762,-134.766
1532280308.673,33.203,40.527,23.438,27.344,11.230
1532280308.677,24.414,42.480,20.020,18.066,173.828
1532280308.681,30.273,44.434,18.555,20.508,40.039
1532280308.685,34.180,47.363,21.484,28.809,-124.023
1532280308.689,32.227,44.922,21.973,28.320,-18.066
1532280308.693,35.156,42.480,22.461,26.855,163.086
1532280308.696,32.715,41.992,22.461,18.066,122.070
1532280308.700,34.668,40.527,22.461,11.719,-83.496
1532280308.704,36.133,35.645,24.902,16.602,-94.727
1532280308.708,36.133,32.715,30.273,31.250,117.676
1532280308.712,46.875,34.180,29.297,46.387,146.484
1532280308.716,49.805,36.133,25.391,44.434,-40.039
1532280308.720,50.293,39.062,23.926,36.133,-134.766
1532280308.724,45.898,43.945,21.973,32.227,18.555
1532280308.728,37.598,43.457,20.508,34.668,180.176
1532280308.732,37.109,39.551,22.461,34.180,51.270
1532280308.736,39.551,40.527,24.902,33.203,-119.629
1532280308.739,34.668,38.574,24.414,35.645,-32.715
1532280308.743,37.598,35.156,24.414,40.527,140.625
1532280308.747,37.598,35.156,24.902,35.645,74.219
1532280308.751,29.785,36.133,23.438,36.621,-93.262
1532280308.755,36.133,35.645,25.879,37.598,-39.551
1532280308.759,35.645,34.180,26.855,26.855,133.789
1532280308.763,33.203,34.180,25.391,28.809,94.238
1532280308.767,36.133,29.785,26.855,38.574,-67.383
1532280308.771,40.527,27.832,30.762,42.480,-50.781
1532280308.775,42.480,31.250,31.738,44.434,124.512
1532280308.778,43.457,29.785,28.809,40.527,165.527
1532280308.782,37.598,28.809,30.762,36.621,-14.160
1532280308.786,30.273,29.785,33.203,35.645,-83.984
1532280308.790,33.203,31.250,32.227,34.180,48.340
1532280308.794,31.738,32.227,31.250,44.922,163.574
1532280308.798,30.762,31.738,34.180,47.363,54.199
1532280308.802,40.527,29.785,39.062,44.922,-114.258
1532280308.806,38.574,27.344,38.086,46.875,-27.832
1532280308.810,34.668,28.809,34.180,42.480,156.738
1532280308.814,37.109,32.715,37.109,39.551,121.582
1532280308.818,33.691,34.180,36.133,34.668,-51.758
1532280308.821,38.574,39.062,30.762,36.133,-72.754
1532280308.825,42.480,40.527,31.738,37.598,104.980
1532280308.829,35.156,34.180,35.645,27.832,174.316
1532280308.833,26.855,32.227,37.109,18.066,-3.906
1532280308.837,29.297,35.156,35.156,21.484,-89.844
1532280308.841,37.598,36.133,35.645,28.809,85.449
1532280308.845,36.621,31.738,35.645,19.531,181.641
1532280308.849,35.156,32.715,31.738,18.555,9.766
1532280308.853,47.363,39.062,30.762,27.832,-113.281
1532280308.857,49.316,37.598,32.227,29.785,15.625
1532280308.861,38.086,32.715,32.715,21.973,125.000
1532280308.864,34.668,32.227,35.156,24.902,32.227
1532280308.868,29.297,29.785,38.086,30.762,-113.770
1532280308.872,25.391,26.367,35.156,33.203,-38.574
1532280308.876,33.203,28.809,31.738,41.992,159.180
1532280308.880,20.996,29.297,33.203,41.504,95.215
1532280308.884,23.438,28.809,33.203,28.320,-84.961
1532280308.888,33.203,30.762,33.203,30.762,-50.293
1532280308.892,20.508,30.762,34.668,50.293,141.113
1532280308.896,27.344,29.297,35.645,49.316,161.621
1532280308.900,24.902,26.367,37.109,34.668,-40.527
1532280308.903,22.461,29.297,35.156,29.785,-123.535
1532280308.907,27.344,29.785,33.203,34.668,75.195
1532280308.911,25.391,26.855,36.621,34.180,183.594
1532280308.915,30.762,28.320,38.574,34.668,19.531
1532280308.919,25.879,25.879,39.062,39.062,-104.492
1532280308.923,26.855,25.879,38.574,30.273,25.391
1532280308.927,29.785,31.250,29.785,20.996,179.688
1532280308.931,33.203,38.086,23.438,31.250,79.590
1532280308.935,36.133,36.621,26.855,35.156,-70.312
1532280308.939,30.762,32.227,31.738,29.785,-23.438
1532280308.943,33.203,35.156,32.715,37.109,106.934
1532280308.946,37.598,32.715,33.203,41.504,91.797
1532280308.950,44.434,32.227,35.156,41.016,-84.473
1532280308.954,47.852,33.203,34.668,51.270,-66.895
1532280308.958,45.410,30.762,34.668,44.922,117.676
1532280308.962,44.434,31.250,34.668,41.016,137.207
1532280308.966,42.480,32.715,34.668,43.945,19.043
1532280308.970,38.574,30.762,35.156,34.180,-68.848
1532280308.974,42.480,27.344,35.156,28.320,87.891
1532280308.978,31.738,26.855,40.039,30.273,205.566
1532280308.982,23.438,25.879,40.527,26.367,43.457
1532280308.986,19.043,24.902,35.156,17.090,-105.957
1532280308.989,14.160,28.320,30.273,13.184,24.902
1532280308.993,21.973,34.668,30.273,18.555,192.383
1532280308.997,12.207,34.668,27.344,14.648,79.590
1532280309.001,11.230,32.227,25.879,8.301,-121.094
1532280309.005,17.090,32.227,28.809,19.043,-63.965
1532280309.009,15.625,27.832,30.273,31.250,137.207
1532280309.013,25.879,28.809,27.344,25.391,151.855
1532280309.017,20.508,33.203,22.949,18.555,-52.246
1532280309.021,28.320,38.574,22.461,24.902,-95.215
1532280309.025,43.945,39.551,24.414,18.555,107.910
1532280309.028,39.062,35.156,25.391,16.113,182.617
1532280309.032,43.945,36.133,26.367,31.250,3.418
1532280309.036,51.270,40.039,24.902,37.109,-136.719
1532280309.040,42.480,35.645,26.855,38.574,58.594
1532280309.044,29.297,29.297,28.809,43.457,211.914
1532280309.048,32.227,30.762,26.367,45.410,52.734
1532280309.052,23.926,28.320,27.832,35.645,-94.238
1532280309.056,13.672,21.484,31.738,36.133,-8.789
1532280309.060,22.461,20.508,33.203,33.203,125.977
1532280309.064,19.531,28.320,27.832,20.508,73.242
1532280309.068,22.461,35.645,24.414,26.855,-94.238
1532280309.071,25.879,35.156,25.391,34.180,-62.012
1532280309.075,24.414,32.227,26.367,39.551,129.395
1532280309.079,23.438,35.156,27.344,38.086,123.535
1532280309.083,19.531,40.039,25.391,31.738,-52.734
1532280309.087,16.602,40.039,23.926,29.297,-111.328
1532280309.091,11.719,37.109,25.879,26.855,88.867
1532280309.095,15.625,36.133,27.832,30.762,191.406
1532280309.099,20.020,36.621,27.344,27.344,-4.883
1532280309.103,20.996,38.574,26.367,22.461,-130.859
1532280309.107,19.043,40.039,26.855,26.367,36.621
1532280309.110,19.043,39.062,30.273,37.109,181.152
1532280309.114,30.273,35.645,33.203,43.945,48.340
1532280309.118,42.480,35.645,32.227,40.527,-138.184
1532280309.122,41.992,36.621,31.738,40.527,-45.410
1532280309.126,34.668,35.645,32.715,46.387,154.297
1532280309.130,37.598,34.668,33.203,58.105,101.562
1532280309.134,42.969,34.668,33.203,47.363,-77.637
1532280309.138,44.434,36.621,32.227,41.992,-94.238
1532280309.142,34.180,39.551,35.156,45.898,72.754
1532280309.146,31.738,42.969,37.109,39.551,130.371
1532280309.150,42.969,40.527,35.645,46.387,-41.992
1532280309.153,41.504,37.109,37.109,43.457,-132.324
1532280309.157,35.645,37.598,41.016,45.898,9.766
1532280309.161,37.109,37.598,43.457,50.781,147.949
1532280309.165,39.551,35.645,39.551,41.016,30.273
1532280309.169,38.574,36.621,37.598,42.480,-94.727
1532280309.173,32.715,39.062,41.992,53.711,17.578
1532280309.177,32.715,39.551,42.480,48.828,141.113
1532280309.181,24.414,39.062,41.992,34.668,27.832
1532280309.185,21.973,38.574,41.016,38.086,-149.902
1532280309.189,27.344,37.598,38.574,42.969,-58.594
1532280309.193,22.949,37.598,35.645,42.480,150.879
1532280309.196,27.832,39.062,37.109,40.039,132.324
1532280309.200,31.738,37.598,40.039,39.551,-80.078
1532280309.204,40.527,37.109,36.621,45.898,-75.684
1532280309.208,45.898,39.551,34.668,49.805,126.465
1532280309.212,45.898,42.480,35.645,51.270,136.719
1532280309.216,45.410,41.504,34.668,49.805,-38.086
1532280309.220,50.293,40.039,32.227,32.227,-124.023
1532280309.224,43.945,39.551,32.227,38.086,38.086
1532280309.228,37.109,37.598,36.621,49.316,166.504
1532280309.232,35.645,37.598,40.527,37.109,18.555
1532280309.235,30.273,36.621,41.504,30.762,-109.375
1532280309.239,36.133,39.062,38.086,30.762,-3.418
1532280309.243,41.992,43.945,33.203,33.203,144.043
1532280309.247,41.016,41.016,34.180,34.668,71.777
1532280309.251,36.133,40.527,34.668,35.645,-87.402
1532280309.255,35.645,42.969,28.809,34.668,-42.969
1532280309.259,33.203,42.480,26.855,32.715,127.441
1532280309.263,30.762,41.504,29.297,30.762,139.160
1532280309.267,30.762,40.039,29.297,32.227,-43.457
1532280309.271,36.621,39.551,29.785,31.250,-78.125
1532280309.275,40.039,41.016,30.273,36.621,98.145
1532280309.278,32.227,44.434,30.273,33.691,142.578
1532280309.282,28.809,42.480,33.691,22.461,-63.477
1532280309.286,34.668,35.645,35.645,37.109,-118.164
1532280309.290,41.016,36.133,37.598,55.664,94.727
1532280309.294,40.527,41.504,32.227,53.223,193.848
1532280309.298,39.551,40.527,27.344,47.852,61.035
1532280309.302,38.086,40.039,31.738,47.363,-88.867
1532280309.306,32.715,41.016,34.668,50.293,-2.930
1532280309.310,33.691,38.574,33.203,50.293,184.570
1532280309.314,36.133,35.645,31.250,49.805,139.648
1532280309.318,36.133,35.645,32.715,48.340,-67.871
1532280309.321,29.297,36.621,34.668,43.945,-52.734
1532280309.325,27.344,38.574,31.250,46.875,142.090
1532280309.329,21.484,38.086,28.809,43.457,136.230
1532280309.333,20.020,35.645,30.762,41.504,-54.688
1532280309.337,30.273,36.133,29.297,44.434,-101.562
1532280309.341,26.367,36.133,27.832,46.875,85.938
1532280309.345,27.832,36.621,26.855,46.387,188.477
1532280309.349,30.762,38.086,27.344,42.480,12.207
1532280309.353,20.996,40.527,29.785,41.504,-116.699
1532280309.357,17.090,35.645,31.738,39.062,27.832
1532280309.360,13.672,31.250,32.715,32.715,185.059
1532280309.364,13.672,31.738,32.227,34.668,63.965
1532280309.368,17.090,30.762,33.691,37.109,-110.352
1532280309.372,16.113,35.645,34.668,39.062,-27.832
1532280309.376,10.742,33.203,35.156,42.969,169.434
1532280309.380,12.695,27.832,35.645,34.180,99.609
1532280309.384,13.184,29.297,35.156,29.297,-109.375
1532280309.388,13.672,29.785,36.133,37.109,-45.410
1532280309.392,9.766,29.785,35.156,33.691,141.602
1532280309.396,11.719,29.785,34.668,28.320,164.062
1532280309.400,20.508,30.273,32.227,25.391,-42.480
1532280309.403,20.508,33.691,29.297,24.902,-105.957
1532280309.407,20.508,37.109,30.762,30.762,105.469
1532280309.411,14.648,35.645,31.738,29.297,181.641
1532280309.415,17.090,32.715,34.180,24.414,22.461
1532280309.419,18.555,31.738,31.738,20.020,-108.398
1532280309.423,19.531,33.691,30.273,26.367,-15.625
1532280309.427,33.691,37.598,31.738,37.598,158.691
1532280309.431,34.180,37.598,28.320,34.668,99.609
1532280309.435,22.949,36.621,28.809,31.738,-71.777
1532280309.439,24.414,34.668,31.738,37.598,-41.992
1532280309.442,29.785,32.227,32.715,38.086,154.297
1532280309.446,33.691,34.668,30.273,34.180,153.809
1532280309.450,33.691,38.086,27.832,29.297,-38.574
1532280309.454,32.227,37.109,27.344,37.598,-60.059
1532280309.458,24.902,34.180,27.344,41.992,120.117
1532280309.462,21.973,33.203,28.320,27.832,142.578
1532280309.466,25.391,32.227,30.762,31.250,-45.410
1532280309.470,27.832,31.250,28.809,36.621,-109.863
1532280309.474,32.227,32.715,28.320,39.551,82.520
1532280309.478,31.250,33.203,31.250,37.598,179.688
1532280309.482,26.855,30.762,31.250,33.203,15.137
1532280309.485,27.344,29.297,33.203,38.574,-107.910
1532280309.489,26.367,29.785,33.691,33.691,10.254
1532280309.493,29.785,30.762,31.738,30.762,197.266
1532280309.497,30.762,33.691,30.273,34.180,88.867
1532280309.501,28.809,34.668,27.832,31.250,-110.352
1532280309.505,38.086,34.180,27.832,33.691,-44.922
1532280309.509,31.250,33.691,26.367,31.250,131.348
1532280309.513,22.949,31.250,28.320,29.297,106.934
1532280309.517,23.926,30.273,31.738,30.762,-75.684
1532280309.521,22.949,31.250,29.785,26.367,-110.840
1532280309.525,23.926,32.227,28.320,28.809,101.074
1532280309.528,23.926,33.691,28.320,24.414,199.707
1532280309.532,25.879,34.668,27.344,23.926,-10.254
1532280309.536,27.832,35.645,25.879,27.344,-113.770
1532280309.540,23.438,38.086,27.344,25.879,46.875
1532280309.544,18.555,36.133,28.320,30.273,174.316
1532280309.548,19.531,34.668,30.762,35.156,43.457
1532280309.552,22.949,35.645,31.738,29.297,-118.164
1532280309.556,25.879,34.180,33.203,36.621,-10.742
1532280309.560,29.785,35.645,34.180,43.945,145.996
1532280309.564,28.809,37.598,29.297,35.645,83.984
1532280309.567,21.973,38.086,25.391,31.250,-86.426
1532280309.571,21.484,35.156,25.391,31.738,-64.453
1532280309.575,26.367,32.715,26.367,38.574,144.531
1532280309.579,26.855,35.156,30.273,33.691,146.973
1532280309.583,29.785,35.645,32.715,34.668,-61.035
1532280309.587,31.250,34.180,30.273,35.645,-80.566
1532280309.591,32.227,32.715,28.809,33.203,106.445
1532280309.595,31.738,36.133,24.414,32.227,199.707
1532280309.599,36.621,43.945,24.902,28.320,28.320
1532280309.603,37.109,41.016,29.297,28.809,-137.207
1532280309.607,31.738,35.156,31.738,33.203,33.203
1532280309.610,27.344,35.156,32.715,31.250,190.918
1532280309.614,26.855,37.109,34.180,28.809,71.777
1532280309.618,29.785,37.598,32.715,30.762,-109.375
1532280309.622,28.809,34.180,31.250,32.715,-42.480
1532280309.626,27.832,35.156,35.156,38.086,145.508
1532280309.630,32.227,38.086,36.133,38.574,111.816
1532280309.634,35.645,38.574,34.180,38.086,-75.195
1532280309.638,34.180,39.062,32.715,40.039,-91.309
1532280309.642,31.250,40.527,31.738,40.039,101.074
1532280309.646,21.973,39.551,32.715,29.785,161.621
1532280309.650,20.508,35.645,35.645,23.438,-24.902
1532280309.653,22.461,37.598,35.156,31.250,-84.961
1532280309.657,21.973,36.621,34.668,29.297,98.145
1532280309.661,24.902,31.250,37.109,30.762,184.570
1532280309.665,23.926,33.203,37.109,27.344,13.184
1532280309.669,25.879,37.598,34.180,24.414,-107.910
1532280309.673,26.855,37.598,31.250,28.809,51.270
1532280309.677,23.926,37.598,31.738,26.855,196.777
1532280309.681,20.508,38.086,34.668,22.949,51.758
1532280309.685,12.695,36.133,32.227,22.461,-127.441
1532280309.689,18.066,38.086,31.738,29.297,-35.645
1532280309.692,16.602,38.574,37.109,36.621,157.227
1532280309.696,10.742,30.273,38.086,34.180,120.605
1532280309.700,16.602,31.738,38.574,30.762,-78.613
1532280309.704,19.043,36.621,34.180,26.855,-67.383
1532280309.708,18.066,33.691,29.785,29.297,127.441
1532280309.712,16.113,33.691,32.715,32.227,137.207
1532280309.716,14.648,36.621,33.691,28.320,-23.926
1532280309.720,17.090,37.109,34.180,22.461,-105.469
1532280309.724,24.414,38.574,32.715,27.832,43.945
1532280309.728,27.344,39.551,30.762,34.180,174.805
1532280309.732,27.344,38.086,32.715,31.738,38.086
1532280309.735,29.297,35.156,33.203,35.156,-100.586
1532280309.739,30.762,33.691,33.203,34.668,-6.836
1532280309.743,29.297,34.180,34.668,31.250,162.598
1532280309.747,32.715,36.621,32.227,35.156,79.590
1532280309.751,28.809,38.086,31.250,33.203,-113.281
1532280309.755,23.438,35.645,29.297,29.297,-70.312
1532280309.759,34.180,35.645,27.344,30.762,105.469
1532280309.763,37.598,37.109,27.344,29.297,99.609
1532280309.767,31.738,36.621,30.762,26.855,-82.520
1532280309.771,29.785,33.203,34.668,33.203,-113.281
1532280309.775,31.738,30.273,39.551,45.410,112.793
1532280309.778,33.691,30.762,39.062,41.016,182.617
1532280309.782,35.156,36.133,31.250,38.574,-9.277
1532280309.786,41.504,37.109,27.832,40.527,-83.496
1532280309.790,43.945,37.598,26.367,40.527,87.402
1532280309.794,43.457,36.621,27.832,39.062,193.848
1532280309.798,41.992,33.691,32.715,30.273,37.109
1532280309.802,44.434,31.250,35.645,29.297,-125.488
1532280309.806,50.781,28.320,36.133,37.109,-25.879
1532280309.810,45.410,29.297,34.180,39.062,149.902
1532280309.814,40.039,32.227,33.203,38.086,105.469
1532280309.817,37.109,31.250,34.668,40.039,-82.520
1532280309.821,27.832,28.809,33.691,42.969,-82.520
1532280309.825,22.461,29.785,34.668,43.457,123.535
1532280309.829,23.926,30.273,34.180,41.504,150.391
1532280309.833,23.926,29.297,30.762,42.480,-35.645
1532280309.837,19.531,27.344,32.227,45.898,-83.984
1532280309.841,21.484,27.344,33.691,43.945,46.875
1532280309.845,21.484,25.879,33.203,37.598,154.297
1532280309.849,25.391,23.926,35.645,38.574,31.250
1532280309.853,36.621,25.879,32.715,47.852,-102.539
1532280309.857,41.504,30.273,27.344,48.340,31.738
1532280309.860,37.598,32.227,26.367,41.504,169.922
1532280309.864,37.109,30.762,27.344,45.410,66.406
1532280309.868,34.668,31.250,25.879,44.434,-109.375
1532280309.872,29.297,29.785,24.414,39.551,-18.066
1532280309.876,33.203,27.832,22.949,33.203,164.551
1532280309.880,37.109,29.297,23.926,31.738,79.590
1532280309.884,27.344,29.297,26.855,38.574,-104.980
1532280309.888,26.855,27.832,25.391,41.504,-62.500
1532280309.892,39.551,30.273,25.879,40.527,127.441
1532280309.896,30.762,29.297,27.832,38.574,147.949
1532280309.899,21.484,25.391,28.320,35.156,-43.945
1532280309.903,26.367,23.926,27.344,40.039,-102.539
1532280309.907,27.832,22.461,24.902,43.945,76.172
1532280309.911,26.855,25.879,23.926,37.598,162.598
1532280309.915,24.414,29.785,25.391,28.320,13.184
1532280309.919,23.926,29.785,22.949,27.344,-108.398
1532280309.923,26.855,27.344,24.414,34.668,15.137
1532280309.927,24.902,24.902,28.809,31.250,143.066
1532280309.931,21.973,24.414,28.809,26.855,40.039
1532280309.935,18.066,22.461,30.762,26.367,-125.000
1532280309.939,17.578,20.020,31.250,22.949,-53.223
1532280309.942,23.926,21.484,32.227,29.297,137.695
1532280309.946,35.156,22.949,31.250,34.668,116.211
1532280309.950,38.574,22.461,27.344,34.180,-86.426
1532280309.954,39.551,24.414,27.832,37.598,-85.449
1532280309.958,46.875,29.785,28.320,36.133,107.910
1532280309.962,50.781,32.227,27.344,37.598,137.207
1532280309.966,51.758,29.785,27.832,43.945,-37.109
1532280309.970,50.293,29.785,30.762,41.016,-112.305
1532280309.974,44.922,31.250,31.250,38.086,38.086
1532280309.978,41.016,28.320,29.785,38.086,127.930
1532280309.982,41.504,24.902,33.691,36.133,-23.438
1532280309.985,45.410,25.879,35.645,36.621,-132.812
1532280309.989,48.828,25.391,32.715,36.621,13.184
1532280309.993,42.969,28.320,28.809,34.180,184.082
1532280309.997,40.527,32.227,26.367,32.715,100.586
1532280310.001,41.992,32.715,29.785,29.297,-81.055
1532280310.005,43.457,32.227,31.738,33.691,-31.738
1532280310.009,43.457,33.203,29.785,30.762,155.762
1532280310.013,43.457,33.691,30.762,24.902,146.484
1532280310.017,43.457,34.180,33.691,35.156,-66.895
1532280310.021,45.898,33.203,36.133,41.016,-88.379
1532280310.024,52.246,31.250,34.180,36.621,121.094
1532280310.028,40.039,28.809,33.691,30.273,145.508
1532280310.032,32.715,26.855,37.109,33.203,-30.273
1532280310.036,35.156,25.879,40.527,35.645,-100.586
1532280310.040,36.133,25.391,39.551,32.227,6.348
1532280310.044,39.062,26.367,37.109,33.203,131.836
1532280310.048,39.551,32.715,37.598,38.086,54.688
1532280310.052,37.598,30.762,38.086,37.109,-100.098
1532280310.056,35.645,28.320,37.109,35.645,-14.160
1532280310.060,39.551,31.738,35.156,38.574,176.758
1532280310.064,45.410,28.809,34.668,42.969,87.891
1532280310.067,43.457,26.855,34.180,44.434,-117.676
1532280310.071,38.574,27.832,35.156,43.457,-59.082
1532280310.075,38.086,27.832,34.668,47.852,152.832
1532280310.079,39.062,29.297,32.227,42.969,148.438
1532280310.083,42.969,31.738,32.715,37.598,-76.660
1532280310.087,45.410,34.180,30.273,41.016,-120.117
1532280310.091,47.852,35.156,28.320,45.898,73.242
1532280310.095,46.875,32.715,30.273,48.340,153.809
1532280310.099,39.551,31.738,31.738,35.156,0.977
1532280310.103,30.273,32.715,32.715,31.738,-104.004
1532280310.107,28.320,30.273,33.203,43.457,35.645
1532280310.110,37.109,30.273,34.180,46.387,165.527
1532280310.114,44.434,31.738,35.645,48.340,30.762
1532280310.118,35.645,29.785,32.715,41.504,-151.367
1532280310.122,33.691,30.762,33.691,37.109,-68.359
1532280310.126,38.086,33.203,34.180,39.551,129.395
1532280310.130,35.156,33.203,30.273,35.645,89.355
1532280310.134,35.645,32.227,31.250,39.551,-97.656
1532280310.138,30.762,30.762,31.250,45.410,-92.285
1532280310.142,27.344,29.297,30.762,43.945,105.957
1532280310.146,33.203,33.203,32.227,44.434,154.297
1532280310.149,35.645,35.156,28.809,41.016,-42.480
1532280310.153,30.273,34.668,26.855,38.086,-104.492
1532280310.157,30.273,35.156,26.367,41.016,62.500
1532280310.161,32.227,33.203,24.902,39.062,142.578
1532280310.165,32.227,30.762,26.855,35.645,-7.324
1532280310.169,37.109,33.691,28.809,40.527,-125.000
1532280310.173,38.574,34.668,26.367,37.598,34.180
1532280310.177,36.133,35.156,25.391,37.598,180.664
1532280310.181,33.691,37.109,25.879,33.691,52.734
1532280310.185,34.180,37.109,29.785,28.809,-117.676
1532280310.189,36.133,35.156,32.227,34.668,-37.109
1532280310.192,37.109,36.133,32.227,33.203,140.625
1532280310.196,41.016,37.598,38.574,38.574,131.836
1532280310.200,47.363,38.574,42.969,45.898,-71.777
1532280310.204,47.852,41.992,40.039,49.805,-87.402
1532280310.208,48.828,45.898,38.574,48.340,122.559
1532280310.212,50.781,49.316,37.109,40.527,173.828
1532280310.216,53.711,50.781,39.062,41.504,-7.812
1532280310.220,56.641,51.270,40.527,37.598,-123.535
1532280310.224,53.711,50.293,41.016,41.504,-1.953
1532280310.228,50.781,49.805,44.922,54.199,137.207
1532280310.231,50.781,45.898,43.945,54.688,20.996
1532280310.235,51.758,43.945,43.945,58.105,-107.910
1532280310.239,53.223,44.922,45.898,59.570,-5.859
1532280310.243,51.758,44.434,44.434,58.105,147.461
1532280310.247,49.316,45.410,45.898,51.758,64.453
1532280310.251,55.176,48.828,45.898,50.293,-109.375
1532280310.255,57.129,49.316,44.434,54.199,-62.500
1532280310.259,53.223,50.293,43.457,50.781,109.863
1532280310.263,49.316,50.293,43.457,45.898,88.379
1532280310.267,47.363,48.828,44.434,48.340,-89.844
1532280310.271,50.781,49.316,44.434,51.270,-89.355
1532280310.274,45.898,45.410,42.480,54.199,129.395
1532280310.278,44.434,45.898,41.016,47.363,148.438
1532280310.282,49.805,49.316,41.016,45.898,-59.082
1532280310.286,45.898,46.875,42.480,52.734,-132.324
1532280310.290,46.875,45.898,44.434,55.176,31.738
1532280310.294,47.852,45.898,44.434,56.152,170.410
1532280310.298,47.852,45.898,41.504,49.805,28.320
1532280310.302,46.387,45.410,38.574,43.945,-117.188
1532280310.306,46.387,45.898,40.039,49.805,3.418
1532280310.310,48.828,45.410,40.527,52.246,159.668
1532280310.314,45.898,42.480,40.527,48.828,110.352
1532280310.317,48.828,42.480,40.039,43.945,-76.660
1532280310.321,52.734,42.969,37.598,42.480,-86.426
1532280310.325,55.664,41.992,39.062,51.270,138.672
1532280310.329,52.734,41.992,40.527,50.293,160.156
1532280310.333,54.199,41.992,40.527,47.852,-28.809
1532280310.337,55.664,42.969,39.551,51.270,-78.613
1532280310.341,50.781,41.504,39.551,47.363,96.680
1532280310.345,50.781,40.527,39.062,44.922,183.594
1532280310.349,49.316,41.992,40.527,47.852,5.371
1532280310.353,44.922,40.527,41.992,49.316,-98.633
1532280310.356,44.434,42.969,40.527,51.758,57.129
1532280310.360,48.828,43.457,42.969,48.828,168.945
1532280310.364,47.363,42.480,44.922,40.527,52.246
1532280310.368,47.852,43.457,46.387,45.410,-84.961
1532280310.372,48.828,45.410,45.410,50.293,-13.672
1532280310.376,42.480,44.922,47.363,49.316,171.875
1532280310.380,43.945,43.457,48.828,50.293,111.328
1532280310.384,44.922,44.922,46.387,49.805,-95.215
1532280310.388,44.434,46.387,47.852,50.293,-90.820
1532280310.392,43.457,44.922,48.828,46.875,119.141
1532280310.396,45.410,44.434,49.805,44.922,182.617
1532280310.399,43.945,43.945,49.805,43.457,-38.086
1532280310.403,44.922,43.945,51.270,41.504,-140.137
1532280310.407,50.293,44.434,49.805,46.875,72.266
1532280310.411,60.547,46.387,44.434,49.316,174.805
1532280310.415,57.617,45.410,43.457,44.922,21.484
1532280310.419,45.898,44.922,49.316,43.457,-76.660
1532280310.423,45.410,43.945,50.781,47.852,41.016
1532280310.427,44.922,43.945,49.316,47.852,191.895
1532280310.431,49.805,43.945,46.875,46.875,103.516
1532280310.435,56.641,46.875,45.898,48.828,-61.523
1532280310.439,54.199,46.875,46.387,48.828,-4.395
1532280310.442,41.992,40.527,46.387,46.387,153.809
1532280310.446,31.738,40.527,46.387,38.086,92.285
1532280310.450,35.156,41.504,46.387,37.109,-74.219
1532280310.454,43.945,41.504,46.387,42.480,-57.129
1532280310.458,41.016,42.969,45.410,35.645,83.984
1532280310.462,40.039,41.016,47.363,31.250,92.773
1532280310.466,38.574,39.062,50.293,38.574,-71.289
1532280310.470,35.645,36.133,47.363,50.293,-115.723
1532280310.474,36.621,34.668,43.945,51.758,78.613
1532280310.478,33.203,36.621,44.434,44.922,177.246
1532280310.481,31.738,34.180,42.969,43.945,3.906
1532280310.485,37.109,31.738,42.480,42.480,-106.445
1532280310.489,42.969,33.203,40.527,45.410,33.203
1532280310.493,44.922,33.203,38.574,48.828,177.734
1532280310.497,44.922,34.668,39.551,47.363,78.125
1532280310.501,41.504,36.133,35.645,34.180,-132.324
1532280310.505,42.480,34.668,34.180,34.668,-70.801
1532280310.509,42.969,34.668,34.180,47.363,136.719
1532280310.513,45.898,35.645,35.156,49.316,131.348
1532280310.517,46.875,34.180,34.180,47.852,-80.566
1532280310.521,45.898,30.273,32.227,46.387,-110.840
1532280310.524,43.945,28.809,31.250,47.363,98.633
1532280310.528,41.016,28.809,28.809,45.410,140.625
1532280310.532,44.922,29.785,28.809,41.992,-18.066
1532280310.536,49.805,32.715,28.320,39.062,-104.980
1532280310.540,52.246,32.227,27.344,40.527,31.738
1532280310.544,51.270,29.785,26.855,38.086,152.344
1532280310.548,51.758,32.227,28.809,36.621,32.715
1532280310.552,57.129,34.180,30.762,35.645,-107.910
1532280310.556,57.129,33.691,31.250,36.621,1.953
1532280310.560,57.617,32.715,29.785,33.203,156.250
1532280310.564,56.641,32.227,31.250,32.715,74.707
