timestamps,TP9,AF7,AF8,TP10,Right AUX
1532279940.888,55.176,15.625,22.461,57.617,125.977
1532279940.892,48.340,13.184,22.949,56.641,92.285
1532279940.896,50.293,15.137,25.879,55.664,-64.453
1532279940.900,59.570,16.113,26.367,60.547,-16.602
1532279940.904,56.152,14.648,21.484,54.688,174.316
1532279940.908,44.434,13.672,21.973,51.270,142.578
1532279940.912,40.527,12.207,27.832,53.223,-62.988
1532279940.916,46.387,14.648,24.414,48.828,-97.168
1532279940.920,49.805,15.137,20.996,46.875,101.074
1532279940.923,53.223,16.113,24.902,48.340,147.461
1532279940.927,51.270,18.555,25.391,47.852,-48.340
1532279940.931,50.293,19.043,23.438,42.969,-80.566
1532279940.935,51.758,19.043,22.461,44.434,59.570
1532279940.939,48.340,20.508,23.926,46.387,125.977
1532279940.943,44.922,21.973,25.879,39.551,7.812
1532279940.947,44.434,22.949,26.855,41.504,-103.027
1532279940.951,55.176,24.414,27.344,52.246,4.395
1532279940.955,52.734,21.484,27.832,49.316,131.348
1532279940.959,40.039,20.508,26.855,40.527,59.570
1532279940.962,43.457,19.531,26.367,38.574,-84.961
1532279940.966,52.246,22.949,28.809,46.387,-29.297
1532279940.970,52.734,24.414,27.832,52.246,134.766
1532279940.974,47.852,20.996,29.297,51.758,112.793
1532279940.978,37.109,21.484,28.809,40.527,-48.340
1532279940.982,34.668,22.949,26.855,33.691,-85.938
1532279940.986,44.434,23.438,27.344,51.270,75.684
1532279940.990,39.062,20.996,25.879,47.363,150.879
1532279940.994,29.297,20.996,26.367,29.297,-13.672
1532279940.998,34.180,21.484,30.273,33.203,-108.887
1532279941.002,46.875,20.020,29.297,43.945,14.648
1532279941.005,50.781,20.996,27.832,36.133,116.211
1532279941.009,43.945,20.508,28.320,28.809,10.254
1532279941.013,42.480,20.508,29.297,41.504,-107.422
1532279941.017,40.039,21.484,27.832,44.922,-9.766
1532279941.021,39.062,21.973,26.367,44.922,121.582
1532279941.025,45.410,24.902,24.902,41.016,68.848
1532279941.029,41.504,23.926,25.391,41.504,-62.988
1532279941.033,38.574,22.949,25.879,42.480,-17.090
1532279941.037,44.922,24.902,23.438,33.203,159.180
1532279941.041,41.504,23.926,22.461,31.738,156.250
1532279941.045,36.621,23.438,22.461,28.809,-13.672
1532279941.048,39.062,21.973,25.879,32.227,-73.242
1532279941.052,40.039,19.531,31.250,43.945,49.805
1532279941.056,43.945,21.484,27.832,47.852,121.094
1532279941.060,42.969,23.926,22.949,49.316,-17.578
1532279941.064,36.133,22.949,27.344,42.969,-126.953
1532279941.068,37.598,20.508,27.832,31.738,7.812
1532279941.072,38.574,23.926,20.020,30.762,159.180
1532279941.076,44.434,24.414,18.555,34.668,54.688
1532279941.080,50.293,23.438,23.438,44.434,-96.680
1532279941.084,34.668,21.484,25.879,36.133,-26.367
1532279941.087,29.297,18.066,29.297,30.273,130.859
1532279941.091,35.156,21.484,27.344,38.086,109.375
1532279941.095,41.504,24.414,26.855,42.480,-52.246
1532279941.099,47.852,22.949,31.250,50.293,-49.316
1532279941.103,45.410,21.484,31.738,41.504,112.793
1532279941.107,47.852,23.438,31.738,37.598,114.746
1532279941.111,52.734,24.902,30.273,43.945,-35.156
1532279941.115,55.176,22.949,29.785,42.480,-84.473
1532279941.119,50.781,20.508,31.250,38.574,54.688
1532279941.123,41.016,19.043,31.738,29.785,120.605
1532279941.127,47.363,19.531,31.738,31.250,20.996
1532279941.130,46.387,22.461,30.273,38.574,-73.242
1532279941.134,37.598,23.438,29.297,47.852,13.672
1532279941.138,41.504,24.414,30.762,55.664,149.414
1532279941.142,29.785,24.414,30.273,42.969,38.574
1532279941.146,28.809,22.461,30.762,45.898,-110.352
1532279941.150,47.363,20.996,34.668,66.895,-20.996
1532279941.154,49.805,20.020,35.645,59.570,142.090
1532279941.158,38.574,19.531,35.645,46.387,116.211
1532279941.162,27.832,20.508,35.156,45.410,-70.312
1532279941.166,32.227,18.066,31.738,42.969,-81.055
1532279941.170,42.969,19.531,28.809,42.480,110.840
1532279941.173,45.410,24.414,26.855,46.387,149.414
1532279941.177,36.133,24.902,26.855,40.527,-3.418
1532279941.181,37.109,24.902,29.785,41.016,-77.148
1532279941.185,42.480,26.367,33.203,52.246,65.918
1532279941.189,47.852,26.855,34.668,54.688,177.246
1532279941.193,49.805,23.438,32.715,44.922,40.527
1532279941.197,41.992,21.484,31.738,46.387,-86.426
1532279941.201,40.039,20.508,34.180,51.758,18.555
1532279941.205,43.457,21.973,32.715,46.387,138.184
1532279941.209,43.945,24.902,27.344,41.016,79.590
1532279941.212,34.180,23.438,26.855,34.668,-46.387
1532279941.216,35.156,23.438,27.344,31.738,-25.391
1532279941.220,38.574,23.926,25.391,42.480,149.902
1532279941.224,29.297,20.508,26.855,45.898,129.883
1532279941.228,36.621,21.973,26.367,38.574,-59.082
1532279941.232,45.410,26.367,22.461,47.363,-71.289
1532279941.236,41.992,22.949,25.391,59.570,91.797
1532279941.240,36.621,18.555,30.762,50.781,130.371
1532279941.244,35.645,18.555,27.344,39.551,-29.297
1532279941.248,44.434,20.508,25.879,47.852,-93.262
1532279941.252,56.641,20.508,28.809,57.617,61.523
1532279941.255,58.105,19.043,30.273,53.711,163.086
1532279941.259,53.223,18.555,31.250,57.129,60.547
1532279941.263,45.898,17.578,31.250,48.340,-78.125
1532279941.267,37.598,17.090,29.785,40.527,4.883
1532279941.271,39.551,19.043,30.762,49.316,159.180
1532279941.275,45.410,21.484,30.762,55.176,88.379
1532279941.279,48.828,21.484,29.297,59.082,-63.477
1532279941.283,42.969,19.531,30.273,47.852,-59.082
1532279941.287,36.133,17.578,32.227,44.434,120.605
1532279941.291,34.180,18.555,30.762,48.340,144.531
1532279941.295,32.227,17.090,29.785,36.133,-34.180
1532279941.298,35.645,14.648,28.320,38.574,-71.777
1532279941.302,42.969,19.531,25.879,42.969,45.410
1532279941.306,47.852,21.973,26.367,43.457,122.559
1532279941.310,54.688,19.043,26.855,45.898,0.977
1532279941.314,52.246,14.648,27.344,55.664,-90.820
1532279941.318,42.969,14.648,24.414,55.176,42.480
1532279941.322,43.945,14.648,23.438,51.758,145.020
1532279941.326,45.898,10.254,26.367,60.547,49.805
1532279941.330,46.875,12.695,24.414,58.594,-102.539
1532279941.334,52.734,15.625,19.043,46.387,-44.434
1532279941.337,62.012,16.602,15.625,52.246,142.578
1532279941.341,59.570,16.113,16.113,62.500,98.633
1532279941.345,59.570,16.113,16.113,54.199,-122.559
1532279941.349,61.523,13.184,16.602,52.246,-100.586
1532279941.353,57.129,10.742,15.625,58.105,84.473
1532279941.357,56.641,11.230,14.648,51.758,135.742
1532279941.361,63.477,9.277,16.113,56.152,-9.277
1532279941.365,75.195,10.254,17.578,65.918,-89.844
1532279941.369,64.453,10.254,16.113,66.406,76.172
1532279941.373,57.129,10.254,12.695,64.453,170.898
1532279941.377,67.383,15.137,15.625,58.105,20.996
1532279941.380,60.547,12.695,17.578,60.059,-70.801
1532279941.384,54.199,13.672,19.043,66.406,21.973
1532279941.388,48.828,15.625,21.973,63.965,124.023
1532279941.392,51.270,17.090,20.020,59.570,69.824
1532279941.396,61.523,19.531,18.555,59.082,-68.848
1532279941.400,55.664,18.066,20.020,66.406,-26.855
1532279941.404,50.293,16.602,20.508,67.871,155.273
1532279941.408,53.711,18.555,17.090,56.152,135.742
1532279941.412,52.246,20.996,17.578,49.805,-42.969
1532279941.416,48.828,20.020,20.020,48.828,-39.062
1532279941.419,49.316,18.066,17.578,44.922,104.004
1532279941.423,48.340,19.043,18.066,45.898,136.230
1532279941.427,41.504,18.066,18.066,34.668,-23.926
1532279941.431,45.410,17.578,18.555,28.809,-76.172
1532279941.435,53.711,18.066,23.926,46.875,60.059
1532279941.439,52.734,17.578,26.855,51.758,164.551
1532279941.443,42.480,19.531,26.367,39.551,60.059
1532279941.447,44.434,20.508,26.855,43.945,-78.613
1532279941.451,41.504,18.066,26.367,43.457,33.203
1532279941.455,32.715,16.113,22.461,39.062,159.180
1532279941.459,37.109,15.137,21.484,41.504,84.473
1532279941.462,41.016,13.184,25.391,42.480,-67.871
1532279941.466,40.527,15.137,24.902,44.922,-45.410
1532279941.470,37.109,15.137,23.438,35.645,118.652
1532279941.474,37.109,15.137,27.344,38.086,118.164
1532279941.478,45.898,21.973,26.855,41.016,-73.730
1532279941.482,43.457,25.391,21.484,35.156,-91.797
1532279941.486,33.691,23.926,26.855,30.762,72.754
1532279941.490,32.715,25.391,33.203,30.273,110.840
1532279941.494,24.902,22.461,30.762,40.039,-8.789
1532279941.498,26.367,21.484,28.809,41.504,-94.727
1532279941.502,40.039,25.391,27.832,34.668,24.414
1532279941.505,38.574,21.973,29.785,37.109,156.250
1532279941.509,28.320,19.531,30.273,36.621,54.199
1532279941.513,36.133,25.391,27.832,34.668,-89.844
1532279941.517,42.480,27.344,27.832,34.668,-13.184
1532279941.521,29.297,24.902,23.438,26.855,144.531
1532279941.525,25.391,25.879,25.391,30.273,82.031
1532279941.529,36.133,27.344,24.902,28.809,-94.238
1532279941.533,41.016,25.879,19.531,27.344,-82.031
1532279941.537,38.574,25.391,22.949,38.574,99.121
1532279941.541,26.855,25.391,25.391,30.273,121.094
1532279941.544,23.438,24.902,24.902,9.766,-67.383
1532279941.548,24.902,21.973,25.391,18.555,-103.027
1532279941.552,31.250,22.461,22.949,35.156,83.008
1532279941.556,32.715,21.484,25.391,30.762,137.695
1532279941.560,25.391,19.531,31.250,32.715,0.977
1532279941.564,33.691,21.484,28.809,36.133,-82.031
1532279941.568,38.574,21.973,27.344,43.945,25.391
1532279941.572,34.668,23.926,23.926,34.180,148.438
1532279941.576,30.762,23.438,23.438,24.414,60.547
1532279941.580,29.785,20.996,26.855,29.785,-89.355
1532279941.584,39.062,24.414,27.832,37.109,-1.953
1532279941.587,51.270,25.879,27.832,55.664,134.277
1532279941.591,44.922,23.438,24.414,46.387,85.938
1532279941.595,28.320,21.484,22.461,22.461,-73.242
1532279941.599,25.391,21.973,21.973,19.531,-81.543
1532279941.603,26.855,24.902,24.414,22.461,93.262
1532279941.607,22.461,23.926,27.344,29.785,130.371
1532279941.611,29.297,24.902,25.391,25.879,-17.578
1532279941.615,34.180,26.855,21.484,26.855,-69.824
1532279941.619,37.598,23.438,23.926,34.180,79.102
1532279941.623,38.086,23.438,28.320,26.367,164.062
1532279941.627,34.180,22.461,27.344,29.297,-0.977
1532279941.630,31.738,19.043,23.926,30.762,-124.512
1532279941.634,32.715,20.996,23.926,25.391,27.832
1532279941.638,33.691,22.461,25.879,35.156,189.453
1532279941.642,35.156,21.484,27.832,37.598,55.176
1532279941.646,39.062,23.438,25.879,28.320,-104.004
1532279941.650,40.527,23.438,25.879,24.902,-26.855
1532279941.654,40.039,22.949,27.344,27.832,133.789
1532279941.658,39.551,21.484,28.320,32.715,112.793
1532279941.662,39.062,20.508,29.785,38.086,-52.246
1532279941.666,38.086,22.949,27.832,39.062,-85.938
1532279941.669,37.598,24.902,26.855,30.762,77.148
1532279941.673,33.691,22.461,26.367,26.367,159.180
1532279941.677,23.926,19.531,25.391,23.926,8.789
1532279941.681,30.273,18.555,22.949,32.227,-85.449
1532279941.685,40.039,19.531,20.020,35.156,56.641
1532279941.689,44.434,17.578,20.508,40.039,173.828
1532279941.693,41.504,20.508,20.996,39.551,39.062
1532279941.697,38.574,22.461,23.438,33.203,-112.305
1532279941.701,38.574,17.090,25.391,42.969,-4.395
1532279941.705,47.363,20.020,20.508,40.527,129.883
1532279941.709,43.945,21.973,18.555,37.598,46.875
1532279941.712,40.039,20.020,23.438,53.223,-85.938
1532279941.716,47.363,20.996,24.414,48.828,-44.922
1532279941.720,36.133,18.066,22.461,31.738,126.465
1532279941.724,24.902,14.160,22.461,20.996,75.684
1532279941.728,21.973,14.648,24.414,17.578,-104.980
1532279941.732,22.949,15.625,26.367,27.344,-81.055
1532279941.736,36.133,15.137,26.367,42.480,99.121
1532279941.740,37.598,15.625,24.902,48.828,160.156
1532279941.744,36.621,17.090,21.484,31.738,-40.527
1532279941.748,37.109,16.113,19.531,26.855,-130.371
1532279941.751,37.109,17.090,20.508,41.504,14.648
1532279941.755,43.945,19.531,20.020,46.875,126.953
1532279941.759,32.715,20.020,21.484,36.621,51.270
1532279941.763,25.391,19.531,23.438,34.668,-94.238
1532279941.767,34.180,18.555,24.902,38.086,-26.367
1532279941.771,45.898,19.043,22.461,26.367,155.762
1532279941.775,51.270,21.973,24.414,29.785,79.590
1532279941.779,36.621,21.973,28.809,39.551,-94.238
1532279941.783,26.367,18.555,29.297,36.621,-65.918
1532279941.787,35.645,19.531,27.832,42.480,91.797
1532279941.791,41.504,21.973,26.855,42.969,119.629
1532279941.794,41.992,22.949,26.367,41.992,-40.527
1532279941.798,39.551,22.949,25.391,43.945,-79.102
1532279941.802,29.785,19.531,25.879,40.527,65.918
1532279941.806,43.457,22.461,26.367,31.250,130.371
1532279941.810,49.316,26.367,25.391,29.785,26.367
1532279941.814,46.875,24.902,26.855,44.922,-70.801
1532279941.818,39.551,23.926,29.785,34.668,55.176
1532279941.822,24.902,24.414,31.250,30.762,184.570
1532279941.826,25.391,25.879,28.320,28.809,68.359
1532279941.830,40.039,25.391,27.832,23.438,-69.336
1532279941.834,42.969,24.414,29.785,39.551,0.488
1532279941.837,38.086,26.367,25.391,42.969,153.809
1532279941.841,23.926,27.832,22.949,20.996,108.887
1532279941.845,17.090,25.391,29.297,18.555,-67.383
1532279941.849,26.367,22.461,32.227,35.645,-44.434
1532279941.853,33.203,21.973,31.250,36.621,115.234
1532279941.857,30.273,20.996,31.738,23.438,133.789
1532279941.861,35.156,19.531,32.227,39.062,-4.395
1532279941.865,45.898,19.531,33.203,52.246,-88.867
1532279941.869,39.551,19.531,30.273,32.227,66.406
1532279941.873,41.992,23.438,27.344,19.043,174.805
1532279941.876,62.988,28.320,25.879,33.691,31.250
1532279941.880,65.430,27.832,27.344,43.457,-94.238
1532279941.884,53.711,26.855,27.832,33.203,3.418
1532279941.888,47.852,24.414,26.367,32.715,155.762
1532279941.892,41.992,23.926,26.855,33.203,75.684
1532279941.896,47.363,23.926,29.785,41.992,-71.777
1532279941.900,49.805,21.484,31.250,64.453,-6.348
1532279941.904,37.598,19.043,29.297,65.430,112.305
1532279941.908,29.297,19.531,26.855,41.016,66.895
1532279941.912,27.832,21.484,24.414,36.621,-64.941
1532279941.916,24.902,20.020,23.926,45.410,-50.781
1532279941.919,26.855,18.066,24.902,46.387,108.398
1532279941.923,39.062,19.531,26.367,49.316,122.070
1532279941.927,50.781,23.926,29.297,48.828,2.441
1532279941.931,41.016,22.461,29.297,45.410,-41.992
1532279941.935,29.297,18.555,28.809,45.410,61.523
1532279941.939,29.785,17.578,29.785,42.969,154.785
1532279941.943,35.156,18.066,29.785,43.945,21.484
1532279941.947,40.527,20.020,28.320,32.227,-127.930
1532279941.951,40.039,17.578,28.809,42.480,2.930
1532279941.955,39.062,18.066,28.320,46.387,162.109
1532279941.959,33.691,19.043,23.438,26.367,90.332
1532279941.962,35.156,20.508,25.391,31.250,-80.566
1532279941.966,42.480,20.508,28.320,47.363,-43.945
1532279941.970,38.086,16.602,28.809,50.781,125.000
1532279941.974,37.109,16.602,28.320,40.527,132.324
1532279941.978,38.086,18.066,29.297,33.203,-29.297
1532279941.982,39.062,19.043,28.809,33.203,-62.012
1532279941.986,48.828,21.973,30.273,44.434,92.773
1532279941.990,46.875,20.020,32.227,52.734,135.742
1532279941.994,47.852,19.531,31.738,54.199,-9.277
1532279941.998,49.316,20.508,32.715,55.664,-75.195
1532279942.001,49.805,20.508,31.250,49.316,30.273
1532279942.005,55.176,20.508,29.785,51.270,117.188
1532279942.009,44.922,21.973,29.297,43.457,5.859
1532279942.013,41.992,24.414,29.297,26.367,-107.422
1532279942.017,47.852,24.902,29.785,34.180,-7.324
1532279942.021,46.875,26.367,30.273,35.156,153.809
1532279942.025,46.387,24.902,30.762,30.762,99.609
1532279942.029,43.457,22.461,28.809,44.922,-45.410
1532279942.033,42.969,25.391,21.973,33.691,-17.578
1532279942.037,52.734,27.344,21.973,38.086,124.512
1532279942.041,50.781,22.949,28.809,54.688,145.508
1532279942.044,48.828,20.020,29.297,39.062,-44.434
1532279942.048,48.340,19.043,22.949,32.227,-108.398
1532279942.052,47.852,18.555,18.555,41.992,63.477
1532279942.056,58.594,20.996,22.461,47.852,160.156
1532279942.060,59.082,19.043,27.344,52.246,43.945
1532279942.064,55.176,15.137,28.809,58.594,-73.242
1532279942.068,58.105,15.137,26.855,64.453,9.277
1532279942.072,57.617,14.648,23.926,62.988,142.578
1532279942.076,53.711,9.766,24.414,72.754,84.961
1532279942.080,54.688,7.324,27.832,74.219,-95.215
1532279942.083,65.430,12.207,25.391,56.152,-62.500
1532279942.087,69.336,11.719,25.879,58.105,114.258
1532279942.091,67.383,8.789,28.809,66.895,107.910
1532279942.095,68.848,12.207,27.344,65.430,-50.293
1532279942.099,56.641,9.766,30.273,69.336,-60.059
1532279942.103,42.969,5.371,33.691,60.059,97.656
1532279942.107,50.781,7.812,31.250,48.828,119.141
1532279942.111,63.477,11.230,30.762,58.105,-41.504
1532279942.115,58.594,10.742,33.203,51.270,-93.750
1532279942.119,53.223,12.207,34.668,39.551,46.387
1532279942.123,48.340,14.160,37.598,42.969,137.695
1532279942.126,46.387,13.184,40.527,44.922,6.348
1532279942.130,40.039,11.719,38.574,40.039,-115.723
1532279942.134,28.809,10.742,38.086,39.062,21.973
1532279942.138,39.551,14.648,37.109,45.898,178.711
1532279942.142,45.898,14.648,37.109,46.875,63.965
1532279942.146,32.715,11.719,39.551,42.480,-128.418
1532279942.150,33.691,15.625,37.109,28.809,-73.730
1532279942.154,37.109,20.020,34.668,25.879,112.305
1532279942.158,16.602,17.578,35.645,24.902,104.980
1532279942.162,15.625,17.090,37.598,25.879,-59.570
1532279942.166,26.855,20.508,37.109,32.715,-94.238
1532279942.169,29.785,19.043,35.645,37.598,94.727
1532279942.173,25.391,16.602,37.598,21.484,143.555
1532279942.177,26.367,16.602,42.480,20.996,-51.270
1532279942.181,34.180,16.113,44.434,42.969,-119.141
1532279942.185,34.668,19.043,39.551,37.109,-10.254
1532279942.189,26.367,19.043,36.133,23.926,123.047
1532279942.193,20.996,19.531,35.156,25.391,80.566
1532279942.197,27.832,21.484,32.715,26.367,-55.176
1532279942.201,29.297,20.020,29.297,33.691,39.551
1532279942.205,23.926,19.531,28.809,35.645,175.293
1532279942.208,20.996,19.043,29.297,26.367,81.055
1532279942.212,24.414,17.578,30.273,30.273,-66.406
1532279942.216,33.203,20.508,30.273,33.203,-24.414
1532279942.220,29.297,21.484,27.344,30.273,151.855
1532279942.224,31.738,20.020,28.809,22.949,120.605
1532279942.228,41.016,23.438,28.320,17.578,-82.031
1532279942.232,37.109,25.879,26.855,11.230,-71.777
1532279942.236,28.809,22.949,28.320,15.625,110.352
1532279942.240,25.391,20.020,31.250,26.855,162.598
1532279942.244,18.066,19.531,32.715,20.996,9.766
1532279942.248,16.113,15.625,33.203,21.973,-83.008
1532279942.251,20.020,14.160,35.156,23.926,43.945
1532279942.255,13.672,15.137,36.133,18.555,159.180
1532279942.259,11.719,15.625,29.785,1.465,52.246
1532279942.263,20.996,15.625,29.785,2.441,-86.914
1532279942.267,22.461,15.625,29.785,8.301,-14.160
1532279942.271,23.926,16.602,26.367,2.930,148.926
1532279942.275,29.297,18.066,24.902,8.301,110.352
1532279942.279,22.949,18.066,23.438,5.371,-80.078
1532279942.283,26.367,20.020,21.484,-1.953,-88.379
1532279942.287,36.133,27.344,18.066,1.953,75.684
1532279942.291,20.996,26.855,15.625,-6.836,122.559
1532279942.294,9.766,21.484,19.043,-19.531,-47.852
1532279942.298,26.855,20.508,20.996,-14.648,-104.492
1532279942.302,31.250,17.090,19.531,-2.441,54.688
1532279942.306,35.645,19.531,16.113,4.883,131.836
1532279942.310,30.273,20.020,16.113,-3.418,5.371
1532279942.314,19.043,16.602,19.531,-0.977,-93.262
1532279942.318,20.508,17.090,20.508,11.719,39.062
1532279942.322,23.438,16.113,20.996,9.277,145.508
1532279942.326,42.969,22.461,17.090,7.324,18.066
1532279942.330,46.875,26.367,14.160,5.859,-124.023
1532279942.333,32.715,22.461,17.578,4.395,-50.781
1532279942.337,29.297,24.902,13.184,0.000,107.422
1532279942.341,26.855,24.414,13.184,-7.324,89.355
1532279942.345,28.809,21.973,18.066,0.977,-85.449
1532279942.349,37.598,23.926,17.578,7.812,-78.125
1532279942.353,32.227,24.414,19.043,2.441,117.188
1532279942.357,28.320,26.855,18.555,-5.859,127.441
1532279942.361,39.062,27.832,18.066,0.977,-48.828
1532279942.365,41.016,29.297,19.531,7.324,-128.906
1532279942.369,43.457,29.785,18.555,13.672,40.039
1532279942.373,43.457,25.391,20.508,20.996,184.570
1532279942.376,43.457,23.926,24.414,26.367,30.273
1532279942.380,37.109,21.973,26.367,40.527,-140.137
1532279942.384,35.645,23.926,22.949,32.715,-30.762
1532279942.388,44.434,27.832,22.949,22.949,135.254
1532279942.392,42.480,29.785,25.391,14.160,62.012
1532279942.396,34.180,28.320,23.926,6.836,-106.445
1532279942.400,37.109,25.879,22.461,23.926,-63.965
1532279942.404,38.574,25.879,22.949,34.668,127.930
1532279942.408,27.344,23.438,25.391,24.902,106.934
1532279942.412,33.203,24.414,23.438,19.531,-67.871
1532279942.415,37.109,26.367,24.414,26.367,-71.777
1532279942.419,35.156,23.926,28.320,30.762,94.727
1532279942.423,37.598,24.902,27.344,32.227,128.906
1532279942.427,40.527,28.809,26.367,24.902,-56.641
1532279942.431,46.875,29.785,26.367,28.809,-121.094
1532279942.435,42.480,28.809,23.926,35.156,36.133
1532279942.439,30.762,30.273,19.531,30.762,177.246
1532279942.443,26.855,30.762,18.555,20.508,42.480
1532279942.447,28.809,28.809,21.973,21.484,-111.328
1532279942.451,30.762,26.367,20.996,23.438,7.812
1532279942.455,38.574,25.879,20.508,32.227,164.062
1532279942.458,42.969,30.273,21.973,45.898,83.984
1532279942.462,40.527,34.668,21.973,42.969,-92.285
1532279942.466,39.062,32.227,22.461,39.062,-76.172
1532279942.470,36.133,31.250,22.461,36.621,112.793
1532279942.474,35.156,33.203,20.508,31.250,153.320
1532279942.478,39.551,32.715,18.066,27.344,-12.695
1532279942.482,43.457,32.227,20.020,31.738,-83.008
1532279942.486,41.992,31.250,23.926,39.551,71.289
1532279942.490,49.316,30.762,22.949,40.039,168.945
1532279942.494,54.688,32.715,19.531,33.691,10.254
1532279942.498,47.363,30.762,19.043,34.668,-116.211
1532279942.501,47.852,29.785,17.578,37.598,34.668
1532279942.505,44.922,28.320,19.043,36.133,160.645
1532279942.509,44.434,29.297,20.996,33.691,56.152
1532279942.513,49.316,29.297,23.438,38.574,-74.219
1532279942.517,45.410,26.367,24.414,43.945,-0.488
1532279942.521,42.969,23.926,25.879,47.852,152.344
1532279942.525,41.504,23.926,28.320,46.387,79.102
1532279942.529,45.410,29.785,26.855,41.992,-67.383
1532279942.533,42.969,29.785,26.367,44.922,-19.531
1532279942.537,40.039,27.344,27.832,47.852,148.926
1532279942.540,48.340,28.320,25.879,46.875,149.414
1532279942.544,49.805,30.762,22.461,37.598,-34.668
1532279942.548,41.992,32.715,23.438,34.668,-94.727
1532279942.552,35.645,31.738,25.879,41.992,73.730
1532279942.556,40.527,26.855,32.227,45.898,190.430
1532279942.560,36.133,24.414,33.691,41.992,47.363
1532279942.564,39.062,30.762,31.250,35.645,-88.867
1532279942.568,43.945,34.180,33.691,38.574,41.992
1532279942.572,40.527,36.621,28.320,31.738,207.031
1532279942.576,40.039,38.574,27.344,32.227,102.539
1532279942.580,37.598,36.133,29.785,33.203,-73.730
1532279942.583,36.133,31.738,29.297,30.762,-25.391
1532279942.587,33.203,27.832,30.762,33.691,153.809
1532279942.591,32.227,30.273,32.227,37.109,139.648
1532279942.595,36.133,30.762,29.785,33.691,-28.809
1532279942.599,41.504,31.738,24.414,37.109,-9.766
1532279942.603,41.992,30.273,26.367,44.434,139.160
1532279942.607,37.109,23.438,35.156,45.410,137.695
1532279942.611,36.133,20.996,33.203,45.410,-8.789
1532279942.615,39.551,20.996,27.832,37.109,-51.758
1532279942.619,43.945,20.508,26.855,46.875,108.398
1532279942.623,48.828,20.996,24.902,56.152,187.988
1532279942.626,48.340,21.484,24.414,42.969,62.012
1532279942.630,42.969,20.020,26.367,44.922,-57.617
1532279942.634,49.805,19.531,25.879,52.246,56.152
1532279942.638,54.199,20.508,23.926,50.781,214.844
1532279942.642,53.223,20.020,25.391,52.246,94.727
1532279942.646,48.828,20.020,25.391,45.410,-84.961
1532279942.650,44.434,20.508,22.949,43.457,-13.184
1532279942.654,42.969,19.531,21.484,42.480,176.270
1532279942.658,49.805,18.555,20.996,43.457,147.461
1532279942.662,60.059,21.484,18.555,41.504,-50.293
1532279942.665,61.035,27.344,16.113,39.062,-66.895
1532279942.669,61.523,26.855,19.531,44.922,127.441
1532279942.673,63.477,26.855,21.973,39.062,176.270
1532279942.677,60.059,26.855,23.926,36.133,-14.160
1532279942.681,54.199,26.855,23.926,46.875,-90.820
1532279942.685,45.410,22.949,25.879,55.176,75.195
1532279942.689,44.922,21.973,28.809,57.617,174.316
1532279942.693,43.457,24.902,27.344,52.246,41.504
1532279942.697,40.039,24.902,25.879,48.340,-90.332
1532279942.701,47.363,27.832,28.809,52.246,9.277
1532279942.705,46.387,29.297,35.645,56.152,133.789
1532279942.708,42.480,26.855,33.691,50.781,42.969
1532279942.712,42.969,26.367,31.250,51.758,-74.219
1532279942.716,42.969,27.344,34.668,51.758,3.418
1532279942.720,40.527,25.879,35.645,44.434,154.785
1532279942.724,35.645,27.344,35.645,37.109,99.121
1532279942.728,31.738,29.785,36.133,25.879,-49.805
1532279942.732,31.738,29.297,34.180,26.367,-57.129
1532279942.736,30.273,27.832,32.715,32.715,83.496
1532279942.740,22.949,26.855,39.551,26.367,176.758
1532279942.744,19.043,28.809,40.039,17.090,16.113
1532279942.747,20.508,32.227,34.668,16.113,-118.164
1532279942.751,17.578,30.762,38.574,20.508,29.297
1532279942.755,11.719,29.297,43.457,19.043,165.039
1532279942.759,12.695,33.203,43.945,14.160,44.922
1532279942.763,15.137,34.180,42.969,11.719,-102.051
1532279942.767,10.254,29.785,43.945,9.766,-6.836
1532279942.771,8.789,30.273,46.387,7.812,160.645
1532279942.775,12.695,29.297,47.852,3.418,120.117
1532279942.779,7.812,29.297,48.828,2.930,-72.266
1532279942.783,5.371,28.320,49.805,0.488,-69.336
1532279942.787,6.348,28.320,48.828,-4.395,94.238
1532279942.790,10.254,28.809,50.781,10.254,119.629
1532279942.794,13.672,27.344,51.270,13.672,-13.672
1532279942.798,11.230,31.250,48.340,6.836,-67.871
1532279942.802,9.277,30.762,49.316,9.766,94.238
1532279942.806,6.348,27.832,49.805,9.766,172.852
1532279942.810,8.301,26.367,46.387,-0.977,14.160
1532279942.814,17.578,26.855,45.898,4.395,-93.750
1532279942.818,11.230,23.926,50.293,16.602,34.668
1532279942.822,2.441,19.043,52.734,11.719,142.578
1532279942.826,7.324,20.996,52.734,7.812,52.734
1532279942.830,14.648,23.438,50.781,11.719,-74.707
1532279942.833,16.602,24.414,49.805,14.648,-33.203
1532279942.837,10.254,25.391,51.270,14.160,135.254
1532279942.841,9.277,23.926,51.270,5.859,106.934
1532279942.845,19.043,27.832,51.270,3.906,-69.336
1532279942.849,23.438,28.809,48.828,17.090,-61.035
1532279942.853,17.090,23.926,46.875,19.531,122.070
1532279942.857,12.207,24.414,47.363,14.648,169.922
1532279942.861,17.578,23.438,45.898,16.602,10.742
1532279942.865,19.531,24.414,44.922,20.020,-76.172
1532279942.869,18.066,23.438,44.434,21.973,83.496
1532279942.872,16.602,20.996,42.480,21.484,188.477
1532279942.876,20.996,22.949,41.016,20.508,25.879
1532279942.880,27.344,23.438,40.527,24.902,-78.125
1532279942.884,32.227,21.973,38.574,27.832,30.762
1532279942.888,32.715,24.414,38.086,22.949,142.090
1532279942.892,34.668,25.879,39.551,27.832,52.734
1532279942.896,36.621,23.926,37.109,29.785,-88.867
1532279942.900,36.621,20.996,37.598,28.320,-16.113
1532279942.904,39.062,20.996,37.598,33.203,134.766
1532279942.908,41.992,24.414,33.691,27.832,103.516
1532279942.912,39.062,27.344,31.250,21.484,-74.707
1532279942.915,39.551,29.785,26.855,24.414,-100.586
1532279942.919,37.598,26.855,29.297,29.785,84.961
1532279942.923,27.344,21.484,34.180,22.949,137.695
1532279942.927,30.273,22.461,28.809,18.066,-28.809
1532279942.931,41.504,22.461,28.809,30.762,-89.355
1532279942.935,44.434,21.484,35.645,40.527,66.406
1532279942.939,41.504,21.973,33.203,38.574,161.621
1532279942.943,37.109,22.949,32.227,41.992,15.625
1532279942.947,37.109,20.020,38.574,42.480,-103.516
1532279942.951,36.621,18.066,40.527,41.016,19.043
1532279942.955,38.086,19.043,38.574,37.598,158.203
1532279942.958,43.945,18.555,36.621,43.457,80.078
1532279942.962,42.969,19.531,39.551,47.363,-92.773
1532279942.966,47.852,22.949,38.086,37.598,-62.012
1532279942.970,48.340,27.344,35.156,37.598,123.047
1532279942.974,41.504,27.832,36.133,36.621,129.883
1532279942.978,41.504,26.367,34.668,35.156,-33.691
1532279942.982,45.410,26.855,32.227,42.969,-97.168
1532279942.986,40.527,25.879,33.203,37.109,43.457
1532279942.990,36.133,24.902,32.227,30.273,125.488
1532279942.994,38.574,23.438,31.738,33.203,20.020
1532279942.997,33.203,21.484,33.691,36.621,-70.801
1532279943.001,40.039,22.461,31.250,39.551,43.457
1532279943.005,47.363,26.367,28.320,39.551,161.621
1532279943.009,39.062,27.832,27.344,34.180,32.227
1532279943.013,32.715,25.879,29.297,35.156,-100.098
1532279943.017,32.227,23.438,30.762,36.133,-12.695
1532279943.021,37.109,22.949,30.273,39.551,153.320
1532279943.025,43.457,24.414,32.227,43.457,74.219
1532279943.029,42.969,22.949,33.691,41.504,-125.977
1532279943.033,38.086,22.949,33.691,39.062,-61.523
1532279943.037,30.762,22.949,32.227,38.574,141.602
1532279943.040,34.180,20.020,30.762,39.062,165.527
1532279943.044,40.039,19.531,30.273,38.086,-22.949
1532279943.048,36.621,22.949,31.250,33.203,-87.891
1532279943.052,35.156,23.926,33.691,31.738,92.285
1532279943.056,28.809,22.461,34.668,30.762,178.711
1532279943.060,31.250,23.438,32.715,26.367,28.320
1532279943.064,41.504,29.297,31.738,27.344,-77.637
1532279943.068,41.992,30.273,30.273,28.320,29.785
1532279943.072,36.621,25.879,31.738,25.879,166.016
1532279943.076,28.809,22.949,34.180,22.949,63.477
1532279943.079,26.855,24.414,33.691,24.902,-87.891
1532279943.083,27.344,25.879,35.645,22.461,-13.672
1532279943.087,29.785,25.391,35.645,16.113,104.004
1532279943.091,27.344,24.902,36.621,20.996,66.406
1532279943.095,24.902,23.438,39.062,23.438,-62.500
1532279943.099,30.273,24.414,37.109,25.879,-37.109
1532279943.103,23.438,25.391,36.621,24.902,116.699
1532279943.107,15.137,24.414,39.062,22.949,130.371
1532279943.111,23.438,22.461,38.574,23.438,-27.344
1532279943.115,22.461,21.484,38.086,26.855,-88.867
1532279943.119,23.438,21.973,40.039,34.180,76.660
1532279943.122,23.926,21.973,41.992,26.855,165.527
1532279943.126,25.879,22.461,41.016,15.137,6.836
1532279943.130,34.668,26.855,38.574,22.461,-109.375
1532279943.134,32.715,31.738,37.109,29.297,12.695
1532279943.138,31.250,29.785,37.109,26.367,181.152
1532279943.142,32.715,28.320,38.574,30.273,87.891
1532279943.146,31.250,29.297,39.062,33.203,-88.379
1532279943.150,31.738,27.832,37.598,30.762,-14.648
1532279943.154,36.621,26.855,38.086,40.039,140.137
1532279943.158,41.016,26.367,40.039,40.527,125.000
1532279943.162,44.922,25.879,39.551,41.504,-70.801
1532279943.165,48.828,26.855,39.062,41.504,-110.352
1532279943.169,46.387,27.832,37.109,32.227,101.074
1532279943.173,33.203,26.367,37.598,30.273,177.246
1532279943.177,27.832,27.344,39.551,26.367,11.719
1532279943.181,34.668,27.832,35.156,26.855,-102.539
1532279943.185,33.691,27.832,34.180,28.320,43.945
1532279943.189,34.180,29.297,37.109,27.344,154.297
1532279943.193,36.133,29.785,40.039,29.785,21.484
1532279943.197,34.180,28.809,41.016,33.691,-106.934
1532279943.201,35.156,31.250,40.039,33.203,7.812
1532279943.204,38.086,34.668,42.480,32.227,158.691
1532279943.208,38.086,32.715,41.992,35.645,79.102
1532279943.212,41.504,32.227,40.527,35.645,-91.797
1532279943.216,37.109,32.227,43.945,34.180,-69.336
1532279943.220,26.367,31.250,47.363,30.762,119.141
1532279943.224,23.926,30.273,43.457,19.043,118.652
1532279943.228,26.855,31.250,41.504,18.066,-74.707
1532279943.232,29.297,32.227,44.922,25.879,-83.984
1532279943.236,28.809,30.273,46.387,29.785,81.055
1532279943.240,29.297,30.273,43.457,29.297,158.691
1532279943.244,29.297,30.762,38.574,25.391,2.930
1532279943.247,30.762,34.180,38.574,29.785,-113.770
1532279943.251,35.156,34.180,41.992,31.738,28.320
1532279943.255,36.621,34.668,42.969,27.832,144.531
1532279943.259,40.527,34.668,43.945,33.203,61.035
1532279943.263,39.551,31.738,45.410,36.133,-90.820
1532279943.267,30.762,29.785,44.922,29.297,-39.551
1532279943.271,32.227,29.297,42.969,31.250,135.254
1532279943.275,39.062,28.320,42.480,32.715,102.051
1532279943.279,38.574,26.855,42.969,38.086,-57.617
1532279943.283,41.016,28.809,40.527,42.969,-59.082
1532279943.287,49.805,32.227,38.574,40.039,125.977
1532279943.290,42.969,31.738,38.574,41.016,157.227
1532279943.294,35.645,31.738,38.086,38.574,-42.480
1532279943.298,40.527,33.691,39.062,37.109,-91.797
1532279943.302,38.574,32.227,38.086,34.180,78.613
1532279943.306,38.574,29.785,38.574,34.180,135.254
1532279943.310,41.016,29.785,39.551,39.062,-21.973
1532279943.314,42.969,29.785,38.574,37.109,-121.094
1532279943.318,45.410,28.809,36.621,39.551,28.320
1532279943.322,45.410,30.273,35.645,43.945,171.875
1532279943.326,45.410,31.250,38.086,43.457,63.477
1532279943.329,46.875,31.250,38.574,47.363,-102.539
1532279943.333,39.551,29.785,37.109,50.781,-48.828
1532279943.337,41.992,29.785,38.574,51.270,115.723
1532279943.341,46.875,30.762,39.062,50.781,97.656
1532279943.345,47.363,31.250,36.621,44.922,-75.684
1532279943.349,48.340,31.250,35.645,48.340,-58.105
1532279943.353,48.828,30.762,35.156,56.152,119.141
1532279943.357,47.363,32.715,31.250,47.852,148.926
1532279943.361,43.457,31.250,30.762,44.434,1.465
1532279943.365,40.527,30.273,36.133,39.551,-105.957
1532279943.369,41.504,32.715,39.062,37.109,34.668
1532279943.372,41.504,32.715,36.621,40.527,163.086
1532279943.376,40.527,31.250,34.668,34.180,46.875
1532279943.380,39.551,32.227,34.668,37.109,-88.867
1532279943.384,36.133,29.785,34.180,35.645,-17.090
1532279943.388,41.504,27.832,34.668,35.645,151.855
1532279943.392,50.293,33.203,35.645,46.875,84.473
1532279943.396,47.852,34.668,37.109,43.945,-78.613
1532279943.400,42.969,31.738,34.668,36.621,-12.207
1532279943.404,44.922,31.250,33.691,38.574,114.258
1532279943.408,45.898,30.762,35.156,41.504,81.543
1532279943.411,44.922,30.273,37.109,44.434,-54.688
1532279943.415,42.969,29.785,39.062,44.922,-44.434
1532279943.419,41.016,27.832,39.551,46.875,120.117
1532279943.423,38.574,29.297,39.551,41.992,114.746
1532279943.427,38.086,29.785,40.527,37.598,-38.574
1532279943.431,45.410,31.738,41.016,37.109,-110.840
1532279943.435,46.875,32.715,40.039,37.109,34.180
1532279943.439,38.574,29.785,41.992,37.598,159.668
1532279943.443,35.156,30.273,42.969,28.809,15.137
1532279943.447,38.574,33.203,42.480,20.508,-144.531
1532279943.451,44.434,32.227,40.527,18.066,-11.719
1532279943.454,48.340,30.273,40.039,18.066,170.410
1532279943.458,43.457,28.809,41.992,23.438,99.121
1532279943.462,40.527,29.785,41.504,30.273,-80.566
1532279943.466,36.621,30.762,40.527,39.551,-48.340
1532279943.470,33.203,27.344,41.992,45.898,135.742
1532279943.474,37.598,25.879,45.410,48.340,126.465
1532279943.478,37.598,23.926,47.852,46.387,-81.543
1532279943.482,39.062,22.461,43.945,43.457,-120.117
1532279943.486,35.645,22.461,41.504,39.551,55.664
1532279943.490,30.273,24.902,43.457,41.992,145.996
1532279943.494,34.668,28.320,41.992,39.062,-5.371
1532279943.497,37.598,26.367,39.551,30.762,-122.070
1532279943.501,33.203,24.902,39.551,33.203,24.414
1532279943.505,35.156,30.273,41.504,32.227,160.156
1532279943.509,44.922,33.203,41.504,35.156,56.641
1532279943.513,47.852,34.180,39.062,42.480,-84.961
1532279943.517,45.898,33.691,40.039,44.922,-4.395
1532279943.521,43.945,34.180,41.992,43.457,158.203
1532279943.525,42.480,30.762,41.016,41.992,104.492
1532279943.529,49.316,27.344,38.574,42.969,-87.402
1532279943.533,51.758,30.273,34.180,42.480,-81.055
1532279943.536,44.922,30.762,32.227,34.180,104.980
1532279943.540,39.062,30.273,34.180,33.691,133.789
1532279943.544,40.039,31.250,34.668,26.855,-28.809
1532279943.548,37.598,27.344,36.621,19.043,-105.957
1532279943.552,27.832,27.344,38.574,27.832,65.918
1532279943.556,32.715,28.809,38.086,27.832,149.414
1532279943.560,40.527,25.879,36.621,23.926,6.836
1532279943.564,35.645,28.809,31.250,27.344,-71.777
1532279943.568,33.691,34.668,25.391,26.367,30.762
1532279943.572,34.180,35.156,26.367,20.508,170.410
1532279943.576,33.203,35.156,29.785,17.578,95.703
1532279943.579,33.691,36.621,30.273,21.484,-71.777
1532279943.583,34.180,33.691,31.738,25.879,-53.711
1532279943.587,31.250,32.227,35.645,21.973,103.027
1532279943.591,28.320,29.297,38.574,23.926,111.816
1532279943.595,31.250,26.855,39.551,29.785,-56.152
1532279943.599,28.809,27.832,39.062,31.738,-65.430
1532279943.603,27.344,26.855,37.109,23.438,103.027
1532279943.607,34.668,30.762,32.715,18.555,115.723
1532279943.611,32.715,32.715,30.273,23.926,-38.574
1532279943.615,33.691,31.738,31.738,25.391,-77.637
1532279943.619,36.621,31.738,32.715,25.879,91.797
1532279943.622,36.621,30.762,29.297,20.996,187.500
1532279943.626,33.203,29.297,29.785,11.719,29.297
1532279943.630,36.621,29.785,30.762,18.066,-118.164
1532279943.634,41.504,32.227,29.785,24.902,-10.254
1532279943.638,36.133,32.227,32.715,20.996,152.344
1532279943.642,34.180,30.762,38.086,22.461,72.754
1532279943.646,26.855,29.297,37.109,17.578,-103.027
1532279943.650,30.762,26.855,37.598,22.949,-37.598
1532279943.654,38.574,25.391,39.062,33.691,148.438
1532279943.658,39.551,26.855,37.598,34.180,107.910
1532279943.661,47.363,28.809,38.574,35.645,-62.500
1532279943.665,45.410,30.273,40.039,35.645,-74.707
1532279943.669,43.457,29.297,38.574,35.156,78.613
1532279943.673,42.969,29.297,33.691,34.668,152.344
1532279943.677,42.969,29.785,37.109,35.156,-0.977
1532279943.681,45.410,26.855,43.945,33.203,-120.117
1532279943.685,40.527,25.879,45.410,22.949,15.625
1532279943.689,43.457,26.367,44.922,23.438,150.879
1532279943.693,44.434,22.461,44.922,33.203,35.156
1532279943.697,41.504,19.531,42.480,30.762,-105.957
1532279943.701,43.945,22.461,38.574,29.297,9.277
1532279943.704,41.504,29.785,36.133,32.715,151.367
1532279943.708,42.480,30.273,34.180,34.668,85.449
1532279943.712,42.480,28.809,34.668,37.598,-94.238
1532279943.716,44.434,31.250,36.621,43.945,-73.730
1532279943.720,49.316,29.785,36.621,45.898,134.277
1532279943.724,52.246,31.738,34.668,49.805,139.648
1532279943.728,51.758,34.668,34.668,53.223,-35.645
1532279943.732,49.316,31.738,34.668,50.293,-61.523
1532279943.736,45.410,31.250,35.156,52.246,90.820
1532279943.740,37.598,29.785,36.133,52.734,162.598
1532279943.743,41.992,27.832,38.086,46.387,10.254
1532279943.747,43.457,28.320,39.062,40.039,-101.562
1532279943.751,47.363,26.367,38.574,41.992,67.871
1532279943.755,54.688,23.926,39.551,50.781,168.945
1532279943.759,48.828,22.461,38.086,45.410,36.133
1532279943.763,50.293,24.414,38.086,38.086,-96.191
1532279943.767,52.734,29.297,35.156,35.645,-27.832
1532279943.771,52.734,30.762,30.273,36.621,135.742
1532279943.775,49.805,30.273,32.227,41.016,87.402
1532279943.779,50.293,31.738,37.109,37.598,-82.031
1532279943.783,50.293,32.227,37.598,38.086,-66.406
1532279943.786,44.922,33.203,38.574,45.410,76.660
1532279943.790,41.992,33.691,36.133,45.410,106.445
1532279943.794,42.480,34.668,33.203,40.527,-17.578
1532279943.798,37.598,33.691,33.691,36.621,-87.402
1532279943.802,27.344,28.320,35.156,28.809,57.129
1532279943.806,20.508,25.391,34.180,20.996,169.434
1532279943.810,19.531,27.344,33.203,18.066,27.832
1532279943.814,25.879,24.902,36.133,24.414,-92.773
1532279943.818,33.691,22.461,40.039,33.203,41.992
1532279943.822,34.668,20.020,37.598,32.227,178.711
1532279943.826,38.086,20.508,35.156,34.668,38.086
1532279943.829,52.734,23.438,37.109,40.527,-108.887
1532279943.833,62.988,24.414,35.645,45.410,-26.367
1532279943.837,54.688,24.414,34.668,52.246,140.137
1532279943.841,45.410,25.879,36.621,49.316,119.629
1532279943.845,47.852,28.320,35.645,43.457,-90.332
1532279943.849,51.758,25.879,37.109,46.387,-103.027
1532279943.853,53.711,24.414,36.621,41.504,114.258
1532279943.857,43.457,24.902,32.715,36.621,133.789
1532279943.861,37.598,22.461,32.715,35.645,-68.848
1532279943.865,49.805,23.926,33.691,32.227,-140.625
1532279943.868,46.387,25.391,31.738,35.156,21.973
1532279943.872,39.551,22.949,34.180,41.992,140.137
1532279943.876,41.992,20.996,31.738,39.551,4.395
1532279943.880,51.270,23.926,26.367,38.574,-114.258
1532279943.884,49.805,25.391,28.809,48.340,2.930
1532279943.888,38.574,21.484,30.762,44.922,182.617
1532279943.892,25.879,18.555,33.203,38.086,106.445
1532279943.896,31.250,21.484,34.668,46.387,-72.754
1532279943.900,54.688,23.438,32.715,58.594,-23.926
1532279943.904,54.688,22.461,31.250,51.270,150.879
1532279943.908,54.199,23.926,37.109,42.969,122.559
1532279943.911,51.758,25.391,39.062,42.969,-72.266
1532279943.915,51.758,26.367,34.180,44.922,-73.242
1532279943.919,54.688,27.344,35.645,45.898,138.184
1532279943.923,49.805,27.344,36.133,40.527,164.551
1532279943.927,43.457,28.809,34.668,37.109,-40.039
1532279943.931,42.969,32.227,36.621,45.898,-114.746
1532279943.935,48.340,34.180,33.691,49.316,33.691
1532279943.939,50.781,32.715,32.227,46.387,179.199
1532279943.943,46.875,30.762,35.156,48.828,62.012
1532279943.947,46.387,30.762,35.645,50.781,-89.844
1532279943.951,52.734,29.785,35.156,43.457,12.695
1532279943.954,40.039,27.832,36.621,45.410,170.898
1532279943.958,39.551,28.809,38.086,51.270,97.656
1532279943.962,54.688,28.809,38.086,47.363,-93.750
1532279943.966,48.340,28.809,35.156,40.039,-72.754
1532279943.970,45.898,28.809,31.250,39.062,103.027
1532279943.974,50.293,28.320,31.738,40.527,131.836
1532279943.978,51.758,29.297,35.156,37.598,-31.738
1532279943.982,41.504,27.344,31.738,33.691,-74.219
1532279943.986,36.621,24.414,27.832,25.391,84.473
1532279943.990,36.133,26.367,30.273,23.438,139.160
1532279943.993,27.832,27.344,31.250,22.949,2.930
1532279943.997,36.133,24.902,29.297,22.949,-111.816
1532279944.001,46.875,24.902,27.832,24.902,16.113
1532279944.005,41.016,24.902,27.344,21.973,158.203
1532279944.009,44.434,23.438,29.785,24.902,54.199
1532279944.013,46.875,23.438,30.762,32.715,-88.379
1532279944.017,46.387,23.926,28.809,38.574,-24.414
1532279944.021,46.875,24.902,28.809,40.527,140.625
1532279944.025,48.340,28.320,30.762,36.133,95.703
1532279944.029,52.246,32.227,30.762,35.645,-80.566
1532279944.033,50.781,32.715,29.297,37.598,-61.523
1532279944.036,42.969,32.227,31.250,35.645,125.488
1532279944.040,42.969,31.738,33.691,35.156,160.156
1532279944.044,41.016,28.320,34.668,30.273,-26.367
1532279944.048,38.574,25.879,36.133,25.879,-69.336
1532279944.052,39.551,24.902,34.668,32.715,108.887
1532279944.056,40.039,24.414,30.762,36.621,164.551
1532279944.060,42.969,26.855,32.227,38.086,24.414
1532279944.064,46.875,26.855,33.691,38.086,-128.906
1532279944.068,51.270,26.367,33.203,41.992,-15.137
1532279944.072,51.758,26.855,32.715,50.781,158.691
1532279944.076,47.363,25.391,33.691,51.270,64.941
1532279944.079,43.945,26.855,35.156,41.992,-101.562
1532279944.083,38.086,27.344,35.645,39.551,-49.316
1532279944.087,33.203,24.902,35.156,40.039,121.094
1532279944.091,32.715,24.414,37.109,40.527,97.656
1532279944.095,30.273,27.344,40.527,37.598,-80.078
1532279944.099,32.227,29.297,37.598,30.273,-72.266
1532279944.103,33.691,29.785,34.668,25.879,95.215
1532279944.107,25.879,28.320,35.156,23.438,130.859
1532279944.111,26.855,29.297,35.156,28.320,-19.043
1532279944.115,34.668,32.227,37.109,34.668,-105.469
1532279944.118,35.156,32.715,38.086,37.598,28.320
1532279944.122,32.715,29.785,41.504,37.598,152.832
1532279944.126,27.344,26.855,42.480,35.156,52.734
1532279944.130,30.762,28.320,40.039,34.668,-111.328
1532279944.134,32.227,26.855,41.992,30.762,-5.859
1532279944.138,27.344,25.391,42.480,30.273,153.809
1532279944.142,35.645,28.320,41.016,33.203,50.781
1532279944.146,40.527,31.250,42.480,29.297,-114.258
1532279944.150,32.715,30.762,41.504,32.227,-47.852
1532279944.154,27.344,28.809,37.109,32.715,134.277
1532279944.158,31.738,30.273,37.598,30.273,121.094
1532279944.161,38.086,31.738,37.598,32.227,-47.852
1532279944.165,40.039,30.273,37.598,33.691,-98.633
1532279944.169,40.039,25.879,38.574,39.062,88.379
1532279944.173,45.410,24.902,40.039,42.480,157.227
1532279944.177,51.270,28.809,40.039,42.969,-10.742
1532279944.181,53.223,32.227,40.039,42.480,-89.844
1532279944.185,51.270,31.250,40.039,41.992,52.734
1532279944.189,43.945,32.227,41.992,45.898,145.020
1532279944.193,46.387,34.668,41.504,50.781,43.945
1532279944.197,51.270,34.180,36.133,45.898,-67.871
1532279944.200,45.410,29.297,35.645,43.945,19.531
1532279944.204,41.016,25.879,38.574,41.504,148.438
1532279944.208,40.039,27.832,41.016,37.598,84.961
1532279944.212,40.527,29.785,40.527,39.062,-62.500
1532279944.216,47.852,29.785,38.086,38.574,-72.266
1532279944.220,49.316,30.273,38.086,44.922,102.051
1532279944.224,51.270,30.762,40.527,50.781,117.188
1532279944.228,52.734,29.297,38.086,43.945,-47.363
1532279944.232,55.176,27.344,33.691,38.574,-89.844
1532279944.236,66.406,27.832,34.180,36.621,79.102
1532279944.240,67.383,29.785,38.086,41.016,155.273
1532279944.243,59.082,28.809,40.527,49.805,-13.672
1532279944.247,57.129,28.320,38.574,54.688,-129.883
1532279944.251,52.246,29.297,37.598,58.105,13.184
1532279944.255,38.574,26.855,38.086,57.129,168.945
1532279944.259,37.598,25.879,39.062,50.781,75.195
1532279944.263,42.969,28.809,39.062,45.410,-85.449
1532279944.267,44.922,26.855,38.574,42.969,-45.898
1532279944.271,48.828,24.902,37.598,51.270,141.602
1532279944.275,48.828,25.391,37.109,52.734,115.723
1532279944.279,45.410,22.461,36.621,46.875,-56.641
1532279944.283,48.340,20.020,34.668,45.410,-64.453
1532279944.286,48.828,20.996,34.180,42.480,87.402
1532279944.290,44.922,19.043,32.227,42.480,151.855
1532279944.294,42.969,16.602,31.738,43.457,-4.395
1532279944.298,47.363,17.578,34.180,43.945,-59.082
1532279944.302,51.758,20.020,31.250,44.434,93.262
1532279944.306,51.270,20.508,32.715,44.922,144.531
1532279944.310,50.293,21.484,34.668,48.340,2.441
1532279944.314,49.316,23.438,30.273,45.898,-95.215
1532279944.318,50.293,22.461,26.855,45.898,31.250
1532279944.322,54.199,20.020,29.785,50.781,167.480
1532279944.325,59.082,21.973,30.762,48.340,54.199
1532279944.329,56.152,26.367,29.785,49.316,-103.516
1532279944.333,53.223,25.879,27.832,47.852,-28.809
1532279944.337,53.223,24.902,25.391,46.387,151.367
1532279944.341,52.734,25.391,24.902,45.898,126.953
1532279944.345,52.246,25.879,27.832,41.504,-79.102
1532279944.349,49.316,24.902,29.297,44.434,-77.637
1532279944.353,49.805,25.391,27.344,46.875,110.352
1532279944.357,48.340,25.879,24.414,43.457,166.016
1532279944.361,47.363,25.391,26.855,43.945,15.625
1532279944.365,49.805,24.902,29.785,44.922,-89.844
1532279944.368,49.805,22.461,26.855,45.410,45.410
1532279944.372,52.734,22.949,27.344,48.340,159.668
1532279944.376,53.223,24.414,30.762,48.828,31.738
1532279944.380,50.781,22.461,29.297,48.340,-65.918
1532279944.384,50.781,20.020,28.809,43.945,21.484
1532279944.388,47.852,20.996,31.250,40.527,138.672
1532279944.392,41.504,20.508,30.762,40.527,90.332
1532279944.396,37.109,18.555,29.297,41.504,-88.379
1532279944.400,34.180,19.043,30.273,41.504,-62.500
1532279944.404,33.691,20.996,30.762,36.621,125.000
1532279944.408,33.691,21.484,30.762,35.156,142.090
1532279944.411,35.645,22.949,30.273,34.180,-34.668
1532279944.415,37.109,23.926,27.832,29.785,-82.520
1532279944.419,35.645,22.461,28.320,33.691,97.168
1532279944.423,42.480,21.484,33.691,39.062,154.785
1532279944.427,41.992,20.508,34.668,36.133,-20.996
1532279944.431,34.180,21.484,32.227,36.621,-93.750
1532279944.435,37.109,21.973,33.691,40.527,74.707
1532279944.439,40.039,23.438,34.180,39.062,184.570
1532279944.443,43.457,24.902,33.203,30.762,42.480
1532279944.447,39.062,25.879,31.250,27.344,-102.051
1532279944.450,34.180,23.438,30.273,29.297,-5.859
1532279944.454,36.133,22.949,32.227,30.273,124.023
1532279944.458,34.668,22.461,36.133,33.203,93.750
1532279944.462,33.203,20.020,34.668,34.180,-61.035
1532279944.466,36.621,23.926,30.762,29.297,-61.035
1532279944.470,36.133,28.320,31.738,26.855,115.234
1532279944.474,25.879,28.320,33.691,23.438,133.789
1532279944.478,22.461,28.809,32.227,17.090,-33.691
1532279944.482,28.809,31.250,33.203,19.531,-77.637
1532279944.486,27.344,33.691,35.645,16.113,62.988
1532279944.490,25.879,37.109,35.645,14.160,129.395
1532279944.493,26.367,35.645,35.645,18.066,-0.977
1532279944.497,24.414,32.715,37.598,19.531,-81.055
1532279944.501,21.973,32.715,38.574,20.020,47.852
1532279944.505,15.137,29.297,40.527,15.137,174.316
1532279944.509,11.719,27.832,41.504,14.160,76.660
1532279944.513,16.602,28.809,41.504,15.625,-87.891
1532279944.517,18.066,31.738,37.109,14.648,-29.297
1532279944.521,17.578,35.156,35.156,14.160,154.297
1532279944.525,13.672,35.156,34.180,3.418,89.844
1532279944.529,7.812,31.250,35.156,0.488,-94.238
1532279944.532,7.812,28.320,38.574,8.789,-65.918
1532279944.536,9.766,28.809,40.527,13.672,108.887
1532279944.540,14.160,29.297,41.016,15.137,142.090
1532279944.544,15.625,28.320,39.062,12.695,-29.297
1532279944.548,15.137,26.367,40.039,10.742,-106.934
1532279944.552,7.812,26.855,41.016,9.766,49.805
1532279944.556,2.930,27.832,41.016,12.695,154.297
1532279944.560,6.836,25.879,39.551,15.137,37.598
1532279944.564,10.742,25.879,37.598,11.719,-85.449
1532279944.568,7.812,23.438,39.551,8.789,-12.695
1532279944.572,6.836,20.020,41.016,10.742,148.438
1532279944.575,14.160,21.484,39.551,17.090,84.473
1532279944.579,22.461,24.902,35.645,23.438,-87.891
1532279944.583,20.508,23.926,34.180,21.973,-47.363
1532279944.587,18.066,20.996,38.086,18.555,119.629
1532279944.591,21.973,20.996,38.574,22.461,137.695
1532279944.595,28.320,20.996,40.039,21.484,-18.066
1532279944.599,29.297,22.461,40.039,21.484,-75.684
1532279944.603,26.855,21.484,40.039,24.902,71.777
1532279944.607,26.367,21.484,41.504,28.809,144.531
1532279944.611,30.273,20.508,37.598,30.762,-11.719
1532279944.615,31.250,21.484,32.715,27.832,-108.398
1532279944.618,24.902,22.949,33.203,24.902,54.199
1532279944.622,24.902,21.973,34.668,21.973,170.410
1532279944.626,23.438,23.438,35.645,15.625,1.465
1532279944.630,24.902,21.973,36.133,19.531,-154.297
1532279944.634,29.297,18.066,36.621,34.668,-8.789
1532279944.638,29.785,20.020,40.039,35.156,173.828
1532279944.642,30.762,20.996,39.062,27.832,93.750
1532279944.646,27.832,20.508,38.086,25.391,-77.148
1532279944.650,27.832,20.020,36.133,30.273,-36.133
1532279944.654,27.344,20.508,33.203,34.668,136.230
1532279944.657,28.320,23.926,34.668,31.250,148.926
1532279944.661,32.227,26.367,35.156,30.273,-22.949
1532279944.665,28.809,22.949,35.156,31.738,-95.703
1532279944.669,30.762,23.438,36.621,32.715,81.055
1532279944.673,28.809,22.949,34.668,32.227,178.223
1532279944.677,27.344,19.043,33.691,28.809,22.461
1532279944.681,34.180,20.020,32.715,32.227,-88.867
1532279944.685,37.598,23.926,31.250,36.133,43.945
1532279944.689,36.133,24.902,31.738,35.156,182.129
1532279944.693,30.762,24.414,32.715,28.809,57.617
1532279944.697,29.297,23.926,34.668,25.879,-92.285
1532279944.700,29.785,20.996,37.598,29.785,-7.812
1532279944.704,30.273,20.020,37.109,29.297,136.230
1532279944.708,34.668,23.926,33.203,29.785,71.289
1532279944.712,38.086,24.414,30.273,34.180,-104.492
1532279944.716,33.691,20.996,33.691,32.227,-84.473
1532279944.720,30.273,20.508,37.109,31.738,113.281
1532279944.724,35.156,22.461,34.180,31.250,114.258
1532279944.728,36.133,25.879,31.250,25.391,-63.965
1532279944.732,35.156,27.344,30.762,30.762,-75.195
1532279944.736,37.109,25.879,31.738,37.109,122.070
1532279944.740,30.273,24.902,34.668,30.762,193.359
1532279944.743,25.879,24.414,33.691,24.414,22.949
1532279944.747,32.715,24.414,31.250,31.250,-103.027
1532279944.751,37.598,25.391,30.762,35.156,12.695
1532279944.755,35.156,28.320,28.320,26.855,171.387
1532279944.759,33.691,31.250,26.367,24.414,87.402
1532279944.763,33.691,31.250,25.879,25.879,-68.848
1532279944.767,34.668,29.297,25.879,28.809,-5.859
1532279944.771,34.180,26.367,29.785,31.250,134.766
1532279944.775,28.320,26.855,30.273,27.832,103.516
1532279944.779,27.344,28.809,28.809,29.785,-44.434
1532279944.782,38.086,29.785,27.344,32.227,-97.656
1532279944.786,37.598,29.785,29.297,30.762,69.336
1532279944.790,32.227,30.762,31.738,26.367,138.184
1532279944.794,35.156,32.227,31.250,28.809,-43.945
1532279944.798,33.691,33.203,28.320,30.273,-104.492
1532279944.802,35.645,33.691,25.391,29.297,60.059
1532279944.806,37.109,31.250,28.809,31.738,145.020
1532279944.810,27.832,24.414,34.180,29.785,27.832
1532279944.814,25.879,21.484,36.133,32.227,-97.168
1532279944.818,29.297,25.391,34.180,36.133,8.789
1532279944.822,29.297,27.344,31.250,29.785,160.156
1532279944.825,30.273,27.344,31.738,24.414,69.824
1532279944.829,29.297,29.297,31.738,25.391,-82.031
1532279944.833,31.250,35.156,29.297,27.832,-31.738
1532279944.837,36.133,39.551,27.832,28.809,150.879
1532279944.841,38.086,38.574,25.879,26.855,130.371
1532279944.845,37.598,40.039,24.414,16.602,-88.379
1532279944.849,33.691,43.457,22.461,12.207,-101.074
1532279944.853,25.391,40.039,19.531,17.578,88.867
1532279944.857,26.855,39.551,18.066,17.090,150.879
1532279944.861,27.344,40.527,22.949,17.578,-11.719
1532279944.864,27.832,37.109,24.414,20.996,-102.051
1532279944.868,34.180,35.645,24.414,26.855,49.805
1532279944.872,37.109,38.574,24.902,28.320,155.273
1532279944.876,31.250,40.527,21.973,21.484,43.457
1532279944.880,34.180,41.016,20.508,21.484,-96.680
1532279944.884,38.574,42.480,18.066,20.996,-10.742
1532279944.888,34.180,42.969,16.113,17.090,139.648
1532279944.892,32.227,42.969,19.043,21.484,83.496
1532279944.896,26.855,40.527,22.461,19.531,-79.102
1532279944.900,26.367,36.133,27.344,25.391,-49.316
1532279944.904,36.133,36.133,26.367,29.785,116.699
1532279944.907,32.715,38.086,19.043,14.648,104.492
1532279944.911,27.832,41.992,20.996,13.672,-64.453
1532279944.915,27.344,42.969,21.484,17.090,-80.566
1532279944.919,21.973,41.016,17.090,15.625,90.820
1532279944.923,24.414,40.039,20.508,21.973,139.648
1532279944.927,26.367,36.621,26.367,22.461,-13.672
1532279944.931,24.902,32.715,28.809,22.949,-100.098
1532279944.935,25.391,34.180,27.832,22.949,51.270
1532279944.939,24.414,35.645,22.461,20.508,163.086
1532279944.943,27.344,35.156,19.531,20.996,45.898
1532279944.947,28.320,36.133,23.438,20.996,-104.004
1532279944.950,31.738,35.156,27.832,28.809,-19.531
1532279944.954,30.762,32.715,29.297,33.691,162.598
1532279944.958,28.809,32.227,26.367,31.250,124.512
1532279944.962,31.250,32.715,24.902,28.320,-51.270
1532279944.966,30.273,33.691,26.855,27.832,-43.945
1532279944.970,28.320,30.273,29.297,28.320,130.859
1532279944.974,30.273,29.297,31.738,26.367,161.621
1532279944.978,36.621,32.227,29.297,27.832,-21.484
1532279944.982,39.551,34.668,23.438,29.297,-76.172
1532279944.986,40.039,37.598,20.508,28.809,94.238
1532279944.989,36.621,33.203,23.438,32.227,167.969
1532279944.993,29.785,26.367,29.297,32.227,18.066
1532279944.997,31.738,25.879,30.273,31.250,-96.680
1532279945.001,31.738,25.391,32.227,35.156,28.320
1532279945.005,30.273,22.949,38.086,34.668,147.461
1532279945.009,40.039,20.020,41.016,38.574,53.223
1532279945.013,43.457,22.461,36.133,39.062,-77.637
1532279945.017,38.574,25.879,28.320,28.320,-43.945
1532279945.021,41.504,26.855,26.367,26.855,110.352
1532279945.025,43.457,32.227,25.879,31.738,90.332
1532279945.029,36.621,28.809,31.250,33.691,-88.379
1532279945.032,30.762,19.531,39.062,31.250,-63.477
1532279945.036,32.227,21.973,36.133,30.273,105.957
1532279945.040,41.504,24.414,34.180,31.250,124.023
1532279945.044,49.805,20.996,33.203,25.879,-46.875
1532279945.048,53.223,25.391,29.785,20.996,-137.695
1532279945.052,51.270,30.762,26.855,25.391,57.129
1532279945.056,43.457,28.809,27.344,31.250,170.898
1532279945.060,37.598,28.320,28.809,33.691,24.902
1532279945.064,38.086,31.250,26.367,35.645,-111.328
1532279945.068,38.086,30.762,24.902,47.363,-11.719
1532279945.072,27.344,26.855,30.762,49.316,152.344
1532279945.075,19.043,23.926,32.715,36.133,85.938
1532279945.079,21.973,23.438,32.715,37.109,-92.773
1532279945.083,26.855,24.902,33.691,41.016,-52.246
1532279945.087,22.949,24.902,33.691,32.715,104.492
1532279945.091,15.137,22.949,35.156,29.297,110.840
1532279945.095,23.438,20.996,36.133,35.156,-55.664
1532279945.099,30.762,20.020,33.203,35.645,-88.379
1532279945.103,25.391,24.414,28.809,30.762,82.031
1532279945.107,25.879,30.273,27.832,27.344,143.066
1532279945.111,30.762,32.227,28.320,30.762,-5.371
1532279945.114,27.832,27.344,25.879,29.785,-87.402
1532279945.118,22.949,24.902,28.320,24.902,54.199
1532279945.122,20.508,26.367,31.250,23.438,151.367
1532279945.126,24.902,23.438,31.250,32.715,17.090
1532279945.130,27.344,20.020,33.691,37.109,-104.492
1532279945.134,28.320,21.973,31.738,31.738,-28.809
1532279945.138,22.461,26.855,27.344,22.949,135.254
1532279945.142,13.672,26.855,26.855,21.484,100.586
1532279945.146,19.531,24.414,29.297,11.719,-126.465
1532279945.150,19.531,23.926,32.715,4.395,-119.141
1532279945.154,16.113,21.973,32.715,17.578,125.000
1532279945.157,15.137,19.531,32.227,27.344,143.066
1532279945.161,20.996,24.902,30.762,31.738,-46.875
1532279945.165,24.902,27.344,25.879,28.320,-78.613
1532279945.169,24.414,25.391,25.879,30.762,91.309
1532279945.173,28.809,25.879,31.250,39.551,171.875
1532279945.177,27.344,22.949,34.668,37.109,23.926
1532279945.181,25.879,21.973,35.156,35.156,-67.383
1532279945.185,31.738,22.949,33.691,32.227,35.645
1532279945.189,32.715,20.996,31.738,33.203,134.766
1532279945.193,37.109,20.996,28.320,36.133,50.781
1532279945.196,39.551,24.902,27.344,31.738,-96.191
1532279945.200,33.203,25.879,28.320,31.250,-14.648
1532279945.204,39.062,26.367,27.344,34.180,128.418
1532279945.208,43.945,29.297,25.391,39.551,76.172
1532279945.212,45.410,30.273,21.973,39.551,-64.453
1532279945.216,46.875,27.344,22.461,41.992,-60.547
1532279945.220,46.875,24.414,27.832,47.852,122.070
1532279945.224,46.387,23.926,31.250,46.875,137.207
1532279945.228,49.316,24.414,28.320,44.434,-81.055
1532279945.232,48.340,21.973,28.809,44.922,-101.074
1532279945.236,45.898,18.066,33.203,49.316,100.098
1532279945.239,53.223,18.066,34.180,52.246,161.621
1532279945.243,52.246,22.949,30.762,49.805,10.254
1532279945.247,48.340,25.879,26.367,41.504,-106.934
1532279945.251,51.270,26.367,22.461,38.086,13.672
1532279945.255,51.758,26.855,22.461,43.945,160.156
1532279945.259,51.758,27.832,23.438,47.852,56.641
1532279945.263,55.176,27.832,20.508,46.875,-105.469
1532279945.267,53.223,25.391,20.508,44.922,-31.738
1532279945.271,50.781,26.855,22.461,40.039,146.973
1532279945.275,51.270,29.785,20.996,36.621,104.980
1532279945.279,63.477,29.785,20.020,41.016,-68.848
1532279945.282,58.105,25.879,24.414,39.551,-74.707
1532279945.286,42.480,22.949,25.391,36.133,82.520
1532279945.290,46.387,22.461,25.391,38.574,140.137
1532279945.294,51.270,25.391,23.926,37.109,-41.504
1532279945.298,52.246,28.320,20.996,37.109,-105.957
1532279945.302,51.270,28.809,22.949,40.527,61.035
1532279945.306,47.363,27.344,27.344,39.062,145.996
1532279945.310,44.434,24.414,29.297,37.598,47.363
1532279945.314,40.527,24.902,26.855,37.109,-92.773
1532279945.318,36.621,26.855,28.809,35.156,-23.438
1532279945.321,39.551,23.438,32.227,36.133,156.250
1532279945.325,42.480,21.973,32.227,35.156,51.270
1532279945.329,42.480,24.902,30.273,34.668,-145.508
1532279945.333,45.898,24.414,28.320,37.598,-53.711
1532279945.337,47.852,20.508,29.785,44.434,144.043
1532279945.341,46.875,19.043,30.762,49.316,136.719
1532279945.345,49.805,21.484,30.273,49.805,-35.645
1532279945.349,45.898,23.438,28.809,44.922,-54.199
1532279945.353,42.480,25.391,26.855,45.410,140.137
1532279945.357,43.945,23.926,28.320,50.781,210.938
1532279945.361,42.969,21.484,29.785,52.246,16.602
1532279945.364,43.457,21.484,28.809,49.316,-120.605
1532279945.368,49.316,22.949,27.832,44.434,40.039
1532279945.372,55.176,25.879,28.809,53.223,197.266
1532279945.376,52.246,24.414,33.203,58.594,81.055
1532279945.380,48.828,22.949,35.645,57.129,-59.570
1532279945.384,45.410,20.020,35.156,53.711,24.414
1532279945.388,40.527,17.578,34.180,51.270,180.664
1532279945.392,47.363,19.531,35.156,45.898,128.906
1532279945.396,48.340,21.484,35.156,41.016,-86.426
1532279945.400,37.109,21.484,32.227,38.574,-54.688
1532279945.404,34.180,19.531,30.762,37.109,138.672
1532279945.407,34.180,16.602,33.203,37.598,118.164
1532279945.411,41.992,18.066,32.715,39.062,-57.617
1532279945.415,45.898,20.996,32.227,44.922,-110.352
1532279945.419,44.434,22.461,30.762,49.805,69.336
1532279945.423,44.922,23.926,27.832,46.387,133.789
1532279945.427,39.551,22.949,29.297,41.016,-19.531
1532279945.431,37.109,21.973,30.273,41.504,-81.543
1532279945.435,38.574,20.996,29.297,41.016,50.293
1532279945.439,38.574,21.484,27.832,41.016,180.664
1532279945.443,41.992,21.973,30.762,39.551,77.637
1532279945.446,41.504,21.484,31.738,34.180,-85.449
1532279945.450,40.527,20.508,30.762,39.062,-7.812
1532279945.454,45.898,21.973,33.203,44.434,164.062
1532279945.458,46.387,23.438,31.738,43.457,125.000
1532279945.462,45.410,22.949,34.180,42.480,-48.340
1532279945.466,44.922,24.414,32.227,36.621,-59.082
1532279945.470,38.574,26.367,28.320,33.691,124.023
1532279945.474,38.086,24.902,30.273,34.668,160.645
1532279945.478,40.527,25.879,31.250,32.715,-35.645
1532279945.482,37.598,31.250,29.785,36.133,-107.910
1532279945.486,34.668,28.809,29.785,36.621,41.992
1532279945.489,34.180,22.949,29.785,39.551,148.926
1532279945.493,35.156,22.949,28.320,40.527,0.488
1532279945.497,37.109,24.414,27.832,34.668,-131.836
1532279945.501,41.504,27.344,25.879,32.227,19.043
1532279945.505,39.551,28.809,27.832,27.344,160.645
1532279945.509,36.621,28.809,32.227,29.785,63.965
1532279945.513,33.203,29.297,29.785,33.691,-81.543
1532279945.517,32.715,29.785,30.762,37.598,-27.344
1532279945.521,30.762,31.738,31.250,38.574,133.789
1532279945.525,26.367,29.785,33.203,26.367,79.590
1532279945.528,26.367,24.414,39.551,28.809,-88.379
1532279945.532,34.668,22.949,40.527,42.969,-93.750
1532279945.536,37.109,26.367,32.715,41.504,89.355
1532279945.540,30.762,32.715,24.902,24.414,147.461
1532279945.544,35.645,36.133,23.926,22.461,-39.062
1532279945.548,31.250,32.227,25.879,28.320,-120.117
1532279945.552,18.555,31.250,26.855,19.043,39.062
1532279945.556,19.531,33.203,28.809,14.160,151.855
1532279945.560,19.531,30.273,30.273,20.996,34.180
1532279945.564,20.996,29.297,33.691,23.438,-100.098
1532279945.568,25.879,27.344,37.598,26.855,-40.039
1532279945.571,28.809,22.949,36.133,37.598,141.602
1532279945.575,40.527,22.949,33.691,39.551,90.820
1532279945.579,43.945,29.297,29.297,34.668,-83.984
1532279945.583,41.016,35.645,25.879,38.574,-45.898
1532279945.587,39.062,32.227,29.297,40.527,152.832
1532279945.591,30.762,27.344,29.785,33.203,144.043
1532279945.595,31.250,25.879,30.273,34.180,-62.988
1532279945.599,30.273,20.996,35.156,40.527,-94.727
1532279945.603,34.180,17.090,38.086,43.457,80.566
1532279945.607,41.016,15.625,37.109,43.457,141.602
1532279945.611,41.504,20.508,30.273,37.109,-26.367
1532279945.614,43.457,29.297,25.879,35.645,-103.516
1532279945.618,48.828,32.715,24.414,40.039,41.992
1532279945.622,48.340,32.715,24.902,40.527,164.062
1532279945.626,45.410,29.297,28.320,37.598,63.477
1532279945.630,36.621,27.344,29.297,34.180,-100.586
1532279945.634,30.273,31.250,27.344,34.668,-27.344
1532279945.638,36.621,31.738,28.809,34.668,141.113
1532279945.642,35.645,28.320,30.762,29.297,90.820
1532279945.646,35.156,28.809,27.344,20.996,-113.281
1532279945.650,35.645,26.855,29.785,28.809,-81.543
1532279945.653,32.715,22.461,31.250,36.621,149.414
1532279945.657,31.738,24.414,27.832,28.320,166.992
1532279945.661,35.156,30.273,28.320,27.344,-31.738
1532279945.665,39.062,30.762,30.762,30.762,-79.102
1532279945.669,41.992,30.273,31.250,32.227,78.613
1532279945.673,38.086,29.297,31.738,35.645,156.738
1532279945.677,35.156,25.391,32.715,36.621,33.203
1532279945.681,35.645,25.879,32.715,29.785,-71.777
1532279945.685,43.945,27.344,28.809,28.320,68.848
1532279945.689,44.922,26.367,31.738,34.668,200.195
1532279945.693,35.645,25.879,33.691,33.691,78.125
1532279945.696,38.086,26.855,31.250,27.832,-69.336
1532279945.700,41.992,27.832,31.250,32.715,3.906
1532279945.704,40.039,24.902,30.762,33.691,158.691
1532279945.708,39.551,21.484,33.691,32.227,116.699
1532279945.712,40.039,21.973,34.668,38.086,-75.684
1532279945.716,41.504,24.414,32.715,37.109,-85.938
1532279945.720,43.457,26.367,33.691,39.551,126.953
1532279945.724,43.457,25.879,35.156,41.016,157.715
1532279945.728,41.016,24.902,38.086,37.598,-14.648
1532279945.732,36.621,25.879,36.621,39.062,-76.660
1532279945.736,37.109,24.902,34.668,41.504,70.312
1532279945.739,36.133,23.438,36.133,41.992,175.293
1532279945.743,33.691,21.484,35.645,34.668,4.883
1532279945.747,35.156,22.461,36.133,25.879,-154.297
1532279945.751,40.039,24.902,34.668,39.062,-13.672
1532279945.755,40.527,26.367,33.691,51.758,180.176
1532279945.759,39.062,27.344,34.180,44.922,95.215
1532279945.763,38.086,26.367,33.691,38.086,-76.660
1532279945.767,35.156,25.879,34.668,41.016,-23.438
1532279945.771,35.645,26.367,32.715,41.992,146.484
1532279945.775,40.039,27.344,32.715,38.086,137.695
1532279945.778,34.668,29.785,33.691,40.039,-46.875
1532279945.782,30.762,29.297,31.738,33.203,-77.148
1532279945.786,35.156,28.320,30.273,20.996,93.262
1532279945.790,35.156,29.785,35.645,24.902,129.883
1532279945.794,39.062,30.762,35.156,32.227,-14.648
1532279945.798,40.039,32.715,29.785,30.273,-80.078
1532279945.802,35.156,32.227,30.273,27.832,74.707
1532279945.806,28.809,29.297,35.156,30.762,174.805
1532279945.810,21.484,27.344,37.109,28.320,47.852
1532279945.814,26.367,30.762,34.180,29.297,-94.238
1532279945.818,32.715,32.715,31.250,33.203,10.742
1532279945.821,30.762,32.715,31.738,29.297,163.086
1532279945.825,26.855,29.297,32.227,23.438,66.895
1532279945.829,29.785,29.297,33.691,27.832,-108.398
1532279945.833,29.297,29.297,35.645,32.227,-27.344
1532279945.837,31.250,27.832,34.180,30.762,160.645
1532279945.841,39.062,27.832,35.156,33.203,149.414
1532279945.845,40.039,27.344,34.668,26.367,-49.805
1532279945.849,39.551,25.879,31.250,16.602,-118.652
1532279945.853,41.992,25.879,29.785,22.461,77.637
1532279945.857,40.527,26.367,30.762,26.855,162.109
1532279945.860,41.992,24.414,29.785,26.367,26.367
1532279945.864,50.781,24.414,27.344,30.762,-84.473
1532279945.868,57.129,25.391,28.809,30.762,28.320
1532279945.872,61.035,26.855,28.809,40.527,165.039
1532279945.876,57.129,25.391,28.809,45.410,52.246
1532279945.880,44.922,23.926,30.762,43.457,-96.191
1532279945.884,46.875,24.414,31.250,52.734,-19.531
1532279945.888,46.387,25.879,29.785,51.758,134.766
1532279945.892,40.527,24.902,28.320,51.758,97.168
1532279945.896,40.527,21.484,26.855,53.711,-46.387
1532279945.900,41.992,21.484,27.344,57.129,-30.273
1532279945.903,48.828,20.508,29.785,60.059,128.418
1532279945.907,50.293,20.996,30.273,58.105,138.672
1532279945.911,49.805,22.461,27.344,54.688,-55.664
1532279945.915,48.340,22.949,26.855,50.781,-114.258
1532279945.919,48.828,21.973,26.367,49.805,76.660
1532279945.923,48.828,20.996,25.879,46.387,150.391
1532279945.927,45.898,22.461,27.344,41.504,-14.160
1532279945.931,45.898,22.461,26.367,41.016,-108.398
1532279945.935,39.551,22.461,25.391,38.574,38.574
1532279945.939,39.551,23.926,26.855,40.039,175.293
1532279945.943,41.992,23.926,26.855,43.457,62.988
1532279945.946,39.062,21.973,29.297,40.039,-101.074
1532279945.950,41.504,21.973,29.785,42.969,-34.180
1532279945.954,45.898,23.438,28.320,48.828,149.902
1532279945.958,46.387,22.461,27.832,48.340,127.930
1532279945.962,42.969,21.973,28.809,42.480,-75.684
1532279945.966,42.969,21.973,29.785,41.504,-90.820
1532279945.970,44.434,24.414,30.273,44.434,101.074
1532279945.974,35.645,22.461,32.227,43.945,141.113
1532279945.978,28.320,20.020,32.227,41.992,-41.016
1532279945.982,33.203,20.508,29.297,37.598,-119.629
1532279945.985,30.762,19.531,26.367,30.762,32.715
1532279945.989,37.109,20.996,25.879,26.367,148.926
1532279945.993,36.621,20.996,26.855,27.832,41.016
1532279945.997,26.367,19.531,26.367,31.250,-74.707
1532279946.001,33.203,20.508,28.809,37.598,40.039
1532279946.005,35.645,22.949,31.738,41.016,163.086
1532279946.009,34.668,22.949,29.297,33.691,59.082
1532279946.013,33.203,23.926,30.273,39.062,-90.332
1532279946.017,37.109,25.391,33.691,47.363,-31.250
1532279946.021,38.086,26.855,32.715,40.527,152.344
1532279946.025,34.668,28.320,31.250,34.668,127.930
1532279946.028,33.691,27.832,30.273,29.785,-88.379
1532279946.032,33.203,24.414,28.320,25.391,-101.562
1532279946.036,35.645,22.461,32.227,34.668,104.980
1532279946.040,32.227,22.461,35.156,39.551,181.152
1532279946.044,30.273,20.996,33.691,33.691,-9.277
1532279946.048,36.133,21.973,31.738,27.344,-92.285
1532279946.052,35.645,22.949,30.762,26.855,87.891
1532279946.056,37.109,22.949,29.785,30.762,180.664
1532279946.060,38.574,24.414,28.809,31.738,28.320
1532279946.064,40.039,22.949,27.832,33.203,-114.746
1532279946.068,41.992,22.461,25.879,32.227,-11.230
1532279946.071,42.480,21.484,26.855,33.691,153.320
1532279946.075,44.434,20.020,27.832,34.180,82.031
1532279946.079,48.340,20.996,27.344,33.691,-90.332
1532279946.083,47.852,21.484,29.297,32.715,-62.500
1532279946.087,42.480,20.508,30.762,31.738,102.539
1532279946.091,41.504,21.484,31.250,35.645,101.562
1532279946.095,42.969,20.508,30.762,34.668,-65.918
1532279946.099,49.805,19.531,28.320,35.156,-81.543
1532279946.103,47.852,20.996,30.762,32.715,60.547
1532279946.107,39.062,22.461,31.738,25.879,99.609
1532279946.110,38.574,21.484,29.297,23.438,-37.109
1532279946.114,38.086,21.973,30.273,26.855,-133.789
1532279946.118,39.551,21.484,28.320,29.297,38.574
1532279946.122,41.016,19.531,30.273,33.691,157.227
1532279946.126,41.016,20.508,32.715,37.598,15.137
1532279946.130,40.039,22.949,31.738,32.227,-143.066
1532279946.134,44.434,26.367,32.227,33.691,-49.805
1532279946.138,41.992,24.414,31.738,39.551,154.297
1532279946.142,33.691,20.996,28.809,38.086,83.496
1532279946.146,37.598,22.461,28.809,33.691,-111.328
1532279946.150,38.574,24.414,29.785,35.645,-76.660
1532279946.153,41.016,25.391,28.809,39.551,122.559
1532279946.157,44.922,27.344,29.785,36.133,140.137
1532279946.161,39.551,26.367,31.250,36.621,-57.617
1532279946.165,39.062,25.879,30.273,38.574,-124.512
1532279946.169,44.922,25.879,29.297,38.086,31.738
1532279946.173,45.410,27.344,29.297,42.480,140.625
1532279946.177,41.992,27.344,32.715,41.992,26.855
1532279946.181,39.062,25.879,33.691,43.945,-99.121
1532279946.185,35.156,24.414,35.645,52.246,-2.930
1532279946.189,36.133,24.902,37.598,52.734,131.348
1532279946.192,41.016,25.391,35.156,50.781,54.688
1532279946.196,43.945,28.320,36.621,50.293,-96.191
1532279946.200,44.434,33.691,32.227,46.875,-45.898
1532279946.204,43.945,38.086,25.391,36.133,122.070
1532279946.208,35.645,39.062,26.367,32.715,92.773
1532279946.212,30.273,37.598,27.832,34.668,-67.871
1532279946.216,35.645,36.133,30.762,38.086,-85.449
1532279946.220,39.062,37.598,31.738,41.016,98.145
1532279946.224,39.062,41.992,27.344,34.180,140.137
1532279946.228,36.621,42.969,28.809,33.691,-42.480
1532279946.232,27.344,36.621,34.668,30.762,-102.539
1532279946.235,24.902,36.133,33.691,27.344,26.367
1532279946.239,32.715,37.598,31.250,33.691,152.344
1532279946.243,37.109,36.621,33.691,37.598,12.695
1532279946.247,35.156,38.086,32.715,30.762,-128.418
1532279946.251,30.762,34.668,32.715,31.738,-7.324
1532279946.255,23.926,30.762,36.133,37.109,139.160
1532279946.259,17.578,27.344,36.133,32.227,60.059
1532279946.263,23.438,28.320,35.645,31.250,-120.605
1532279946.267,30.762,33.203,35.645,30.273,-72.266
1532279946.271,28.320,36.621,30.762,26.855,121.094
1532279946.275,29.297,41.016,29.297,29.785,132.812
1532279946.278,29.297,40.527,30.762,27.832,-56.641
1532279946.282,29.785,37.598,30.762,26.855,-83.496
1532279946.286,30.762,36.621,32.715,29.785,100.586
1532279946.290,25.879,37.109,28.320,23.438,168.945
1532279946.294,25.879,37.109,22.461,23.438,-3.906
1532279946.298,32.227,37.109,26.855,37.109,-104.492
1532279946.302,35.645,37.109,26.855,31.250,44.922
1532279946.306,35.156,36.133,24.902,20.996,148.926
1532279946.310,33.203,34.180,29.297,26.855,19.531
1532279946.314,26.367,31.738,31.738,25.879,-104.980
1532279946.317,36.133,29.297,31.250,29.297,-25.391
1532279946.321,38.086,30.273,32.227,32.227,127.441
1532279946.325,27.344,34.180,34.668,26.367,73.730
1532279946.329,25.879,36.133,32.715,27.832,-79.590
1532279946.333,28.809,36.621,26.855,25.391,-43.945
1532279946.337,31.250,37.598,23.438,20.020,141.113
1532279946.341,36.133,40.039,26.367,20.996,152.344
1532279946.345,38.574,40.039,28.320,24.902,-47.363
1532279946.349,33.691,36.133,28.809,31.738,-101.562
1532279946.353,30.762,31.738,30.762,35.156,94.727
1532279946.357,29.785,30.273,31.250,33.691,196.777
1532279946.360,37.109,34.180,33.203,36.133,13.672
1532279946.364,43.945,37.109,31.738,29.785,-130.371
1532279946.368,39.551,37.598,27.832,24.414,18.066
1532279946.372,40.039,38.086,26.367,29.785,169.434
1532279946.376,45.898,38.086,24.414,30.762,44.434
1532279946.380,44.434,39.062,25.391,31.250,-118.652
1532279946.384,38.086,37.598,25.879,35.645,-50.293
1532279946.388,38.574,34.180,25.391,35.645,113.281
1532279946.392,36.133,30.762,28.320,36.133,72.266
1532279946.396,33.691,27.344,29.297,32.227,-76.660
1532279946.400,41.016,27.832,24.414,28.320,-40.527
1532279946.403,40.527,28.320,25.879,32.227,113.281
1532279946.407,38.574,29.785,26.855,35.156,95.215
1532279946.411,45.410,33.203,24.414,34.668,-40.527
1532279946.415,41.504,32.715,25.879,34.668,-70.312
1532279946.419,42.969,33.203,27.832,40.039,76.172
1532279946.423,42.969,35.645,28.809,39.551,163.086
1532279946.427,39.551,34.180,28.809,33.203,33.203
1532279946.431,42.969,31.250,29.785,35.156,-85.449
1532279946.435,43.457,30.762,29.785,41.504,27.832
1532279946.439,42.480,29.297,29.785,45.898,151.855
1532279946.442,41.992,29.297,29.785,41.992,28.809
1532279946.446,42.969,31.738,26.367,33.691,-155.273
1532279946.450,42.480,33.203,25.879,36.621,-74.219
1532279946.454,36.621,30.273,26.855,39.551,157.227
1532279946.458,41.016,28.809,29.785,42.969,125.488
1532279946.462,47.852,31.738,31.250,41.016,-65.918
1532279946.466,45.898,34.180,28.809,36.621,-82.031
1532279946.470,41.016,34.180,27.832,40.527,88.867
1532279946.474,44.434,33.203,31.250,41.504,130.371
1532279946.478,41.504,29.297,36.133,38.086,-24.414
1532279946.482,33.203,25.879,32.227,32.227,-104.980
1532279946.485,40.527,25.879,32.227,37.109,50.293
1532279946.489,51.270,26.367,32.227,41.016,169.434
1532279946.493,53.711,28.320,28.320,38.086,-6.836
1532279946.497,51.270,26.855,30.273,41.504,-120.605
1532279946.501,53.223,27.832,31.250,43.457,13.184
1532279946.505,50.781,31.738,32.715,35.156,141.113
1532279946.509,40.039,33.203,30.762,27.832,62.988
1532279946.513,45.898,33.691,31.738,39.551,-91.797
1532279946.517,47.852,32.715,30.273,45.410,-38.086
1532279946.521,38.086,31.738,26.855,34.180,131.348
1532279946.524,34.668,32.715,27.832,35.645,134.766
1532279946.528,41.992,32.227,27.832,40.039,-35.645
1532279946.532,40.527,28.809,27.832,40.527,-59.570
1532279946.536,48.340,25.879,28.809,48.828,128.906
1532279946.540,56.641,26.855,28.320,54.199,187.988
1532279946.544,54.199,28.320,27.344,49.805,-19.531
1532279946.548,53.711,27.344,24.414,44.922,-136.719
1532279946.552,49.316,24.902,22.949,46.387,36.133
1532279946.556,49.805,25.391,26.367,47.852,171.875
1532279946.560,50.293,30.273,26.367,46.387,41.016
1532279946.564,44.434,32.715,25.391,42.480,-128.418
1532279946.567,40.039,29.785,27.832,37.109,-46.875
1532279946.571,39.062,24.414,29.297,38.086,145.508
1532279946.575,34.668,22.461,27.832,39.551,107.910
1532279946.579,29.297,23.926,26.367,38.574,-75.684
1532279946.583,27.832,24.902,27.344,33.203,-52.734
1532279946.587,30.273,26.367,26.367,31.738,97.656
1532279946.591,32.715,26.367,22.949,34.668,111.816
1532279946.595,33.203,26.367,21.973,33.691,-56.152
1532279946.599,36.133,25.391,22.949,32.227,-89.355
1532279946.603,31.250,23.438,23.438,33.691,95.215
1532279946.607,27.344,22.949,23.438,32.715,175.781
1532279946.610,33.203,22.461,23.438,25.391,24.902
1532279946.614,34.180,27.344,19.531,25.879,-95.703
1532279946.618,27.344,29.785,14.160,27.832,46.875
1532279946.622,28.320,27.344,15.625,27.344,161.133
1532279946.626,30.762,24.902,23.438,23.438,52.734
1532279946.630,29.297,23.926,26.367,25.879,-93.750
1532279946.634,31.738,21.484,26.855,35.156,-3.418
1532279946.638,34.668,20.020,28.320,36.133,159.668
1532279946.642,35.645,21.484,28.809,38.086,100.098
1532279946.646,34.668,22.949,25.391,37.109,-75.684
1532279946.649,36.133,25.391,22.461,39.551,-53.711
1532279946.653,40.039,24.902,25.879,41.992,120.117
1532279946.657,38.574,23.926,27.832,39.062,130.371
1532279946.661,33.203,22.461,28.809,38.086,-27.344
1532279946.665,41.504,21.484,28.320,36.133,-96.680
1532279946.669,45.410,22.461,23.926,31.250,76.172
1532279946.673,41.016,22.461,17.578,26.367,179.199
1532279946.677,44.434,22.461,20.020,28.320,1.953
1532279946.681,47.852,21.484,24.414,29.785,-93.262
1532279946.685,46.387,18.555,24.902,28.320,26.367
1532279946.689,47.363,18.066,25.879,33.691,143.066
1532279946.692,43.457,19.531,23.926,38.086,64.941
1532279946.696,37.598,20.508,20.996,40.527,-104.492
1532279946.700,39.551,20.996,20.508,49.316,-55.664
1532279946.704,40.527,20.020,20.996,51.758,127.441
1532279946.708,38.574,20.020,24.902,49.805,102.539
1532279946.712,38.574,20.996,25.391,48.340,-77.148
1532279946.716,41.992,22.949,21.973,49.316,-79.590
1532279946.720,45.898,23.438,21.484,48.340,87.402
1532279946.724,39.551,23.438,21.484,44.922,118.652
1532279946.728,36.133,23.438,20.508,41.016,-42.480
1532279946.732,35.645,19.043,20.996,39.062,-128.418
1532279946.735,34.668,19.531,23.926,37.109,5.859
1532279946.739,30.762,20.996,21.973,31.738,135.254
1532279946.743,28.809,19.531,21.484,27.832,0.488
1532279946.747,26.855,16.602,22.461,26.855,-140.625
1532279946.751,31.738,12.207,22.949,32.715,-3.418
1532279946.755,36.133,11.230,23.926,39.551,159.180
1532279946.759,35.645,14.648,19.531,38.574,94.727
1532279946.763,38.086,19.531,16.602,35.645,-68.359
1532279946.767,43.945,21.484,18.555,36.621,-53.711
1532279946.771,49.316,21.973,19.043,41.504,140.625
1532279946.774,47.852,22.461,17.090,38.574,148.926
1532279946.778,45.898,23.926,15.625,35.156,-57.129
1532279946.782,49.805,24.902,19.043,38.086,-102.051
1532279946.786,43.945,22.461,20.508,34.668,58.105
1532279946.790,35.645,17.578,19.531,31.250,151.855
1532279946.794,35.645,15.625,19.043,31.738,10.742
1532279946.798,37.109,19.531,18.066,30.762,-100.098
1532279946.802,35.645,22.949,17.090,25.879,43.457
1532279946.806,31.250,24.414,17.578,24.414,157.715
1532279946.810,37.109,24.414,19.043,27.344,36.133
1532279946.814,42.480,22.461,20.508,38.574,-103.516
1532279946.817,43.457,22.949,19.531,42.969,-30.273
1532279946.821,40.039,23.926,17.090,39.062,156.738
1532279946.825,34.668,24.902,17.090,34.668,75.195
1532279946.829,36.133,21.973,17.578,27.832,-117.188
1532279946.833,38.574,21.484,20.996,34.668,-43.457
1532279946.837,38.086,24.414,21.973,38.086,132.812
1532279946.841,34.668,26.367,18.555,30.762,122.070
1532279946.845,32.227,26.855,18.066,28.320,-60.059
1532279946.849,30.273,25.391,14.648,20.996,-94.238
1532279946.853,21.973,20.996,13.184,16.113,79.590
1532279946.856,13.184,16.113,20.020,16.113,157.715
1532279946.860,13.184,15.137,22.461,16.113,9.277
1532279946.864,17.090,14.648,22.949,15.625,-100.098
1532279946.868,16.602,13.184,21.973,13.184,-9.766
1532279946.872,18.066,14.160,19.531,15.137,133.789
1532279946.876,27.832,20.996,16.602,15.625,65.918
1532279946.880,29.785,25.391,12.695,15.137,-112.305
1532279946.884,21.973,23.926,16.602,15.137,-62.988
1532279946.888,17.578,19.043,19.531,10.254,122.070
1532279946.892,19.043,17.090,20.508,8.789,109.375
1532279946.896,30.273,16.602,23.438,16.602,-79.102
1532279946.899,40.039,18.555,21.484,20.996,-80.078
1532279946.903,37.598,24.902,16.113,15.137,85.938
1532279946.907,33.691,24.414,11.230,11.719,137.695
1532279946.911,37.598,24.414,15.625,20.996,-21.484
1532279946.915,39.062,22.461,22.949,30.273,-113.770
1532279946.919,41.504,19.043,22.461,35.156,62.012
1532279946.923,38.086,17.090,20.020,35.156,142.090
1532279946.927,29.785,19.043,19.043,27.344,-14.160
1532279946.931,31.250,21.484,21.973,28.809,-119.629
1532279946.935,32.715,14.648,26.367,37.109,0.488
1532279946.939,31.738,14.160,27.344,36.621,146.973
1532279946.942,31.738,17.578,28.320,38.086,63.477
1532279946.946,26.367,14.160,30.273,39.551,-96.680
1532279946.950,21.484,13.184,29.785,34.180,-43.457
1532279946.954,22.461,14.160,26.367,37.109,107.422
1532279946.958,22.949,15.625,22.461,42.969,91.309
1532279946.962,26.367,15.625,17.090,39.062,-73.730
1532279946.966,20.508,12.695,20.020,28.320,-89.355
1532279946.970,13.672,8.789,24.414,31.250,95.215
1532279946.974,20.020,8.301,19.531,34.180,151.367
1532279946.978,28.809,12.695,18.066,35.645,-20.996
1532279946.981,32.715,10.254,23.438,40.527,-101.562
1532279946.985,35.156,4.395,23.926,37.598,63.965
1532279946.989,43.945,4.395,25.391,41.016,176.270
1532279946.993,48.340,5.371,28.809,47.363,41.016
1532279946.997,44.922,9.277,28.809,43.945,-93.262
1532279947.001,47.363,11.230,26.367,34.180,-5.859
1532279947.005,45.898,11.230,23.438,36.133,104.004
1532279947.009,39.551,9.277,25.391,38.574,43.457
1532279947.013,40.527,5.859,29.297,42.480,-100.098
1532279947.017,43.945,4.883,28.320,51.758,-51.270
1532279947.021,43.457,5.371,25.391,53.223,146.973
1532279947.024,39.551,8.789,25.879,46.875,133.301
1532279947.028,38.086,12.695,28.809,43.945,-21.973
1532279947.032,33.203,13.184,29.785,44.922,-45.410
1532279947.036,29.297,9.766,28.320,47.363,76.660
1532279947.040,29.297,7.324,24.414,50.293,131.836
1532279947.044,29.785,8.301,22.949,45.898,-25.391
1532279947.048,27.344,8.789,24.414,40.039,-120.117
1532279947.052,29.785,7.812,25.879,42.480,20.020
1532279947.056,30.273,9.277,26.855,43.457,156.738
1532279947.060,25.879,13.184,24.414,41.504,65.430
1532279947.064,34.180,16.113,25.879,41.016,-105.469
1532279947.067,40.039,18.066,27.832,41.504,-44.434
1532279947.071,33.691,16.113,28.320,45.410,151.367
1532279947.075,30.762,17.578,30.273,45.410,106.445
1532279947.079,34.668,19.531,29.785,42.480,-62.012
1532279947.083,35.156,19.043,26.367,40.039,-58.105
1532279947.087,37.598,19.043,24.414,36.621,80.078
1532279947.091,36.133,16.602,25.879,36.133,125.488
1532279947.095,34.668,18.066,29.785,34.180,-26.367
1532279947.099,34.180,19.043,29.785,31.738,-90.820
1532279947.103,31.738,18.066,28.809,32.227,72.754
1532279947.106,33.691,17.578,28.809,22.461,128.418
1532279947.110,30.273,16.602,29.785,19.043,-8.301
1532279947.114,24.414,19.043,29.297,27.832,-99.121
1532279947.118,30.273,21.484,27.344,33.203,24.902
1532279947.122,38.086,23.926,28.809,39.551,155.762
1532279947.126,38.086,23.438,31.250,42.969,47.363
1532279947.130,39.062,25.879,27.344,41.992,-79.102
1532279947.134,36.133,28.809,26.367,45.410,-28.809
1532279947.138,23.926,24.414,32.227,48.340,118.164
1532279947.142,26.367,24.902,32.715,43.457,104.980
1532279947.146,33.203,27.344,31.250,48.340,-73.730
1532279947.149,35.156,27.832,31.250,54.199,-85.449
1532279947.153,38.086,28.809,33.691,53.223,95.215
1532279947.157,33.691,28.809,36.133,48.828,125.977
1532279947.161,36.133,29.297,37.109,45.410,-22.949
1532279947.165,41.504,28.320,40.039,50.293,-76.172
1532279947.169,40.039,24.414,40.039,57.129,70.312
1532279947.173,46.387,26.367,38.574,59.082,166.992
1532279947.177,49.805,29.297,39.062,53.223,44.434
1532279947.181,52.734,30.273,41.504,52.246,-81.543
1532279947.185,53.711,30.762,43.945,55.176,14.648
1532279947.189,53.223,30.273,43.457,57.617,135.742
1532279947.192,52.734,28.809,43.945,59.082,58.105
1532279947.196,52.246,27.832,44.922,58.105,-101.562
1532279947.200,52.246,30.762,43.945,57.129,-51.758
1532279947.204,52.734,31.250,41.992,49.805,115.234
1532279947.208,49.805,32.227,40.527,45.410,79.102
1532279947.212,44.922,32.227,41.992,49.805,-56.641
1532279947.216,47.363,34.668,44.434,50.293,-55.664
1532279947.220,42.969,37.109,42.480,47.852,102.051
1532279947.224,40.527,33.203,41.992,47.852,157.715
1532279947.228,38.574,29.297,44.434,47.363,-11.230
1532279947.231,34.180,30.762,44.922,44.434,-103.516
1532279947.235,37.109,33.691,43.945,45.410,44.922
1532279947.239,42.480,33.203,44.434,50.293,166.992
1532279947.243,41.992,33.691,46.875,51.270,23.438
1532279947.247,39.551,36.621,44.922,40.527,-128.418
1532279947.251,39.551,34.180,43.945,46.387,-45.898
1532279947.255,43.945,33.691,45.410,61.035,110.352
1532279947.259,47.363,35.645,45.410,63.477,88.867
1532279947.263,48.340,35.645,41.992,61.035,-61.035
1532279947.267,53.223,38.086,39.551,61.523,-40.527
1532279947.271,55.176,40.039,39.551,62.012,121.094
1532279947.274,54.688,40.527,39.551,60.547,104.980
1532279947.278,61.523,39.551,39.551,58.594,-57.617
1532279947.282,54.688,38.086,37.109,49.316,-99.121
1532279947.286,48.340,40.527,37.598,40.527,52.246
1532279947.290,51.270,42.480,36.133,38.574,126.465
1532279947.294,51.758,41.504,36.621,39.551,-0.977
1532279947.298,50.781,39.551,39.551,42.969,-66.406
1532279947.302,49.805,38.086,41.016,50.293,69.824
1532279947.306,54.688,41.992,41.016,50.293,150.879
1532279947.310,57.129,48.340,38.086,45.410,51.758
1532279947.313,48.828,49.316,35.645,46.875,-72.754
1532279947.317,45.410,45.410,35.156,51.270,0.488
1532279947.321,54.688,44.434,38.086,52.246,156.738
1532279947.325,60.059,44.922,38.574,58.105,97.656
1532279947.329,58.105,42.480,35.645,63.965,-61.523
1532279947.333,58.105,41.016,38.086,62.500,-45.898
1532279947.337,56.641,41.016,37.598,55.664,111.816
1532279947.341,57.129,43.945,36.621,58.594,145.996
1532279947.345,59.082,47.852,42.969,63.965,-25.879
1532279947.349,62.988,50.293,39.062,58.105,-81.543
1532279947.353,60.059,45.410,31.250,53.223,100.586
1532279947.356,48.340,38.574,31.738,47.852,195.312
1532279947.360,50.781,37.598,36.621,49.805,39.062
1532279947.364,51.758,33.691,37.109,54.199,-69.336
1532279947.368,47.852,29.785,31.250,51.758,44.434
1532279947.372,46.875,28.809,32.227,51.758,153.809
1532279947.376,44.922,31.250,32.227,51.758,78.125
1532279947.380,40.039,35.156,33.203,55.176,-68.359
1532279947.384,45.898,35.645,36.621,62.012,-41.016
1532279947.388,48.828,35.645,34.180,55.664,100.586
1532279947.392,50.293,40.527,38.574,60.547,86.914
1532279947.396,59.570,44.922,43.945,76.660,-70.801
1532279947.399,49.805,38.086,40.527,71.289,-59.570
1532279947.403,45.410,37.109,42.480,65.430,87.402
1532279947.407,48.340,39.062,42.480,63.965,131.348
1532279947.411,47.852,37.598,40.527,59.082,23.926
1532279947.415,50.781,40.527,43.457,63.477,-57.129
1532279947.419,56.152,43.457,44.922,66.406,59.082
1532279947.423,64.941,48.828,48.340,71.289,118.164
1532279947.427,66.406,51.758,52.734,75.195,0.977
1532279947.431,71.289,51.270,53.223,75.684,-96.191
1532279947.435,66.895,51.270,54.688,78.613,-9.277
1532279947.438,59.082,55.664,54.688,74.707,154.785
1532279947.442,62.500,58.105,53.223,67.871,72.266
1532279947.446,56.641,55.664,50.781,62.500,-85.449
1532279947.450,54.688,53.711,50.781,66.895,-33.691
1532279947.454,53.711,49.805,50.781,70.801,125.977
1532279947.458,52.734,45.898,48.340,68.848,133.789
1532279947.462,59.570,46.387,47.363,72.754,-44.434
1532279947.466,57.129,45.898,48.828,73.242,-86.426
1532279947.470,56.152,42.480,51.270,69.824,75.684
1532279947.474,56.641,41.504,50.293,69.824,111.816
1532279947.478,54.199,40.039,47.363,67.383,-9.277
1532279947.481,62.500,38.574,47.363,71.777,-63.477
1532279947.485,59.570,37.598,46.875,73.242,19.043
1532279947.489,43.457,38.574,43.457,64.453,143.555
1532279947.493,41.016,38.086,42.969,66.895,70.312
1532279947.497,36.621,34.668,44.434,66.895,-69.824
1532279947.501,29.785,35.645,39.062,58.105,14.648
1532279947.505,26.855,39.551,33.691,53.223,144.531
1532279947.509,26.855,42.480,31.738,48.828,98.145
1532279947.513,20.996,41.992,32.227,42.969,-63.965
1532279947.517,18.555,37.598,34.180,43.457,-51.758
1532279947.521,20.508,35.645,37.598,47.852,107.910
1532279947.524,19.043,34.180,36.621,44.434,110.352
1532279947.528,19.531,31.250,35.156,42.969,-39.062
1532279947.532,20.020,31.738,34.180,44.434,-54.199
1532279947.536,24.902,35.645,31.250,49.316,99.609
1532279947.540,33.203,37.598,32.715,57.617,135.254
1532279947.544,34.668,35.645,32.715,58.594,-30.273
1532279947.548,34.668,33.203,34.668,60.059,-119.141
1532279947.552,32.715,31.738,37.109,70.801,10.254
1532279947.556,33.691,32.227,34.668,71.777,136.719
1532279947.560,41.016,33.691,35.156,73.242,75.195
1532279947.563,42.480,35.156,36.133,73.730,-108.887
1532279947.567,37.109,34.668,36.621,61.035,-76.172
1532279947.571,39.551,35.156,39.551,62.012,98.633
1532279947.575,44.922,36.133,42.969,73.242,81.543
1532279947.579,46.387,36.621,43.457,70.801,-59.082
1532279947.583,50.293,39.551,41.504,62.012,-47.852
1532279947.587,44.922,39.551,41.504,60.059,105.469
1532279947.591,38.574,38.086,43.945,57.617,135.742
1532279947.595,41.992,39.062,44.434,52.246,10.254
1532279947.599,44.922,39.062,43.945,60.059,-42.480
1532279947.603,43.457,36.133,43.945,68.359,64.941
1532279947.606,40.039,35.156,45.410,63.965,151.367
1532279947.610,39.062,37.109,49.805,64.941,13.672
1532279947.614,37.598,35.645,50.781,70.312,-93.262
1532279947.618,42.969,34.668,48.340,75.684,3.418
1532279947.622,40.527,34.668,48.828,77.148,102.051
1532279947.626,38.574,36.133,49.805,69.336,32.715
1532279947.630,50.781,36.133,51.758,71.777,-96.680
1532279947.634,55.176,35.156,52.246,78.613,-34.180
1532279947.638,53.711,36.133,51.270,76.172,125.488
1532279947.642,54.199,35.645,51.758,73.242,104.004
1532279947.645,50.781,36.621,49.316,62.500,-87.891
1532279947.649,52.734,38.574,46.875,57.129,-123.535
1532279947.653,53.711,39.062,49.805,63.477,74.219
1532279947.657,51.270,38.086,53.223,61.035,146.973
1532279947.661,54.199,37.598,55.176,60.547,-9.277
1532279947.665,48.340,35.645,57.129,58.105,-95.215
1532279947.669,52.734,36.621,55.176,58.594,42.480
1532279947.673,55.176,37.109,50.781,65.430,160.156
1532279947.677,49.805,37.109,48.828,66.895,69.336
1532279947.681,50.293,38.086,51.270,68.359,-62.988
1532279947.685,57.129,39.551,54.199,66.406,11.230
1532279947.688,55.176,41.992,52.246,65.430,141.113
1532279947.692,42.480,39.551,46.875,61.035,95.215
1532279947.696,45.410,40.527,45.898,62.500,-36.133
1532279947.700,50.781,42.969,47.852,67.871,-15.625
1532279947.704,42.969,42.969,46.875,63.477,100.098
1532279947.708,36.621,42.480,45.898,55.664,60.059
1532279947.712,35.645,38.574,46.387,49.805,-51.758
1532279947.716,35.645,36.621,47.363,49.805,-33.203
1532279947.720,39.551,41.992,47.363,59.082,94.238
1532279947.724,48.340,45.898,46.875,62.500,138.672
1532279947.728,53.711,45.410,45.898,58.105,11.719
1532279947.731,51.270,44.922,46.387,54.688,-85.938
1532279947.735,51.758,44.434,48.828,58.594,33.203
1532279947.739,49.316,42.480,46.875,60.547,148.438
1532279947.743,45.410,41.992,39.551,55.664,32.715
1532279947.747,49.316,40.039,38.574,53.711,-97.656
1532279947.751,43.945,37.109,38.574,56.152,-24.414
1532279947.755,34.180,34.668,41.504,60.059,131.348
1532279947.759,44.922,36.621,43.457,59.570,112.305
1532279947.763,47.852,39.062,41.992,55.664,-79.102
1532279947.767,42.969,38.574,40.039,59.570,-94.727
1532279947.770,44.434,39.551,40.527,63.477,89.355
1532279947.774,50.293,40.039,42.969,62.012,133.301
1532279947.778,47.852,37.109,42.480,64.453,-22.461
1532279947.782,43.457,37.598,42.480,65.918,-77.637
1532279947.786,49.316,40.039,43.945,65.430,61.035
1532279947.790,53.223,37.109,42.969,65.918,133.789
1532279947.794,50.293,34.668,46.875,62.988,35.156
1532279947.798,44.922,36.621,51.758,63.477,-64.453
1532279947.802,35.645,36.133,50.293,70.801,32.715
1532279947.806,33.203,38.086,48.828,59.082,123.535
1532279947.810,33.203,40.039,45.410,50.293,-4.883
1532279947.813,32.227,36.133,44.922,60.547,-106.445
1532279947.817,31.738,34.180,49.316,59.570,-13.672
1532279947.821,32.227,33.691,49.316,61.035,133.301
1532279947.825,37.109,30.273,47.363,67.383,73.730
1532279947.829,42.480,29.297,49.316,66.895,-64.941
1532279947.833,51.270,32.227,49.316,66.895,-38.574
1532279947.837,48.340,33.203,45.898,65.918,101.074
1532279947.841,43.945,35.156,46.387,64.453,139.160
1532279947.845,48.340,35.645,46.875,60.547,-16.602
1532279947.849,50.293,36.133,42.969,55.664,-79.590
1532279947.853,49.316,35.645,41.016,58.594,68.848
1532279947.856,38.574,33.203,40.039,59.570,146.973
1532279947.860,43.457,35.156,40.039,62.500,20.508
1532279947.864,51.270,32.715,40.527,64.453,-88.867
1532279947.868,40.527,27.832,39.551,57.617,-1.465
1532279947.872,33.203,27.344,38.086,54.688,132.324
1532279947.876,35.156,28.809,40.039,57.129,80.566
1532279947.880,41.016,31.250,39.062,59.082,-75.684
1532279947.884,34.180,30.273,36.621,53.711,-61.035
1532279947.888,30.273,25.879,36.621,47.363,106.445
1532279947.892,33.691,28.809,37.109,56.152,110.840
1532279947.895,35.645,30.273,38.574,56.152,-44.434
1532279947.899,34.180,26.367,38.086,52.734,-48.828
1532279947.903,40.039,25.391,37.598,59.082,88.867
1532279947.907,36.621,28.320,40.527,62.012,118.652
1532279947.911,25.879,26.855,40.527,58.594,-15.625
1532279947.915,39.551,29.297,39.551,60.059,-98.633
1532279947.919,45.410,30.762,39.551,62.012,44.434
1532279947.923,38.574,30.273,42.969,59.570,142.578
1532279947.927,32.715,27.344,46.875,51.758,-5.371
1532279947.931,31.738,27.344,41.992,47.363,-92.285
1532279947.935,34.668,33.203,38.086,46.875,6.836
1532279947.938,29.785,35.645,37.109,41.504,112.793
1532279947.942,34.180,37.109,33.691,44.922,82.520
1532279947.946,32.715,37.109,37.598,51.758,-81.055
1532279947.950,25.391,35.156,43.945,48.828,-53.711
1532279947.954,25.391,35.645,41.992,41.504,142.090
1532279947.958,30.273,36.133,41.504,42.969,143.066
1532279947.962,28.320,36.621,42.969,48.828,-44.922
1532279947.966,28.320,37.598,42.969,49.805,-89.844
1532279947.970,23.438,32.715,41.504,42.969,106.934
1532279947.974,17.090,29.297,40.039,39.551,188.965
1532279947.977,24.414,28.809,41.992,46.387,37.598
1532279947.981,27.832,25.391,43.945,52.246,-58.594
1532279947.985,29.297,26.855,41.992,51.758,41.016
1532279947.989,31.738,30.762,40.527,51.270,132.812
1532279947.993,32.715,31.250,39.062,57.617,45.898
1532279947.997,37.598,32.227,38.086,57.617,-75.195
1532279948.001,35.156,31.250,38.086,56.641,13.672
1532279948.005,19.043,24.902,41.992,56.152,142.578
1532279948.009,20.020,22.949,44.922,53.223,97.656
1532279948.013,40.039,25.879,44.434,58.105,-61.523
1532279948.017,38.574,27.832,43.457,62.500,-68.848
1532279948.020,33.691,29.297,41.992,61.523,112.793
1532279948.024,52.246,33.203,41.504,62.988,128.418
1532279948.028,43.945,33.691,40.039,56.152,-29.785
1532279948.032,41.504,35.156,38.574,50.781,-76.172
1532279948.036,42.480,34.180,39.551,55.176,48.340
1532279948.040,29.785,30.273,40.527,51.758,122.070
1532279948.044,32.227,33.203,40.039,40.039,-9.277
1532279948.048,32.227,31.738,43.945,41.992,-146.973
1532279948.052,29.785,26.367,44.922,47.852,-10.742
1532279948.056,33.203,30.273,39.062,48.340,157.227
1532279948.060,31.738,29.785,38.574,51.758,69.824
1532279948.063,35.156,29.297,41.992,56.641,-83.496
1532279948.067,38.574,30.273,40.527,58.105,-42.969
1532279948.071,31.250,25.879,41.504,56.152,140.137
1532279948.075,27.344,26.855,43.457,48.828,138.672
1532279948.079,25.879,26.855,42.480,43.457,-36.133
1532279948.083,16.602,26.367,36.133,41.992,-58.105
1532279948.087,21.973,25.879,35.645,41.992,76.172
1532279948.091,22.949,23.926,37.598,43.945,142.090
1532279948.095,18.555,24.902,36.621,38.574,10.742
1532279948.099,20.996,28.809,36.133,39.551,-64.941
1532279948.102,24.414,28.809,36.133,41.504,60.547
1532279948.106,31.738,27.832,34.668,41.016,144.043
1532279948.110,26.367,26.855,33.691,36.621,44.922
1532279948.114,19.043,24.902,37.109,30.273,-62.012
1532279948.118,24.414,24.414,40.527,41.504,20.508
1532279948.122,33.691,24.902,39.062,58.594,131.348
1532279948.126,40.039,26.855,38.086,58.105,51.758
1532279948.130,36.133,23.926,42.969,46.875,-80.078
1532279948.134,24.414,22.461,45.410,41.504,10.742
1532279948.138,29.297,22.949,41.992,41.016,170.410
1532279948.142,41.504,25.879,37.598,43.457,134.766
1532279948.145,36.621,30.273,36.621,39.551,-52.246
1532279948.149,24.902,27.832,38.574,40.039,-79.590
1532279948.153,25.879,26.367,40.527,44.922,90.332
1532279948.157,35.645,29.785,41.992,54.199,150.391
1532279948.161,45.898,33.691,41.016,59.082,0.000
1532279948.165,37.109,32.227,43.945,55.664,-89.355
1532279948.169,34.180,28.320,44.434,58.594,47.852
1532279948.173,27.832,25.879,40.527,49.316,146.973
1532279948.177,20.996,27.344,38.086,45.898,33.203
1532279948.181,26.855,30.273,36.621,38.574,-97.168
1532279948.185,27.832,28.809,37.598,40.039,-29.785
1532279948.188,41.992,28.809,39.062,52.734,142.090
1532279948.192,44.434,29.297,38.086,45.898,105.469
1532279948.196,30.762,27.344,38.574,38.086,-64.941
1532279948.200,31.250,27.344,41.992,51.270,-20.996
1532279948.204,31.250,28.809,41.504,57.617,133.301
1532279948.208,38.086,32.227,40.039,54.688,122.559
1532279948.212,42.969,32.227,41.992,62.500,-55.664
1532279948.216,36.133,27.344,39.062,63.965,-95.703
1532279948.220,51.758,30.273,39.551,56.641,91.309
1532279948.224,61.035,30.273,41.992,56.152,147.949
1532279948.227,48.828,28.320,37.598,50.781,-18.066
1532279948.231,49.805,33.691,34.180,44.434,-87.402
1532279948.235,50.781,34.668,32.715,41.016,16.113
1532279948.239,44.922,31.250,36.621,38.574,140.137
1532279948.243,47.363,31.250,38.086,50.293,56.152
1532279948.247,44.434,33.691,34.668,56.152,-98.633
1532279948.251,34.180,31.250,35.645,53.711,-34.668
1532279948.255,30.273,24.902,39.062,60.547,105.469
1532279948.259,36.133,28.320,38.574,66.895,65.430
1532279948.263,25.879,29.297,39.062,61.035,-74.219
1532279948.267,9.277,22.949,39.062,45.898,-48.828
1532279948.270,12.207,27.344,36.133,45.410,128.906
1532279948.274,28.809,33.203,36.133,59.082,125.488
1532279948.278,41.504,32.227,38.574,66.895,-47.363
1532279948.282,25.879,30.273,37.598,50.293,-79.102
1532279948.286,12.695,29.297,34.180,30.273,32.715
1532279948.290,15.625,26.367,37.109,35.645,94.238
1532279948.294,20.020,26.367,38.574,44.922,-4.395
1532279948.298,39.551,30.762,41.016,63.477,-96.191
1532279948.302,38.574,30.273,40.039,54.688,23.926
1532279948.306,24.414,29.297,33.691,28.809,143.555
1532279948.309,29.297,26.855,32.715,37.109,59.082
1532279948.313,32.715,24.414,36.133,46.387,-89.355
1532279948.317,24.414,24.414,36.133,39.551,-37.598
1532279948.321,26.367,26.855,36.133,45.410,131.348
1532279948.325,22.949,30.273,37.598,41.992,90.820
1532279948.329,19.043,32.715,34.668,26.855,-67.871
1532279948.333,23.926,31.738,32.715,28.809,-64.941
1532279948.337,21.973,31.738,34.668,29.297,74.219
1532279948.341,20.020,29.785,38.086,33.203,129.883
1532279948.345,22.949,28.809,39.062,40.527,-22.461
1532279948.349,27.832,31.250,39.062,41.992,-94.238
1532279948.352,27.344,32.227,35.156,38.086,65.430
1532279948.356,20.996,32.227,33.691,33.203,147.949
1532279948.360,25.879,33.203,36.621,41.992,-1.953
1532279948.364,32.227,35.156,34.180,40.527,-112.793
1532279948.368,28.809,35.645,30.273,25.391,-22.461
1532279948.372,35.156,34.668,33.691,32.227,113.281
1532279948.376,40.527,33.691,37.598,44.922,71.777
1532279948.380,33.203,32.715,37.598,40.039,-93.750
1532279948.384,32.715,35.645,35.156,25.879,-48.340
1532279948.388,37.598,36.133,35.156,32.715,129.883
1532279948.392,41.504,36.133,40.039,43.457,103.027
1532279948.395,37.109,35.645,45.410,41.992,-50.293
1532279948.399,26.367,30.762,42.969,40.039,-65.918
1532279948.403,28.320,30.762,38.086,31.250,59.082
1532279948.407,37.598,34.180,37.109,25.879,115.723
1532279948.411,29.297,34.180,37.109,26.855,1.465
1532279948.415,34.668,33.691,37.598,34.668,-96.680
1532279948.419,43.945,28.809,39.062,44.434,21.484
1532279948.423,35.156,23.438,36.621,31.250,145.020
1532279948.427,33.203,28.320,35.156,20.020,10.742
1532279948.431,52.246,33.691,36.133,44.922,-114.746
1532279948.434,50.293,28.320,34.180,44.922,-8.301
1532279948.438,39.062,25.879,40.039,41.992,130.371
1532279948.442,41.016,30.273,41.992,44.922,87.891
1532279948.446,24.414,28.809,33.691,20.020,-75.684
1532279948.450,24.902,28.320,31.738,23.926,-62.012
1532279948.454,21.484,24.414,33.203,28.320,125.000
1532279948.458,14.160,21.973,34.180,17.090,138.184
1532279948.462,27.344,26.367,38.086,29.297,-43.457
1532279948.466,35.645,29.785,36.621,29.297,-88.867
1532279948.470,28.320,24.414,32.227,24.414,53.711
1532279948.474,31.250,22.461,32.715,30.273,136.230
1532279948.477,42.969,25.879,36.133,36.621,-3.418
1532279948.481,32.715,21.484,37.598,38.086,-89.844
1532279948.485,28.320,21.973,34.668,41.504,43.457
1532279948.489,50.293,29.785,34.180,50.293,138.672
1532279948.493,50.781,30.273,34.668,50.293,46.875
1532279948.497,35.645,28.320,31.250,39.551,-60.547
1532279948.501,33.691,31.250,29.297,33.203,10.742
1532279948.505,31.738,31.250,26.367,28.320,138.184
1532279948.509,35.645,27.344,32.227,40.039,77.637
1532279948.513,35.645,23.926,39.551,53.223,-69.336
1532279948.517,30.762,23.438,34.668,36.621,-37.109
1532279948.520,35.645,23.926,32.227,32.715,126.953
1532279948.524,40.527,22.461,35.156,50.293,110.840
1532279948.528,41.504,23.926,34.668,57.617,-33.691
1532279948.532,34.668,26.855,29.785,45.898,-83.008
1532279948.536,32.227,27.832,27.832,46.875,57.129
1532279948.540,34.668,27.832,32.715,56.641,143.555
1532279948.544,33.691,24.414,33.691,56.641,14.648
1532279948.548,36.133,23.438,34.180,58.105,-85.449
1532279948.552,43.457,25.879,33.691,57.617,15.137
1532279948.556,32.715,23.438,31.738,49.805,155.273
1532279948.559,28.809,21.973,32.227,46.875,72.754
1532279948.563,34.180,20.508,34.180,48.828,-68.359
1532279948.567,40.039,22.949,36.133,54.199,-18.066
1532279948.571,43.945,27.344,37.598,65.430,132.812
1532279948.575,43.457,28.320,37.109,65.430,101.562
1532279948.579,54.199,31.250,34.180,73.242,-59.570
1532279948.583,63.965,34.180,33.691,81.543,-72.754
1532279948.587,52.734,32.227,34.668,63.965,79.102
1532279948.591,32.227,27.832,29.785,36.621,111.328
1532279948.595,31.738,24.902,29.785,38.086,-32.715
1532279948.599,46.875,26.855,37.598,64.453,-92.773
1532279948.602,31.738,26.855,31.250,46.387,39.062
1532279948.606,50.293,31.738,32.227,54.199,97.656
1532279948.610,63.477,29.785,38.574,73.242,6.836
1532279948.614,32.715,24.902,29.297,40.527,-56.152
1532279948.618,34.668,27.344,29.297,41.016,30.273
1532279948.622,37.109,25.879,32.715,44.922,151.855
1532279948.626,39.551,26.367,32.227,52.734,69.336
1532279948.630,43.945,27.344,29.297,54.688,-70.801
1532279948.634,60.059,30.762,29.785,64.941,-1.465
1532279948.638,59.082,29.785,36.133,69.824,140.137
1532279948.641,36.133,27.832,34.180,43.457,89.844
1532279948.645,44.434,32.227,33.691,46.875,-56.152
1532279948.649,55.176,30.273,35.645,53.223,-70.312
1532279948.653,32.715,23.438,33.203,39.062,96.680
1532279948.657,37.109,24.414,33.203,50.781,156.250
1532279948.661,51.758,29.785,33.691,56.641,24.902
1532279948.665,45.898,29.785,34.668,49.316,-64.453
1532279948.669,56.641,28.809,37.598,59.082,29.785
1532279948.673,46.875,25.391,36.133,53.711,150.391
1532279948.677,44.434,28.320,34.180,52.246,53.711
1532279948.681,51.758,31.738,32.227,53.223,-78.613
1532279948.684,40.039,25.879,34.180,46.387,-21.484
1532279948.688,40.527,23.926,38.086,56.152,127.441
1532279948.692,38.574,27.344,35.156,45.410,104.492
1532279948.696,32.715,25.879,34.180,32.227,-61.523
1532279948.700,30.273,21.973,37.109,43.945,-49.316
1532279948.704,31.738,20.996,40.039,57.617,110.352
1532279948.708,39.062,24.414,42.969,63.965,154.297
1532279948.712,47.852,28.320,43.945,62.500,12.207
1532279948.716,38.574,31.250,40.527,43.457,-83.984
1532279948.720,32.227,32.715,38.086,38.086,62.988
1532279948.724,42.480,33.691,38.574,47.852,135.254
1532279948.727,35.645,31.250,39.551,37.109,-16.113
1532279948.731,35.645,31.250,39.062,38.086,-100.098
1532279948.735,45.410,31.250,38.086,51.758,29.297
1532279948.739,30.273,29.297,34.668,42.969,156.250
1532279948.743,33.691,35.645,33.691,36.621,54.688
1532279948.747,46.875,38.574,33.691,30.273,-116.699
1532279948.751,42.480,35.645,40.039,41.992,-46.875
1532279948.755,21.484,28.320,46.387,44.922,132.812
1532279948.759,23.438,26.367,49.805,42.480,127.441
1532279948.763,31.250,30.273,45.898,35.645,-41.504
1532279948.766,28.809,33.203,41.016,27.344,-56.641
1532279948.770,32.227,34.180,42.969,36.621,102.539
1532279948.774,28.809,31.738,47.363,42.969,105.957
1532279948.778,23.438,32.227,44.922,43.457,-38.086
1532279948.782,20.996,32.227,40.039,34.180,-90.820
1532279948.786,36.133,36.133,38.574,31.738,18.555
1532279948.790,25.879,35.645,38.086,31.250,113.770
1532279948.794,20.020,33.691,40.039,34.668,18.066
1532279948.798,32.227,35.156,39.551,36.621,-83.496
1532279948.802,50.293,40.039,42.480,49.805,6.348
1532279948.806,53.711,39.551,43.945,47.852,116.211
1532279948.809,13.672,28.320,40.527,14.648,64.941
1532279948.813,6.348,26.855,45.898,18.066,-65.918
1532279948.817,22.949,30.762,47.363,30.762,-24.414
1532279948.821,26.367,31.738,43.457,33.203,126.953
1532279948.825,18.066,30.762,42.969,27.832,106.445
1532279948.829,23.438,33.691,43.945,24.902,-39.062
1532279948.833,33.691,35.645,45.410,35.156,-27.344
1532279948.837,32.227,34.180,46.875,45.898,129.883
1532279948.841,31.738,36.133,41.992,37.109,149.414
1532279948.845,32.227,36.133,42.480,27.832,-41.016
1532279948.849,31.738,31.250,51.270,38.574,-95.215
1532279948.852,19.531,29.297,45.410,28.320,77.148
1532279948.856,11.719,30.273,38.086,16.602,168.457
1532279948.860,27.344,30.273,44.922,44.434,47.363
1532279948.864,36.621,33.691,49.316,49.316,-95.215
1532279948.868,28.809,31.738,45.410,41.504,-26.855
1532279948.872,7.324,25.879,37.109,21.484,125.488
1532279948.876,9.277,27.832,41.016,20.508,76.660
1532279948.880,28.320,33.203,48.340,45.410,-79.590
1532279948.884,29.297,35.156,41.992,39.062,-55.176
1532279948.888,20.996,34.180,37.598,18.555,69.336
1532279948.891,19.531,33.203,39.551,27.832,81.543
1532279948.895,39.062,33.691,44.434,50.781,-37.109
1532279948.899,44.922,36.621,38.574,40.527,-46.387
1532279948.903,45.898,41.016,40.039,46.387,85.938
1532279948.907,41.016,38.574,43.457,47.852,142.090
1532279948.911,10.254,31.250,37.598,21.484,17.090
1532279948.915,17.578,32.227,37.109,28.320,-72.266
1532279948.919,26.855,33.691,39.551,37.598,71.289
1532279948.923,24.414,32.227,41.504,35.645,152.832
1532279948.927,30.273,36.621,41.016,30.273,-4.395
1532279948.931,27.344,36.133,37.109,20.996,-105.469
1532279948.934,38.086,34.180,39.551,47.363,-42.969
1532279948.938,32.715,32.715,41.504,51.758,105.469
1532279948.942,10.254,28.320,34.668,18.066,106.445
1532279948.946,20.020,31.738,35.156,26.855,-90.820
1532279948.950,20.996,34.668,32.715,24.414,-60.547
1532279948.954,31.250,37.109,30.762,33.203,97.168
1532279948.958,40.039,33.203,39.551,58.105,90.332
1532279948.962,20.020,26.367,39.551,27.832,-30.762
1532279948.966,8.789,27.344,35.645,7.324,-69.336
1532279948.970,24.902,31.250,38.086,31.738,50.781
1532279948.973,37.109,33.691,34.668,36.133,123.047
1532279948.977,37.598,36.133,28.809,20.020,3.418
1532279948.981,47.363,37.109,34.180,26.367,-80.566
1532279948.985,41.016,35.156,35.156,23.926,28.809
1532279948.989,40.527,35.645,33.691,17.090,132.324
1532279948.993,42.969,33.691,37.109,30.762,78.613
1532279948.997,33.691,30.273,37.598,35.156,-39.062
1532279949.001,47.363,29.785,40.527,59.570,-9.277
1532279949.005,42.969,27.832,41.016,62.500,124.512
1532279949.009,29.785,33.203,34.180,37.598,101.562
1532279949.013,34.180,38.574,32.715,40.527,-47.852
1532279949.016,12.207,28.320,35.645,38.086,-43.945
1532279949.020,3.418,26.367,36.621,28.809,107.422
1532279949.024,30.762,38.086,37.598,37.109,105.957
1532279949.028,31.738,35.156,39.551,40.527,-29.785
1532279949.032,25.391,29.297,39.551,34.668,-46.875
1532279949.036,25.879,28.809,36.133,35.645,72.754
1532279949.040,27.832,30.273,36.133,40.527,132.324
1532279949.044,41.504,37.598,36.133,42.969,1.953
1532279949.048,38.086,39.551,28.809,28.320,-96.191
1532279949.052,35.645,37.598,27.344,33.691,26.855
1532279949.056,45.410,39.062,30.762,48.828,170.898
1532279949.059,42.480,38.086,33.691,47.363,106.445
1532279949.063,48.340,37.109,35.645,52.246,-79.102
1532279949.067,48.340,37.109,36.133,48.340,-68.359
1532279949.071,34.668,33.691,37.598,39.551,66.895
1532279949.075,28.320,34.668,35.645,30.762,72.266
1532279949.079,46.387,41.504,35.156,40.527,-37.598
1532279949.083,48.340,39.062,38.086,46.875,-84.473
1532279949.087,45.898,32.227,38.574,50.293,58.594
1532279949.091,52.734,30.762,38.086,57.129,127.930
1532279949.095,30.273,26.367,36.133,30.762,-28.320
1532279949.098,35.156,27.832,36.133,34.180,-102.051
1532279949.102,45.410,28.809,39.062,47.363,37.109
1532279949.106,33.691,26.855,38.574,34.180,118.652
1532279949.110,41.992,30.273,38.574,39.551,7.812
1532279949.114,48.828,32.715,38.086,46.387,-55.176
1532279949.118,50.293,32.715,39.062,51.270,14.648
1532279949.122,54.688,32.227,43.457,56.641,131.348
1532279949.126,43.945,30.273,40.039,35.156,73.730
1532279949.130,41.504,32.227,37.598,31.250,-82.031
1532279949.134,51.758,32.227,41.016,46.387,-21.973
1532279949.138,42.480,26.367,39.551,36.133,131.836
1532279949.141,48.828,28.809,40.039,47.363,114.258
1532279949.145,51.758,26.855,41.016,59.082,-55.664
1532279949.149,40.039,24.414,40.039,48.340,-61.035
1532279949.153,51.758,28.809,42.969,58.594,104.492
1532279949.157,48.828,26.855,45.898,53.223,144.531
1532279949.161,46.387,24.902,47.852,61.523,-4.883
1532279949.165,46.875,21.973,50.293,57.617,-101.074
1532279949.169,38.574,22.949,46.875,34.180,23.926
1532279949.173,37.598,25.879,42.969,40.039,142.090
1532279949.177,36.621,26.855,41.992,37.109,64.941
1532279949.181,41.992,26.855,42.480,36.133,-47.363
1532279949.184,49.316,24.902,44.922,45.410,1.953
1532279949.188,46.875,24.414,42.480,43.457,130.859
1532279949.192,54.688,27.832,41.016,41.504,97.168
1532279949.196,49.316,29.785,38.574,34.180,-40.039
1532279949.200,34.668,25.879,37.109,29.785,-36.621
1532279949.204,32.227,23.438,40.039,32.227,99.609
1532279949.208,25.879,22.461,37.109,27.344,122.559
1532279949.212,37.109,22.949,36.133,39.062,1.465
1532279949.216,44.922,21.973,40.527,50.293,-62.012
1532279949.220,30.762,17.090,39.551,43.457,52.246
1532279949.223,28.320,19.043,37.109,41.504,133.789
1532279949.227,43.945,24.902,37.598,49.805,-5.371
1532279949.231,46.387,26.367,34.668,47.852,-94.727
1532279949.235,36.133,21.973,35.156,44.922,10.254
1532279949.239,26.367,20.020,33.203,33.691,132.812
1532279949.243,21.973,21.973,32.227,25.879,64.941
1532279949.247,33.203,20.508,38.574,40.039,-75.195
1532279949.251,32.715,20.996,40.527,41.016,-26.855
1532279949.255,36.621,26.367,37.109,41.992,106.445
1532279949.259,41.992,27.832,34.668,36.621,97.168
1532279949.263,38.086,28.809,33.203,30.273,-63.965
1532279949.266,38.086,31.738,34.668,32.227,-75.684
1532279949.270,32.715,31.738,36.133,29.785,93.262
1532279949.274,41.992,33.203,35.645,40.039,126.953
1532279949.278,56.152,34.668,40.527,54.688,-18.066
1532279949.282,45.898,29.785,40.039,49.316,-78.125
1532279949.286,38.086,23.926,36.621,41.504,42.480
1532279949.290,48.828,26.367,39.062,51.758,147.461
1532279949.294,42.480,28.320,37.109,38.574,35.645
1532279949.298,38.574,29.297,35.156,34.668,-95.703
1532279949.302,41.504,30.273,38.086,44.434,7.324
1532279949.305,46.387,28.320,42.480,47.363,125.977
1532279949.309,45.898,27.832,45.898,56.152,53.223
1532279949.313,15.625,23.926,41.016,32.227,-62.012
1532279949.317,9.277,23.438,39.551,24.414,-26.855
1532279949.321,27.344,25.879,40.527,43.945,97.168
1532279949.325,40.527,27.344,40.039,43.457,76.660
1532279949.329,41.992,25.879,42.480,43.457,-47.852
1532279949.333,36.133,26.855,45.410,50.293,-73.730
1532279949.337,30.762,26.855,45.898,42.480,52.246
1532279949.341,30.273,21.973,49.805,46.387,126.465
1532279949.345,37.109,25.391,52.246,55.176,-24.414
1532279949.348,30.762,28.320,46.387,35.156,-127.441
1532279949.352,24.902,26.367,42.480,28.320,22.461
1532279949.356,29.297,24.414,41.992,36.133,155.273
1532279949.360,38.574,24.414,45.898,51.270,43.945
1532279949.364,31.738,24.414,43.945,44.922,-100.586
1532279949.368,17.090,20.508,37.109,22.461,-5.371
1532279949.372,18.066,21.973,36.133,26.855,153.320
1532279949.376,27.344,26.855,38.574,30.273,96.191
1532279949.380,42.480,26.367,42.480,50.293,-61.523
1532279949.384,42.969,25.391,42.969,53.223,-54.199
1532279949.388,30.273,23.926,41.504,46.387,104.492
1532279949.391,26.367,20.996,44.434,48.828,109.375
1532279949.395,29.297,20.508,43.945,38.574,-42.480
1532279949.399,38.574,23.438,41.016,43.457,-74.219
1532279949.403,38.086,21.484,39.551,46.387,62.500
1532279949.407,27.832,18.555,38.086,32.715,93.262
1532279949.411,32.227,23.926,35.645,30.273,-22.461
1532279949.415,37.598,25.879,36.133,41.504,-60.059
1532279949.419,30.762,21.484,38.086,40.527,41.016
1532279949.423,31.250,20.996,37.109,40.039,124.023
1532279949.427,26.855,23.438,34.668,43.945,35.645
1532279949.430,23.926,22.949,34.668,41.504,-76.660
1532279949.434,21.484,22.461,31.738,25.879,12.695
1532279949.438,20.020,24.414,32.715,23.926,138.672
1532279949.442,33.691,28.809,38.086,39.062,90.332
1532279949.446,51.758,32.227,41.016,47.363,-71.289
1532279949.450,44.434,27.832,41.504,50.781,-30.762
1532279949.454,21.484,23.926,37.598,29.785,145.996
1532279949.458,18.555,27.344,36.133,16.113,145.020
1532279949.462,34.668,31.250,40.527,39.062,-32.227
1532279949.466,33.203,28.809,44.922,41.504,-86.426
1532279949.470,20.020,21.484,43.945,29.297,62.012
1532279949.473,26.855,21.973,43.457,31.738,129.883
1532279949.477,27.344,23.926,47.363,38.086,30.762
1532279949.481,18.066,22.949,43.945,37.598,-58.105
1532279949.485,19.531,23.438,41.016,30.762,17.578
1532279949.489,27.344,22.949,46.387,37.109,115.234
1532279949.493,30.273,21.973,48.340,40.527,52.734
1532279949.497,21.484,19.531,46.875,33.691,-80.566
1532279949.501,17.578,18.555,44.922,26.855,-5.859
1532279949.505,13.184,16.113,43.457,20.996,132.324
1532279949.509,9.766,13.672,41.504,20.020,80.078
1532279949.513,27.832,14.648,46.387,44.434,-63.965
1532279949.516,33.691,17.090,47.363,52.734,-66.895
1532279949.520,22.461,19.531,41.504,26.855,91.797
1532279949.524,18.555,20.508,42.480,18.066,120.605
1532279949.528,20.020,20.508,43.945,28.320,-37.598
1532279949.532,22.949,20.996,42.969,31.250,-100.586
1532279949.536,15.625,21.973,40.039,20.020,37.598
1532279949.540,11.719,20.508,40.039,16.113,121.582
1532279949.544,16.602,20.508,43.945,18.066,18.555
1532279949.548,26.367,20.020,48.828,32.227,-87.891
1532279949.552,32.715,17.578,47.852,50.781,0.488
1532279949.555,23.438,19.043,42.480,34.668,145.020
1532279949.559,19.531,20.020,45.410,26.367,86.426
1532279949.563,21.973,19.531,45.410,27.832,-54.688
1532279949.567,21.973,20.508,41.016,27.344,-28.320
1532279949.571,23.438,24.414,37.109,35.156,110.352
1532279949.575,19.043,25.879,35.645,26.855,102.539
1532279949.579,21.484,25.879,37.109,25.879,-18.555
1532279949.583,30.762,27.832,38.574,42.480,-39.062
1532279949.587,29.297,29.297,37.598,35.156,73.242
1532279949.591,25.391,28.809,36.133,24.414,138.184
1532279949.595,32.227,27.344,39.551,35.645,-1.953
1532279949.598,39.062,27.832,41.016,43.945,-76.660
1532279949.602,41.992,29.297,40.527,52.734,45.410
1532279949.606,38.574,32.227,34.668,45.410,119.629
1532279949.610,27.832,34.668,28.320,28.320,37.598
1532279949.614,22.949,31.738,27.832,25.391,-90.332
1532279949.618,23.926,30.762,30.762,26.855,-0.977
1532279949.622,29.297,32.715,37.109,38.574,133.301
1532279949.626,32.715,30.762,39.551,45.898,60.547
1532279949.630,27.832,30.273,32.227,37.109,-89.844
1532279949.634,28.320,31.250,28.809,30.762,-66.406
1532279949.637,34.180,32.715,30.273,37.598,112.793
1532279949.641,22.461,30.762,29.297,29.785,109.863
1532279949.645,20.996,32.227,29.297,13.184,-63.965
1532279949.649,27.832,35.156,28.320,14.160,-86.914
1532279949.653,23.438,31.250,27.344,25.879,63.965
1532279949.657,32.715,28.809,32.715,38.086,143.555
1532279949.661,39.062,30.273,37.598,40.527,16.113
1532279949.665,17.578,27.832,33.691,22.949,-84.473
1532279949.669,13.184,27.832,32.715,20.508,45.410
1532279949.673,26.367,31.738,35.645,27.344,149.414
1532279949.677,32.227,33.691,35.156,24.902,45.410
1532279949.680,32.715,30.762,34.180,27.344,-68.848
1532279949.684,36.133,29.297,34.180,30.762,-20.508
1532279949.688,27.344,26.367,32.715,24.902,117.676
1532279949.692,20.508,24.414,31.738,28.320,100.586
1532279949.696,36.133,29.297,33.203,39.062,-44.922
1532279949.700,27.832,28.320,31.250,29.785,-24.902
1532279949.704,17.578,26.367,30.273,22.461,107.422
1532279949.708,25.391,30.273,29.785,23.926,120.605
1532279949.712,37.109,32.227,33.203,34.180,9.277
1532279949.716,36.621,30.762,31.738,29.297,-40.527
1532279949.720,29.297,29.785,26.367,16.113,63.477
1532279949.723,43.457,30.762,28.809,28.320,146.973
1532279949.727,49.805,31.250,31.250,31.738,5.859
1532279949.731,41.016,27.832,26.855,19.531,-102.539
1532279949.735,54.199,32.227,20.996,19.043,14.648
1532279949.739,57.617,38.574,25.391,26.367,136.230
1532279949.743,41.992,34.180,32.227,33.203,76.660
1532279949.747,34.668,28.320,39.062,45.898,-76.660
1532279949.751,18.555,27.344,35.645,42.969,-36.621
1532279949.755,16.602,30.762,29.785,35.156,109.375
1532279949.759,36.133,35.156,33.691,50.293,102.539
1532279949.762,24.902,32.715,32.715,43.457,-26.367
1532279949.766,12.207,30.762,28.320,18.066,-69.336
1532279949.770,29.297,32.715,32.715,32.715,74.219
1532279949.774,35.645,32.227,36.621,51.270,141.113
1532279949.778,17.578,30.762,36.133,38.574,-16.602
1532279949.782,21.484,31.738,32.715,40.039,-98.633
1532279949.786,30.273,29.785,27.832,45.898,51.270
1532279949.790,33.203,30.762,32.715,51.758,137.207
1532279949.794,31.738,30.273,32.715,48.828,28.320
1532279949.798,22.949,31.250,26.855,29.297,-54.688
1532279949.802,30.762,35.645,29.297,40.039,28.809
1532279949.805,41.992,34.180,33.691,54.688,142.578
1532279949.809,24.414,31.250,29.297,36.621,83.496
1532279949.813,16.602,32.227,27.832,28.320,-56.641
1532279949.817,32.227,34.668,31.738,36.621,-38.574
1532279949.821,44.922,37.109,31.738,46.387,103.027
1532279949.825,55.176,40.039,28.320,46.875,100.098
1532279949.829,40.039,34.668,30.273,36.133,-64.453
1532279949.833,19.531,27.832,35.156,27.832,-86.426
1532279949.837,38.086,32.715,33.691,35.645,77.148
1532279949.841,50.293,37.109,29.785,39.551,138.672
1532279949.845,40.527,30.762,31.738,43.945,-3.418
1532279949.848,35.645,29.297,37.109,46.875,-73.730
1532279949.852,32.715,30.273,38.086,49.316,47.852
1532279949.856,27.832,28.320,34.668,41.992,144.531
1532279949.860,20.508,27.344,35.156,26.367,35.156
1532279949.864,31.250,27.344,34.668,26.855,-107.910
1532279949.868,46.387,30.762,33.203,38.574,-49.316
1532279949.872,41.992,29.785,38.574,56.641,120.117
1532279949.876,39.062,28.320,40.527,55.176,77.148
1532279949.880,21.484,26.855,36.621,30.762,-70.312
1532279949.884,13.184,22.949,37.109,21.973,-57.617
1532279949.887,29.297,25.391,32.715,33.203,78.125
1532279949.891,34.668,24.902,32.715,45.898,90.820
1532279949.895,37.109,25.879,36.621,42.480,-49.805
1532279949.899,46.387,26.367,36.133,47.363,-60.059
1532279949.903,30.273,19.531,33.203,32.227,81.543
1532279949.907,18.066,16.602,30.762,18.555,130.371
1532279949.911,43.945,24.414,34.180,43.457,12.695
1532279949.915,62.012,28.809,36.133,62.012,-80.566
1532279949.919,43.457,23.438,33.691,39.551,15.137
1532279949.923,37.598,23.926,33.203,31.738,128.418
1532279949.927,44.922,31.250,30.273,39.062,39.551
1532279949.930,42.480,33.691,31.738,43.457,-81.055
1532279949.934,40.039,26.367,34.668,42.480,-24.414
1532279949.938,51.758,24.902,42.480,58.105,134.766
1532279949.942,47.852,27.832,42.969,58.105,116.699
1532279949.946,33.691,28.320,35.156,36.133,-82.031
