timestamps,TP9,AF7,AF8,TP10,Right AUX
1532215754.380,25.391,17.090,18.555,40.039,-23.926
1532215754.383,29.297,18.066,20.508,40.039,170.410
1532215754.387,32.715,21.973,18.555,34.668,109.375
1532215754.391,27.832,24.414,15.625,29.297,-76.660
1532215754.395,28.320,22.949,13.672,28.809,-65.918
1532215754.399,30.762,22.461,13.672,32.715,107.422
1532215754.403,28.809,25.391,17.090,35.645,125.488
1532215754.407,30.762,24.414,21.484,36.133,-40.039
1532215754.411,44.434,27.344,17.090,35.645,-78.125
1532215754.415,44.922,28.809,13.672,34.668,60.059
1532215754.419,39.062,27.344,18.555,26.855,148.926
1532215754.423,30.762,26.367,21.484,20.020,43.457
1532215754.426,26.855,25.879,20.020,21.973,-79.590
1532215754.430,30.273,25.391,15.137,27.832,30.762
1532215754.434,35.645,21.973,14.648,31.738,143.066
1532215754.438,45.410,20.020,17.090,31.738,68.359
1532215754.442,45.410,19.043,20.996,36.133,-98.633
1532215754.446,49.805,16.113,22.949,38.086,-60.547
1532215754.450,52.734,17.578,23.438,38.086,160.645
1532215754.454,53.223,18.555,23.926,46.387,130.859
1532215754.458,58.594,17.090,25.879,47.363,-88.379
1532215754.462,47.363,18.066,26.855,46.875,-87.402
1532215754.466,30.273,21.973,24.902,49.805,122.070
1532215754.469,31.738,24.902,25.391,52.734,166.504
1532215754.473,32.715,20.996,25.879,47.363,-6.836
1532215754.477,26.855,20.020,25.879,39.551,-79.102
1532215754.481,32.715,22.949,27.344,36.133,95.703
1532215754.485,20.508,20.508,32.227,34.180,208.984
1532215754.489,14.648,16.602,33.203,37.598,77.148
1532215754.493,27.344,19.043,31.250,37.109,-64.941
1532215754.497,20.508,25.879,26.855,27.344,7.324
1532215754.501,20.020,28.809,21.973,21.484,164.062
1532215754.505,22.949,33.203,21.973,20.020,121.094
1532215754.508,20.020,38.086,22.461,20.020,-56.641
1532215754.512,19.531,35.156,24.414,24.902,-11.230
1532215754.516,20.020,32.227,28.320,25.391,130.859
1532215754.520,14.160,28.809,28.809,20.020,149.902
1532215754.524,19.043,24.414,30.762,31.250,-0.488
1532215754.528,27.832,27.832,30.273,40.527,-34.180
1532215754.532,25.391,32.227,27.832,25.879,131.348
1532215754.536,20.996,31.738,30.273,22.461,186.035
1532215754.540,18.555,32.715,27.832,20.020,30.273
1532215754.544,20.020,34.668,22.949,17.578,-99.609
1532215754.548,29.297,36.133,20.996,20.020,47.363
1532215754.551,36.133,41.016,18.066,24.902,209.473
1532215754.555,40.039,40.527,15.137,32.715,105.469
1532215754.559,44.922,36.621,20.508,32.227,-88.379
1532215754.563,39.062,38.086,29.297,31.738,4.395
1532215754.567,36.621,37.109,32.227,34.668,173.340
1532215754.571,32.715,30.762,28.809,35.156,129.395
1532215754.575,32.227,27.344,21.973,27.344,-51.758
1532215754.579,28.320,28.809,19.531,19.043,-62.988
1532215754.583,21.973,30.273,19.531,23.438,109.863
1532215754.587,33.203,25.391,23.438,34.668,125.977
1532215754.591,41.016,23.926,25.879,42.480,-42.969
1532215754.594,42.480,35.156,23.926,34.180,-89.844
1532215754.598,47.363,38.086,22.949,31.738,97.168
1532215754.602,36.133,31.250,21.973,36.621,175.781
1532215754.606,24.902,30.273,22.949,32.227,22.461
1532215754.610,21.973,32.715,22.461,26.855,-91.797
1532215754.614,18.555,27.832,26.855,20.996,47.363
1532215754.618,11.230,19.531,31.250,20.020,209.961
1532215754.622,9.766,18.555,31.738,26.367,109.863
1532215754.626,10.254,16.113,33.203,28.809,-57.617
1532215754.630,21.973,15.625,38.086,38.086,6.348
1532215754.633,24.414,21.484,34.180,36.621,188.965
1532215754.637,24.902,31.738,19.531,20.996,119.141
1532215754.641,32.715,35.645,15.137,27.832,-61.523
1532215754.645,27.832,26.855,25.879,33.203,-35.645
1532215754.649,23.926,23.926,30.762,27.344,137.207
1532215754.653,20.020,26.367,29.297,26.367,182.129
1532215754.657,16.602,25.391,31.738,29.297,19.043
1532215754.661,24.414,23.438,36.133,36.621,-74.219
1532215754.665,34.668,19.531,38.086,36.621,88.867
1532215754.669,38.574,22.949,30.762,32.227,193.359
1532215754.673,35.156,30.273,23.926,27.344,35.156
1532215754.676,41.992,34.668,21.484,21.973,-98.633
1532215754.680,44.922,35.156,22.461,31.738,36.133
1532215754.684,29.297,27.832,27.832,37.109,179.688
1532215754.688,19.531,24.414,32.715,29.785,86.426
1532215754.692,14.648,25.879,30.273,27.832,-90.332
1532215754.696,15.625,26.855,28.320,29.297,-50.781
1532215754.700,29.297,24.414,28.809,32.715,132.812
1532215754.704,36.133,18.555,33.203,38.574,112.305
1532215754.708,34.668,23.438,30.762,41.504,-66.895
1532215754.712,32.715,28.809,23.438,37.598,-71.777
1532215754.716,30.273,23.438,25.391,36.621,93.750
1532215754.719,26.367,19.043,29.297,31.250,143.555
1532215754.723,27.344,20.020,29.785,25.879,-13.184
1532215754.727,29.785,20.508,29.785,33.203,-125.488
1532215754.731,41.992,21.973,30.273,41.504,22.461
1532215754.735,45.898,25.879,28.320,32.715,154.785
1532215754.739,43.457,28.320,24.902,26.855,20.020
1532215754.743,42.969,25.879,25.879,36.133,-114.746
1532215754.747,35.645,22.949,27.344,37.598,2.441
1532215754.751,27.832,22.461,27.832,30.762,166.016
1532215754.755,24.414,25.879,25.391,27.832,82.031
1532215754.758,30.762,27.344,21.484,29.785,-85.938
1532215754.762,33.691,26.855,20.508,33.691,-18.066
1532215754.766,32.715,27.832,25.391,31.250,164.551
1532215754.770,24.902,29.297,30.273,28.809,156.250
1532215754.774,22.949,25.391,32.227,31.738,-69.336
1532215754.778,31.738,19.043,34.668,38.086,-128.906
1532215754.782,40.039,20.996,36.133,43.945,69.824
1532215754.786,29.297,26.367,31.738,40.527,167.969
1532215754.790,29.785,26.855,28.320,39.062,31.250
1532215754.794,38.574,29.785,22.461,37.109,-109.863
1532215754.798,45.898,31.738,15.625,41.016,21.484
1532215754.801,48.828,24.902,25.391,47.852,161.621
1532215754.805,39.551,27.344,29.785,40.039,83.984
1532215754.809,40.039,31.250,23.926,40.039,-64.453
1532215754.813,41.016,23.438,32.715,44.434,-25.879
1532215754.817,32.715,20.020,38.574,44.434,140.137
1532215754.821,38.086,24.902,34.180,46.875,116.699
1532215754.825,37.598,23.926,31.250,45.410,-78.613
1532215754.829,32.227,15.625,35.645,48.340,-97.168
1532215754.833,26.855,11.719,41.504,47.852,101.562
1532215754.837,23.438,12.695,42.480,32.227,138.184
1532215754.840,30.273,16.602,42.480,34.668,-32.227
1532215754.844,42.969,13.184,40.527,52.734,-92.285
1532215754.848,43.457,13.672,39.551,50.781,79.102
1532215754.852,35.645,19.531,41.016,44.434,155.273
1532215754.856,29.297,19.043,42.480,40.039,-5.859
1532215754.860,32.227,20.996,38.574,40.527,-108.887
1532215754.864,35.645,25.391,31.738,42.480,20.996
1532215754.868,34.668,22.949,29.785,40.527,161.621
1532215754.872,31.738,19.043,32.227,41.504,69.824
1532215754.876,32.227,22.949,34.668,38.086,-119.629
1532215754.880,35.156,25.879,35.645,40.527,-78.613
1532215754.883,37.109,22.461,36.133,42.480,114.258
1532215754.887,33.203,19.531,34.668,36.133,112.793
1532215754.891,29.785,20.020,27.832,36.621,-73.242
1532215754.895,33.203,22.461,24.414,41.992,-99.609
1532215754.899,27.344,24.414,30.273,42.480,86.426
1532215754.903,21.484,20.996,36.133,37.598,150.879
1532215754.907,26.367,14.160,39.062,36.621,0.977
1532215754.911,25.879,12.207,41.504,31.738,-109.863
1532215754.915,12.695,11.719,41.992,36.133,32.715
1532215754.919,28.809,10.254,42.480,45.410,167.480
1532215754.923,32.227,17.090,34.668,46.875,41.016
1532215754.926,25.879,21.484,34.180,39.062,-91.309
1532215754.930,24.414,21.973,36.621,37.109,27.832
1532215754.934,19.043,26.855,30.762,33.203,153.320
1532215754.938,18.066,33.691,23.438,21.973,68.359
1532215754.942,21.484,34.668,23.438,22.461,-99.609
1532215754.946,37.109,33.691,30.762,31.738,-51.758
1532215754.950,30.762,31.250,32.227,33.203,104.004
1532215754.954,24.902,28.809,28.320,32.715,107.422
1532215754.958,35.645,25.879,29.297,39.062,-6.836
1532215754.962,29.785,21.973,33.203,30.273,-37.598
1532215754.965,30.273,22.461,33.203,28.809,80.566
1532215754.969,34.668,20.996,34.668,35.156,157.227
1532215754.973,35.645,16.602,37.598,34.180,55.664
1532215754.977,32.715,17.090,40.039,29.785,-83.008
1532215754.981,27.832,20.996,39.551,30.762,9.277
1532215754.985,25.879,15.137,36.621,41.016,120.117
1532215754.989,32.227,9.277,38.574,44.922,73.730
1532215754.993,42.480,10.254,35.156,45.410,-37.109
1532215754.997,42.969,19.043,24.902,37.598,-34.668
1532215755.001,37.109,25.879,21.484,27.344,113.770
1532215755.005,33.691,25.391,20.508,29.785,108.887
1532215755.008,33.203,26.367,24.414,33.691,-32.715
1532215755.012,20.020,22.461,30.273,33.203,-56.152
1532215755.016,21.973,20.020,29.297,30.273,48.828
1532215755.020,30.762,23.926,26.367,33.691,112.793
1532215755.024,39.551,22.461,29.297,43.945,-2.930
1532215755.028,47.363,23.926,31.250,50.293,-65.918
1532215755.032,52.734,25.879,30.762,56.152,47.852
1532215755.036,52.734,18.066,34.668,54.199,107.422
1532215755.040,55.664,13.184,32.715,55.664,43.945
1532215755.044,62.988,16.113,29.785,63.477,-73.242
1532215755.048,61.035,17.090,30.762,58.105,0.977
1532215755.051,57.129,15.137,32.715,54.688,132.324
1532215755.055,54.199,16.602,32.715,55.664,69.824
1532215755.059,56.152,25.391,25.391,51.270,-69.336
1532215755.063,55.176,28.809,22.461,50.293,-24.902
1532215755.067,49.316,27.344,23.926,44.922,113.281
1532215755.071,50.781,24.902,24.902,41.504,106.934
1532215755.075,39.551,19.043,31.738,36.621,-46.875
1532215755.079,33.203,19.043,32.227,39.551,-99.121
1532215755.083,46.387,26.855,28.809,52.246,21.973
1532215755.087,58.594,34.180,29.297,56.152,70.312
1532215755.090,61.035,33.203,25.391,54.199,-6.348
1532215755.094,49.805,28.809,25.391,50.781,-80.078
1532215755.098,47.363,26.855,28.320,51.758,12.207
1532215755.102,41.504,25.391,28.809,53.711,125.488
1532215755.106,32.715,21.484,34.180,51.270,33.203
1532215755.110,28.809,23.438,33.203,45.898,-95.703
1532215755.114,34.668,30.273,26.367,48.828,-20.020
1532215755.118,45.410,33.691,21.484,50.293,110.840
1532215755.122,41.992,28.320,21.973,40.039,69.824
1532215755.126,38.574,26.855,27.344,37.598,-82.031
1532215755.130,36.133,31.250,26.367,36.621,-65.430
1532215755.133,33.691,33.203,24.414,26.855,103.027
1532215755.137,35.156,31.250,26.855,27.344,112.305
1532215755.141,34.180,31.250,28.320,31.738,-51.758
1532215755.145,36.133,30.273,28.320,36.133,-69.824
1532215755.149,43.945,28.320,28.320,51.270,84.473
1532215755.153,52.246,25.879,30.762,58.105,136.719
1532215755.157,67.383,30.762,33.203,49.805,-25.879
1532215755.161,71.289,38.086,27.344,43.945,-120.117
1532215755.165,59.082,34.180,26.367,53.223,47.363
1532215755.169,42.480,25.391,30.273,47.363,165.039
1532215755.172,32.715,25.879,28.320,32.227,42.969
1532215755.176,38.574,27.832,28.809,29.297,-118.652
1532215755.180,43.457,26.367,27.344,36.133,-16.113
1532215755.184,34.668,28.320,23.926,41.504,152.344
1532215755.188,33.691,27.344,25.391,35.645,90.820
1532215755.192,39.551,28.809,22.461,36.133,-106.934
1532215755.196,36.621,32.715,21.973,40.527,-82.031
1532215755.200,34.180,33.691,27.344,31.250,126.465
1532215755.204,34.180,31.250,28.809,26.367,140.625
1532215755.208,42.969,22.949,26.367,29.297,-79.102
1532215755.212,51.270,23.438,26.855,30.273,-131.836
1532215755.215,48.340,30.273,31.250,25.391,22.461
1532215755.219,42.969,29.785,31.738,20.020,101.074
1532215755.223,39.551,26.855,32.715,22.949,-16.602
1532215755.227,37.109,21.484,33.203,31.738,-131.348
1532215755.231,39.551,17.578,33.203,44.434,36.133
1532215755.235,37.598,21.484,32.227,48.340,155.762
1532215755.239,36.133,25.391,28.809,43.457,17.090
1532215755.243,23.438,27.832,26.367,34.668,-134.766
1532215755.247,21.973,27.832,28.809,36.133,-38.086
1532215755.251,28.320,24.902,30.273,39.551,130.859
1532215755.255,20.508,21.973,30.762,30.762,64.453
1532215755.258,20.996,20.508,32.715,33.203,-115.234
1532215755.262,26.855,20.508,32.227,38.574,-93.750
1532215755.266,32.715,22.461,31.250,43.457,88.379
1532215755.270,44.434,23.438,27.832,46.875,144.043
1532215755.274,49.805,24.902,25.879,39.062,-35.645
1532215755.278,51.758,28.809,26.855,39.062,-108.398
1532215755.282,50.781,28.320,32.227,45.410,67.871
1532215755.286,41.992,22.461,35.645,42.480,169.922
1532215755.290,41.016,21.484,33.691,36.621,28.809
1532215755.294,40.527,21.484,35.645,33.203,-130.371
1532215755.297,36.133,21.484,38.574,30.762,17.578
1532215755.301,38.574,20.996,38.086,35.156,162.109
1532215755.305,44.922,22.949,32.227,34.668,82.031
1532215755.309,47.363,28.809,26.855,28.809,-58.594
1532215755.313,41.016,33.691,24.414,31.250,-55.664
1532215755.317,27.344,32.715,27.344,27.344,81.055
1532215755.321,22.461,29.297,31.250,23.926,95.703
1532215755.325,36.621,26.855,33.691,34.668,-55.664
1532215755.329,42.480,25.391,34.180,43.945,-78.613
1532215755.333,37.598,22.949,34.668,42.969,79.590
1532215755.337,31.738,24.902,35.156,35.156,131.836
1532215755.340,32.715,29.785,31.738,31.738,-6.348
1532215755.344,36.621,31.250,27.832,29.297,-115.723
1532215755.348,51.758,26.367,25.879,32.227,12.695
1532215755.352,51.270,25.391,26.367,33.203,128.906
1532215755.356,29.785,29.785,26.367,27.344,40.527
1532215755.360,30.273,25.879,27.832,30.273,-74.219
1532215755.364,36.621,22.949,30.273,32.227,-10.742
1532215755.368,31.250,25.391,30.762,30.762,140.137
1532215755.372,32.227,23.438,31.250,38.086,92.773
1532215755.376,51.270,19.043,34.668,51.270,-66.895
1532215755.380,54.199,22.461,30.762,47.852,-58.594
1532215755.383,43.457,34.668,20.020,42.480,89.844
1532215755.387,42.480,39.062,20.508,34.668,131.836
1532215755.391,33.203,32.715,24.414,22.949,-21.484
1532215755.395,20.508,24.902,24.902,15.137,-83.496
1532215755.399,27.832,24.414,22.949,10.254,43.945
1532215755.403,43.457,25.879,20.996,21.484,119.141
1532215755.407,37.109,24.902,21.973,25.391,26.367
1532215755.411,28.809,21.973,24.414,20.996,-42.480
1532215755.415,30.762,23.438,28.809,20.020,60.547
1532215755.419,27.832,28.320,30.273,20.020,132.812
1532215755.422,27.344,30.273,32.715,21.973,33.691
1532215755.426,30.762,26.367,32.715,20.996,-90.820
1532215755.430,32.227,23.438,30.762,23.438,-0.488
1532215755.434,36.621,23.926,29.785,27.832,141.113
1532215755.438,31.250,21.973,28.809,24.902,67.383
1532215755.442,26.855,22.949,29.785,22.461,-100.586
1532215755.446,31.738,23.438,33.203,31.738,-67.871
1532215755.450,42.480,21.484,37.109,42.969,112.793
1532215755.454,44.922,27.832,30.273,39.551,120.605
1532215755.458,50.781,36.621,25.391,21.973,-79.590
1532215755.462,54.199,38.574,22.949,20.996,-128.906
1532215755.465,50.293,39.062,15.137,27.344,80.078
1532215755.469,40.527,36.621,20.020,23.438,164.551
1532215755.473,27.344,30.762,28.809,11.230,25.879
1532215755.477,37.109,27.344,22.949,12.695,-97.656
1532215755.481,45.410,20.508,20.020,30.273,36.621
1532215755.485,43.945,18.555,26.367,30.273,187.500
1532215755.489,33.203,29.785,22.949,17.090,76.172
1532215755.493,34.180,38.086,17.090,22.949,-92.773
1532215755.497,43.945,35.645,25.391,25.391,-24.902
1532215755.501,35.645,31.250,30.762,26.855,158.691
1532215755.504,42.969,29.785,30.273,41.504,117.676
1532215755.508,43.457,26.855,33.203,42.480,-77.637
1532215755.512,35.645,26.367,35.156,41.992,-47.363
1532215755.516,36.621,23.438,35.645,39.062,113.281
1532215755.520,35.645,18.555,35.645,37.109,138.672
1532215755.524,39.551,24.414,35.156,34.180,-23.926
1532215755.528,37.109,30.273,32.715,28.809,-114.258
1532215755.532,32.227,28.320,29.297,30.762,73.730
1532215755.536,35.156,28.320,28.809,20.020,161.133
1532215755.540,31.250,33.691,26.367,10.742,0.977
1532215755.544,24.414,34.668,25.879,16.113,-100.098
1532215755.547,28.320,31.738,28.809,21.484,27.344
1532215755.551,40.039,28.320,26.367,31.738,152.344
1532215755.555,41.992,29.297,23.926,36.133,62.988
1532215755.559,36.133,32.227,33.691,31.250,-83.984
1532215755.563,31.738,30.273,36.621,34.180,-46.387
1532215755.567,36.133,26.367,35.156,40.039,105.957
1532215755.571,44.434,23.926,36.621,40.039,96.191
1532215755.575,39.062,23.438,37.598,41.504,-90.820
1532215755.579,49.316,20.020,36.621,39.062,-103.516
1532215755.583,58.594,25.391,26.367,37.109,95.703
1532215755.587,36.621,34.180,20.508,27.832,145.996
1532215755.590,24.902,35.645,20.508,16.602,-19.531
1532215755.594,32.715,40.527,17.578,19.043,-105.469
1532215755.598,31.250,41.016,17.578,23.438,40.039
1532215755.602,23.438,32.715,29.297,23.926,128.906
1532215755.606,41.992,31.250,32.227,26.855,33.691
1532215755.610,50.781,35.645,24.414,29.297,-87.891
1532215755.614,35.645,30.762,17.090,26.367,-8.789
1532215755.618,33.203,28.809,20.508,20.996,109.375
1532215755.622,29.785,36.621,27.344,20.996,68.848
1532215755.626,30.762,39.551,27.344,25.879,-37.598
1532215755.629,33.203,34.668,27.344,30.273,-20.508
1532215755.633,28.809,28.809,26.367,29.297,120.117
1532215755.637,46.875,27.832,29.297,33.691,105.469
1532215755.641,57.617,33.691,27.344,38.574,-30.762
1532215755.645,41.016,32.715,25.391,37.598,-59.082
1532215755.649,31.250,27.344,32.715,34.668,82.031
1532215755.653,24.414,26.855,34.668,28.809,146.973
1532215755.657,25.391,24.414,31.250,27.344,29.785
1532215755.661,36.133,21.973,28.809,28.809,-57.129
1532215755.665,41.992,28.320,23.926,25.879,12.207
1532215755.669,41.504,41.992,15.137,22.461,122.070
1532215755.672,44.434,46.875,13.184,32.227,87.402
1532215755.676,43.945,41.016,21.484,31.250,-60.059
1532215755.680,39.062,38.574,25.391,28.320,-29.297
1532215755.684,46.875,39.551,25.391,37.598,119.629
1532215755.688,53.223,34.668,25.391,41.992,104.492
1532215755.692,62.500,32.227,24.414,48.340,-32.227
1532215755.696,54.199,33.691,26.367,48.340,-33.203
1532215755.700,32.227,30.273,33.203,38.086,93.262
1532215755.704,30.273,25.879,34.180,34.180,120.605
1532215755.708,38.086,23.438,33.203,39.551,4.395
1532215755.712,44.434,24.414,32.715,47.852,-61.035
1532215755.715,53.711,21.973,29.785,39.551,53.711
1532215755.719,54.199,26.855,26.367,32.715,126.465
1532215755.723,46.387,36.133,24.902,38.086,14.648
1532215755.727,50.293,37.598,31.250,38.086,-75.195
1532215755.731,47.363,33.203,33.691,38.574,29.297
1532215755.735,44.434,28.320,32.227,38.086,152.344
1532215755.739,48.340,26.855,30.762,36.621,65.430
1532215755.743,49.316,30.273,29.785,36.133,-107.422
1532215755.747,51.270,33.691,32.227,34.180,-64.453
1532215755.751,49.805,31.738,30.762,36.133,107.422
1532215755.754,49.316,37.109,29.297,40.039,72.266
1532215755.758,54.199,42.969,28.809,45.410,-101.562
1532215755.762,42.969,38.574,33.203,41.504,-72.266
1532215755.766,29.297,36.621,34.668,26.367,103.027
1532215755.770,47.363,35.645,33.691,30.762,145.996
1532215755.774,58.594,29.297,30.273,33.203,-34.180
1532215755.778,36.133,24.414,28.320,25.879,-107.910
1532215755.782,39.062,27.344,30.762,27.832,77.148
1532215755.786,41.504,36.133,31.738,27.832,175.781
1532215755.790,34.668,36.621,35.645,28.809,37.109
1532215755.794,41.992,36.621,35.156,25.879,-119.141
1532215755.797,39.551,38.086,31.738,22.461,-5.859
1532215755.801,20.996,36.621,30.762,20.020,170.898
1532215755.805,30.762,38.086,36.621,22.461,82.520
1532215755.809,51.270,39.062,36.133,29.785,-111.816
1532215755.813,41.992,40.527,29.785,33.203,-45.410
1532215755.817,32.715,39.062,30.762,31.250,105.957
1532215755.821,30.273,36.621,37.598,26.855,105.469
1532215755.825,29.297,40.039,39.551,25.879,-57.129
1532215755.829,30.762,38.574,34.668,22.949,-93.750
1532215755.833,43.457,35.645,32.715,25.879,122.559
1532215755.836,54.199,39.062,35.645,30.762,144.531
1532215755.840,41.016,39.062,40.527,28.809,-36.133
1532215755.844,22.949,31.738,41.992,20.996,-99.609
1532215755.848,21.973,25.879,44.434,27.832,84.473
1532215755.852,33.203,23.926,40.039,34.668,200.684
1532215755.856,34.180,31.250,31.738,17.090,22.949
1532215755.860,25.391,41.992,30.762,6.836,-129.883
1532215755.864,24.414,36.621,31.250,18.555,12.207
1532215755.868,27.344,29.297,34.180,28.809,160.645
1532215755.872,39.062,37.109,34.668,24.414,67.383
1532215755.876,42.969,43.945,28.320,19.531,-98.633
1532215755.879,29.297,47.852,20.508,23.438,-38.574
1532215755.883,35.156,47.852,20.996,26.367,140.137
1532215755.887,45.410,42.969,28.809,25.879,151.855
1532215755.891,35.156,38.574,29.785,24.414,-29.785
1532215755.895,31.738,35.645,26.855,30.762,-90.820
1532215755.899,30.762,33.203,30.762,31.250,73.730
1532215755.903,21.973,31.250,31.250,23.926,171.387
1532215755.907,30.273,35.645,27.832,27.832,22.461
1532215755.911,47.852,38.574,32.715,42.969,-96.191
1532215755.915,46.387,35.645,39.551,43.457,30.273
1532215755.919,36.621,31.738,40.039,33.203,163.086
1532215755.922,41.016,26.855,38.574,33.203,91.309
1532215755.926,52.734,24.902,36.621,39.062,-71.289
1532215755.930,50.293,29.785,31.738,37.598,10.742
1532215755.934,44.434,37.598,22.949,35.156,159.180
1532215755.938,51.270,43.457,23.926,40.039,113.281
1532215755.942,46.875,40.527,30.762,41.016,-57.129
1532215755.946,42.480,37.109,35.645,39.062,-67.383
1532215755.950,44.434,35.156,39.062,41.504,121.094
1532215755.954,50.781,32.227,41.992,49.805,124.512
1532215755.958,62.012,39.551,38.574,48.828,-32.227
1532215755.961,63.965,45.410,39.551,49.316,-81.055
1532215755.965,54.688,41.992,47.363,50.781,61.523
1532215755.969,52.734,43.457,44.434,50.293,170.898
1532215755.973,62.012,48.340,40.039,51.758,38.086
1532215755.977,77.148,46.387,41.992,56.152,-83.008
1532215755.981,64.453,38.574,42.480,58.594,43.457
1532215755.985,48.340,33.203,39.551,55.176,163.574
1532215755.989,57.129,35.156,38.086,57.129,96.680
1532215755.993,60.059,37.109,35.645,59.082,-51.270
1532215755.997,73.730,36.621,33.691,54.199,-46.875
1532215756.001,79.102,35.645,36.133,56.641,91.309
1532215756.004,63.965,29.785,34.668,55.664,110.840
1532215756.008,64.941,31.738,30.762,42.969,-15.137
1532215756.012,73.730,40.527,27.344,43.945,-38.574
1532215756.016,80.078,40.527,28.320,50.293,104.004
1532215756.020,72.754,37.598,29.785,42.480,151.855
1532215756.024,63.965,37.109,30.762,41.504,8.301
1532215756.028,46.387,35.645,31.738,47.363,-86.914
1532215756.032,37.598,33.691,31.250,51.758,36.133
1532215756.036,37.109,33.691,30.762,49.316,110.840
1532215756.040,29.297,33.203,31.250,43.945,-23.926
1532215756.044,30.273,32.227,32.227,45.410,-138.184
1532215756.047,31.738,31.738,29.297,48.828,1.465
1532215756.051,20.996,29.785,29.785,46.875,166.504
1532215756.055,28.320,30.762,34.180,39.062,60.059
1532215756.059,42.969,37.598,36.133,41.992,-141.602
1532215756.063,42.969,41.016,27.344,42.969,-58.105
1532215756.067,47.852,47.852,19.043,39.551,131.348
1532215756.071,41.504,48.828,21.484,36.133,110.352
1532215756.075,24.902,40.039,26.855,18.555,-78.125
1532215756.079,26.367,34.180,27.344,20.508,-90.820
1532215756.083,33.691,32.715,27.832,36.133,113.770
1532215756.086,29.785,31.738,31.738,36.133,168.945
1532215756.090,20.508,32.715,29.785,29.785,-28.320
1532215756.094,22.461,34.668,28.809,25.879,-123.535
1532215756.098,30.273,35.156,29.785,28.809,21.973
1532215756.102,40.527,42.480,29.785,33.691,135.742
1532215756.106,42.480,44.922,34.180,37.598,56.641
1532215756.110,39.551,33.203,39.062,36.133,-85.938
1532215756.114,36.621,26.855,36.621,33.203,-16.113
1532215756.118,35.156,32.227,31.738,31.738,156.250
1532215756.122,37.109,41.992,25.391,29.297,111.328
1532215756.126,34.180,48.340,21.973,29.297,-95.215
1532215756.129,38.086,46.875,21.973,37.598,-38.574
1532215756.133,41.504,44.434,26.855,44.434,131.348
1532215756.137,43.945,42.480,30.273,38.574,85.449
1532215756.141,53.711,43.945,23.926,37.109,-83.496
1532215756.145,55.664,38.574,21.484,46.875,-85.938
1532215756.149,48.340,31.250,25.391,55.664,107.910
1532215756.153,50.293,35.156,22.949,46.875,173.340
1532215756.157,45.410,35.645,20.996,34.180,2.441
1532215756.161,48.828,32.715,25.391,39.062,-108.398
1532215756.165,56.641,33.203,25.391,51.270,51.270
1532215756.168,53.711,31.250,23.438,54.199,167.480
1532215756.172,48.340,23.438,22.949,49.805,40.039
1532215756.176,39.062,22.461,21.973,46.387,-109.863
1532215756.180,35.645,25.879,22.461,41.992,-27.832
1532215756.184,41.016,26.855,23.926,41.016,153.809
1532215756.188,46.387,29.785,24.902,50.781,124.023
1532215756.192,46.387,32.227,24.414,50.781,-64.941
1532215756.196,50.293,32.227,26.855,37.598,-81.543
1532215756.200,43.457,29.297,30.273,34.180,77.148
1532215756.204,31.738,25.879,30.273,38.574,134.766
1532215756.208,32.227,28.320,27.344,35.645,-45.898
1532215756.211,35.156,35.645,23.926,31.738,-119.629
1532215756.215,41.992,41.016,24.902,38.086,60.547
1532215756.219,44.434,36.621,27.832,39.551,143.555
1532215756.223,45.410,28.320,28.809,32.715,19.531
1532215756.227,43.457,28.320,24.902,33.691,-110.840
1532215756.231,34.668,34.668,25.391,34.180,13.672
1532215756.235,39.062,39.551,26.367,32.227,185.059
1532215756.239,40.039,37.598,27.832,30.273,80.566
1532215756.243,29.297,27.832,36.133,33.691,-99.121
1532215756.247,27.832,22.949,38.086,38.086,-16.113
1532215756.251,37.109,22.949,35.645,36.133,155.273
1532215756.254,36.133,28.320,32.715,25.879,126.465
1532215756.258,33.691,41.016,27.344,20.020,-54.688
1532215756.262,41.016,50.781,21.973,22.949,-61.035
1532215756.266,45.410,48.828,26.855,28.320,106.934
1532215756.270,30.762,41.992,33.691,24.902,135.742
1532215756.274,17.090,39.551,29.785,12.695,-28.809
1532215756.278,18.066,38.574,31.738,4.883,-148.926
1532215756.282,29.297,33.203,35.156,18.555,16.602
1532215756.286,34.180,34.180,27.344,26.367,140.137
1532215756.290,29.785,41.016,21.973,16.602,6.836
1532215756.293,29.785,47.852,19.531,13.184,-128.906
1532215756.297,30.273,47.363,18.066,16.602,-27.344
1532215756.301,32.227,35.156,23.926,18.066,124.512
1532215756.305,29.785,33.691,28.320,21.973,81.543
1532215756.309,24.902,37.109,32.715,23.926,-74.707
1532215756.313,17.578,35.645,36.133,22.949,-35.156
1532215756.317,15.625,34.180,30.273,23.926,133.301
1532215756.321,21.484,30.762,27.832,25.391,132.324
1532215756.325,32.227,31.250,30.273,32.715,-20.020
1532215756.329,32.715,35.156,24.902,37.109,-68.848
1532215756.333,34.180,37.598,23.926,41.504,70.801
1532215756.336,32.227,32.715,25.391,30.273,140.625
1532215756.340,30.762,17.578,27.344,28.809,10.254
1532215756.344,41.992,15.137,30.273,42.969,-87.402
1532215756.348,43.945,34.668,24.414,34.668,29.297
1532215756.352,24.902,43.457,21.484,24.902,144.531
1532215756.356,27.344,35.156,19.531,26.367,73.730
1532215756.360,40.527,32.227,17.578,34.668,-56.641
1532215756.364,39.551,38.086,14.648,34.668,20.020
1532215756.368,44.434,40.527,11.230,35.645,153.320
1532215756.372,42.480,35.156,16.602,39.551,79.590
1532215756.376,37.109,31.738,22.949,35.156,-84.473
1532215756.379,32.715,32.227,24.902,30.273,-50.781
1532215756.383,23.438,32.227,26.367,30.273,126.465
1532215756.387,25.879,31.250,29.785,34.668,131.836
1532215756.391,28.320,23.926,32.715,40.039,-17.578
1532215756.395,30.273,19.531,33.691,36.133,-96.680
1532215756.399,30.762,22.949,34.668,32.715,43.945
1532215756.403,25.879,27.344,36.621,38.574,148.926
1532215756.407,28.809,27.344,38.574,36.133,16.113
1532215756.411,30.273,26.367,36.621,38.574,-89.844
1532215756.415,32.227,24.902,34.180,45.410,23.438
1532215756.418,42.969,22.949,35.156,48.828,140.137
1532215756.422,33.203,16.602,35.156,45.410,64.941
1532215756.426,9.277,20.020,28.320,27.344,-84.961
1532215756.430,6.348,27.344,28.809,18.555,1.953
1532215756.434,24.902,25.879,36.133,30.273,164.551
1532215756.438,32.715,28.320,32.227,34.180,103.516
1532215756.442,35.156,28.809,27.344,27.832,-83.008
1532215756.446,34.180,30.273,28.809,20.020,-83.496
1532215756.450,25.879,37.109,20.996,15.625,116.699
1532215756.454,36.133,37.109,21.484,22.949,139.648
1532215756.458,40.039,35.645,30.762,24.902,-64.453
1532215756.461,30.762,32.715,28.320,31.250,-104.004
1532215756.465,23.926,27.832,28.809,33.203,75.195
1532215756.469,18.066,29.297,30.273,21.484,146.484
1532215756.473,23.438,24.902,29.297,23.438,12.695
1532215756.477,35.645,22.949,28.809,25.879,-125.977
1532215756.481,26.367,28.320,25.879,20.996,25.391
1532215756.485,18.066,28.809,31.250,19.043,202.148
1532215756.489,25.391,20.508,34.668,28.809,89.355
1532215756.493,33.203,19.531,29.297,34.668,-91.797
1532215756.497,37.109,34.180,21.484,36.133,-26.367
1532215756.501,34.180,40.039,19.043,38.086,142.578
1532215756.504,28.320,29.785,23.926,28.809,107.422
1532215756.508,31.738,28.320,23.438,23.438,-65.430
1532215756.512,30.762,35.156,22.949,24.902,-58.594
1532215756.516,25.879,30.273,28.320,17.578,113.281
1532215756.520,25.391,26.855,32.227,16.113,135.254
1532215756.524,24.414,23.926,33.691,29.785,-16.602
1532215756.528,25.879,20.508,30.273,30.762,-70.801
1532215756.532,21.973,22.461,24.414,22.461,88.867
1532215756.536,26.855,26.367,23.926,23.926,156.250
1532215756.540,26.855,30.273,27.344,26.855,14.648
1532215756.543,21.484,33.203,23.926,22.949,-124.023
1532215756.547,24.902,32.715,22.461,24.414,-7.812
1532215756.551,27.832,30.762,27.832,27.344,180.176
1532215756.555,31.738,32.227,31.738,24.902,111.328
1532215756.559,23.926,35.156,34.180,25.391,-72.266
1532215756.563,10.254,27.832,35.645,20.508,-44.434
1532215756.567,15.137,21.973,34.180,19.043,136.230
1532215756.571,33.203,26.855,29.785,26.367,153.320
1532215756.575,40.527,28.809,25.391,24.902,-65.430
1532215756.579,35.645,27.344,24.414,15.137,-125.000
1532215756.583,32.227,28.809,28.320,16.602,91.797
1532215756.586,29.297,28.320,31.250,21.484,180.664
1532215756.590,32.227,27.344,27.832,27.344,35.156
1532215756.594,34.180,30.762,26.367,28.809,-79.590
1532215756.598,18.555,31.738,28.809,22.461,31.250
1532215756.602,17.090,25.879,34.180,27.344,151.367
1532215756.606,32.715,22.461,38.574,35.645,66.895
1532215756.610,40.527,23.438,31.250,35.156,-91.797
1532215756.614,50.293,27.344,23.926,32.715,-29.785
1532215756.618,46.875,40.039,24.414,29.785,112.305
1532215756.622,35.645,36.621,24.414,24.902,73.242
1532215756.625,22.461,25.391,26.855,15.137,-70.801
1532215756.629,12.695,32.227,31.738,16.602,-57.129
1532215756.633,25.391,35.645,34.668,28.809,92.285
1532215756.637,38.086,37.109,29.297,20.508,98.145
1532215756.641,38.086,42.480,19.531,6.836,-54.688
1532215756.645,28.809,40.527,19.531,16.113,-88.379
1532215756.649,13.672,32.227,27.832,14.648,44.922
1532215756.653,11.719,34.668,30.762,12.207,98.145
1532215756.657,18.066,40.527,35.645,12.695,-24.414
1532215756.661,22.949,27.344,33.203,18.555,-112.793
1532215756.665,27.344,20.020,25.391,28.809,30.273
1532215756.668,25.879,28.320,24.902,24.902,142.090
1532215756.672,25.879,31.250,25.879,22.949,42.969
1532215756.676,31.250,25.879,28.320,31.250,-71.777
1532215756.680,40.039,27.832,24.414,37.109,-21.973
1532215756.684,42.969,37.598,15.137,33.691,127.930
1532215756.688,45.898,38.574,12.207,30.273,133.301
1532215756.692,45.898,30.762,17.578,34.180,-54.688
1532215756.696,35.645,29.297,25.391,34.180,-91.797
1532215756.700,32.227,25.879,23.438,25.879,80.566
1532215756.704,38.574,24.414,20.508,26.367,138.184
1532215756.708,35.156,25.879,24.414,28.809,-9.277
1532215756.711,32.227,20.996,26.367,34.668,-74.219
1532215756.715,41.504,16.113,26.855,41.504,68.848
1532215756.719,36.621,24.414,27.832,38.574,137.695
1532215756.723,38.574,34.180,29.785,41.016,20.996
1532215756.727,44.434,26.855,32.227,38.086,-92.773
1532215756.731,38.086,24.414,30.273,32.227,14.648
1532215756.735,36.621,28.320,28.320,32.227,187.500
1532215756.739,36.621,28.809,27.832,25.391,84.961
1532215756.743,28.320,24.414,31.250,20.996,-105.957
1532215756.747,27.832,21.484,33.203,22.461,-27.344
1532215756.750,31.250,20.996,32.227,31.250,151.367
1532215756.754,35.156,27.832,31.250,36.621,92.773
1532215756.758,49.805,37.598,28.320,23.438,-104.004
1532215756.762,39.551,35.645,22.949,23.926,-84.961
1532215756.766,26.855,34.180,20.020,32.227,117.188
1532215756.770,26.855,36.133,25.879,28.809,145.996
1532215756.774,25.879,30.273,29.785,27.832,-43.457
1532215756.778,22.461,29.297,25.391,22.949,-111.816
1532215756.782,23.926,25.391,23.926,25.879,73.242
1532215756.786,34.180,20.020,26.367,27.344,190.918
1532215756.790,32.227,26.855,24.902,23.438,69.824
1532215756.793,29.297,30.762,21.973,24.902,-115.234
1532215756.797,36.621,24.902,27.832,33.691,-27.832
1532215756.801,37.598,20.996,30.273,32.227,154.785
1532215756.805,36.133,27.344,24.902,24.414,77.637
1532215756.809,26.855,28.320,26.367,21.484,-69.824
1532215756.813,30.273,25.391,23.438,23.438,-15.625
1532215756.817,46.875,27.344,22.461,31.738,119.629
1532215756.821,46.875,28.320,21.484,32.715,117.676
1532215756.825,41.504,26.367,18.066,27.832,-58.105
1532215756.829,33.691,28.320,18.555,25.879,-93.750
1532215756.833,28.320,28.809,21.484,29.785,101.562
1532215756.836,35.156,29.297,25.879,30.273,154.785
1532215756.840,43.457,30.273,27.344,34.668,-4.395
1532215756.844,40.527,28.320,30.273,31.738,-102.539
1532215756.848,28.809,23.438,32.227,31.250,50.293
1532215756.852,39.062,25.879,31.738,41.992,179.688
1532215756.856,58.594,32.715,32.715,45.898,37.598
1532215756.860,48.828,32.715,35.156,37.109,-139.160
1532215756.864,36.133,33.691,35.645,32.715,-40.527
1532215756.868,46.875,37.598,27.832,35.645,140.625
1532215756.872,61.523,38.086,23.438,36.133,97.168
1532215756.875,58.105,31.250,30.762,24.414,-114.258
1532215756.879,44.434,23.926,35.645,20.996,-90.332
1532215756.883,50.293,26.367,37.109,27.832,125.977
1532215756.887,63.965,31.250,38.574,28.809,138.672
1532215756.891,68.359,40.039,32.715,25.879,-34.180
1532215756.895,59.570,47.852,22.949,13.184,-96.191
1532215756.899,42.480,41.504,28.809,8.301,77.637
1532215756.903,34.668,35.645,36.621,19.043,164.062
1532215756.907,34.180,36.621,35.645,32.715,1.465
1532215756.911,42.969,36.621,36.621,46.387,-83.984
1532215756.915,38.086,35.156,39.062,50.293,45.410
1532215756.918,28.320,28.809,44.434,52.734,136.719
1532215756.922,38.086,26.367,46.875,51.758,41.016
1532215756.926,46.875,34.180,43.945,53.223,-122.070
1532215756.930,51.270,40.527,36.621,53.711,-42.969
1532215756.934,51.758,41.504,29.785,42.969,145.996
1532215756.938,46.387,40.039,29.785,28.809,99.609
1532215756.942,36.133,36.133,34.668,28.809,-97.168
1532215756.946,36.133,35.645,36.133,38.086,-86.914
1532215756.950,43.457,39.551,30.273,30.762,132.812
1532215756.954,39.551,40.527,28.809,25.391,169.922
1532215756.957,37.598,39.551,34.180,30.273,-35.156
1532215756.961,36.621,38.086,34.180,33.691,-114.746
1532215756.965,22.461,33.691,34.180,33.691,78.125
1532215756.969,20.996,32.715,34.668,29.785,176.270
1532215756.973,25.391,33.691,35.645,26.367,10.254
1532215756.977,34.668,36.621,36.621,32.227,-144.043
1532215756.981,39.062,36.621,35.156,37.109,-9.277
1532215756.985,41.504,35.645,33.203,37.109,169.922
1532215756.989,55.176,34.180,33.691,36.621,84.473
1532215756.993,59.570,33.203,30.762,38.574,-107.422
1532215756.997,44.434,35.645,26.367,32.227,-77.637
1532215757.000,32.715,38.574,32.715,25.879,110.352
1532215757.004,29.785,39.062,36.133,27.344,128.906
1532215757.008,32.715,34.668,30.273,26.855,-52.734
1532215757.012,37.598,32.227,28.809,26.855,-69.336
1532215757.016,41.504,38.086,26.855,27.832,107.422
1532215757.020,42.969,37.109,26.855,30.273,160.156
1532215757.024,43.457,34.668,25.391,30.273,-24.414
1532215757.028,45.898,38.086,21.484,31.250,-112.305
1532215757.032,53.711,36.621,23.438,38.574,59.570
1532215757.036,51.270,33.691,26.367,36.621,146.484
1532215757.040,44.434,33.691,26.855,30.273,7.324
1532215757.043,47.363,29.785,27.832,38.574,-108.887
1532215757.047,55.664,29.785,28.809,48.340,17.090
1532215757.051,52.246,32.715,30.273,49.316,158.691
1532215757.055,44.922,31.738,30.273,39.062,101.562
1532215757.059,41.992,31.738,29.785,35.645,-72.754
1532215757.063,50.781,34.668,28.809,44.434,-30.762
1532215757.067,57.129,38.086,26.367,48.340,162.109
1532215757.071,56.152,38.086,29.785,48.828,131.348
1532215757.075,43.457,35.156,35.156,39.551,-100.586
1532215757.079,30.762,33.691,35.645,25.391,-121.582
1532215757.082,33.203,32.227,38.086,29.297,107.910
1532215757.086,37.598,28.809,38.086,31.738,171.875
1532215757.090,43.457,25.879,36.621,31.250,24.414
1532215757.094,46.875,29.297,37.598,32.715,-83.496
1532215757.098,44.434,36.133,36.621,30.762,48.828
1532215757.102,43.945,42.480,30.273,25.391,172.363
1532215757.106,52.246,40.039,24.902,24.902,49.805
1532215757.110,38.574,33.691,30.273,26.367,-89.844
1532215757.114,26.855,33.691,32.715,23.438,0.000
1532215757.118,31.738,32.227,33.691,24.902,155.762
1532215757.122,31.250,28.320,38.086,31.738,119.629
1532215757.125,44.922,25.391,38.086,36.133,-79.102
1532215757.129,56.152,23.926,35.645,42.969,-60.059
1532215757.133,52.734,32.227,27.832,40.039,136.230
1532215757.137,46.387,41.016,20.508,22.949,127.441
1532215757.141,40.527,37.598,20.020,17.090,-43.457
1532215757.145,41.016,30.273,25.391,25.391,-76.172
1532215757.149,48.828,29.297,30.762,28.320,94.238
1532215757.153,61.035,37.598,27.344,29.785,189.941
1532215757.157,59.082,42.969,23.438,30.273,19.531
1532215757.161,48.340,39.551,28.809,25.879,-125.488
1532215757.165,42.480,37.598,32.227,27.832,-5.859
1532215757.168,45.410,37.598,28.809,35.645,135.742
1532215757.172,54.199,33.203,29.785,45.410,61.035
1532215757.176,64.941,31.250,36.133,48.340,-121.094
1532215757.180,58.105,33.691,35.156,45.410,-39.551
1532215757.184,54.688,35.156,29.297,44.922,144.531
1532215757.188,55.664,40.039,26.367,44.922,89.355
1532215757.192,50.781,42.480,25.391,44.434,-63.477
1532215757.196,40.527,39.551,30.762,32.227,-80.078
1532215757.200,37.598,40.039,35.645,24.902,68.848
1532215757.204,45.410,37.109,37.598,41.016,139.648
1532215757.207,45.898,34.180,37.109,48.340,-20.996
1532215757.211,44.434,39.062,32.227,41.992,-116.211
1532215757.215,41.992,45.898,24.902,32.227,48.828
1532215757.219,34.668,42.480,28.809,25.879,145.020
1532215757.223,26.367,37.109,36.133,26.855,12.207
1532215757.227,26.367,32.715,34.668,29.785,-142.578
1532215757.231,27.344,25.391,39.062,45.410,-9.766
1532215757.235,41.016,28.809,40.039,52.734,145.020
1532215757.239,47.363,40.527,32.227,43.457,37.109
1532215757.243,30.762,45.898,28.809,36.133,-114.746
1532215757.247,24.414,41.992,31.738,32.715,-65.430
1532215757.250,26.855,37.109,35.645,33.203,132.324
1532215757.254,36.621,39.551,31.250,34.180,121.094
1532215757.258,48.828,41.504,29.297,43.457,-104.492
1532215757.262,43.945,39.062,34.668,46.387,-112.305
1532215757.266,33.691,34.668,37.109,40.527,111.816
1532215757.270,36.133,32.715,37.109,44.434,166.016
1532215757.274,39.551,31.250,35.156,47.363,-20.020
1532215757.278,44.434,33.691,31.738,48.340,-121.094
1532215757.282,38.086,36.133,29.785,42.480,43.457
1532215757.286,33.203,35.156,31.738,40.527,159.180
1532215757.289,40.527,36.621,30.762,45.898,15.625
1532215757.293,41.016,40.039,28.809,42.969,-121.094
1532215757.297,43.457,41.992,31.738,39.551,-28.320
1532215757.301,44.434,44.434,30.762,37.598,161.133
1532215757.305,47.852,48.828,27.344,40.039,82.520
1532215757.309,46.387,45.898,29.297,37.598,-114.258
1532215757.313,40.039,42.969,34.180,33.203,-41.504
1532215757.317,41.016,46.875,30.762,29.785,110.840
1532215757.321,39.551,45.898,30.273,24.902,96.191
1532215757.325,25.879,39.551,36.621,23.926,-43.945
1532215757.329,28.320,36.133,38.086,31.738,-68.848
1532215757.332,30.762,35.156,37.109,32.227,96.680
1532215757.336,19.531,35.156,36.133,28.320,168.945
1532215757.340,21.484,34.668,38.574,31.250,28.809
1532215757.344,33.691,30.762,41.992,41.504,-86.426
1532215757.348,49.316,25.879,39.551,47.363,46.387
1532215757.352,42.969,32.715,32.227,36.133,184.570
1532215757.356,33.691,45.410,28.809,20.508,49.316
1532215757.360,40.039,45.898,29.785,20.020,-119.629
1532215757.364,31.738,41.504,34.668,29.297,-7.324
1532215757.368,34.180,35.156,42.480,36.133,159.180
1532215757.372,43.457,32.715,42.969,38.086,109.375
1532215757.375,46.387,37.598,32.715,28.320,-72.754
1532215757.379,44.922,43.945,23.926,21.484,-57.129
1532215757.383,36.621,48.340,20.020,27.344,125.488
1532215757.387,31.738,42.480,25.391,27.832,162.598
1532215757.391,24.414,34.180,37.109,23.438,-27.344
1532215757.395,23.926,31.250,37.598,23.926,-95.703
1532215757.399,28.809,28.809,34.668,33.203,64.941
1532215757.403,31.738,26.367,36.133,31.250,157.715
1532215757.407,32.715,30.273,37.598,24.414,16.602
1532215757.411,36.133,35.645,35.156,29.785,-91.309
1532215757.414,33.203,31.250,36.621,34.180,14.648
1532215757.418,34.668,29.297,39.551,36.133,127.441
1532215757.422,41.504,33.203,36.621,39.551,76.172
1532215757.426,46.875,35.645,32.715,40.527,-81.055
1532215757.430,42.480,34.668,31.738,37.109,-6.348
1532215757.434,30.273,34.180,33.691,35.645,138.672
1532215757.438,24.902,35.645,34.668,31.738,112.305
1532215757.442,26.855,35.645,31.250,30.273,-84.961
1532215757.446,37.598,39.551,34.180,36.621,-105.957
1532215757.450,35.645,37.109,39.551,38.086,131.348
1532215757.454,30.273,25.879,38.086,34.668,166.016
1532215757.457,48.340,25.391,38.086,37.109,-69.824
1532215757.461,56.152,28.809,44.434,50.293,-140.137
1532215757.465,43.945,33.691,41.992,49.316,50.293
1532215757.469,46.875,41.992,34.668,36.133,147.949
1532215757.473,48.340,43.945,28.809,35.645,9.277
1532215757.477,38.574,41.016,31.250,37.109,-118.652
1532215757.481,25.391,34.668,37.598,35.156,6.348
1532215757.485,27.344,31.250,37.109,37.109,170.410
1532215757.489,40.039,31.250,39.551,47.363,89.844
1532215757.493,48.340,31.250,40.527,50.293,-95.215
1532215757.497,43.945,38.574,35.645,41.504,-48.828
1532215757.500,35.645,43.457,34.668,44.434,145.508
1532215757.504,32.715,37.598,35.156,42.969,145.020
1532215757.508,34.180,31.738,33.691,33.203,-42.969
1532215757.512,36.621,34.180,32.227,35.645,-69.336
1532215757.516,37.109,39.551,30.762,35.645,61.523
1532215757.520,44.922,35.645,31.738,34.180,116.211
1532215757.524,47.852,31.738,34.180,42.480,-17.090
1532215757.528,42.480,33.203,34.668,39.551,-111.816
1532215757.532,33.691,33.203,34.180,35.156,70.801
1532215757.536,42.480,29.785,35.156,38.574,201.172
1532215757.539,44.922,26.367,40.527,39.062,66.406
1532215757.543,31.738,26.367,41.992,38.574,-94.727
1532215757.547,32.227,29.297,45.410,41.504,13.672
1532215757.551,46.875,28.320,49.805,49.316,178.223
1532215757.555,60.547,26.855,46.875,42.480,103.027
1532215757.559,49.316,29.785,39.062,31.738,-103.516
1532215757.563,38.086,38.086,34.180,32.227,-61.523
1532215757.567,49.316,45.410,31.738,39.062,142.578
1532215757.571,46.875,39.062,38.086,40.527,162.109
1532215757.575,31.250,28.809,42.969,37.598,-59.570
1532215757.579,37.109,25.879,38.574,36.133,-128.906
1532215757.582,31.738,27.344,31.738,35.156,84.961
1532215757.586,26.855,32.227,30.273,36.133,161.133
1532215757.590,35.156,36.621,34.668,38.574,-1.953
1532215757.594,31.738,32.227,33.691,40.039,-139.160
1532215757.598,36.621,28.320,37.109,35.645,2.441
1532215757.602,38.086,33.203,40.527,33.691,169.922
1532215757.606,34.668,38.086,38.086,31.738,62.988
1532215757.610,32.715,34.180,35.645,32.715,-124.023
1532215757.614,31.250,26.855,35.645,34.668,-25.879
1532215757.618,34.180,19.531,42.480,36.621,163.086
1532215757.621,46.875,28.809,43.457,42.480,117.188
1532215757.625,44.922,41.504,37.109,37.598,-69.824
1532215757.629,36.621,43.457,31.250,31.250,-41.992
1532215757.633,34.668,41.016,27.832,30.762,141.113
1532215757.637,37.598,38.574,27.344,23.438,138.672
1532215757.641,43.945,40.039,33.203,30.273,-49.316
1532215757.645,44.922,37.109,38.574,47.363,-94.727
1532215757.649,40.039,29.785,39.062,46.875,68.848
1532215757.653,38.086,23.438,42.969,49.805,157.227
1532215757.657,44.434,26.367,42.480,48.828,-16.113
1532215757.661,51.270,35.156,31.738,41.992,-138.184
1532215757.664,53.223,39.551,29.785,49.316,32.227
1532215757.668,43.945,33.203,39.551,47.852,148.926
1532215757.672,33.691,23.926,41.504,36.133,52.246
1532215757.676,35.645,25.879,40.527,34.180,-125.488
1532215757.680,42.969,33.691,38.086,38.086,-36.621
1532215757.684,35.645,32.715,39.062,40.039,149.414
1532215757.688,23.926,26.367,41.016,36.133,106.934
1532215757.692,29.785,25.391,38.086,37.598,-53.223
1532215757.696,40.527,29.297,36.133,39.551,-91.797
1532215757.700,47.363,37.109,33.203,35.156,59.570
1532215757.704,49.805,36.621,28.320,37.109,134.277
1532215757.707,37.109,33.203,28.320,42.969,-23.438
1532215757.711,29.297,23.438,34.668,46.387,-105.957
1532215757.715,39.551,14.648,40.039,47.852,47.363
1532215757.719,44.434,22.949,37.598,46.387,164.551
1532215757.723,47.363,29.785,32.715,41.016,52.246
1532215757.727,55.176,32.227,32.227,37.598,-103.516
1532215757.731,42.480,28.320,28.320,28.809,3.906
1532215757.735,28.809,27.344,28.320,15.137,137.695
1532215757.739,33.691,29.785,33.691,7.812,47.852
1532215757.743,47.363,25.391,35.645,21.484,-107.910
1532215757.746,49.316,25.879,33.203,31.250,-67.871
1532215757.750,36.621,31.738,25.391,23.438,128.418
1532215757.754,46.875,34.180,21.973,26.855,101.074
1532215757.758,48.828,30.762,23.438,32.715,-96.680
1532215757.762,45.898,30.762,26.367,43.457,-81.543
1532215757.766,43.945,34.668,26.367,55.664,89.355
1532215757.770,30.273,35.156,25.879,55.176,138.184
1532215757.774,35.645,32.227,26.855,48.340,-18.555
1532215757.778,47.852,32.227,27.344,48.828,-138.672
1532215757.782,32.227,35.645,32.715,41.504,32.227
1532215757.786,7.812,33.203,35.156,28.320,141.113
1532215757.789,18.555,29.297,32.715,24.902,4.883
1532215757.793,28.809,26.367,35.156,29.785,-116.699
1532215757.797,20.996,22.461,35.645,33.691,-25.879
1532215757.801,24.902,23.438,34.668,28.809,141.113
1532215757.805,38.086,26.367,34.180,26.367,88.379
1532215757.809,46.387,32.715,31.250,28.320,-91.309
1532215757.813,43.945,35.156,26.855,31.250,-47.852
1532215757.817,33.691,27.832,25.391,29.297,109.375
1532215757.821,31.738,34.180,30.762,28.320,92.773
1532215757.825,41.504,37.598,30.762,35.156,-92.773
1532215757.829,45.410,33.203,26.855,39.551,-109.863
1532215757.832,32.715,35.156,26.855,34.180,81.055
1532215757.836,31.250,32.715,30.762,21.484,139.160
1532215757.840,32.227,26.367,32.715,20.996,2.441
1532215757.844,29.785,27.344,37.598,33.203,-113.281
1532215757.848,33.203,33.203,38.574,35.156,44.922
1532215757.852,32.227,34.180,31.738,28.320,150.879
1532215757.856,38.574,37.109,28.809,25.391,25.879
1532215757.860,50.293,40.039,29.297,32.227,-108.887
1532215757.864,39.551,35.645,32.715,31.738,-20.996
1532215757.868,26.367,33.203,30.273,20.508,150.391
1532215757.871,25.391,33.691,29.297,19.043,95.703
1532215757.875,30.273,35.156,32.715,18.066,-84.961
1532215757.879,30.273,36.133,36.621,10.254,-95.703
1532215757.883,30.762,35.156,35.645,16.602,86.426
1532215757.887,43.945,36.133,31.250,27.832,135.742
1532215757.891,48.340,37.598,24.902,27.344,-34.668
1532215757.895,31.738,37.598,23.926,19.043,-123.047
1532215757.899,24.902,37.598,31.738,20.508,71.777
1532215757.903,27.832,29.785,34.180,25.391,177.246
1532215757.907,29.297,25.391,31.250,23.438,-4.395
1532215757.911,32.227,34.180,31.738,25.879,-104.004
1532215757.914,35.645,38.086,34.180,31.738,39.551
1532215757.918,32.715,41.016,34.668,28.809,195.312
1532215757.922,29.785,39.062,33.691,25.879,91.797
1532215757.926,36.621,36.133,33.691,26.367,-108.887
1532215757.930,35.156,37.598,37.109,29.785,-31.250
1532215757.934,38.086,39.062,38.086,37.598,152.344
1532215757.938,42.969,40.527,36.621,26.855,70.312
1532215757.942,43.457,45.410,28.809,17.578,-116.211
1532215757.946,43.457,48.828,25.391,26.367,-64.941
1532215757.950,33.203,44.922,31.738,26.855,140.625
1532215757.953,34.668,44.922,32.715,29.297,178.223
1532215757.957,43.945,43.945,29.785,33.691,-17.578
1532215757.961,44.434,34.668,31.250,36.621,-103.027
1532215757.965,40.527,31.738,34.668,35.156,83.496
1532215757.969,45.410,31.738,36.621,36.621,200.195
1532215757.973,52.734,29.297,32.227,45.410,45.898
1532215757.977,43.457,36.621,27.344,34.180,-118.164
1532215757.981,35.645,38.574,32.715,25.391,15.137
1532215757.985,37.109,28.809,36.133,31.738,179.199
1532215757.989,39.062,22.949,37.109,34.668,90.820
1532215757.993,49.805,28.809,35.645,37.598,-76.660
1532215757.996,50.293,35.156,35.156,39.062,-28.809
1532215758.000,45.410,36.133,33.203,39.551,150.879
1532215758.004,44.434,37.109,24.902,36.621,153.809
1532215758.008,44.922,31.738,26.855,30.762,-67.871
1532215758.012,45.898,27.344,36.621,37.598,-97.168
1532215758.016,41.016,27.344,35.645,34.668,77.637
1532215758.020,41.992,23.926,36.621,30.273,150.879
1532215758.024,35.645,22.461,41.016,35.156,8.789
1532215758.028,27.832,24.414,37.109,38.574,-99.121
1532215758.032,26.855,20.508,38.086,37.598,68.848
1532215758.036,30.762,19.531,41.016,35.156,170.898
1532215758.039,42.969,28.320,37.109,43.945,71.289
1532215758.043,46.387,28.809,34.668,47.363,-89.844
1532215758.047,36.133,24.414,38.574,38.574,13.672
1532215758.051,31.250,23.926,40.039,39.062,205.078
1532215758.055,36.133,26.855,36.133,43.945,105.469
1532215758.059,42.480,31.250,36.133,35.156,-97.656
1532215758.063,51.758,31.250,35.645,44.434,-58.105
1532215758.067,48.828,28.320,34.668,54.688,125.000
1532215758.071,37.109,29.785,36.621,46.875,145.508
1532215758.075,31.738,24.902,40.527,40.527,-32.715
1532215758.078,36.133,19.043,39.062,37.109,-100.586
1532215758.082,34.668,27.832,38.086,42.480,82.031
1532215758.086,26.855,33.691,41.504,39.062,162.598
1532215758.090,27.832,35.645,37.598,21.973,16.113
1532215758.094,23.926,37.109,30.273,18.066,-112.793
1532215758.098,20.996,38.574,28.320,21.973,7.324
1532215758.102,21.484,40.039,30.273,27.344,154.785
1532215758.106,26.367,37.598,32.715,33.203,78.125
1532215758.110,28.809,32.715,36.133,33.203,-90.332
1532215758.114,24.414,28.320,35.645,33.691,-28.809
1532215758.118,23.926,28.809,35.645,26.367,133.789
1532215758.121,24.414,29.785,37.598,26.855,71.777
1532215758.125,24.902,28.809,33.691,35.645,-76.172
1532215758.129,27.832,27.344,29.785,35.645,-49.805
1532215758.133,27.344,31.738,28.320,30.273,93.750
1532215758.137,25.879,39.062,28.320,20.020,116.699
1532215758.141,29.785,40.039,29.785,12.207,-54.199
1532215758.145,27.344,40.039,32.227,13.184,-122.070
1532215758.149,20.996,38.086,32.715,18.555,59.082
1532215758.153,22.949,33.691,30.762,20.996,141.602
1532215758.157,31.250,27.832,32.715,20.508,4.395
1532215758.161,42.969,19.043,35.645,24.902,-95.215
1532215758.164,39.062,21.484,38.086,31.250,44.922
1532215758.168,39.062,34.668,32.227,30.762,178.223
1532215758.172,52.246,47.363,21.484,39.062,64.941
1532215758.176,57.617,53.223,20.996,37.598,-108.398
1532215758.180,44.434,45.898,27.344,22.949,-47.852
1532215758.184,42.480,39.551,28.320,23.438,125.977
1532215758.188,53.711,36.621,24.902,22.461,120.605
1532215758.192,56.641,35.156,30.273,24.414,-52.246
1532215758.196,45.410,38.574,29.297,31.250,-78.125
1532215758.200,32.227,35.156,14.648,27.832,102.539
1532215758.203,30.762,27.344,13.184,24.902,145.508
1532215758.207,33.691,24.414,20.996,26.855,-31.250
1532215758.211,34.180,26.855,25.391,33.691,-118.164
1532215758.215,37.109,23.438,24.414,32.227,24.414
1532215758.219,35.645,25.879,22.949,21.973,141.113
1532215758.223,27.344,35.156,27.344,20.508,40.039
1532215758.227,24.414,29.785,33.691,27.344,-88.867
1532215758.231,29.297,28.809,36.621,34.180,37.598
1532215758.235,32.715,32.227,34.180,33.691,146.973
1532215758.239,31.250,27.832,33.203,28.809,64.453
1532215758.243,33.691,32.715,31.738,28.320,-112.305
1532215758.246,35.645,38.086,31.250,32.715,-67.871
1532215758.250,37.109,33.203,34.180,33.203,138.672
1532215758.254,38.574,30.762,36.621,30.762,139.160
1532215758.258,33.203,35.645,36.621,21.973,-68.359
1532215758.262,30.273,35.156,35.645,22.461,-93.750
1532215758.266,34.180,32.715,35.156,37.109,122.559
1532215758.270,42.969,34.668,29.785,44.922,183.594
1532215758.274,43.457,37.109,27.344,41.992,5.859
1532215758.278,38.574,38.086,33.691,39.551,-109.375
1532215758.282,40.039,38.086,39.551,38.574,36.621
1532215758.286,43.457,41.504,38.574,37.598,158.203
1532215758.289,41.504,38.574,36.133,41.504,27.344
1532215758.293,42.969,31.250,34.668,41.504,-125.000
1532215758.297,36.621,24.902,34.668,32.715,-31.250
1532215758.301,31.738,31.250,36.621,26.367,129.395
1532215758.305,30.273,36.133,37.598,30.273,118.652
1532215758.309,28.809,30.273,38.086,33.203,-40.039
1532215758.313,27.832,29.785,34.180,37.109,-64.941
1532215758.317,25.391,31.738,37.598,34.180,102.051
1532215758.321,24.414,27.832,46.387,28.320,156.250
1532215758.325,21.484,28.320,48.340,24.414,-39.551
1532215758.328,23.438,29.785,48.340,22.461,-116.699
1532215758.332,32.715,30.762,42.480,29.785,68.848
1532215758.336,43.945,40.527,33.691,36.621,185.547
1532215758.340,44.922,39.062,34.668,28.320,39.062
1532215758.344,20.508,32.227,40.527,15.625,-104.492
1532215758.348,12.695,32.227,43.457,19.043,24.902
1532215758.352,20.996,29.785,41.992,32.227,189.453
1532215758.356,40.039,34.668,40.527,32.715,73.730
1532215758.360,44.434,37.109,41.992,27.344,-153.320
1532215758.364,25.391,30.762,41.016,35.156,-51.270
1532215758.368,22.461,28.809,40.527,33.203,152.832
1532215758.371,22.461,25.879,36.621,25.391,112.793
1532215758.375,24.902,25.391,34.180,26.367,-71.777
1532215758.379,29.297,31.250,37.109,26.367,-84.961
1532215758.383,29.785,32.715,41.016,26.367,87.891
1532215758.387,40.039,31.738,39.062,26.367,130.859
1532215758.391,46.875,31.250,34.668,32.715,-42.969
1532215758.395,40.527,27.832,34.180,36.133,-119.629
1532215758.399,46.875,25.879,32.715,35.645,44.922
1532215758.403,43.457,29.785,28.809,36.133,167.480
1532215758.407,35.156,26.855,31.250,37.598,54.199
1532215758.410,41.992,21.484,36.133,46.387,-73.730
1532215758.414,43.457,24.902,29.785,46.387,33.691
1532215758.418,38.086,26.855,25.879,41.504,147.949
1532215758.422,40.039,28.320,27.832,44.434,83.008
1532215758.426,47.852,33.203,24.902,45.898,-96.191
1532215758.430,46.875,33.203,26.855,45.898,-65.918
1532215758.434,48.340,29.785,28.809,45.410,131.836
1532215758.438,42.969,23.438,25.391,36.133,102.539
1532215758.442,38.086,22.949,23.438,31.250,-97.168
1532215758.446,47.852,27.832,24.414,37.109,-104.004
1532215758.450,50.293,30.273,24.414,40.039,106.934
1532215758.453,54.688,32.715,28.320,37.109,160.645
1532215758.457,45.410,27.344,30.273,34.668,-45.410
1532215758.461,37.598,25.879,26.367,36.133,-111.816
1532215758.465,33.691,29.297,29.297,35.156,69.336
1532215758.469,28.320,28.809,30.762,32.715,160.645
1532215758.473,34.668,33.203,30.762,42.969,39.551
1532215758.477,41.016,29.297,34.668,50.293,-116.699
1532215758.481,47.363,21.484,37.598,49.805,-35.156
1532215758.485,53.223,27.344,34.180,51.270,138.672
1532215758.489,47.852,41.016,27.344,44.434,88.867
1532215758.493,31.738,42.480,30.762,32.227,-91.797
1532215758.496,21.973,35.156,36.133,14.648,-69.336
1532215758.500,21.484,36.621,32.227,7.812,121.094
1532215758.504,30.762,40.527,26.367,16.602,130.371
1532215758.508,30.762,37.109,28.320,20.996,-64.453
1532215758.512,24.902,32.715,31.250,20.996,-95.703
1532215758.516,20.508,31.738,26.367,17.090,102.539
1532215758.520,19.531,26.855,29.297,17.090,183.594
1532215758.524,22.949,29.785,31.738,18.066,-4.395
1532215758.528,24.414,34.180,28.809,26.855,-125.977
1532215758.532,31.738,35.645,28.320,37.598,38.574
1532215758.535,37.598,30.762,30.762,35.156,136.719
1532215758.539,33.203,22.949,36.621,26.367,3.906
1532215758.543,24.414,24.902,32.715,24.902,-128.906
1532215758.547,22.949,26.367,26.367,23.438,-31.250
1532215758.551,16.602,24.414,23.926,22.949,140.625
1532215758.555,19.043,27.344,24.414,25.879,91.797
1532215758.559,15.625,29.297,30.762,25.879,-83.984
1532215758.563,6.836,23.926,34.180,27.344,-53.223
1532215758.567,12.207,26.855,29.297,32.715,127.930
1532215758.571,17.090,35.156,22.461,28.809,152.832
1532215758.575,29.297,39.551,20.996,19.531,-47.852
1532215758.578,47.363,40.527,19.531,20.508,-136.719
1532215758.582,46.387,34.668,18.066,31.250,31.738
1532215758.586,36.133,32.227,24.414,32.715,172.363
1532215758.590,40.527,37.109,29.297,29.785,45.410
1532215758.594,42.969,35.645,32.715,36.621,-129.883
1532215758.598,39.062,27.344,34.668,41.504,-14.160
1532215758.602,44.922,23.926,32.715,38.574,158.691
1532215758.606,38.086,31.250,28.809,30.273,122.559
1532215758.610,34.668,39.551,30.273,36.133,-65.430
1532215758.614,31.738,38.574,33.203,37.109,-23.926
1532215758.618,23.438,33.691,32.715,24.902,153.809
1532215758.621,20.508,27.832,32.227,22.949,111.328
1532215758.625,15.625,28.809,31.738,19.531,-72.754
1532215758.629,16.602,32.227,30.273,19.531,-52.734
1532215758.633,18.066,28.320,30.273,27.832,122.070
1532215758.637,21.973,26.367,34.180,26.367,113.770
1532215758.641,23.438,24.414,31.250,20.508,-57.129
1532215758.645,17.578,28.320,27.344,18.066,-108.887
1532215758.649,21.484,32.715,22.461,20.996,70.801
1532215758.653,31.250,28.809,26.367,33.691,154.297
1532215758.657,31.738,28.320,38.574,27.832,13.672
1532215758.660,25.391,30.762,33.203,15.137,-94.727
1532215758.664,27.832,34.180,24.414,25.391,23.438
1532215758.668,31.738,36.133,23.926,28.320,166.504
1532215758.672,27.344,38.086,30.762,21.484,78.125
1532215758.676,19.531,42.969,36.133,14.160,-103.516
1532215758.680,20.020,40.039,38.574,12.695,-44.434
1532215758.684,18.555,35.156,33.203,14.648,132.324
1532215758.688,16.602,32.715,28.809,13.184,129.883
1532215758.692,19.043,30.762,31.250,18.555,-39.062
1532215758.696,20.996,32.227,33.203,20.020,-87.891
1532215758.700,19.531,30.273,34.668,15.625,95.215
1532215758.703,21.973,25.391,35.156,15.137,152.832
1532215758.707,35.156,22.461,34.668,25.879,-10.742
1532215758.711,51.270,26.855,26.855,28.320,-118.164
1532215758.715,47.852,38.574,18.066,16.113,19.043
1532215758.719,34.668,41.016,20.020,17.090,148.926
1532215758.723,26.855,28.809,31.250,25.391,54.199
1532215758.727,21.973,28.320,32.715,30.273,-88.867
1532215758.731,32.715,34.180,26.855,35.645,31.738
1532215758.735,33.691,33.691,28.320,37.109,176.270
1532215758.739,36.133,26.855,32.715,40.527,83.984
1532215758.742,27.344,23.926,30.273,27.344,-67.383
1532215758.746,6.348,30.762,25.391,10.742,-18.555
1532215758.750,9.277,33.203,27.832,13.184,160.645
1532215758.754,15.625,30.273,31.250,18.555,152.832
1532215758.758,20.996,28.320,34.668,20.996,-61.523
1532215758.762,28.320,29.297,33.203,20.996,-112.305
1532215758.766,30.762,34.668,27.832,23.926,92.285
1532215758.770,22.461,36.133,30.762,28.809,200.195
1532215758.774,10.254,35.156,36.133,20.996,7.812
1532215758.778,14.160,36.621,35.156,20.020,-137.695
1532215758.782,20.508,35.156,32.715,21.484,33.691
1532215758.785,20.996,37.109,28.809,17.578,187.012
1532215758.789,22.461,35.645,29.785,15.137,84.473
1532215758.793,18.066,24.414,34.668,10.742,-101.074
1532215758.797,27.344,20.020,38.086,17.090,-24.902
1532215758.801,37.598,30.762,39.062,28.809,145.996
1532215758.805,32.227,42.480,32.227,21.973,115.723
1532215758.809,36.621,41.016,25.391,16.602,-61.035
1532215758.813,40.039,39.062,23.438,22.461,-78.613
1532215758.817,46.875,45.410,18.555,19.043,85.449
1532215758.821,47.363,41.504,19.531,16.602,103.516
1532215758.825,43.457,31.250,25.391,24.902,-40.527
1532215758.828,41.992,32.227,29.297,32.715,-91.309
1532215758.832,44.922,35.645,31.738,33.691,70.312
1532215758.836,27.344,33.691,32.227,27.344,151.367
1532215758.840,16.113,25.879,41.504,29.297,12.695
1532215758.844,28.809,19.043,41.992,39.551,-108.398
1532215758.848,26.855,22.949,28.809,30.762,21.484
1532215758.852,20.996,30.273,24.414,16.113,161.621
1532215758.856,21.973,35.645,24.902,12.695,44.434
1532215758.860,25.879,31.250,27.344,12.695,-114.746
1532215758.864,17.578,26.855,31.250,20.020,-22.949
1532215758.867,21.973,30.762,31.738,31.250,141.602
1532215758.871,41.016,35.645,27.832,34.668,142.578
1532215758.875,41.504,38.574,25.391,26.367,-41.992
1532215758.879,36.133,37.109,30.762,20.508,-80.566
1532215758.883,29.785,31.738,37.598,17.578,125.977
1532215758.887,38.574,29.785,38.086,21.484,166.992
1532215758.891,46.387,33.691,34.668,26.855,-6.836
1532215758.895,36.621,38.574,32.715,23.438,-111.816
1532215758.899,28.320,42.480,32.715,19.531,34.180
1532215758.903,21.484,43.457,30.273,17.578,191.406
1532215758.907,16.602,38.574,30.762,17.578,74.219
1532215758.910,21.484,35.156,30.762,26.367,-81.543
1532215758.914,31.250,40.039,30.762,27.832,17.578
1532215758.918,40.039,43.457,31.250,26.855,183.105
1532215758.922,41.504,32.715,31.738,34.180,113.281
1532215758.926,39.551,29.785,32.227,34.180,-80.566
1532215758.930,27.832,40.039,34.180,29.297,-55.176
1532215758.934,32.227,39.062,36.133,33.203,117.188
1532215758.938,47.363,35.156,39.062,40.039,138.184
1532215758.942,57.129,43.945,31.738,31.250,-45.410
1532215758.946,54.688,52.246,22.949,17.578,-113.281
1532215758.950,38.574,50.293,26.367,11.230,68.359
1532215758.953,29.785,42.480,34.668,7.324,167.969
1532215758.957,24.414,34.668,38.574,0.977,-24.902
1532215758.961,22.461,32.227,38.086,5.859,-137.207
1532215758.965,21.973,32.227,35.645,10.742,56.641
1532215758.969,26.367,36.133,30.762,10.254,167.480
1532215758.973,32.715,39.551,26.855,15.137,27.832
1532215758.977,27.832,35.156,33.203,22.949,-124.512
1532215758.981,26.855,30.273,42.480,34.668,-7.812
1532215758.985,22.949,32.715,43.945,36.133,162.598
1532215758.989,27.832,34.180,44.434,37.598,77.148
1532215758.992,32.715,34.180,39.551,39.062,-88.379
1532215758.996,34.668,38.574,32.227,36.621,-44.434
1532215759.000,30.273,37.598,33.691,25.879,109.375
1532215759.004,17.090,30.273,39.551,16.602,134.766
1532215759.008,18.555,30.762,40.039,16.602,-46.387
1532215759.012,28.320,35.645,34.668,20.508,-85.938
1532215759.016,36.621,39.551,28.809,20.020,96.680
1532215759.020,31.250,38.086,32.715,24.902,155.273
1532215759.024,20.996,32.227,42.480,22.949,-0.977
1532215759.028,13.184,33.203,40.039,15.137,-91.797
1532215759.032,19.043,34.668,34.668,22.949,55.176
1532215759.035,32.227,32.715,35.645,25.879,190.430
1532215759.039,30.762,33.203,35.645,24.902,57.617
1532215759.043,26.367,33.203,41.016,29.785,-102.051
1532215759.047,22.949,32.715,42.480,31.738,-13.184
1532215759.051,17.578,34.180,38.574,31.250,151.855
1532215759.055,11.230,30.762,41.504,22.461,83.984
1532215759.059,14.648,30.273,41.992,12.695,-137.207
1532215759.063,25.391,31.250,38.086,23.926,-87.402
1532215759.067,24.902,30.273,37.598,34.668,119.141
1532215759.071,23.438,31.250,36.133,30.273,140.625
1532215759.074,31.738,35.156,33.691,31.738,-38.574
1532215759.078,40.527,35.156,36.133,37.598,-87.891
1532215759.082,35.156,30.762,39.551,34.668,77.148
1532215759.086,30.273,27.832,40.527,27.832,145.508
1532215759.090,32.227,29.297,38.574,30.762,-19.043
1532215759.094,21.973,26.367,41.504,28.809,-158.203
1532215759.098,19.043,24.414,43.457,29.785,-5.371
1532215759.102,21.973,23.926,41.504,34.668,153.320
1532215759.106,24.414,15.625,43.457,32.227,28.320
1532215759.110,24.414,13.672,39.062,32.715,-133.301
1532215759.114,20.996,25.391,34.180,33.691,-43.457
1532215759.117,12.207,32.227,38.086,22.461,106.934
1532215759.121,15.137,30.762,40.039,23.438,63.477
1532215759.125,20.020,30.762,41.992,34.668,-101.074
1532215759.129,10.742,30.273,45.410,35.156,-99.609
1532215759.133,15.625,24.902,43.945,39.062,101.074
1532215759.137,23.438,21.484,41.504,33.691,121.094
1532215759.141,20.508,21.973,41.016,30.762,-57.129
1532215759.145,20.020,22.949,34.668,40.039,-94.727
1532215759.149,24.902,22.461,35.645,41.016,75.684
1532215759.153,28.809,17.578,41.992,36.133,159.668
1532215759.157,21.973,15.625,44.434,35.156,-12.207
1532215759.160,29.297,19.043,43.945,45.410,-137.207
1532215759.164,42.969,23.926,38.574,46.875,27.832
1532215759.168,45.898,30.762,30.762,35.156,192.871
1532215759.172,41.992,34.180,25.391,29.785,105.957
1532215759.176,30.762,31.250,24.902,24.902,-99.121
1532215759.180,25.391,29.297,29.785,26.855,-62.988
1532215759.184,11.719,23.926,37.109,23.926,149.414
1532215759.188,8.789,17.578,39.551,22.461,142.578
1532215759.192,19.043,20.508,36.621,31.738,-38.574
1532215759.196,27.344,29.297,36.133,32.227,-94.238
1532215759.199,32.227,30.762,33.203,33.691,90.332
1532215759.203,32.227,23.926,33.691,39.062,180.664
1532215759.207,39.551,23.438,34.180,39.062,-19.043
1532215759.211,39.062,27.344,30.273,37.109,-124.023
1532215759.215,29.785,30.273,29.785,31.250,66.895
1532215759.219,25.879,36.133,32.227,25.879,172.363
1532215759.223,18.555,32.715,35.156,22.461,9.766
1532215759.227,22.949,27.832,31.738,25.879,-158.203
1532215759.231,34.180,32.227,31.738,37.109,-37.109
1532215759.235,29.785,35.156,36.133,41.504,135.254
1532215759.239,26.855,32.227,35.645,26.367,47.852
1532215759.242,24.902,30.762,31.738,14.648,-138.672
1532215759.246,35.156,36.133,29.785,21.484,-78.125
1532215759.250,46.875,41.504,28.320,27.832,156.250
1532215759.254,37.598,40.039,32.715,29.297,136.230
1532215759.258,29.297,33.691,35.156,24.414,-80.566
1532215759.262,31.250,28.320,32.715,25.879,-86.426
1532215759.266,33.203,31.738,33.691,29.297,106.445
1532215759.270,30.273,36.133,31.738,33.691,149.414
1532215759.274,29.785,37.109,29.297,34.668,-10.742
1532215759.278,29.297,38.574,28.809,26.367,-145.020
1532215759.282,23.926,36.133,31.738,28.320,14.160
1532215759.285,27.832,32.227,36.133,37.598,189.453
1532215759.289,31.738,32.715,37.598,37.109,67.383
1532215759.293,31.738,32.715,38.574,36.621,-123.535
1532215759.297,34.668,30.273,39.062,36.621,-22.949
1532215759.301,31.250,28.320,40.039,35.645,183.105
1532215759.305,28.320,28.809,39.062,38.574,125.977
1532215759.309,38.574,28.809,36.621,41.992,-77.148
1532215759.313,39.062,34.180,34.180,38.086,-59.570
1532215759.317,35.156,43.945,25.879,26.367,125.000
1532215759.321,43.457,48.828,19.043,31.250,130.859
1532215759.324,42.969,46.387,23.926,31.250,-34.668
1532215759.328,33.691,44.434,26.855,22.461,-78.125
1532215759.332,32.227,41.992,27.832,28.320,82.520
1532215759.336,29.297,35.156,34.180,26.367,141.113
1532215759.340,35.156,32.715,33.691,24.414,-8.789
1532215759.344,36.621,34.180,33.691,35.156,-108.887
1532215759.348,25.391,33.691,37.598,31.250,21.484
1532215759.352,26.855,30.273,38.574,27.832,159.180
1532215759.356,34.668,30.762,36.621,28.809,73.242
1532215759.360,25.879,29.297,36.133,22.461,-91.309
1532215759.364,12.695,22.949,35.156,20.508,-34.668
1532215759.367,23.926,24.414,38.086,29.785,133.301
1532215759.371,38.086,31.250,39.062,40.039,108.398
1532215759.375,52.734,40.039,32.715,42.969,-85.449
1532215759.379,61.035,43.457,23.438,34.668,-112.793
1532215759.383,39.062,38.086,23.438,23.926,114.258
1532215759.387,22.949,34.668,28.320,20.508,166.504
1532215759.391,19.531,33.203,34.668,20.020,-21.973
1532215759.395,30.762,33.691,38.574,23.926,-105.469
1532215759.399,41.504,36.133,36.133,28.809,42.969
1532215759.403,35.156,36.621,32.715,35.156,150.879
1532215759.406,39.062,34.668,36.133,41.016,30.273
1532215759.410,34.180,35.156,42.480,36.621,-92.773
1532215759.414,33.691,34.180,40.039,38.086,10.254
1532215759.418,46.875,37.598,31.250,29.785,139.160
1532215759.422,55.664,44.434,22.461,24.902,87.891
1532215759.426,48.340,44.922,26.855,32.715,-44.922
1532215759.430,36.133,41.504,30.273,33.203,-19.531
1532215759.434,31.250,38.086,32.715,31.250,134.277
1532215759.438,32.227,34.180,36.133,29.785,133.301
1532215759.442,33.203,32.715,33.691,28.320,-36.621
1532215759.446,35.645,28.809,34.668,33.203,-65.430
1532215759.449,41.016,25.391,38.086,46.387,104.004
1532215759.453,41.016,24.902,37.598,53.223,160.156
1532215759.457,49.805,26.367,30.273,51.758,12.207
1532215759.461,53.223,33.203,21.973,48.828,-120.605
1532215759.465,44.434,33.691,20.508,51.270,-11.719
1532215759.469,50.293,28.809,23.438,56.152,117.676
1532215759.473,59.082,31.250,20.508,61.523,27.344
1532215759.477,56.641,34.668,17.090,52.734,-146.973
1532215759.481,53.223,33.691,15.625,42.969,-50.293
1532215759.485,55.664,33.691,16.602,54.688,153.809
1532215759.489,60.547,33.691,15.625,55.176,95.703
1532215759.492,57.617,33.203,13.672,48.340,-78.125
1532215759.496,68.359,34.668,11.719,51.270,-64.453
1532215759.500,74.707,32.715,10.742,51.758,118.652
1532215759.504,57.617,31.250,17.578,48.340,172.852
1532215759.508,61.523,36.133,21.973,54.199,-16.602
1532215759.512,67.871,37.109,21.484,60.059,-89.355
1532215759.516,62.988,36.621,24.902,55.664,68.359
1532215759.520,62.012,34.668,27.832,53.711,133.789
1532215759.524,64.453,32.227,27.832,53.223,5.371
1532215759.528,57.129,35.645,23.438,46.875,-108.398
1532215759.531,49.316,38.574,22.949,44.922,17.578
1532215759.535,41.992,35.645,28.809,36.133,152.832
1532215759.539,38.574,33.691,29.785,31.250,94.727
1532215759.543,39.062,33.203,28.320,36.621,-51.758
1532215759.547,34.668,33.691,28.809,34.668,-41.504
1532215759.551,33.203,31.738,30.273,36.621,93.262
1532215759.555,37.109,30.273,32.227,40.039,87.891
1532215759.559,45.898,34.180,33.203,41.504,-47.363
1532215759.563,56.641,41.504,27.344,49.805,-32.715
1532215759.567,61.035,44.922,25.391,51.270,114.258
1532215759.571,37.109,43.457,34.668,38.086,143.555
1532215759.574,27.344,39.551,38.086,26.367,-14.160
1532215759.578,41.992,42.969,35.156,24.414,-81.543
1532215759.582,42.480,47.852,34.668,27.832,28.320
1532215759.586,36.621,41.992,39.551,26.367,98.633
1532215759.590,30.273,39.551,37.109,18.066,57.129
1532215759.594,24.902,42.969,33.691,21.484,-54.199
1532215759.598,28.320,45.898,33.203,32.715,-8.789
1532215759.602,38.086,45.898,33.203,41.016,124.512
1532215759.606,35.645,45.898,38.086,40.527,91.797
1532215759.610,26.855,41.504,36.621,30.762,-34.668
1532215759.614,32.715,36.133,33.203,33.691,-25.879
1532215759.617,43.457,34.668,39.551,45.898,102.539
1532215759.621,50.781,37.109,39.551,48.340,107.422
1532215759.625,48.340,39.551,35.645,36.621,-21.973
1532215759.629,35.156,34.180,40.039,35.645,-33.691
1532215759.633,37.598,34.180,38.574,43.945,66.406
1532215759.637,55.664,41.504,31.250,45.898,55.176
1532215759.641,66.895,46.875,29.297,49.805,-36.621
1532215759.645,52.246,43.457,33.203,46.387,-71.289
1532215759.649,39.062,40.039,28.809,39.551,16.113
1532215759.653,50.293,39.062,30.273,42.969,127.930
1532215759.656,60.059,39.551,36.621,46.875,80.566
1532215759.660,60.059,42.969,35.645,47.363,-49.805
1532215759.664,57.129,43.945,31.250,49.805,6.836
1532215759.668,48.828,43.457,33.203,48.340,130.859
1532215759.672,51.270,42.969,36.621,44.434,75.684
1532215759.676,57.129,41.504,38.574,34.180,-3.418
1532215759.680,48.828,40.527,39.551,33.203,15.137
1532215759.684,50.293,41.504,39.551,35.645,86.914
1532215759.688,51.758,41.504,39.551,24.902,86.914
1532215759.692,54.688,39.551,37.598,22.949,1.953
1532215759.696,58.105,41.992,40.039,29.785,-52.246
1532215759.699,50.293,40.039,44.922,39.551,44.434
1532215759.703,36.133,37.598,44.434,42.480,121.094
1532215759.707,36.621,34.668,46.875,47.363,13.672
1532215759.711,35.645,30.762,47.363,54.688,-45.410
1532215759.715,21.973,36.133,45.410,41.504,39.551
1532215759.719,25.879,44.434,43.457,31.250,119.141
1532215759.723,29.297,49.316,41.016,32.715,61.035
1532215759.727,24.902,49.316,41.992,28.809,-73.242
1532215759.731,24.902,46.387,38.574,31.738,7.324
1532215759.735,21.484,42.480,39.062,21.973,148.926
1532215759.738,33.691,37.109,41.992,12.207,81.055
1532215759.742,35.645,39.551,41.016,18.555,-108.887
1532215759.746,27.344,44.922,34.668,21.973,-64.941
1532215759.750,23.926,41.504,31.250,22.461,149.414
1532215759.754,18.066,37.109,33.203,20.996,137.695
1532215759.758,27.832,34.668,32.715,19.531,-109.375
1532215759.762,35.156,35.156,31.738,23.926,-147.949
1532215759.766,37.598,36.133,26.855,29.297,85.938
1532215759.770,39.551,34.668,25.879,27.344,172.852
1532215759.774,36.133,36.133,32.715,28.809,-1.465
1532215759.778,40.527,39.062,30.273,32.227,-126.953
1532215759.781,36.621,34.668,28.320,33.203,24.902
1532215759.785,20.996,32.715,35.156,26.855,166.992
1532215759.789,27.832,31.250,36.621,23.926,39.551
1532215759.793,33.203,27.344,33.691,30.273,-119.629
1532215759.797,29.297,30.273,31.250,30.762,-55.176
1532215759.801,39.551,31.738,26.367,27.832,143.066
1532215759.805,39.551,28.809,25.391,32.227,115.723
1532215759.809,34.668,29.785,31.250,34.180,-103.027
1532215759.813,33.691,30.762,31.738,30.762,-80.566
1532215759.817,28.320,33.203,26.367,28.809,117.676
1532215759.821,32.227,36.621,26.855,29.785,159.180
1532215759.824,40.527,36.133,28.320,29.297,-42.480
1532215759.828,41.504,38.574,24.414,28.320,-94.727
1532215759.832,20.020,35.156,25.879,23.926,93.750
1532215759.836,9.766,32.227,32.227,10.742,153.809
1532215759.840,15.625,32.715,33.691,8.789,-44.922
1532215759.844,24.414,28.809,36.621,24.902,-128.418
1532215759.848,36.133,31.250,36.133,39.062,42.480
1532215759.852,47.363,37.598,33.203,35.156,179.688
1532215759.856,40.039,41.016,30.273,23.926,74.707
1532215759.860,27.832,39.551,27.832,23.926,-113.281
1532215759.863,31.250,35.645,29.785,30.273,-33.203
1532215759.867,30.273,31.250,37.109,32.715,174.805
1532215759.871,38.574,27.832,41.504,38.574,151.855
1532215759.875,38.574,31.250,35.645,35.156,-78.125
1532215759.879,35.645,39.551,25.391,21.973,-92.773
1532215759.883,36.621,42.969,18.066,23.926,116.699
1532215759.887,23.926,43.457,22.949,13.672,147.949
1532215759.891,18.066,40.527,31.738,6.836,-42.480
1532215759.895,24.902,39.551,32.227,12.207,-113.770
1532215759.899,30.762,40.039,26.855,9.766,51.270
1532215759.903,35.156,32.227,26.855,17.578,164.551
1532215759.906,33.203,28.809,34.180,26.367,25.879
1532215759.910,30.273,37.109,35.645,21.973,-110.840
1532215759.914,33.203,37.109,35.645,22.949,5.371
1532215759.918,35.156,35.156,37.109,31.250,161.133
1532215759.922,40.527,37.598,37.109,29.785,107.422
1532215759.926,42.480,37.109,33.203,26.855,-79.102
1532215759.930,31.738,32.715,30.273,23.926,-49.316
1532215759.934,24.414,28.320,32.715,20.996,135.254
1532215759.938,33.691,30.762,28.320,17.578,108.398
1532215759.942,35.645,37.598,25.391,17.090,-82.520
1532215759.946,37.109,40.039,27.832,20.508,-92.773
1532215759.949,41.504,41.504,22.949,21.484,109.375
1532215759.953,44.434,43.457,19.531,23.438,170.410
1532215759.957,32.715,39.062,23.438,23.926,-14.160
1532215759.961,19.531,32.227,25.391,21.973,-127.930
1532215759.965,21.484,30.273,27.832,25.879,35.645
1532215759.969,32.227,31.250,30.273,29.297,190.430
1532215759.973,46.387,31.738,29.785,28.809,61.035
1532215759.977,40.527,34.668,31.738,28.320,-122.070
1532215759.981,25.879,32.227,32.715,26.367,-10.742
1532215759.985,29.785,27.832,35.645,36.621,173.828
1532215759.988,36.621,29.297,35.645,37.109,111.328
1532215759.992,35.645,32.227,31.738,30.273,-83.984
1532215759.996,34.180,33.203,32.715,34.668,-48.828
1532215760.000,26.855,29.785,32.715,31.250,129.395
1532215760.004,23.926,29.785,32.715,30.273,129.395
1532215760.008,33.691,28.320,35.645,33.691,-36.621
1532215760.012,48.340,24.902,37.109,41.016,-86.914
1532215760.016,46.875,30.273,34.668,45.898,66.895
1532215760.020,37.109,35.156,29.785,36.133,139.648
1532215760.024,32.715,34.668,33.203,33.691,-9.277
1532215760.028,38.574,31.738,39.062,44.434,-120.605
1532215760.031,46.387,38.086,33.691,45.898,39.062
1532215760.035,47.363,45.898,26.367,35.156,155.273
1532215760.039,47.852,38.574,31.738,35.645,39.551
1532215760.043,28.320,34.668,37.109,31.250,-148.926
1532215760.047,10.742,37.109,29.785,26.855,-48.340
1532215760.051,21.973,37.109,32.227,34.180,182.617
1532215760.055,24.902,31.738,35.645,38.574,95.703
1532215760.059,26.367,29.297,33.691,30.273,-117.188
1532215760.063,33.691,32.715,34.668,30.762,-67.383
1532215760.067,32.227,34.668,30.762,29.297,127.441
1532215760.071,25.391,31.738,26.855,25.391,139.648
1532215760.074,31.250,25.879,29.297,28.320,-75.684
1532215760.078,35.156,28.320,30.762,26.367,-147.461
1532215760.082,27.832,32.715,30.273,29.785,50.781
1532215760.086,19.531,32.715,33.691,29.297,179.199
1532215760.090,22.461,29.297,37.109,24.902,38.086
1532215760.094,25.879,25.391,36.133,27.832,-145.508
1532215760.098,29.785,28.809,30.762,34.668,-5.859
1532215760.102,39.062,34.668,25.879,35.156,154.785
1532215760.106,35.156,37.598,24.414,33.691,71.289
1532215760.110,26.367,34.668,30.273,27.832,-109.863
1532215760.113,26.855,28.809,30.762,25.391,-43.945
1532215760.117,28.320,21.484,26.855,24.414,134.277
1532215760.121,23.438,21.973,28.320,25.879,103.516
1532215760.125,21.973,26.855,30.762,28.809,-66.406
1532215760.129,23.926,24.414,31.250,32.227,-85.449
1532215760.133,32.715,27.344,28.320,39.062,103.516
1532215760.137,39.062,34.180,22.461,33.691,151.367
1532215760.141,41.992,35.645,24.414,32.227,-25.879
1532215760.145,33.203,34.668,24.414,25.879,-110.840
1532215760.149,31.738,35.156,20.996,23.926,72.754
1532215760.153,40.039,34.180,20.996,28.809,167.480
1532215760.156,40.039,28.320,29.785,26.855,15.137
1532215760.160,28.320,23.926,30.273,26.855,-114.746
1532215760.164,16.602,17.090,28.320,28.320,2.930
1532215760.168,18.066,12.695,33.691,27.344,150.391
1532215760.172,20.996,17.578,28.809,24.414,97.656
1532215760.176,21.484,27.832,22.949,19.043,-105.957
1532215760.180,29.785,32.227,20.508,19.531,-93.750
1532215760.184,26.855,34.668,17.090,21.484,131.348
1532215760.188,23.926,39.062,14.160,25.391,138.672
1532215760.192,25.879,33.203,19.531,29.297,-61.035
1532215760.195,20.996,29.297,25.879,29.297,-95.215
1532215760.199,25.391,23.926,24.414,27.832,99.609
1532215760.203,40.039,23.926,24.414,33.203,177.246
1532215760.207,38.574,26.855,21.484,29.297,-3.418
1532215760.211,39.062,25.391,20.996,25.391,-139.160
1532215760.215,51.758,22.949,23.926,38.086,19.531
1532215760.219,43.945,25.391,21.484,34.668,148.438
1532215760.223,41.016,31.250,13.184,27.832,-1.465
1532215760.227,47.363,34.180,8.789,35.156,-135.254
1532215760.231,39.062,29.297,15.137,43.457,7.324
1532215760.235,37.598,29.785,21.484,38.574,186.523
1532215760.238,43.945,32.227,17.578,35.156,120.117
1532215760.242,44.434,25.391,17.578,42.969,-93.262
1532215760.246,41.016,23.926,19.043,46.875,-53.711
1532215760.250,37.109,25.879,15.625,36.621,163.574
1532215760.254,29.297,26.855,18.066,24.414,151.855
1532215760.258,27.832,27.832,20.508,27.344,-61.523
1532215760.262,44.922,31.250,18.066,36.133,-96.680
1532215760.266,58.594,36.133,13.184,38.574,101.074
1532215760.270,54.688,33.203,16.602,39.551,200.195
1532215760.274,37.109,28.809,23.926,28.809,23.438
1532215760.278,29.785,26.855,24.414,24.902,-125.000
1532215760.281,41.504,29.297,22.949,37.598,44.434
1532215760.285,51.758,34.668,23.438,44.922,214.355
1532215760.289,45.410,38.574,21.973,43.457,99.121
1532215760.293,40.039,40.039,16.113,36.133,-93.750
1532215760.297,44.434,41.992,11.230,18.066,-32.715
1532215760.301,38.574,40.039,10.742,14.648,128.418
1532215760.305,34.668,36.133,14.648,26.367,120.605
1532215760.309,39.062,37.109,20.996,25.391,-88.867
1532215760.313,39.551,36.621,21.484,27.344,-95.215
1532215760.317,35.156,34.668,20.020,20.508,87.402
1532215760.320,32.227,31.250,27.832,19.531,114.746
1532215760.324,37.109,26.855,31.738,33.203,-23.926
1532215760.328,45.410,26.367,28.809,39.551,-109.863
1532215760.332,47.852,30.762,26.367,38.086,72.754
1532215760.336,53.223,36.621,17.578,27.344,189.453
1532215760.340,53.711,36.133,14.160,22.949,22.949
1532215760.344,37.109,32.227,22.461,28.809,-119.629
1532215760.348,21.484,27.832,29.297,29.785,17.090
1532215760.352,19.043,26.367,27.344,28.320,155.762
1532215760.356,27.344,24.902,26.367,32.715,29.785
1532215760.360,30.762,26.367,24.902,33.203,-151.367
1532215760.363,30.273,26.855,20.996,29.785,-50.781
1532215760.367,30.273,25.391,23.438,32.227,160.645
1532215760.371,32.227,23.926,24.414,37.598,112.793
1532215760.375,31.738,21.484,24.414,41.016,-91.797
1532215760.379,37.598,20.508,32.227,42.969,-86.426
1532215760.383,41.504,27.344,29.785,36.621,128.906
1532215760.387,39.062,34.668,21.484,28.320,167.969
1532215760.391,43.457,37.109,20.508,20.996,-36.621
1532215760.395,39.551,37.109,17.578,19.531,-128.906
1532215760.399,27.832,34.180,20.508,25.391,27.344
1532215760.403,29.297,32.227,28.809,23.438,146.973
1532215760.406,32.227,35.156,26.855,24.902,20.508
1532215760.410,26.855,30.273,22.461,31.738,-123.535
1532215760.414,23.438,26.367,26.367,32.715,10.254
1532215760.418,20.996,22.949,31.250,27.344,158.691
1532215760.422,28.809,17.578,29.785,25.879,77.637
1532215760.426,34.668,22.949,22.949,31.738,-101.562
1532215760.430,36.133,27.832,22.461,36.133,-53.223
1532215760.434,29.785,25.879,26.855,36.621,141.113
1532215760.438,25.391,25.391,29.297,31.738,148.926
1532215760.442,24.414,27.832,27.832,24.902,-53.223
1532215760.445,28.320,28.320,25.879,25.391,-104.004
1532215760.449,31.250,25.879,24.902,33.691,120.117
1532215760.453,39.062,24.414,28.809,35.156,204.590
1532215760.457,43.457,24.414,33.203,17.578,-24.902
1532215760.461,24.414,24.414,25.391,13.672,-156.250
1532215760.465,22.461,21.973,23.926,32.227,41.992
1532215760.469,28.320,20.508,29.297,34.180,182.129
1532215760.473,27.344,20.996,29.785,30.762,80.078
1532215760.477,25.391,22.461,31.738,32.227,-115.234
1532215760.481,32.227,24.902,37.598,37.598,-21.484
1532215760.485,31.738,22.461,40.039,41.016,178.223
1532215760.488,25.391,16.113,38.574,41.016,100.586
1532215760.492,29.297,17.578,37.598,41.504,-91.797
1532215760.496,31.250,21.484,37.598,36.621,-82.031
1532215760.500,35.156,22.461,36.621,35.156,122.070
1532215760.504,38.574,23.438,32.227,39.551,155.762
1532215760.508,41.016,24.414,34.180,33.203,-69.824
1532215760.512,29.297,22.949,35.645,25.879,-135.742
1532215760.516,23.438,21.973,30.762,31.250,60.547
1532215760.520,36.133,24.902,28.320,34.668,146.484
1532215760.524,36.621,24.414,27.344,30.273,-32.227
1532215760.527,30.762,20.508,29.785,29.785,-144.043
1532215760.531,28.809,16.602,34.668,31.738,45.410
1532215760.535,34.180,18.555,32.715,30.273,183.105
1532215760.539,35.156,20.508,25.391,28.809,46.875
1532215760.543,31.738,22.461,22.461,28.809,-127.441
1532215760.547,33.203,26.855,22.461,30.762,-26.855
1532215760.551,34.180,22.949,27.832,34.668,171.387
1532215760.555,24.902,17.090,31.738,32.715,89.844
1532215760.559,21.973,18.555,31.250,30.762,-147.949
1532215760.563,26.855,22.949,29.785,35.645,-107.910
1532215760.567,27.344,24.414,29.297,37.598,131.348
1532215760.570,22.461,20.508,31.738,35.156,142.578
1532215760.574,29.785,16.602,34.180,31.250,-81.543
1532215760.578,38.574,16.113,33.691,32.715,-123.535
1532215760.582,39.551,18.066,31.250,37.109,97.656
1532215760.586,47.852,21.973,32.227,34.668,172.363
1532215760.590,52.246,24.414,28.320,35.156,7.812
1532215760.594,57.129,24.414,21.973,32.227,-129.883
1532215760.598,55.664,25.391,23.926,17.578,-17.578
1532215760.602,54.199,30.762,20.508,25.879,180.664
1532215760.606,45.410,29.297,22.949,41.016,90.820
1532215760.610,27.832,20.996,33.691,37.598,-108.887
1532215760.613,25.391,17.090,34.180,39.551,-60.547
1532215760.617,21.484,17.090,32.227,45.410,131.348
1532215760.621,28.809,20.996,33.203,47.363,139.648
1532215760.625,38.574,23.926,26.855,44.922,-80.078
1532215760.629,26.855,23.926,19.531,42.969,-98.145
1532215760.633,15.137,22.461,20.020,35.156,125.977
1532215760.637,8.301,22.949,24.902,18.555,175.781
1532215760.641,12.207,22.461,28.320,19.531,-15.137
1532215760.645,25.879,19.531,27.344,28.320,-117.676
1532215760.649,29.297,17.090,21.973,27.344,41.016
1532215760.652,20.996,13.184,24.414,30.273,160.645
1532215760.656,28.809,12.695,29.297,28.320,-9.277
1532215760.660,36.621,17.578,25.391,28.809,-150.391
1532215760.664,41.016,23.926,20.020,35.645,8.789
1532215760.668,41.504,29.297,19.531,29.297,162.109
1532215760.672,37.598,29.785,16.602,23.926,65.918
1532215760.676,28.809,25.879,-25.391,24.414,-113.281
1532215760.680,20.020,22.461,-48.828,27.832,-52.246
1532215760.684,19.043,18.066,-24.902,28.809,147.461
1532215760.688,19.043,18.066,-13.672,27.832,153.320
1532215760.692,27.344,20.508,-0.488,29.785,-30.762
1532215760.695,36.133,23.926,-45.410,27.832,-98.633
1532215760.699,34.668,25.879,-123.535,24.902,75.684
1532215760.703,30.762,28.320,-119.629,23.926,180.176
1532215760.707,30.762,32.227,-91.309,20.996,2.441
1532215760.711,31.738,32.227,-71.777,24.902,-117.188
1532215760.715,25.391,28.320,-47.852,17.578,47.363
1532215760.719,16.602,24.414,-31.250,7.812,173.828
1532215760.723,20.020,23.926,-21.484,17.578,54.199
1532215760.727,39.062,26.367,-10.742,27.344,-112.793
1532215760.731,38.086,26.855,-3.418,32.227,-14.648
1532215760.735,19.531,23.926,7.324,27.832,152.832
1532215760.738,21.484,19.531,17.578,25.879,49.316
1532215760.742,32.715,16.113,21.973,38.574,-139.160
1532215760.746,41.016,22.949,20.508,41.992,-96.680
1532215760.750,39.551,30.762,17.090,30.762,136.719
1532215760.754,41.016,32.715,18.555,24.414,166.992
1532215760.758,40.527,32.227,21.973,27.344,-39.551
1532215760.762,41.992,32.715,24.414,33.691,-85.938
1532215760.766,42.969,31.250,27.832,37.598,86.426
1532215760.770,34.668,27.344,32.715,36.133,175.781
1532215760.774,32.227,24.414,36.621,34.668,29.785
1532215760.777,46.387,25.879,40.039,30.273,-133.301
1532215760.781,49.316,29.785,36.621,26.367,13.184
1532215760.785,42.969,35.156,29.785,26.855,153.809
1532215760.789,43.945,38.574,32.227,27.832,55.176
1532215760.793,29.785,32.715,41.992,23.438,-106.934
1532215760.797,17.090,29.785,43.457,21.973,-38.574
1532215760.801,31.738,36.133,39.551,29.785,174.316
1532215760.805,45.898,42.969,39.551,36.133,124.023
1532215760.809,46.875,41.016,42.969,40.039,-112.793
1532215760.813,39.551,34.180,44.922,38.574,-112.793
1532215760.817,34.668,33.203,45.410,39.062,107.422
1532215760.820,48.340,32.715,46.875,39.062,147.949
1532215760.824,55.176,33.203,42.969,36.621,-49.316
1532215760.828,36.133,36.133,40.039,35.156,-106.934
1532215760.832,30.762,32.715,41.992,36.621,84.961
1532215760.836,39.062,29.785,45.898,34.180,165.039
1532215760.840,40.527,29.785,47.852,27.832,20.020
1532215760.844,45.410,28.809,45.410,30.273,-92.285
1532215760.848,45.898,28.809,46.387,37.598,53.223
1532215760.852,48.340,30.762,45.898,41.016,197.754
1532215760.856,48.340,34.180,37.109,33.691,79.590
1532215760.859,46.387,32.715,31.738,26.367,-122.070
1532215760.863,42.480,31.250,30.762,26.367,-47.852
1532215760.867,35.645,33.691,30.762,20.020,147.461
1532215760.871,30.273,30.273,32.715,19.531,134.766
1532215760.875,32.227,26.367,38.086,28.320,-76.172
1532215760.879,42.969,24.902,40.527,29.297,-114.258
1532215760.883,48.340,25.391,32.227,35.156,93.750
1532215760.887,51.270,29.297,28.320,44.922,178.711
1532215760.891,50.781,27.832,36.133,40.039,-2.441
1532215760.895,40.527,25.879,39.062,31.250,-125.000
1532215760.899,25.391,23.926,37.109,32.715,52.734
1532215760.902,21.484,21.484,38.086,35.645,182.617
1532215760.906,21.973,20.996,42.480,31.738,31.738
1532215760.910,27.832,20.996,42.480,34.668,-125.977
1532215760.914,29.297,17.090,42.969,45.410,-10.254
1532215760.918,33.203,15.137,42.969,48.340,153.320
1532215760.922,39.062,17.578,41.016,42.969,86.426
1532215760.926,43.457,22.949,33.691,39.551,-91.797
1532215760.930,38.574,23.438,28.809,37.598,-58.594
1532215760.934,27.344,21.484,32.715,37.109,118.652
1532215760.938,28.320,30.273,31.738,36.621,118.652
1532215760.942,33.203,32.715,31.738,34.180,-61.523
1532215760.945,29.785,26.855,35.156,37.109,-123.535
1532215760.949,30.762,23.926,39.551,41.504,69.824
1532215760.953,27.344,24.902,41.992,36.621,140.625
1532215760.957,24.902,28.320,37.598,30.273,-22.949
1532215760.961,35.156,32.715,31.738,26.855,-121.094
1532215760.965,32.227,35.156,22.461,25.879,15.137
1532215760.969,25.879,33.691,19.043,28.320,153.320
1532215760.973,23.438,28.809,29.785,25.879,75.684
1532215760.977,20.996,26.855,35.156,17.090,-103.516
1532215760.981,26.367,25.879,32.715,21.973,-35.645
1532215760.984,32.715,25.879,27.344,31.738,140.137
1532215760.988,30.273,27.344,27.832,29.785,86.426
1532215760.992,20.020,24.902,30.273,28.320,-80.566
1532215760.996,8.789,20.508,30.273,27.344,-64.453
1532215761.000,6.836,19.531,29.785,21.484,116.211
1532215761.004,21.973,21.484,31.738,23.926,125.488
1532215761.008,27.832,23.926,30.762,25.879,-35.645
1532215761.012,30.273,29.297,25.879,26.367,-89.355
1532215761.016,29.785,32.715,25.879,25.391,66.895
1532215761.020,21.973,29.297,25.879,17.090,120.117
1532215761.024,14.160,25.391,26.855,14.648,10.254
1532215761.027,14.160,23.926,27.832,18.066,-74.219
1532215761.031,24.414,22.949,25.879,31.738,54.199
1532215761.035,26.855,23.438,25.391,33.203,166.016
1532215761.039,26.855,27.832,23.438,24.414,42.969
1532215761.043,25.879,31.250,26.367,21.973,-122.070
1532215761.047,19.531,29.297,30.273,17.578,-52.246
1532215761.051,26.855,25.879,31.250,28.320,156.738
1532215761.055,40.527,29.785,28.809,32.227,89.844
1532215761.059,37.109,36.133,21.973,18.555,-121.582
1532215761.063,29.297,35.156,19.531,19.531,-92.285
1532215761.067,29.297,32.227,27.344,27.832,125.977
1532215761.070,25.879,27.832,32.715,31.250,155.762
1532215761.074,24.414,19.043,35.156,27.344,-49.316
1532215761.078,31.738,23.926,34.668,25.879,-101.562
1532215761.082,31.250,32.715,27.832,24.902,80.566
1532215761.086,36.621,39.551,25.879,24.902,179.199
1532215761.090,40.039,41.016,28.320,28.320,47.363
1532215761.094,29.785,38.574,32.227,21.973,-114.258
1532215761.098,32.227,40.527,36.133,22.461,15.625
1532215761.102,41.504,39.551,35.645,31.250,170.898
1532215761.106,35.645,35.645,34.180,33.691,61.523
1532215761.109,32.227,33.203,36.621,32.227,-91.797
1532215761.113,37.598,33.203,37.109,38.086,-31.250
1532215761.117,43.457,32.227,28.809,37.109,148.438
1532215761.121,46.875,29.297,21.973,34.180,133.789
1532215761.125,45.410,29.297,17.578,36.621,-55.664
1532215761.129,43.457,31.738,18.555,37.598,-64.453
1532215761.133,47.852,31.250,22.461,41.016,121.094
1532215761.137,41.504,32.715,19.531,40.039,173.340
1532215761.141,40.039,35.156,21.484,42.969,10.742
1532215761.145,41.992,33.203,21.484,41.016,-104.492
1532215761.149,36.133,29.785,-6.836,37.598,42.480
1532215761.152,37.109,30.762,-30.273,44.434,177.734
1532215761.156,38.574,33.203,-27.832,42.969,58.594
1532215761.160,37.598,30.762,-20.996,36.621,-129.883
1532215761.164,40.527,29.785,-10.742,36.621,-13.184
1532215761.168,38.574,30.762,-4.883,41.504,151.367
1532215761.172,36.621,30.762,-0.488,40.039,73.730
1532215761.176,36.133,30.762,6.348,35.156,-98.145
1532215761.180,35.156,32.227,12.207,37.109,-65.918
1532215761.184,37.109,29.297,16.602,36.133,127.930
1532215761.188,33.203,26.855,21.484,32.227,147.949
1532215761.191,29.297,24.902,23.438,33.203,-47.852
1532215761.195,32.715,20.996,26.367,34.668,-110.840
1532215761.199,32.227,23.438,33.203,34.180,68.848
1532215761.203,35.156,27.832,30.762,34.668,153.320
1532215761.207,34.180,29.785,23.926,29.297,10.254
1532215761.211,34.180,32.715,22.949,30.762,-92.773
1532215761.215,41.016,33.691,25.879,34.668,11.230
1532215761.219,40.039,28.320,30.762,35.156,137.207
1532215761.223,34.668,27.832,31.738,35.645,64.453
1532215761.227,32.715,30.762,27.344,28.809,-82.031
1532215761.231,33.203,31.738,26.855,25.391,-18.555
1532215761.234,38.574,32.227,25.879,24.414,161.133
1532215761.238,41.504,37.109,27.832,30.762,131.348
1532215761.242,40.527,33.691,35.645,31.738,-98.145
1532215761.246,34.180,27.344,34.668,30.762,-78.125
1532215761.250,30.273,26.855,33.691,35.645,148.438
1532215761.254,36.621,26.367,38.574,34.668,155.273
1532215761.258,35.156,28.320,38.086,29.297,-63.477
1532215761.262,28.809,26.855,34.180,35.645,-134.766
1532215761.266,37.109,24.414,32.715,48.828,68.359
1532215761.270,42.480,25.879,35.156,44.434,158.203
1532215761.274,41.016,23.926,36.133,34.180,-3.906
1532215761.277,35.645,24.414,34.668,29.785,-112.793
1532215761.281,26.367,27.344,36.621,26.855,17.578
1532215761.285,32.715,25.879,36.621,27.344,157.715
1532215761.289,30.273,21.484,38.086,27.832,68.848
1532215761.293,26.855,20.996,45.410,36.133,-94.727
1532215761.297,37.109,20.508,43.945,38.574,-60.059
1532215761.301,43.457,21.484,37.598,35.156,116.699
1532215761.305,43.945,25.391,30.273,32.715,111.816
1532215761.309,47.363,28.809,27.344,30.273,-51.758
1532215761.313,44.922,29.785,28.320,35.645,-38.574
1532215761.316,50.293,29.297,29.297,39.062,125.488
1532215761.320,55.176,28.320,30.762,41.504,164.551
1532215761.324,39.062,25.879,34.668,38.574,1.953
1532215761.328,30.762,27.344,36.133,37.598,-87.891
1532215761.332,30.762,26.367,34.668,33.203,99.121
1532215761.336,31.250,25.879,34.668,25.879,175.781
1532215761.340,33.691,26.855,33.203,26.367,12.207
1532215761.344,34.180,25.391,33.691,23.926,-121.094
1532215761.348,35.156,26.367,34.668,26.367,2.441
1532215761.352,29.297,24.414,32.227,28.809,165.039
1532215761.356,24.414,19.043,32.227,23.926,45.898
1532215761.359,21.973,20.020,34.180,20.020,-119.141
1532215761.363,23.438,22.461,33.691,31.738,-42.480
1532215761.367,34.180,20.996,32.715,39.062,125.977
1532215761.371,39.062,24.414,33.691,37.598,94.727
1532215761.375,39.062,29.785,31.738,33.203,-89.355
1532215761.379,49.316,31.250,29.785,35.156,-90.332
1532215761.383,41.016,27.344,33.203,39.551,89.844
1532215761.387,23.438,26.367,34.180,36.133,145.996
1532215761.391,23.438,27.832,33.203,30.273,16.113
1532215761.395,27.832,29.785,31.250,25.879,-117.676
1532215761.399,34.668,34.668,27.344,27.832,9.766
1532215761.402,44.434,34.668,21.973,36.133,161.133
1532215761.406,41.016,32.715,23.438,40.039,28.320
1532215761.410,29.785,32.227,31.250,35.645,-116.211
1532215761.414,28.320,33.691,32.227,33.203,-11.719
1532215761.418,30.273,33.203,29.297,34.668,143.555
1532215761.422,25.879,31.738,27.344,33.203,94.727
1532215761.426,25.879,33.691,22.461,30.273,-103.027
1532215761.430,34.668,35.645,22.949,34.180,-69.824
1532215761.434,31.738,36.133,25.879,35.645,151.367
1532215761.438,24.902,32.715,30.273,27.832,150.879
1532215761.441,24.414,28.320,30.762,26.367,-44.434
1532215761.445,20.996,26.367,29.785,33.691,-102.539
1532215761.449,24.414,25.879,34.668,41.016,77.637
1532215761.453,36.133,24.414,36.621,51.270,145.020
1532215761.457,43.457,26.367,35.645,51.758,-27.832
1532215761.461,45.898,32.227,30.273,47.852,-111.328
1532215761.465,45.410,36.133,26.367,43.457,48.340
1532215761.469,41.016,38.574,27.832,38.086,176.758
1532215761.473,42.969,39.062,25.391,34.668,69.336
1532215761.477,37.598,37.598,21.484,23.926,-107.422
1532215761.481,26.855,32.227,20.020,20.996,-28.809
1532215761.484,26.367,27.832,22.461,27.832,168.945
1532215761.488,36.621,27.344,23.926,29.297,94.727
1532215761.492,47.852,28.809,22.461,36.133,-102.539
1532215761.496,37.598,29.297,19.531,34.180,-64.941
1532215761.500,32.227,27.832,17.578,30.273,119.629
1532215761.504,34.180,23.438,24.414,36.133,150.391
1532215761.508,32.715,21.484,28.809,36.621,-18.555
1532215761.512,36.133,23.438,31.250,39.062,-83.984
1532215761.516,43.945,27.344,27.344,38.574,76.172
1532215761.520,50.781,33.203,20.996,37.109,157.227
1532215761.524,41.504,27.832,24.902,28.809,21.484
1532215761.527,34.668,22.461,28.320,16.113,-104.492
1532215761.531,33.691,22.461,28.320,19.531,35.645
1532215761.535,34.180,18.066,30.273,27.344,168.457
1532215761.539,37.598,19.043,28.320,27.344,34.668
1532215761.543,34.668,27.344,25.391,26.855,-141.113
1532215761.547,33.691,32.227,23.926,36.133,-39.551
1532215761.551,31.738,28.809,22.949,42.480,172.852
1532215761.555,19.531,23.926,25.391,41.992,112.305
1532215761.559,9.277,21.484,29.785,39.551,-85.449
1532215761.563,7.324,21.484,30.273,37.109,-100.586
1532215761.566,10.742,20.996,25.879,38.086,81.543
1532215761.570,20.020,23.926,22.949,36.621,160.156
1532215761.574,27.832,28.320,20.996,31.738,-30.273
1532215761.578,25.879,31.738,19.043,23.926,-137.207
1532215761.582,18.066,30.762,20.508,17.578,59.082
1532215761.586,19.531,29.297,24.414,18.555,166.504
1532215761.590,24.414,31.738,25.879,26.367,46.387
1532215761.594,27.344,33.203,25.391,30.762,-100.586
1532215761.598,28.809,31.738,29.297,30.273,-21.484
1532215761.602,28.809,28.809,31.250,33.203,169.922
1532215761.606,34.180,26.367,32.715,41.016,99.121
1532215761.609,43.945,28.320,27.832,44.434,-101.074
1532215761.613,40.039,32.227,24.414,36.133,-43.457
1532215761.617,28.320,30.762,28.320,25.879,107.422
1532215761.621,30.273,29.297,24.414,27.344,81.543
1532215761.625,39.062,27.344,23.926,31.250,-76.172
1532215761.629,33.203,24.902,26.855,31.738,-85.449
1532215761.633,30.273,26.367,25.879,33.203,106.445
1532215761.637,39.062,32.227,22.949,24.414,139.648
1532215761.641,41.992,34.180,20.020,24.414,-42.480
1532215761.645,41.016,31.250,22.949,37.598,-95.215
1532215761.648,38.574,27.832,28.320,33.691,82.031
1532215761.652,35.156,24.902,27.832,35.156,191.406
1532215761.656,27.344,25.391,24.414,28.809,37.109
1532215761.660,24.902,28.809,22.949,22.949,-115.723
1532215761.664,30.273,25.879,21.484,32.227,7.812
1532215761.668,33.203,20.020,19.531,35.645,175.293
1532215761.672,37.109,18.066,16.602,39.062,116.699
1532215761.676,36.621,18.555,12.695,36.621,-91.309
1532215761.680,34.668,23.438,2.441,34.180,-52.734
1532215761.684,38.574,29.785,-11.719,36.133,175.293
1532215761.688,45.410,32.715,-23.926,32.227,161.621
1532215761.691,54.199,33.691,-35.645,35.645,-33.691
1532215761.695,54.199,28.809,-30.273,38.574,-82.031
1532215761.699,35.645,22.461,-22.461,28.809,79.102
1532215761.703,30.762,23.926,-22.461,25.879,181.641
1532215761.707,41.016,25.879,-20.020,27.344,31.250
1532215761.711,36.621,24.902,-13.184,33.691,-109.375
1532215761.715,29.297,22.949,-5.859,38.086,50.293
1532215761.719,35.645,22.949,-2.441,30.762,188.477
1532215761.723,41.016,26.367,0.488,31.738,40.527
1532215761.727,41.992,25.879,2.441,38.086,-100.586
1532215761.731,49.316,22.461,2.441,39.551,-4.395
1532215761.734,55.664,22.949,1.953,38.574,177.734
1532215761.738,58.105,25.391,2.441,41.504,124.512
1532215761.742,48.340,29.785,0.000,35.645,-75.684
1532215761.746,39.551,30.762,-2.930,28.320,-62.988
1532215761.750,44.922,25.391,-2.441,37.109,161.133
1532215761.754,51.270,24.414,1.953,39.551,168.945
1532215761.758,41.016,25.879,6.348,30.273,-71.289
1532215761.762,30.273,24.902,4.883,23.926,-96.191
1532215761.766,32.715,25.879,4.883,27.832,106.934
1532215761.770,36.621,26.855,7.324,31.250,206.543
1532215761.773,36.621,24.902,7.812,33.691,37.109
1532215761.777,32.227,22.461,14.160,24.414,-138.184
1532215761.781,32.227,20.508,20.508,19.531,8.301
1532215761.785,45.898,20.996,22.461,34.180,177.734
1532215761.789,50.293,25.879,20.996,37.598,68.359
1532215761.793,45.898,28.320,24.414,33.691,-105.957
1532215761.797,39.551,28.809,30.273,37.598,-44.434
1532215761.801,33.203,27.344,31.738,40.039,138.672
1532215761.805,38.574,23.438,35.645,38.086,125.488
1532215761.809,40.527,17.578,38.574,38.574,-91.309
1532215761.813,42.969,20.020,34.668,44.434,-98.633
1532215761.816,40.039,25.879,32.715,39.551,114.746
1532215761.820,32.715,24.902,34.668,30.273,163.574
1532215761.824,35.645,24.902,34.180,30.762,-12.695
1532215761.828,32.715,25.879,32.715,28.809,-105.469
1532215761.832,28.320,25.391,33.203,28.320,73.242
1532215761.836,27.344,27.832,35.645,32.715,182.129
1532215761.840,31.250,26.855,39.062,39.062,37.598
1532215761.844,30.762,22.949,41.504,42.480,-117.188
1532215761.848,36.621,19.531,44.922,45.410,-16.602
1532215761.852,48.828,19.531,45.898,56.152,126.953
1532215761.856,43.945,22.461,42.480,55.176,27.832
1532215761.859,37.109,26.367,32.715,39.551,-144.043
1532215761.863,38.574,28.809,29.785,43.457,-54.199
1532215761.867,37.598,29.297,38.086,47.363,143.066
1532215761.871,29.785,28.809,42.969,37.109,142.090
1532215761.875,27.344,24.902,40.527,31.738,-58.105
1532215761.879,33.203,23.926,37.109,38.086,-97.656
1532215761.883,41.992,25.879,38.086,40.527,86.914
1532215761.887,44.922,26.367,36.621,36.133,138.672
1532215761.891,38.574,27.344,33.203,37.109,-21.484
1532215761.895,28.320,29.297,33.691,35.645,-112.305
1532215761.898,23.926,25.391,36.621,30.762,34.180
1532215761.902,23.926,20.996,37.598,30.273,151.367
1532215761.906,25.879,24.902,36.133,28.320,43.945
1532215761.910,25.391,30.762,35.645,28.320,-104.492
1532215761.914,25.879,32.227,34.668,23.926,-18.066
1532215761.918,33.691,28.809,34.668,18.555,149.414
1532215761.922,38.086,26.855,37.109,30.762,103.516
1532215761.926,43.945,27.344,37.109,44.434,-80.078
1532215761.930,39.062,25.391,37.109,46.387,-74.219
1532215761.934,31.250,21.973,40.039,42.969,110.840
1532215761.938,32.715,22.949,36.621,39.551,127.930
1532215761.941,36.133,25.391,32.715,31.738,-58.105
1532215761.945,43.945,29.785,29.297,35.645,-80.078
1532215761.949,41.504,31.738,27.832,38.086,100.098
1532215761.953,22.461,31.250,30.762,25.391,158.203
1532215761.957,23.926,28.809,30.762,12.207,-37.109
1532215761.961,28.809,27.344,28.809,17.090,-158.691
1532215761.965,27.344,28.320,28.320,28.320,21.973
1532215761.969,23.438,25.391,28.320,21.484,177.246
1532215761.973,27.832,22.461,27.832,19.531,87.402
1532215761.977,36.133,23.926,28.809,28.320,-85.938
1532215761.980,23.926,24.902,31.250,29.785,-6.348
1532215761.984,17.578,22.461,31.250,25.879,182.617
1532215761.988,25.879,20.020,32.715,27.344,132.812
1532215761.992,38.086,18.555,36.621,38.086,-56.152
1532215761.996,46.875,21.484,33.691,39.062,-44.434
1532215762.000,46.875,29.785,24.902,32.227,124.512
1532215762.004,43.457,31.738,26.855,36.133,157.715
1532215762.008,33.203,27.344,33.691,35.645,-12.695
1532215762.012,35.156,25.879,32.715,32.227,-84.961
1532215762.016,37.109,26.367,29.785,30.273,68.848
1532215762.020,26.855,21.973,31.250,29.297,157.227
1532215762.023,31.250,19.531,31.250,30.273,31.250
1532215762.027,33.203,21.973,31.738,37.598,-120.117
1532215762.031,32.227,19.043,31.738,39.551,-7.812
1532215762.035,39.062,17.578,29.785,36.621,146.973
1532215762.039,46.875,23.438,29.297,39.062,58.594
1532215762.043,59.570,29.297,26.367,40.039,-102.539
1532215762.047,49.316,29.297,27.832,36.133,-28.320
1532215762.051,27.832,25.391,31.738,34.180,136.719
1532215762.055,32.715,26.855,30.762,28.809,92.773
1532215762.059,41.016,28.320,27.832,24.414,-117.188
1532215762.063,41.504,27.344,32.227,32.715,-104.980
1532215762.066,41.504,31.738,38.086,38.086,117.676
1532215762.070,50.781,36.133,39.062,41.016,160.156
1532215762.074,67.871,35.156,40.527,46.387,-44.922
1532215762.078,63.965,35.645,43.945,52.734,-147.949
1532215762.082,49.805,35.156,47.363,48.828,45.410
1532215762.086,41.992,38.574,46.875,42.969,170.410
1532215762.090,38.086,40.527,43.457,41.016,36.133
1532215762.094,48.340,41.016,42.969,48.340,-120.605
1532215762.098,55.176,41.016,45.410,51.758,-21.973
1532215762.102,60.547,40.039,46.387,50.293,165.039
1532215762.105,69.336,39.062,50.781,63.477,91.797
1532215762.109,69.336,38.574,52.734,69.336,-92.285
1532215762.113,66.406,40.527,51.270,61.523,-57.129
1532215762.117,63.965,40.527,49.316,54.199,120.605
1532215762.121,59.570,38.086,47.852,49.805,136.719
1532215762.125,60.547,37.598,46.387,47.852,-49.805
1532215762.129,59.082,39.062,43.457,46.387,-75.195
1532215762.133,58.594,41.992,44.434,49.805,119.141
1532215762.137,58.594,41.504,47.852,45.410,149.902
1532215762.141,59.082,34.668,45.898,39.551,-21.484
1532215762.145,58.594,31.738,44.922,54.688,-110.840
1532215762.148,58.105,39.062,43.945,62.988,40.039
1532215762.152,56.641,44.434,42.969,58.105,183.594
1532215762.156,65.918,42.969,45.898,54.199,33.203
1532215762.160,63.965,44.922,44.434,44.434,-113.281
1532215762.164,51.758,46.875,40.039,45.898,-0.977
1532215762.168,53.223,45.410,37.598,50.781,169.922
1532215762.172,44.434,39.551,39.551,40.527,115.723
1532215762.176,37.598,34.180,41.992,34.668,-108.887
1532215762.180,36.133,33.203,40.527,34.180,-86.914
1532215762.184,42.480,33.691,37.109,39.551,117.188
1532215762.188,45.898,30.762,36.621,47.852,118.652
1532215762.191,46.875,27.832,38.574,42.480,-56.641
1532215762.195,43.945,27.832,41.016,29.785,-108.398
1532215762.199,39.062,27.832,41.504,24.902,44.434
1532215762.203,42.969,30.762,38.574,30.273,168.945
1532215762.207,46.875,35.645,36.133,35.156,27.344
1532215762.211,39.551,36.133,32.715,34.668,-113.281
1532215762.215,35.156,33.203,31.738,27.344,26.855
1532215762.219,43.457,32.715,30.762,26.855,158.203
1532215762.223,49.316,32.227,30.762,37.109,82.031
1532215762.227,45.410,30.273,33.691,34.668,-92.773
1532215762.230,34.668,30.273,34.668,28.320,-16.602
1532215762.234,36.621,30.273,29.785,28.809,150.391
1532215762.238,41.016,28.809,29.785,24.902,59.570
1532215762.242,36.621,30.762,33.691,31.250,-114.746
1532215762.246,40.527,32.227,32.715,37.109,-89.355
1532215762.250,46.875,30.273,28.809,31.738,116.211
1532215762.254,41.504,27.832,31.250,27.344,171.875
1532215762.258,30.762,27.832,31.250,28.809,-43.457
1532215762.262,33.691,25.879,28.320,32.715,-134.277
1532215762.266,37.598,23.438,31.250,30.762,82.031
1532215762.270,37.109,26.367,34.668,28.809,184.082
1532215762.273,31.250,29.297,40.039,32.227,2.930
1532215762.277,23.438,24.414,39.551,27.344,-153.320
1532215762.281,29.297,20.020,37.598,27.344,1.953
1532215762.285,34.180,20.996,36.133,31.738,168.457
1532215762.289,32.715,25.391,33.203,27.832,52.246
1532215762.293,37.598,26.367,35.645,26.855,-111.816
1532215762.297,38.574,25.879,35.645,30.762,-30.762
1532215762.301,33.691,26.855,32.715,32.715,138.672
1532215762.305,36.621,28.320,32.715,35.156,105.469
1532215762.309,41.992,31.738,35.645,33.203,-88.867
1532215762.312,29.297,30.273,37.109,29.785,-82.031
1532215762.316,23.438,29.785,37.109,30.762,118.652
1532215762.320,29.785,28.320,33.203,32.715,135.254
1532215762.324,35.156,25.391,36.133,30.762,-38.086
1532215762.328,37.598,26.367,41.016,33.691,-119.141
1532215762.332,37.109,22.461,37.598,41.992,76.660
1532215762.336,32.715,20.020,36.133,40.527,176.270
1532215762.340,32.227,23.926,39.062,38.086,1.953
1532215762.344,42.969,25.879,35.645,44.434,-91.309
1532215762.348,38.086,23.926,33.691,49.805,37.109
1532215762.352,23.926,23.438,33.203,39.062,174.805
1532215762.355,25.391,29.297,26.855,24.414,90.820
1532215762.359,28.320,33.203,30.762,28.320,-78.613
1532215762.363,28.809,31.738,35.156,34.180,-10.742
1532215762.367,27.344,29.297,35.645,38.574,152.832
1532215762.371,25.879,26.855,36.621,41.504,117.188
1532215762.375,25.391,27.344,37.598,32.715,-60.547
1532215762.379,31.250,30.762,38.574,25.391,-95.703
1532215762.383,35.156,32.227,33.691,33.691,81.543
1532215762.387,37.109,32.715,28.320,36.133,168.945
1532215762.391,32.227,30.273,29.785,33.203,23.438
1532215762.395,20.508,24.902,31.250,30.273,-93.262
1532215762.398,23.438,27.832,32.227,29.297,45.898
1532215762.402,31.738,29.785,28.320,30.762,188.965
1532215762.406,36.621,28.320,25.391,33.691,50.293
1532215762.410,35.645,26.855,29.297,38.574,-131.348
1532215762.414,29.785,26.367,32.227,37.598,-22.461
1532215762.418,33.203,30.273,34.180,33.691,142.090
1532215762.422,33.203,29.297,34.180,29.297,86.426
1532215762.426,38.086,25.391,34.668,36.133,-102.051
1532215762.430,45.898,26.367,35.645,43.945,-53.223
1532215762.434,47.363,30.273,33.203,39.062,138.184
1532215762.437,47.363,30.762,30.762,40.527,113.281
1532215762.441,41.992,29.785,27.344,39.062,-53.223
1532215762.445,41.016,33.203,22.461,35.156,-105.957
1532215762.449,41.992,32.227,20.996,31.250,68.848
1532215762.453,36.133,26.367,26.367,28.809,168.457
1532215762.457,33.691,24.414,28.320,27.832,17.578
1532215762.461,39.551,25.391,24.902,22.949,-106.934
1532215762.465,48.340,27.832,23.438,22.949,30.273
1532215762.469,52.734,29.297,23.438,23.438,148.438
1532215762.473,57.129,28.809,22.461,24.902,55.176
1532215762.477,57.129,29.785,21.484,29.785,-104.980
1532215762.480,43.457,25.391,23.438,33.691,-66.406
1532215762.484,40.527,21.484,27.344,45.410,131.836
1532215762.488,44.922,20.508,30.762,55.176,116.699
1532215762.492,37.598,21.973,29.785,51.270,-77.637
1532215762.496,38.086,27.344,23.926,45.898,-90.332
1532215762.500,39.551,28.320,24.902,45.898,97.168
1532215762.504,36.621,28.320,25.391,44.922,153.320
1532215762.508,36.621,27.344,22.949,41.992,-18.555
1532215762.512,42.969,26.367,20.996,45.410,-101.562
1532215762.516,42.480,26.855,22.461,40.527,37.109
1532215762.520,36.621,26.367,25.879,37.598,136.230
1532215762.523,38.574,25.879,28.809,45.410,20.020
1532215762.527,46.387,24.414,30.762,50.781,-120.117
1532215762.531,48.828,25.879,28.320,50.293,15.137
1532215762.535,44.434,28.320,25.879,42.480,167.969
1532215762.539,39.062,29.785,27.344,33.691,71.289
1532215762.543,34.668,28.809,29.297,29.785,-100.098
1532215762.547,35.645,28.809,30.762,29.785,-52.246
1532215762.551,34.180,26.367,27.344,27.832,141.113
1532215762.555,40.039,27.344,25.391,30.273,124.023
1532215762.559,48.828,31.738,26.367,26.855,-96.680
1532215762.562,45.898,29.785,24.902,28.320,-95.215
1532215762.566,32.227,29.297,23.438,30.762,117.676
1532215762.570,27.832,31.250,24.414,27.344,162.598
1532215762.574,34.180,32.227,26.367,29.785,-14.160
1532215762.578,28.320,30.762,26.367,26.367,-106.445
1532215762.582,31.738,26.855,29.785,32.227,72.754
1532215762.586,37.109,24.414,30.762,34.180,184.082
1532215762.590,39.551,24.902,29.297,29.297,35.156
1532215762.594,45.410,27.832,29.297,31.738,-120.605
1532215762.598,38.574,32.715,26.855,22.949,-0.977
1532215762.602,29.785,35.156,23.926,14.160,156.250
1532215762.605,26.855,34.668,20.508,15.137,67.383
1532215762.609,26.367,35.156,20.508,19.043,-80.566
1532215762.613,33.203,35.156,25.391,24.902,-54.688
1532215762.617,35.645,35.645,23.438,26.367,101.562
1532215762.621,43.945,35.645,18.066,24.414,120.117
1532215762.625,41.504,34.668,22.461,22.461,-67.383
1532215762.629,25.879,30.273,29.297,26.855,-101.074
1532215762.633,17.578,27.832,31.250,27.344,102.539
1532215762.637,27.344,31.738,28.320,29.297,160.645
1532215762.641,39.062,33.691,21.973,29.785,-24.414
1532215762.644,33.691,34.668,25.879,23.926,-139.160
1532215762.648,31.250,32.715,33.203,27.832,19.531
1532215762.652,28.809,27.344,32.227,29.297,173.828
1532215762.656,31.738,25.391,32.715,30.273,36.133
1532215762.660,40.039,26.855,32.227,29.785,-150.391
1532215762.664,37.109,31.738,24.414,24.902,-16.113
1532215762.668,27.344,33.691,24.414,21.973,161.621
1532215762.672,30.762,33.691,26.367,31.250,108.887
1532215762.676,39.062,38.086,25.391,29.297,-88.379
1532215762.680,33.691,40.527,23.438,24.902,-66.895
1532215762.684,30.762,40.039,21.973,26.367,169.922
1532215762.687,34.180,39.551,23.438,23.926,161.133
1532215762.691,37.109,36.133,28.320,27.832,-51.758
1532215762.695,35.156,33.691,31.250,27.832,-111.816
1532215762.699,29.297,31.250,31.738,19.531,51.270
1532215762.703,38.086,31.738,31.738,28.809,151.855
1532215762.707,45.410,34.180,28.320,35.645,3.906
1532215762.711,39.551,30.762,22.461,27.832,-108.887
1532215762.715,27.344,27.832,23.438,28.320,41.992
1532215762.719,24.902,27.344,29.297,32.227,180.664
1532215762.723,32.227,24.902,28.809,30.273,83.984
1532215762.727,38.574,28.320,25.879,33.691,-126.465
1532215762.730,47.363,31.738,23.438,36.621,-42.480
1532215762.734,53.711,36.133,19.531,32.227,170.410
1532215762.738,55.664,38.574,21.484,28.809,114.258
1532215762.742,46.875,31.250,25.391,30.762,-80.078
1532215762.746,34.180,27.832,23.926,29.785,-91.309
1532215762.750,24.902,29.785,24.902,25.879,110.352
1532215762.754,27.832,28.320,25.391,24.902,149.414
1532215762.758,40.527,24.414,25.391,24.902,-64.453
1532215762.762,47.363,29.785,22.949,25.391,-141.113
1532215762.766,41.504,36.133,19.043,22.949,75.195
1532215762.769,26.367,34.180,19.531,18.066,175.293
1532215762.773,22.949,31.250,23.926,15.137,7.324
1532215762.777,29.785,32.715,24.902,16.113,-129.395
1532215762.781,36.621,33.203,24.902,24.902,-3.906
1532215762.785,41.992,35.156,25.391,34.668,161.133
1532215762.789,42.969,35.645,23.438,35.156,59.082
1532215762.793,41.504,29.785,22.461,31.250,-142.578
1532215762.797,32.227,25.391,24.414,21.973,-81.055
1532215762.801,37.598,27.344,25.879,20.508,126.465
1532215762.805,47.852,31.250,23.438,28.320,118.652
1532215762.809,46.875,33.691,15.625,29.297,-90.820
1532215762.812,40.527,33.203,15.137,30.273,-82.031
1532215762.816,30.762,27.832,22.949,28.809,128.418
1532215762.820,34.668,26.367,24.902,32.227,173.828
1532215762.824,44.922,29.297,21.973,39.062,-18.555
1532215762.828,47.363,32.227,16.113,35.645,-96.191
1532215762.832,41.016,35.156,14.160,31.250,82.520
1532215762.836,27.344,31.250,20.996,26.367,171.875
1532215762.840,30.762,27.344,23.438,23.926,39.551
1532215762.844,35.156,26.855,19.531,23.438,-126.953
1532215762.848,26.367,25.879,16.113,21.973,-6.348
1532215762.852,28.320,25.391,15.625,27.832,187.988
1532215762.855,37.598,22.461,18.555,29.297,82.031
1532215762.859,41.992,25.391,22.461,30.762,-125.488
1532215762.863,41.992,27.832,23.438,36.133,-38.086
1532215762.867,34.180,26.855,21.973,35.156,151.855
1532215762.871,25.879,28.809,19.531,28.320,130.371
1532215762.875,36.133,31.738,17.090,31.738,-44.434
1532215762.879,36.133,33.691,16.602,38.086,-79.590
1532215762.883,34.668,30.273,19.531,35.645,88.867
1532215762.887,40.527,25.391,20.508,32.227,157.227
1532215762.891,31.738,26.367,20.508,33.203,-13.672
1532215762.894,29.297,28.809,21.484,36.133,-101.074
1532215762.898,41.992,29.785,21.973,35.645,42.969
1532215762.902,50.781,28.809,18.555,38.574,141.113
1532215762.906,42.969,30.762,18.066,39.062,20.996
1532215762.910,36.133,29.785,18.555,34.180,-133.301
1532215762.914,40.527,26.367,19.043,34.668,-50.781
1532215762.918,42.480,30.273,20.020,33.203,125.977
1532215762.922,40.527,33.691,17.578,31.738,104.492
1532215762.926,34.180,33.203,17.090,24.902,-75.684
1532215762.930,28.320,32.227,20.996,23.926,-73.730
1532215762.934,23.926,27.832,19.531,26.855,100.098
1532215762.937,32.227,23.926,20.020,32.227,109.863
1532215762.941,42.480,26.855,22.949,34.668,-68.848
1532215762.945,42.480,28.320,18.066,30.273,-96.680
1532215762.949,52.734,27.344,13.672,33.203,108.398
1532215762.953,49.805,29.785,14.160,35.156,171.387
1532215762.957,35.645,31.250,15.137,31.250,-42.969
1532215762.961,40.039,25.391,15.625,33.203,-157.227
1532215762.965,41.504,23.438,17.090,37.598,8.789
1532215762.969,38.086,29.785,18.066,38.086,153.809
1532215762.973,41.016,34.668,18.066,34.668,54.688
1532215762.976,46.875,34.180,16.113,25.879,-122.559
1532215762.980,33.203,33.203,13.672,25.391,-25.391
1532215762.984,22.949,34.180,17.090,26.367,148.438
1532215762.988,31.738,34.180,19.043,28.809,119.141
1532215762.992,42.480,36.133,15.625,33.691,-63.965
1532215762.996,45.410,35.645,11.719,35.156,-82.520
1532215763.000,49.805,33.691,14.160,43.945,128.906
1532215763.004,60.547,30.273,15.137,43.945,181.152
1532215763.008,57.617,30.273,14.648,41.016,-25.391
1532215763.012,51.758,32.715,15.137,46.387,-108.398
1532215763.016,51.758,32.715,13.184,44.434,54.199
1532215763.019,47.852,32.227,15.625,39.551,128.418
1532215763.023,41.992,31.250,13.672,38.086,3.906
1532215763.027,40.039,31.250,12.207,38.086,-94.238
1532215763.031,41.016,31.738,17.578,42.480,20.020
1532215763.035,38.574,29.297,17.578,44.922,146.973
1532215763.039,41.016,31.250,18.066,35.156,60.059
1532215763.043,49.805,32.227,18.555,33.203,-147.949
1532215763.047,51.270,31.250,19.531,43.457,-65.918
1532215763.051,54.688,33.203,20.020,44.434,157.715
1532215763.055,52.246,32.227,17.090,41.992,113.770
1532215763.059,44.434,29.297,15.625,34.668,-72.266
1532215763.062,52.246,31.250,16.602,33.691,-80.078
1532215763.066,44.922,35.156,17.578,33.691,112.305
1532215763.070,37.598,36.133,18.555,26.367,158.203
1532215763.074,36.621,33.691,19.043,23.926,-38.086
1532215763.078,30.273,33.203,19.043,21.484,-150.391
1532215763.082,27.832,29.785,22.949,20.508,20.020
1532215763.086,28.809,30.762,24.414,25.879,164.551
1532215763.090,31.738,36.621,24.414,27.832,50.781
1532215763.094,39.062,38.086,25.391,27.344,-91.309
1532215763.098,45.410,32.715,23.438,36.621,5.859
1532215763.101,42.969,30.762,19.531,39.062,166.992
1532215763.105,41.016,33.691,21.484,32.715,96.191
1532215763.109,42.969,36.621,16.113,27.832,-87.891
1532215763.113,53.711,42.480,16.113,35.156,-56.152
1532215763.117,49.805,44.434,21.484,32.715,132.324
1532215763.121,35.645,40.527,15.625,26.855,115.234
1532215763.125,32.227,39.062,16.113,32.715,-47.363
1532215763.129,27.344,39.062,22.949,27.832,-84.473
1532215763.133,23.438,38.086,25.879,25.391,105.469
1532215763.137,27.344,37.598,26.367,21.973,137.207
1532215763.141,31.738,37.109,27.832,17.578,-77.148
1532215763.144,31.250,34.668,29.297,22.461,-127.930
1532215763.148,29.297,31.738,30.762,28.809,52.734
1532215763.152,36.133,31.738,28.320,32.715,176.270
1532215763.156,46.387,32.227,27.344,34.180,54.199
1532215763.160,40.527,34.668,28.320,32.715,-114.258
1532215763.164,30.762,36.133,27.832,29.297,-28.809
1532215763.168,27.832,36.133,27.832,28.809,144.043
1532215763.172,25.391,37.109,24.902,24.414,110.840
1532215763.176,26.367,38.086,27.832,19.531,-109.863
1532215763.180,28.320,34.668,32.227,24.414,-95.215
1532215763.184,29.785,29.785,31.250,33.203,137.695
1532215763.187,41.992,29.785,30.762,37.109,137.207
1532215763.191,47.852,32.715,30.762,37.109,-63.477
1532215763.195,41.504,34.668,27.344,32.715,-114.258
1532215763.199,37.598,36.621,25.391,32.227,73.242
1532215763.203,30.273,35.645,27.344,30.762,185.059
1532215763.207,27.832,34.668,29.785,27.832,43.457
1532215763.211,29.785,33.691,30.273,27.832,-105.469
1532215763.215,35.156,36.133,29.297,27.344,0.000
1532215763.219,48.340,42.969,19.043,26.855,128.906
1532215763.223,40.527,35.645,20.508,24.414,46.387
1532215763.226,26.855,24.414,30.762,23.926,-98.145
1532215763.230,24.902,25.391,29.785,28.320,-19.043
1532215763.234,23.438,27.832,27.344,27.344,141.113
1532215763.238,39.551,31.250,26.855,29.297,116.211
1532215763.242,54.688,33.203,21.484,34.668,-49.316
1532215763.246,44.922,32.227,20.996,33.203,-70.312
1532215763.250,29.297,26.855,25.391,24.414,88.379
1532215763.254,26.855,23.926,22.949,20.508,140.625
1532215763.258,32.227,26.367,24.414,14.160,-62.500
1532215763.262,34.180,25.879,26.855,14.160,-151.367
1532215763.266,26.367,23.438,25.391,30.762,56.152
1532215763.269,29.297,25.879,24.902,37.598,162.598
1532215763.273,35.156,28.809,26.367,33.691,3.906
1532215763.277,32.227,30.273,24.414,31.250,-137.207
1532215763.281,30.273,33.203,24.902,28.320,2.930
1532215763.285,31.250,37.109,25.391,22.461,153.809
1532215763.289,40.527,40.527,21.484,28.320,92.773
1532215763.293,44.922,38.086,22.461,30.762,-79.590
1532215763.297,35.156,31.738,25.879,27.344,-30.762
1532215763.301,22.461,30.762,26.367,29.297,160.645
1532215763.305,17.090,27.344,28.320,29.785,131.348
1532215763.309,14.160,23.926,30.273,27.832,-78.613
1532215763.312,19.531,24.902,27.832,32.715,-80.566
1532215763.316,31.738,24.414,25.879,34.180,109.375
1532215763.320,34.668,25.391,24.902,23.438,133.301
1532215763.324,34.668,26.855,23.926,20.996,-36.133
1532215763.328,36.133,26.367,23.926,23.438,-102.051
1532215763.332,38.574,27.832,23.438,27.832,76.172
1532215763.336,40.039,33.203,23.926,39.551,180.664
1532215763.340,45.898,35.156,24.414,41.016,67.383
1532215763.344,37.109,31.250,27.832,34.180,-91.309
1532215763.348,24.414,25.879,34.668,38.086,0.000
1532215763.351,31.250,23.438,32.715,47.852,174.805
1532215763.355,41.992,24.414,28.320,47.852,94.238
1532215763.359,45.898,26.855,26.855,39.551,-127.441
1532215763.363,40.039,31.250,25.879,32.715,-73.730
1532215763.367,29.297,31.738,23.438,23.926,114.746
1532215763.371,26.367,25.879,22.949,19.043,104.004
1532215763.375,34.668,20.508,29.785,26.367,-81.543
1532215763.379,36.621,23.926,26.367,27.344,-117.188
1532215763.383,42.480,30.762,20.996,26.855,88.867
1532215763.387,42.969,29.297,24.414,25.391,173.340
1532215763.391,42.969,29.785,25.391,15.137,0.488
1532215763.394,48.340,31.250,24.902,9.766,-128.418
1532215763.398,45.410,29.785,26.855,18.555,34.180
1532215763.402,50.293,28.809,27.344,32.715,171.875
1532215763.406,52.734,27.344,27.832,36.621,45.898
1532215763.410,43.945,27.832,28.320,34.180,-115.723
1532215763.414,42.480,30.273,30.273,38.086,-7.812
