timestamps,TP9,AF7,AF8,TP10,Right AUX
1532215025.303,8.301,41.504,19.531,-6.836,-45.410
1532215025.307,20.996,35.156,17.578,-2.930,-83.984
1532215025.311,24.414,34.180,16.602,-5.859,64.941
1532215025.315,15.137,39.062,23.438,-0.488,130.371
1532215025.319,18.555,38.574,26.855,9.766,3.418
1532215025.323,11.230,40.039,22.461,16.113,-99.609
1532215025.327,5.371,38.086,18.555,8.301,35.156
1532215025.331,3.418,30.762,20.508,3.418,173.340
1532215025.335,6.836,30.762,26.855,2.930,27.344
1532215025.338,5.371,33.691,30.762,9.766,-137.695
1532215025.342,-5.371,30.273,28.809,1.465,-16.113
1532215025.346,0.488,34.180,22.461,-10.742,161.133
1532215025.350,9.277,37.109,19.531,-0.977,106.934
1532215025.354,11.719,37.109,20.508,0.488,-101.074
1532215025.358,12.207,38.574,20.020,-3.418,-67.383
1532215025.362,1.953,30.273,23.438,-1.953,158.203
1532215025.366,-4.395,30.762,22.949,-7.324,146.484
1532215025.370,6.348,34.668,21.973,-6.836,-58.594
1532215025.374,11.230,35.645,23.438,-2.930,-108.398
1532215025.378,0.977,33.203,22.461,-7.812,54.199
1532215025.381,-2.930,31.738,22.461,-2.930,157.715
1532215025.385,6.836,29.785,25.879,1.953,18.555
1532215025.389,16.113,28.320,26.855,-1.465,-116.699
1532215025.393,14.648,31.738,27.344,-8.789,32.227
1532215025.397,2.441,35.156,28.320,-8.301,183.594
1532215025.401,-5.859,34.180,23.926,-7.324,35.156
1532215025.405,0.977,36.621,23.438,-10.254,-132.812
1532215025.409,6.348,39.551,26.367,-1.953,-15.137
1532215025.413,9.766,37.109,24.902,1.465,135.254
1532215025.417,7.812,32.227,21.973,-3.418,100.098
1532215025.420,1.953,24.902,27.344,0.000,-63.477
1532215025.424,-1.465,23.438,36.621,3.418,-42.480
1532215025.428,5.371,28.809,34.668,0.977,134.277
1532215025.432,12.695,28.809,28.809,0.488,143.555
1532215025.436,4.883,20.020,29.785,-1.953,-52.246
1532215025.440,14.648,26.367,29.785,0.000,-101.074
1532215025.444,20.996,36.621,26.855,5.859,76.172
1532215025.448,2.441,34.668,26.367,3.906,166.504
1532215025.452,0.000,36.133,23.926,-1.953,19.043
1532215025.456,9.277,35.645,23.438,-3.906,-107.422
1532215025.460,6.348,35.645,26.855,1.465,15.625
1532215025.463,-1.953,39.551,28.320,11.230,134.766
1532215025.467,3.418,36.621,27.344,5.859,48.828
1532215025.471,15.137,31.738,31.738,-3.906,-95.703
1532215025.475,28.320,34.180,33.203,-9.277,-52.734
1532215025.479,27.344,32.715,28.320,-5.859,102.539
1532215025.483,0.977,34.668,30.273,-2.930,104.980
1532215025.487,-2.441,36.133,29.297,-7.812,-64.453
1532215025.491,10.742,27.344,25.391,-0.977,-76.660
1532215025.495,22.461,30.273,24.414,3.906,102.539
1532215025.499,27.344,41.504,20.996,0.488,151.367
1532215025.503,26.367,38.574,20.996,3.418,-22.461
1532215025.506,9.766,31.250,25.391,8.789,-110.840
1532215025.510,7.812,36.621,24.414,7.812,59.570
1532215025.514,12.207,38.086,19.531,-3.906,135.254
1532215025.518,9.766,31.250,19.531,-11.230,0.977
1532215025.522,2.930,29.297,15.625,-1.465,-95.703
1532215025.526,-7.812,28.809,9.766,-1.953,31.738
1532215025.530,0.977,29.297,19.043,-9.766,168.945
1532215025.534,17.090,33.691,22.949,-16.113,47.852
1532215025.538,15.137,38.574,19.043,-13.672,-107.422
1532215025.542,8.301,38.086,25.879,-7.812,-8.301
1532215025.545,4.395,39.551,26.367,-4.883,144.531
1532215025.549,-5.859,38.574,20.996,-0.977,120.117
1532215025.553,-1.953,36.621,24.902,-7.812,-41.992
1532215025.557,0.000,30.273,21.973,-12.207,-80.566
1532215025.561,9.277,29.297,19.043,-6.836,117.676
1532215025.565,13.184,36.133,19.531,-5.371,167.969
1532215025.569,-7.324,28.320,21.484,-6.836,-27.344
1532215025.573,-2.441,28.320,22.461,-9.277,-114.258
1532215025.577,25.879,37.109,22.461,-11.719,46.875
1532215025.581,13.184,33.203,27.832,-12.695,162.598
1532215025.585,-10.254,27.832,29.297,-10.742,42.969
1532215025.588,7.324,28.809,23.926,-2.930,-97.168
1532215025.592,24.414,32.715,20.508,-3.418,2.930
1532215025.596,8.789,35.645,21.484,-1.953,160.645
1532215025.600,-8.301,32.227,23.926,2.930,89.355
1532215025.604,-0.488,30.762,25.391,4.395,-81.055
1532215025.608,6.348,30.273,25.391,6.348,-29.297
1532215025.612,13.184,23.438,27.344,12.207,132.812
1532215025.616,28.809,22.461,26.855,1.465,101.562
1532215025.620,19.043,28.320,21.973,-3.906,-91.797
1532215025.624,4.395,34.180,23.926,9.766,-84.473
1532215025.627,-1.465,33.691,28.809,8.789,104.492
1532215025.631,9.766,28.809,27.344,9.277,139.648
1532215025.635,29.785,35.645,24.902,10.254,-31.738
1532215025.639,9.766,32.715,26.855,6.836,-127.441
1532215025.643,11.230,26.367,30.762,0.488,43.945
1532215025.647,29.785,30.762,33.691,3.906,164.062
1532215025.651,12.207,34.668,31.738,12.207,23.926
1532215025.655,-4.395,37.109,32.227,0.488,-162.598
1532215025.659,-3.906,40.527,28.320,-5.371,-49.805
1532215025.663,8.789,39.551,26.367,0.488,150.391
1532215025.667,24.414,33.691,32.715,2.441,91.309
1532215025.670,15.137,31.738,32.227,4.883,-88.867
1532215025.674,17.578,31.250,26.855,6.836,-71.289
1532215025.678,18.066,25.391,25.391,2.930,126.953
1532215025.682,1.465,24.902,30.273,8.789,152.344
1532215025.686,13.672,32.227,33.203,10.742,-36.133
1532215025.690,14.648,40.527,28.320,6.836,-78.613
1532215025.694,5.371,41.504,24.902,13.672,96.680
1532215025.698,9.277,35.156,26.855,13.672,129.395
1532215025.702,5.859,30.273,26.855,9.277,-32.715
1532215025.706,18.555,31.738,24.902,12.207,-147.949
1532215025.710,28.320,36.621,26.855,13.184,4.883
1532215025.713,11.230,38.086,33.691,7.324,145.020
1532215025.717,-1.953,34.668,35.645,0.488,33.203
1532215025.721,5.859,33.691,29.297,0.977,-108.887
1532215025.725,9.766,35.645,24.414,4.395,-19.531
1532215025.729,-3.906,32.715,26.855,-7.324,163.086
1532215025.733,0.000,34.668,27.832,-8.301,123.047
1532215025.737,12.207,35.645,23.926,0.488,-83.008
1532215025.741,9.766,29.785,21.484,-4.395,-78.613
1532215025.745,3.418,31.250,25.391,-4.883,105.957
1532215025.749,-4.883,31.738,30.762,2.441,127.930
1532215025.752,-0.488,35.645,24.414,-3.418,-47.852
1532215025.756,6.836,37.598,23.926,-15.625,-116.699
1532215025.760,7.324,35.645,32.227,-3.906,71.289
1532215025.764,14.648,35.645,33.691,5.371,159.668
1532215025.768,17.578,35.645,33.203,6.348,8.301
1532215025.772,16.602,32.227,29.785,3.906,-111.816
1532215025.776,15.625,32.227,32.227,0.488,1.953
1532215025.780,20.020,34.668,31.250,4.883,144.043
1532215025.784,17.578,29.785,26.855,-3.906,69.824
1532215025.788,1.953,29.785,31.250,-5.371,-83.984
1532215025.792,6.836,30.273,33.691,4.395,-31.738
1532215025.795,16.602,28.809,29.785,0.488,141.602
1532215025.799,6.836,33.203,26.367,0.000,140.137
1532215025.803,1.465,34.668,26.367,4.883,-34.668
1532215025.807,13.672,32.227,25.391,0.977,-66.406
1532215025.811,20.020,29.297,27.344,7.324,108.887
1532215025.815,13.184,34.180,28.320,16.113,133.789
1532215025.819,32.715,41.016,26.367,20.996,-53.711
1532215025.823,37.598,34.180,25.391,19.531,-120.605
1532215025.827,20.020,29.785,25.879,8.789,67.871
1532215025.831,7.812,31.250,27.832,3.906,166.992
1532215025.835,13.184,31.250,27.344,-3.906,20.020
1532215025.838,13.184,26.855,24.414,-3.418,-110.840
1532215025.842,14.648,18.555,23.438,8.301,-10.742
1532215025.846,19.043,22.461,24.414,14.648,143.555
1532215025.850,16.602,30.762,30.273,12.695,95.703
1532215025.854,32.715,32.715,31.250,3.906,-92.773
1532215025.858,22.461,31.250,26.855,3.418,-52.246
1532215025.862,9.277,33.691,27.344,14.160,151.855
1532215025.866,21.973,30.762,26.855,19.043,156.250
1532215025.870,32.227,24.414,27.832,19.531,-28.320
1532215025.874,25.391,25.391,27.832,13.672,-74.219
1532215025.877,14.648,23.926,22.461,13.672,88.379
1532215025.881,24.414,23.438,23.438,20.996,137.207
1532215025.885,22.949,25.391,25.879,19.043,-27.344
1532215025.889,16.602,25.391,23.438,14.648,-116.699
1532215025.893,22.949,19.043,23.926,17.578,13.672
1532215025.897,15.137,7.812,26.367,13.184,145.020
1532215025.901,13.184,-6.348,27.832,6.836,27.344
1532215025.905,26.367,-15.137,30.762,10.254,-129.883
1532215025.909,12.695,-13.672,27.344,12.695,-1.465
1532215025.913,16.113,-11.719,26.367,7.324,145.020
1532215025.917,31.250,-14.648,33.691,8.301,75.195
1532215025.920,9.277,-20.020,33.203,20.020,-98.633
1532215025.924,-2.441,-26.855,29.297,20.020,-62.988
1532215025.928,21.484,-30.762,28.809,14.648,120.605
1532215025.932,28.320,-35.156,25.391,17.578,126.465
1532215025.936,7.324,-40.527,22.461,24.902,-49.805
1532215025.940,1.465,-35.156,26.367,25.879,-112.305
1532215025.944,12.207,-30.273,36.621,24.414,75.195
1532215025.948,33.691,-31.738,37.598,24.414,152.344
1532215025.952,32.227,-34.668,29.785,10.254,6.836
1532215025.956,-0.488,-34.668,26.367,6.836,-120.605
1532215025.960,-0.488,-39.551,28.809,11.719,5.859
1532215025.963,13.184,-49.805,33.203,6.836,183.105
1532215025.967,20.508,-45.898,32.715,4.883,97.656
1532215025.971,7.324,-42.969,29.785,5.371,-78.125
1532215025.975,-2.441,-43.457,27.344,10.254,-19.043
1532215025.979,2.441,-46.387,29.297,12.207,158.691
1532215025.983,9.766,-49.805,31.738,7.812,117.676
1532215025.987,5.371,-42.969,34.180,6.348,-67.871
1532215025.991,5.371,-39.551,35.156,5.371,-34.668
1532215025.995,18.555,-41.992,34.180,0.488,89.844
1532215025.999,20.020,-39.062,34.180,-7.812,102.539
1532215026.002,6.836,-36.621,31.250,0.977,-21.484
1532215026.006,-9.277,-34.668,24.902,7.812,-109.375
1532215026.010,7.812,-28.320,26.855,13.672,65.430
1532215026.014,35.645,-24.902,34.180,15.137,177.734
1532215026.018,18.555,-16.602,33.691,4.395,36.621
1532215026.022,-3.418,-11.719,30.273,-5.859,-76.660
1532215026.026,-8.789,-11.719,26.367,-11.230,21.973
1532215026.030,-5.371,-0.977,22.949,-6.348,161.133
1532215026.034,16.113,-0.488,29.785,-5.859,72.266
1532215026.038,14.648,6.836,30.762,-6.348,-119.629
1532215026.042,19.043,17.090,28.320,-1.953,-24.902
1532215026.045,17.578,13.184,31.738,6.348,179.199
1532215026.049,4.395,19.043,30.762,6.348,157.227
1532215026.053,14.160,26.855,27.344,-1.953,-61.035
1532215026.057,17.090,24.902,29.785,2.441,-81.055
1532215026.061,10.254,22.461,26.855,4.395,122.559
1532215026.065,10.742,25.879,26.855,7.324,181.641
1532215026.069,18.066,33.691,35.156,7.324,-10.742
1532215026.073,18.555,36.621,33.691,5.371,-111.328
1532215026.077,18.066,34.180,27.344,5.859,42.480
1532215026.081,11.230,28.320,27.832,18.555,145.508
1532215026.084,7.812,26.367,30.762,24.414,19.043
1532215026.088,10.742,32.227,29.785,5.859,-123.047
1532215026.092,21.973,42.969,27.344,5.371,-9.277
1532215026.096,19.043,45.410,28.320,11.719,166.016
1532215026.100,-0.488,37.109,28.809,9.277,107.910
1532215026.104,8.789,35.645,25.391,1.465,-94.727
1532215026.108,4.395,40.527,30.273,-1.465,-44.434
1532215026.112,3.906,41.992,33.203,-4.883,118.164
1532215026.116,6.836,42.969,28.809,-7.324,107.910
1532215026.120,10.254,42.969,27.832,-5.371,-63.965
1532215026.124,23.438,37.598,29.785,-6.348,-93.262
1532215026.127,12.207,30.273,27.832,-6.348,101.562
1532215026.131,10.742,34.180,21.484,-10.254,139.648
1532215026.135,15.625,46.387,23.926,-8.789,-35.156
1532215026.139,22.949,49.805,25.879,-8.789,-100.586
1532215026.143,26.367,45.410,22.461,-3.418,35.156
1532215026.147,11.719,41.992,22.461,0.000,169.434
1532215026.151,26.367,46.875,26.367,3.906,57.617
1532215026.155,33.203,49.316,27.832,1.953,-156.738
1532215026.159,8.301,42.969,28.809,8.789,-32.227
1532215026.163,-3.906,35.645,34.668,18.555,156.250
1532215026.167,0.488,32.715,33.691,8.301,87.891
1532215026.170,-16.113,35.645,26.855,9.277,-96.680
1532215026.174,-18.555,45.898,28.320,7.812,-102.539
1532215026.178,-3.906,48.828,29.785,2.930,87.402
1532215026.182,-2.930,42.480,25.391,5.371,138.672
1532215026.186,0.000,38.086,24.902,3.418,-49.805
1532215026.190,-4.883,35.645,25.879,6.348,-85.938
1532215026.194,-2.441,39.551,23.926,3.906,86.914
1532215026.198,10.742,43.457,25.391,-5.371,149.414
1532215026.202,12.695,43.457,26.855,-7.324,8.301
1532215026.206,5.859,47.363,29.297,-5.371,-118.652
1532215026.209,12.695,45.898,31.250,0.000,29.785
1532215026.213,20.020,41.504,30.273,0.488,177.246
1532215026.217,17.090,44.434,28.320,4.395,74.219
1532215026.221,10.742,40.527,22.949,3.906,-84.961
1532215026.225,5.371,38.086,20.996,-2.441,-10.742
1532215026.229,6.348,44.922,24.902,0.488,152.832
1532215026.233,2.441,46.875,29.785,1.465,104.004
1532215026.237,13.184,43.457,25.391,-6.348,-89.355
1532215026.241,8.301,33.691,20.020,-0.488,-71.777
1532215026.245,-0.977,36.621,24.414,4.883,107.910
1532215026.249,9.277,45.898,27.344,6.836,148.926
1532215026.252,14.648,47.852,29.785,3.418,-29.297
1532215026.256,10.742,43.945,28.809,-5.859,-141.113
1532215026.260,15.625,43.945,23.926,-3.418,44.922
1532215026.264,15.625,45.410,24.902,-0.977,166.992
1532215026.268,13.184,48.828,25.879,7.324,35.645
1532215026.272,9.766,49.805,21.973,10.742,-105.469
1532215026.276,-0.977,41.504,25.391,-1.465,-19.043
1532215026.280,16.113,38.574,30.273,9.277,130.371
1532215026.284,16.602,42.969,25.879,12.207,62.500
1532215026.288,-1.953,53.223,21.973,-12.207,-101.074
1532215026.292,-5.859,58.594,16.602,-24.902,-56.641
1532215026.295,-0.977,50.293,13.184,-16.602,122.559
1532215026.299,6.836,44.434,11.230,-12.695,148.926
1532215026.303,-2.441,42.969,13.672,-18.555,-53.711
1532215026.307,2.441,35.645,17.090,-11.230,-112.305
1532215026.311,9.766,35.156,19.043,-3.906,68.848
1532215026.315,0.977,47.363,21.484,3.418,130.859
1532215026.319,1.465,52.246,21.973,7.324,-18.066
1532215026.323,4.883,46.387,23.438,4.883,-73.242
1532215026.327,14.160,43.457,20.020,1.953,91.797
1532215026.331,16.602,48.340,17.090,-1.953,165.527
1532215026.334,16.602,46.387,18.066,5.371,19.531
1532215026.338,16.602,47.363,21.484,0.000,-125.488
1532215026.342,-3.906,50.781,18.555,-0.488,-22.949
1532215026.346,-14.160,46.875,11.230,7.324,145.020
1532215026.350,13.184,44.434,17.090,-3.418,76.172
1532215026.354,15.137,43.945,26.367,-6.348,-149.902
1532215026.358,-1.953,41.992,25.879,-0.488,-104.980
1532215026.362,8.301,34.180,23.438,3.906,116.699
1532215026.366,3.906,28.809,26.855,6.836,127.930
1532215026.370,7.324,38.086,29.785,-0.488,-61.035
1532215026.374,7.324,40.527,25.391,-5.371,-104.492
1532215026.377,0.000,41.016,19.531,-4.883,103.516
1532215026.381,7.324,51.758,22.949,-2.441,162.598
1532215026.385,11.230,46.387,24.414,2.441,-14.648
1532215026.389,4.883,37.109,25.391,0.977,-107.422
1532215026.393,6.836,45.410,25.879,2.441,45.898
1532215026.397,19.043,45.410,20.508,6.348,160.156
1532215026.401,35.645,39.062,27.344,9.766,20.508
1532215026.405,22.949,37.109,37.598,8.789,-118.164
1532215026.409,9.277,31.738,31.250,-1.953,-0.977
1532215026.413,13.184,34.668,24.414,-7.812,140.625
1532215026.416,10.254,49.316,29.297,-13.672,54.688
1532215026.420,3.906,49.805,29.785,-4.883,-101.074
1532215026.424,-2.441,38.574,20.996,-4.395,-50.293
1532215026.428,-2.930,35.156,21.973,-3.418,114.258
1532215026.432,-4.883,38.574,27.344,2.441,122.070
1532215026.436,-7.324,38.086,26.367,0.977,-45.898
1532215026.440,1.465,41.992,28.320,1.953,-82.031
1532215026.444,10.254,48.340,29.785,-2.930,99.121
1532215026.448,11.719,35.645,19.043,-4.395,171.875
1532215026.452,29.297,37.109,21.484,-2.930,-32.227
1532215026.456,18.555,54.688,34.180,-3.418,-175.781
1532215026.459,-3.418,52.246,34.180,-1.953,0.977
1532215026.463,2.930,46.387,30.762,-6.348,172.852
1532215026.467,10.254,44.922,30.273,-6.836,74.219
1532215026.471,3.418,41.504,27.832,-1.465,-94.238
1532215026.475,11.719,37.109,30.762,6.348,-19.531
1532215026.479,23.438,37.109,28.809,1.953,167.480
1532215026.483,10.254,41.992,21.484,-6.836,130.371
1532215026.487,4.395,39.062,25.391,-2.441,-63.477
1532215026.491,6.836,36.133,30.273,1.953,-62.500
1532215026.495,4.883,45.410,27.832,1.465,107.422
1532215026.499,10.254,46.875,29.785,3.906,121.582
1532215026.502,14.160,43.457,30.762,1.465,-40.039
1532215026.506,12.207,40.039,30.273,4.883,-90.820
1532215026.510,12.695,32.227,31.738,9.766,63.965
1532215026.514,9.277,35.645,28.809,4.395,132.324
1532215026.518,22.461,44.434,28.809,2.441,-26.367
1532215026.522,24.902,39.062,28.320,6.836,-136.230
1532215026.526,4.883,31.738,29.297,11.230,-5.859
1532215026.530,7.324,32.227,33.691,8.301,136.719
1532215026.534,16.113,41.016,32.227,-2.441,70.312
1532215026.538,15.625,50.293,33.203,-1.465,-111.816
1532215026.541,16.113,46.875,33.203,9.766,-67.871
1532215026.545,14.160,42.480,28.320,9.277,135.254
1532215026.549,17.090,44.434,23.926,9.766,132.324
1532215026.553,16.113,44.434,30.762,10.254,-80.566
1532215026.557,1.465,42.480,37.598,4.883,-82.520
1532215026.561,11.230,41.992,34.668,5.371,125.488
1532215026.565,20.508,41.016,29.785,5.859,184.082
1532215026.569,13.672,40.039,30.273,8.301,16.113
1532215026.573,14.160,41.016,30.273,6.836,-111.328
1532215026.577,14.160,42.969,26.367,0.977,56.641
1532215026.581,10.742,41.016,30.273,5.859,182.617
1532215026.584,12.695,36.133,31.738,8.301,27.832
1532215026.588,20.508,35.156,33.203,5.859,-125.977
1532215026.592,23.926,43.457,31.738,2.930,-5.859
1532215026.596,21.973,49.316,24.902,-5.371,123.047
1532215026.600,2.441,43.457,27.832,-4.883,50.781
1532215026.604,8.789,42.480,33.691,-3.418,-95.703
1532215026.608,24.414,43.457,34.668,1.953,-37.598
1532215026.612,5.371,40.527,36.133,7.812,145.020
1532215026.616,-0.488,45.410,32.715,0.000,130.371
1532215026.620,15.625,44.434,28.320,-1.465,-71.777
1532215026.624,26.367,42.480,27.344,6.836,-87.891
1532215026.627,22.461,41.992,24.902,7.324,93.262
1532215026.631,21.973,35.645,29.785,3.906,139.648
1532215026.635,33.691,44.434,36.621,11.230,-32.715
1532215026.639,25.879,48.828,31.250,10.742,-119.141
1532215026.643,12.207,35.645,29.297,0.977,49.805
1532215026.647,7.812,35.645,35.645,5.859,142.578
1532215026.651,6.836,45.410,34.180,5.371,2.930
1532215026.655,8.789,42.480,33.203,0.977,-171.875
1532215026.659,3.418,33.691,31.738,7.812,-62.012
1532215026.663,12.695,32.715,28.320,9.766,135.254
1532215026.666,29.297,36.133,31.250,6.836,80.566
1532215026.670,18.555,42.969,31.250,10.254,-100.586
1532215026.674,12.207,40.039,31.250,11.230,-66.895
1532215026.678,13.672,41.504,40.527,12.695,154.297
1532215026.682,10.254,47.363,37.109,12.207,165.527
1532215026.686,13.672,41.992,29.297,10.254,-47.852
1532215026.690,17.090,38.086,27.832,5.859,-106.445
1532215026.694,-1.953,40.527,25.391,-3.418,50.293
1532215026.698,-6.348,40.039,30.273,-0.488,126.465
1532215026.702,0.977,34.668,33.691,10.254,6.836
1532215026.706,17.090,37.109,30.762,8.789,-86.914
1532215026.709,21.973,37.598,31.738,9.277,23.926
1532215026.713,2.441,38.086,31.738,6.348,154.297
1532215026.717,9.277,37.109,27.832,10.254,65.430
1532215026.721,28.320,36.133,28.809,12.207,-119.629
1532215026.725,13.184,38.574,32.227,6.348,-33.203
1532215026.729,-0.488,32.227,34.180,7.812,155.762
1532215026.733,2.930,33.691,37.109,-0.488,104.004
1532215026.737,10.742,41.504,38.086,-5.371,-91.309
1532215026.741,11.230,40.039,32.715,0.000,-52.734
1532215026.745,4.883,36.621,31.250,8.301,130.371
1532215026.749,12.695,37.598,32.715,12.695,135.742
1532215026.752,19.531,38.574,30.762,10.254,-59.082
1532215026.756,22.461,35.156,29.785,12.207,-103.516
1532215026.760,3.418,34.668,28.320,11.230,97.656
1532215026.764,-8.789,40.039,27.344,5.859,164.551
1532215026.768,3.906,36.621,31.250,-0.488,3.906
1532215026.772,12.695,33.203,30.762,1.465,-116.699
1532215026.776,12.207,30.762,32.227,3.418,10.742
1532215026.780,11.719,27.832,34.668,1.953,169.434
1532215026.784,29.297,36.133,28.809,3.418,78.613
1532215026.788,25.879,38.574,30.273,9.766,-90.332
1532215026.791,2.441,31.250,31.738,11.719,-39.551
1532215026.795,8.789,31.738,28.809,8.789,108.887
1532215026.799,30.762,35.156,30.273,17.090,84.473
1532215026.803,31.738,36.621,30.762,18.066,-88.379
1532215026.807,17.578,38.574,27.832,9.766,-74.219
1532215026.811,10.254,41.016,27.344,6.348,119.629
1532215026.815,10.742,42.969,29.297,3.906,154.297
1532215026.819,22.461,36.621,28.320,0.977,-27.344
1532215026.823,23.438,35.645,29.297,-2.441,-129.883
1532215026.827,7.812,39.551,27.344,-4.395,35.156
1532215026.831,5.859,37.598,26.367,1.953,151.855
1532215026.834,17.578,41.016,29.297,-1.953,4.395
1532215026.838,21.484,37.598,28.809,-5.371,-148.438
1532215026.842,11.719,33.691,29.785,14.648,2.441
1532215026.846,11.719,37.598,28.809,7.812,171.875
1532215026.850,23.438,33.691,23.438,1.465,78.125
1532215026.854,10.254,23.926,25.391,1.953,-121.094
1532215026.858,1.953,22.461,35.645,4.395,-73.242
1532215026.862,28.320,36.133,27.832,7.324,135.742
1532215026.866,26.367,50.293,19.043,-13.672,108.398
1532215026.870,-1.465,39.062,28.809,-15.137,-95.703
1532215026.873,-10.254,31.250,32.715,-18.066,-120.117
1532215026.877,-0.977,35.156,31.738,-22.949,68.848
1532215026.881,5.859,31.738,32.715,-14.648,169.434
1532215026.885,9.766,32.227,29.297,-12.207,-0.977
1532215026.889,5.859,34.668,22.949,-6.836,-98.145
1532215026.893,7.324,35.645,29.785,0.488,47.363
1532215026.897,19.043,34.180,31.738,-0.977,137.695
1532215026.901,15.625,28.809,26.855,-3.906,30.762
1532215026.905,1.953,26.367,24.902,-0.977,-109.863
1532215026.909,1.465,23.926,22.461,3.418,-14.160
1532215026.913,13.672,29.785,20.996,0.977,146.973
1532215026.916,13.672,38.086,21.973,-3.418,111.816
1532215026.920,18.066,39.062,35.156,8.301,-71.289
1532215026.924,20.508,35.156,39.551,6.348,-43.457
1532215026.928,18.555,30.273,27.832,-5.859,149.414
1532215026.932,19.043,35.156,31.738,-6.836,129.395
1532215026.936,17.090,42.969,33.691,-8.301,-68.848
1532215026.940,25.879,42.480,27.344,-2.930,-91.309
1532215026.944,20.508,38.574,29.297,6.836,101.562
1532215026.948,4.395,30.762,29.785,0.977,190.918
1532215026.952,1.953,35.156,27.344,4.883,21.484
1532215026.956,14.160,47.852,28.809,13.672,-101.074
1532215026.959,34.668,47.852,36.621,1.465,42.969
1532215026.963,27.344,39.062,39.551,0.488,170.410
1532215026.967,26.367,35.156,37.109,4.395,41.504
1532215026.971,30.273,35.645,30.762,6.348,-132.812
1532215026.975,15.137,36.133,26.855,8.789,-20.996
1532215026.979,14.160,38.086,31.738,8.301,179.688
1532215026.983,16.602,41.992,28.320,6.348,119.629
1532215026.987,17.578,40.527,25.391,3.906,-94.238
1532215026.991,22.949,36.621,30.273,0.977,-53.711
1532215026.995,11.719,33.203,30.762,0.488,95.703
1532215026.998,-3.906,31.738,25.879,-0.977,76.660
1532215027.002,0.000,36.621,23.438,-2.930,-66.895
1532215027.006,10.254,37.109,25.391,2.441,-86.426
1532215027.010,18.555,32.715,23.438,8.789,88.379
1532215027.014,18.066,36.133,24.902,1.953,168.457
1532215027.018,15.137,36.621,28.809,-1.953,12.207
1532215027.022,12.207,37.598,26.855,-3.418,-114.746
1532215027.026,5.859,39.062,25.879,-2.441,16.113
1532215027.030,6.348,35.645,25.391,2.441,156.250
1532215027.034,14.160,33.691,21.973,-10.254,62.500
1532215027.038,8.789,25.879,22.461,-5.371,-89.844
1532215027.041,13.184,28.320,26.855,1.465,-22.949
1532215027.045,26.855,41.016,29.785,-3.418,164.551
1532215027.049,5.859,39.062,34.668,-0.977,137.695
1532215027.053,-13.672,36.133,34.180,2.930,-85.938
1532215027.057,-3.418,40.527,29.297,-3.906,-100.098
1532215027.061,0.000,38.086,29.785,-6.836,116.211
1532215027.065,6.836,26.855,30.762,-1.465,136.230
1532215027.069,20.020,30.273,27.832,-1.953,-54.688
1532215027.073,25.879,38.574,27.344,1.465,-119.141
1532215027.077,10.254,39.062,25.391,2.930,13.672
1532215027.081,3.906,36.133,23.926,1.465,132.812
1532215027.084,21.484,34.180,27.832,-2.930,17.090
1532215027.088,25.879,30.273,28.320,1.465,-116.211
1532215027.092,4.395,28.809,24.414,4.395,6.348
1532215027.096,-1.465,32.715,22.461,-4.883,154.785
1532215027.100,15.625,34.668,27.344,-13.672,90.820
1532215027.104,27.344,33.691,28.320,-14.648,-119.141
1532215027.108,26.855,34.180,24.902,-8.301,-84.473
1532215027.112,22.949,36.621,24.414,-5.371,129.883
1532215027.116,14.160,34.180,27.832,1.465,101.562
1532215027.120,5.859,34.180,25.879,7.812,-93.262
1532215027.123,14.648,34.180,18.066,12.207,-68.359
1532215027.127,10.742,32.227,19.043,18.555,138.184
1532215027.131,-7.324,31.250,31.250,20.996,183.105
1532215027.135,-2.930,36.133,35.156,19.531,4.395
1532215027.139,-8.301,38.086,30.273,15.625,-97.656
1532215027.143,-9.766,39.062,27.832,9.766,50.293
1532215027.147,8.789,40.039,26.367,4.883,145.508
1532215027.151,3.906,41.016,32.227,1.465,32.227
1532215027.155,4.883,38.574,36.621,-7.324,-123.535
1532215027.159,6.348,32.715,30.273,-9.766,-17.090
1532215027.163,-2.441,23.438,27.344,-3.418,154.297
1532215027.166,0.000,26.367,31.738,-1.465,72.754
1532215027.170,0.488,36.133,30.762,0.977,-111.328
1532215027.174,19.043,29.297,25.391,2.930,-52.734
1532215027.178,25.391,31.250,25.879,4.395,139.160
1532215027.182,0.488,42.480,32.715,9.766,114.258
1532215027.186,0.977,44.922,38.086,8.301,-63.477
1532215027.190,6.348,38.574,34.180,11.719,-66.406
1532215027.194,3.418,30.762,28.809,13.184,92.285
1532215027.198,6.836,34.180,25.879,0.000,135.742
1532215027.202,9.277,38.086,27.832,-0.488,-29.785
1532215027.205,21.973,31.250,30.273,0.000,-121.094
1532215027.209,19.043,25.879,24.902,-0.977,57.617
1532215027.213,0.000,30.273,25.391,1.953,149.414
1532215027.217,-9.766,34.668,30.762,-0.488,15.625
1532215027.221,9.277,32.227,31.250,4.395,-96.680
1532215027.225,12.695,24.902,28.320,8.789,0.488
1532215027.229,4.395,28.809,25.391,4.883,153.809
1532215027.233,15.625,41.504,31.250,7.812,111.328
1532215027.237,12.695,43.945,37.109,8.789,-75.195
1532215027.241,10.742,40.527,33.691,6.836,-64.941
1532215027.245,15.625,37.109,31.738,10.254,108.398
1532215027.248,12.207,32.227,25.879,5.859,148.926
1532215027.252,16.602,31.250,24.414,1.953,-33.691
1532215027.256,24.902,36.621,30.273,7.324,-120.605
1532215027.260,24.414,35.645,28.809,17.578,61.523
1532215027.264,13.184,29.785,24.902,11.230,169.922
1532215027.268,19.043,25.879,25.391,11.719,-1.465
1532215027.272,28.809,32.715,29.297,20.020,-131.836
1532215027.276,17.578,43.945,27.832,14.160,41.504
1532215027.280,21.484,42.969,29.785,13.184,159.668
1532215027.284,9.766,36.133,32.715,13.672,32.227
1532215027.288,3.906,33.691,30.762,4.395,-115.234
1532215027.291,21.973,35.645,28.320,6.836,-34.668
1532215027.295,17.090,30.762,27.832,11.230,132.324
1532215027.299,15.625,30.273,31.738,7.324,84.961
1532215027.303,31.250,32.227,32.715,5.859,-93.750
1532215027.307,17.578,29.785,32.715,5.371,-88.379
1532215027.311,2.441,27.832,33.691,5.371,113.770
1532215027.315,7.812,33.691,32.227,5.371,120.117
1532215027.319,26.855,43.945,24.902,3.418,-49.805
1532215027.323,33.691,43.945,22.461,7.324,-74.219
1532215027.327,16.602,40.527,26.367,14.160,80.078
1532215027.330,10.742,41.016,35.156,12.695,176.758
1532215027.334,21.973,41.016,40.039,0.000,7.324
1532215027.338,25.391,33.203,39.062,0.977,-132.324
1532215027.342,10.742,25.879,37.109,0.488,12.695
1532215027.346,0.000,29.785,35.156,-6.348,147.949
1532215027.350,5.371,36.133,34.668,2.441,65.430
1532215027.354,21.484,41.504,30.762,0.977,-115.723
1532215027.358,32.227,40.039,26.855,1.953,-69.336
1532215027.362,17.090,36.621,30.273,10.254,151.367
1532215027.366,6.348,36.133,31.250,7.812,152.344
1532215027.370,12.695,29.785,26.367,8.789,-54.199
1532215027.373,16.602,26.367,29.297,13.672,-100.098
1532215027.377,22.461,32.715,31.738,14.160,79.102
1532215027.381,32.227,35.645,30.762,12.695,137.695
1532215027.385,31.738,36.133,33.691,8.789,-19.531
1532215027.389,21.484,36.133,38.086,3.906,-112.305
1532215027.393,18.555,35.156,34.180,2.930,26.855
1532215027.397,12.695,35.645,33.691,5.371,138.184
1532215027.401,6.836,35.156,35.645,3.418,22.949
1532215027.405,7.324,35.645,33.691,-2.441,-117.188
1532215027.409,8.301,29.297,31.250,7.324,-1.465
1532215027.413,3.906,26.855,29.297,9.766,146.484
1532215027.416,14.160,37.109,30.273,5.859,73.730
1532215027.420,23.926,39.551,26.855,5.371,-112.305
1532215027.424,7.812,32.715,27.344,5.859,-70.312
1532215027.428,5.371,29.297,32.715,5.371,156.738
1532215027.432,8.301,32.227,31.250,0.977,135.254
1532215027.436,11.230,37.598,28.809,-13.184,-115.723
1532215027.440,6.348,35.645,27.832,-13.672,-120.117
1532215027.444,-1.465,32.715,26.855,-3.418,104.492
1532215027.448,8.301,32.227,29.785,0.000,155.762
1532215027.452,14.160,30.273,28.809,9.277,-20.020
1532215027.455,28.320,26.855,27.344,12.207,-122.070
1532215027.459,9.766,22.949,31.738,10.254,49.316
1532215027.463,-10.254,26.367,30.273,10.254,172.852
1532215027.467,-2.441,37.109,26.855,6.836,52.246
1532215027.471,9.277,42.480,26.367,2.930,-107.910
1532215027.475,18.066,38.574,24.902,4.395,-23.438
1532215027.479,15.137,32.715,23.438,9.766,159.180
1532215027.483,3.906,32.715,16.602,1.465,104.492
1532215027.487,-2.441,34.668,16.113,-4.883,-76.172
1532215027.491,9.766,30.762,24.902,0.977,-63.477
1532215027.495,10.742,30.762,33.203,-3.418,91.797
1532215027.498,5.371,31.738,35.645,-6.836,92.285
1532215027.502,13.184,22.949,33.691,5.859,-73.730
1532215027.506,15.137,26.367,29.297,3.906,-89.355
1532215027.510,-0.488,43.457,25.879,-1.953,79.590
1532215027.514,-2.441,45.898,26.855,5.859,137.207
1532215027.518,20.508,37.598,26.367,3.906,5.371
1532215027.522,5.371,31.738,21.973,-3.906,-106.445
1532215027.526,-14.160,34.668,17.090,-4.883,30.762
1532215027.530,7.324,38.574,18.555,-4.395,172.363
1532215027.534,3.418,33.203,24.902,-7.324,62.988
1532215027.538,-11.719,34.180,31.250,-1.953,-96.191
1532215027.541,-0.977,31.738,28.320,7.324,-2.441
1532215027.545,9.766,21.973,21.973,13.184,158.203
1532215027.549,21.973,26.367,25.879,17.090,115.234
1532215027.553,16.113,36.133,29.297,12.695,-90.820
1532215027.557,8.301,41.504,32.227,8.301,-106.934
1532215027.561,4.395,41.016,42.480,16.113,119.629
1532215027.565,0.488,35.645,35.645,17.090,174.805
1532215027.569,29.297,32.227,22.461,9.277,7.812
1532215027.573,21.973,31.738,27.344,4.395,-102.539
1532215027.577,-9.277,30.762,33.203,4.883,51.758
1532215027.580,-7.324,27.344,33.691,7.812,153.809
1532215027.584,2.930,27.344,31.738,12.695,-6.836
1532215027.588,12.695,30.273,27.344,14.160,-117.188
1532215027.592,14.160,31.250,27.344,2.930,9.277
1532215027.596,7.812,31.250,31.738,0.488,133.789
1532215027.600,3.906,33.691,33.203,5.859,43.945
1532215027.604,15.625,34.668,32.715,6.836,-129.395
1532215027.608,17.578,32.715,27.832,11.719,-52.246
1532215027.612,18.555,30.762,24.902,9.766,129.395
1532215027.616,14.648,37.598,29.297,8.301,95.215
1532215027.620,6.836,38.086,26.855,12.695,-78.125
1532215027.623,18.066,22.461,27.344,11.719,-102.539
1532215027.627,19.531,24.902,31.738,18.066,77.148
1532215027.631,17.090,38.086,31.738,20.508,100.098
1532215027.635,8.301,41.504,31.250,4.395,-94.727
1532215027.639,9.277,41.992,30.273,3.418,-127.930
1532215027.643,17.090,41.504,28.320,6.836,70.801
1532215027.647,10.254,37.598,28.809,4.883,160.156
1532215027.651,26.855,34.180,29.785,8.789,20.996
1532215027.655,24.902,35.645,26.855,9.277,-98.145
1532215027.659,5.859,39.062,27.832,18.555,16.602
1532215027.662,10.742,41.016,31.738,17.090,164.551
1532215027.666,13.672,41.504,31.250,2.930,76.660
1532215027.670,9.277,35.156,25.391,5.371,-119.141
1532215027.674,14.648,23.926,24.414,-0.977,-100.586
1532215027.678,20.020,23.926,27.344,-10.254,90.820
1532215027.682,8.301,29.297,27.832,-8.301,104.004
1532215027.686,5.371,33.203,24.902,-1.465,-57.617
1532215027.690,20.020,37.109,25.391,1.465,-58.594
1532215027.694,21.484,39.062,31.250,1.953,66.406
1532215027.698,17.578,39.062,30.273,2.441,119.629
1532215027.702,20.996,35.156,25.391,0.488,-10.742
1532215027.705,8.789,29.297,26.367,5.371,-101.562
1532215027.709,-1.465,28.320,32.227,7.812,56.641
1532215027.713,8.789,25.879,33.203,2.930,159.180
1532215027.717,12.695,28.320,31.250,6.348,27.832
1532215027.721,9.277,34.180,35.645,7.324,-121.094
1532215027.725,12.207,26.367,33.691,-3.906,-10.742
1532215027.729,7.324,24.902,28.320,0.488,180.176
1532215027.733,3.418,34.180,32.715,2.930,109.375
1532215027.737,15.625,34.668,36.133,-11.230,-112.793
1532215027.741,5.371,31.738,33.203,-2.930,-60.059
1532215027.745,-9.766,32.227,34.180,7.324,150.391
1532215027.748,-6.348,36.621,35.156,1.465,134.766
1532215027.752,5.371,38.574,34.180,3.906,-65.918
1532215027.756,14.160,32.715,30.273,11.230,-109.375
1532215027.760,19.043,25.391,27.344,6.836,82.520
1532215027.764,25.879,29.785,27.344,6.836,128.418
1532215027.768,23.438,40.039,29.785,18.555,-22.949
1532215027.772,17.090,38.086,30.273,12.207,-101.074
1532215027.776,19.531,34.180,30.273,0.977,-4.395
1532215027.780,18.555,34.668,36.133,3.906,127.441
1532215027.784,21.484,36.133,34.180,3.418,51.270
1532215027.787,24.414,37.598,24.902,8.789,-126.465
1532215027.791,17.090,34.668,25.879,7.812,-45.410
1532215027.795,5.371,32.227,28.809,2.930,152.832
1532215027.799,-3.418,34.668,27.344,10.742,123.047
1532215027.803,7.324,38.086,26.855,8.789,-66.406
1532215027.807,16.113,43.457,28.320,9.766,-54.199
1532215027.811,22.949,43.457,30.273,15.625,116.211
1532215027.815,18.555,35.645,33.203,3.906,106.445
1532215027.819,23.926,31.250,32.227,-12.695,-56.641
1532215027.823,20.996,34.668,28.320,-5.371,-81.543
1532215027.827,4.883,36.133,27.344,6.348,73.242
1532215027.830,14.160,37.109,22.461,3.418,184.082
1532215027.834,32.227,40.039,25.391,-1.465,47.852
1532215027.838,27.832,36.621,33.691,-3.906,-77.637
1532215027.842,14.160,33.691,34.180,-2.441,31.738
1532215027.846,14.160,29.297,31.250,-0.977,140.137
1532215027.850,13.672,30.273,31.250,8.301,74.219
1532215027.854,22.949,40.527,29.785,15.137,-75.684
1532215027.858,31.250,41.992,26.367,11.230,-19.531
1532215027.862,18.066,38.574,31.250,6.348,175.781
1532215027.866,0.488,37.109,31.250,3.906,151.367
1532215027.870,4.395,31.738,29.297,1.465,-40.039
1532215027.873,13.672,28.809,29.297,-8.301,-85.938
1532215027.877,11.719,27.344,25.391,-4.883,51.758
1532215027.881,8.301,28.809,24.902,1.953,130.859
1532215027.885,6.836,35.645,27.832,2.441,-15.137
1532215027.889,5.859,34.668,21.484,5.859,-93.262
1532215027.893,15.625,28.809,17.578,0.977,60.547
1532215027.897,27.832,30.762,30.273,-3.906,139.648
1532215027.901,15.137,29.785,36.133,-3.418,18.066
1532215027.905,-5.371,27.344,33.203,-1.465,-110.840
1532215027.909,-1.953,32.715,31.250,2.930,0.488
1532215027.912,-2.441,32.715,28.320,2.441,155.762
1532215027.916,-3.418,24.414,29.297,1.465,102.539
1532215027.920,7.812,26.367,30.762,1.953,-67.383
1532215027.924,8.301,36.133,26.855,-1.465,-20.020
1532215027.928,11.719,34.180,25.879,5.859,159.180
1532215027.932,2.930,31.738,31.738,13.184,151.367
1532215027.936,3.906,33.691,33.691,0.000,-83.984
1532215027.940,12.695,38.086,28.809,-11.230,-116.699
1532215027.944,9.277,39.062,27.344,-0.977,112.793
1532215027.948,19.043,35.156,26.855,5.859,151.367
1532215027.952,19.043,33.691,18.066,4.883,-24.902
1532215027.955,10.254,32.227,24.902,7.324,-104.004
1532215027.959,15.137,32.715,36.621,8.301,59.082
1532215027.963,15.625,31.250,35.156,5.859,196.777
1532215027.967,9.766,29.297,29.785,-0.488,57.617
1532215027.971,3.906,30.762,29.297,-1.465,-118.164
1532215027.975,9.766,33.691,32.227,-0.488,-32.715
1532215027.979,19.043,28.809,29.297,11.230,134.766
1532215027.983,23.438,23.438,28.809,12.695,123.047
1532215027.987,15.625,37.109,32.227,0.977,-75.684
1532215027.991,0.977,44.434,35.645,5.859,-51.758
1532215027.995,8.789,39.062,34.180,14.160,135.742
1532215027.998,22.949,37.598,27.344,22.461,146.484
1532215028.002,26.855,38.574,31.250,12.695,-19.531
1532215028.006,19.043,36.621,31.250,9.277,-78.613
1532215028.010,25.391,36.133,26.367,19.531,89.355
1532215028.014,30.273,36.133,31.738,12.207,144.531
1532215028.018,10.742,34.668,34.180,-3.418,3.418
1532215028.022,4.883,36.621,29.297,-8.301,-119.629
1532215028.026,14.648,32.227,24.902,0.977,4.395
1532215028.030,27.344,32.715,26.367,6.836,166.016
1532215028.034,19.043,41.016,35.156,-1.465,50.293
1532215028.037,2.930,41.016,36.133,-16.113,-141.113
1532215028.041,0.977,39.551,31.250,-9.277,-32.227
1532215028.045,16.602,33.691,30.273,0.000,132.324
1532215028.049,25.391,29.785,26.855,-3.906,69.336
1532215028.053,22.461,36.621,24.902,-11.230,-125.488
1532215028.057,24.414,39.062,28.320,-6.348,-94.727
1532215028.061,10.742,37.598,33.203,9.766,146.973
1532215028.065,0.000,32.715,32.227,11.719,131.836
1532215028.069,-3.906,30.273,31.250,8.789,-80.566
1532215028.073,-7.324,29.785,32.715,15.625,-137.695
1532215028.077,8.789,32.227,24.902,20.996,40.039
1532215028.080,0.488,32.715,21.484,14.160,150.879
1532215028.084,0.488,30.762,30.273,4.883,8.301
1532215028.088,26.367,33.691,28.320,10.254,-108.887
1532215028.092,16.113,34.668,23.438,13.184,-5.859
1532215028.096,3.418,31.738,28.809,3.418,116.211
1532215028.100,8.301,34.180,31.250,-3.418,70.312
1532215028.104,2.930,31.738,32.227,-3.418,-82.520
1532215028.108,2.930,27.832,30.762,7.324,-30.273
1532215028.112,6.836,27.344,26.855,11.230,148.926
1532215028.116,2.930,23.438,30.762,4.395,91.309
1532215028.119,6.348,26.367,32.227,5.371,-93.750
1532215028.123,12.207,30.762,25.879,10.254,-76.660
1532215028.127,20.020,34.180,24.414,10.254,97.656
1532215028.131,15.625,38.086,28.809,9.766,130.859
1532215028.135,23.438,33.691,27.832,6.348,-66.406
1532215028.139,33.691,36.621,24.414,5.371,-137.695
1532215028.143,9.277,37.598,25.391,8.301,56.641
1532215028.147,16.113,35.156,30.273,3.906,169.922
1532215028.151,24.902,34.180,32.227,0.977,28.809
1532215028.155,8.301,29.297,36.133,2.930,-125.488
1532215028.159,8.301,32.227,37.598,4.395,8.301
1532215028.162,7.324,29.785,36.133,5.859,174.805
1532215028.166,4.883,29.297,36.133,8.301,54.199
1532215028.170,13.184,32.715,29.785,8.789,-124.023
1532215028.174,16.113,27.344,28.809,13.184,-52.734
1532215028.178,9.277,27.344,34.668,15.137,128.906
1532215028.182,14.648,28.320,29.785,7.324,107.422
1532215028.186,18.066,25.879,33.203,9.277,-76.660
1532215028.190,8.301,27.832,35.156,12.207,-89.844
1532215028.194,14.160,34.668,32.227,5.371,59.082
1532215028.198,17.578,35.645,32.227,-2.441,124.023
1532215028.202,10.742,30.273,29.297,3.906,-8.789
1532215028.205,15.137,26.367,27.344,5.859,-86.426
1532215028.209,17.578,25.391,28.320,6.348,89.355
1532215028.213,15.625,28.320,29.297,11.719,170.898
1532215028.217,19.043,29.297,25.391,6.836,47.852
1532215028.221,28.320,32.227,26.367,2.930,-78.613
1532215028.225,25.879,35.645,30.273,4.883,0.000
1532215028.229,8.789,32.715,31.738,0.977,163.086
1532215028.233,13.184,27.832,34.668,-0.977,85.938
1532215028.237,24.414,27.832,34.668,-0.977,-96.680
1532215028.241,13.672,27.344,32.715,3.906,-45.410
1532215028.244,10.742,27.344,28.809,8.789,143.555
1532215028.248,17.578,33.203,30.762,9.766,145.508
1532215028.252,24.414,39.062,34.180,7.324,-55.176
1532215028.256,14.648,35.156,31.250,8.789,-107.910
1532215028.260,13.184,21.484,30.273,19.043,100.586
1532215028.264,31.738,20.020,27.344,16.602,166.504
1532215028.268,36.133,32.715,22.949,2.441,-18.066
1532215028.272,13.672,39.062,25.879,-0.977,-121.094
1532215028.276,10.254,37.109,23.438,1.953,14.160
1532215028.280,18.555,36.133,20.996,-0.488,154.297
1532215028.284,18.066,36.621,28.320,4.883,55.176
1532215028.287,22.461,34.668,32.715,10.742,-113.770
1532215028.291,20.996,24.902,33.203,10.742,-22.949
1532215028.295,31.250,24.414,32.715,14.160,135.742
1532215028.299,21.973,32.715,32.715,4.883,82.520
1532215028.303,10.742,34.180,32.227,0.977,-93.262
1532215028.307,6.348,34.668,25.879,2.441,-76.660
1532215028.311,2.930,36.133,19.531,-4.883,113.281
1532215028.315,-0.977,28.320,27.832,-21.484,108.398
1532215028.319,-10.254,27.344,29.785,-21.484,-73.242
1532215028.323,2.441,31.738,25.391,-11.230,-111.816
1532215028.327,5.371,25.391,28.320,-4.395,80.566
1532215028.330,4.395,27.832,27.344,-1.465,161.133
1532215028.334,5.859,29.297,29.785,-3.906,3.906
1532215028.338,7.812,29.297,31.738,-2.441,-129.395
1532215028.342,9.766,33.203,24.902,8.301,14.160
1532215028.346,1.465,37.598,27.832,10.254,167.480
1532215028.350,4.883,41.016,34.180,9.766,80.078
1532215028.354,7.324,31.738,28.809,6.836,-105.957
1532215028.358,6.836,26.367,24.414,7.812,-33.203
1532215028.362,10.254,30.762,22.949,8.789,181.641
1532215028.366,-2.441,30.273,21.973,6.836,137.207
1532215028.369,3.418,32.227,24.414,1.953,-65.918
1532215028.373,15.137,35.156,26.855,-3.418,-87.402
1532215028.377,-3.906,26.855,22.949,0.977,112.305
1532215028.381,-10.254,18.555,23.926,9.277,166.504
1532215028.385,-1.953,26.855,25.879,6.836,-33.203
1532215028.389,11.230,34.668,23.926,2.441,-100.098
1532215028.393,-0.488,30.762,22.949,5.371,67.383
1532215028.397,-13.184,29.297,27.832,1.465,139.648
1532215028.401,-3.906,32.227,32.715,-4.883,-0.488
1532215028.405,-8.301,31.250,31.250,-1.465,-100.098
1532215028.409,-1.465,30.273,25.879,3.906,42.480
1532215028.412,12.695,29.297,22.461,6.348,179.688
1532215028.416,11.719,30.762,26.367,5.371,71.777
1532215028.420,12.207,32.227,23.438,5.371,-98.145
1532215028.424,15.625,27.832,22.949,12.695,-37.598
1532215028.428,15.625,30.273,28.809,14.160,138.184
1532215028.432,9.766,29.785,31.250,5.371,129.883
1532215028.436,11.719,31.250,33.203,4.395,-72.266
1532215028.440,1.953,32.227,33.203,10.742,-103.516
1532215028.444,-15.137,23.438,30.273,12.207,101.074
1532215028.448,-6.348,22.949,32.715,13.184,173.828
1532215028.451,5.371,29.297,37.598,11.719,-18.555
1532215028.455,7.812,32.715,36.133,1.953,-122.559
1532215028.459,13.672,32.227,33.691,-1.953,66.406
1532215028.463,19.531,28.320,35.156,7.812,152.344
1532215028.467,11.230,21.973,39.062,13.184,18.555
1532215028.471,6.836,28.320,36.621,15.137,-105.957
1532215028.475,3.418,31.738,32.227,11.230,-16.602
1532215028.479,3.418,25.391,27.832,5.371,145.508
1532215028.483,15.625,29.785,26.855,8.301,88.379
1532215028.487,40.527,29.297,27.832,6.836,-82.031
1532215028.491,26.855,16.113,31.738,3.906,-38.086
1532215028.494,-9.766,22.461,35.645,-3.418,167.480
1532215028.498,-15.625,36.133,31.250,-10.742,158.691
1532215028.502,-2.930,39.062,26.855,-9.277,-40.039
1532215028.506,8.301,33.203,32.227,-1.465,-67.383
1532215028.510,9.277,28.320,31.738,2.441,108.887
1532215028.514,13.184,34.180,26.855,-3.418,160.156
1532215028.518,19.043,33.691,30.273,-8.789,4.395
1532215028.522,15.137,32.227,28.809,0.977,-80.078
1532215028.526,1.465,36.133,21.484,7.324,55.176
1532215028.530,-6.836,33.203,21.484,2.441,167.969
1532215028.534,1.465,31.250,30.762,5.371,75.195
1532215028.537,17.090,35.645,32.227,6.348,-74.707
1532215028.541,11.230,31.250,25.391,4.883,5.859
1532215028.545,2.441,28.320,19.531,1.465,178.223
1532215028.549,9.277,29.297,22.949,6.348,132.812
1532215028.553,10.742,34.180,29.297,-0.977,-81.055
1532215028.557,9.766,41.504,30.273,-0.488,-89.844
1532215028.561,15.137,41.504,26.855,11.719,133.301
1532215028.565,28.320,38.086,28.320,10.254,166.016
1532215028.569,22.949,34.180,36.621,11.230,-31.250
1532215028.573,0.977,32.715,36.133,3.906,-102.051
1532215028.576,10.742,32.227,32.715,3.906,61.523
1532215028.580,32.715,31.250,37.109,12.207,156.250
1532215028.584,26.855,27.344,37.109,14.160,13.672
1532215028.588,18.066,26.367,33.203,20.996,-94.727
1532215028.592,5.371,29.785,38.574,17.578,43.457
1532215028.596,5.371,31.250,41.504,11.719,195.801
1532215028.600,13.672,24.414,38.086,14.160,86.914
1532215028.604,11.719,16.602,39.062,6.348,-102.539
1532215028.608,3.906,21.484,39.551,13.672,-29.785
1532215028.612,7.324,25.391,41.992,21.973,156.738
1532215028.616,15.137,26.855,41.016,3.418,119.141
1532215028.619,19.043,30.762,38.574,2.441,-65.918
1532215028.623,29.297,31.738,38.574,11.230,-54.199
1532215028.627,25.879,30.273,36.133,9.277,125.977
1532215028.631,7.324,27.344,33.691,17.578,169.922
1532215028.635,3.906,27.344,28.809,19.043,-20.996
1532215028.639,4.883,26.367,26.855,6.348,-94.727
1532215028.643,2.930,23.438,31.738,4.395,79.102
1532215028.647,14.648,23.438,40.039,5.859,175.781
1532215028.651,16.113,24.902,38.086,4.883,19.043
1532215028.655,11.230,26.855,35.156,4.395,-146.973
1532215028.659,2.930,29.785,35.645,4.883,-32.227
1532215028.662,11.719,32.227,32.715,13.672,130.371
1532215028.666,10.742,31.738,23.926,20.508,68.359
1532215028.670,-0.977,31.738,22.949,12.695,-98.145
1532215028.674,0.488,27.832,27.832,3.418,-34.668
1532215028.678,8.789,24.414,28.320,4.395,143.066
1532215028.682,13.672,28.320,32.227,10.254,124.512
1532215028.686,9.766,30.762,32.227,10.742,-57.617
1532215028.690,17.578,29.785,32.715,8.301,-82.031
1532215028.694,8.789,25.879,31.738,15.137,100.098
1532215028.698,14.648,27.832,30.273,14.160,157.715
1532215028.701,25.391,29.297,33.203,5.859,-6.348
1532215028.705,0.488,31.250,27.832,18.555,-95.215
1532215028.709,-14.160,34.180,24.902,18.555,64.941
1532215028.713,2.441,32.227,32.227,7.812,168.457
1532215028.717,6.348,27.832,27.344,6.348,23.438
1532215028.721,0.977,26.367,19.531,6.836,-109.863
1532215028.725,14.160,31.250,23.926,13.184,4.883
1532215028.729,12.695,31.738,28.809,12.695,148.926
1532215028.733,4.883,25.391,36.621,7.812,62.988
1532215028.737,18.066,22.461,36.621,10.742,-125.977
1532215028.741,17.578,28.809,31.250,14.648,-56.641
1532215028.744,18.066,31.738,33.203,9.766,134.766
1532215028.748,19.531,32.227,33.691,10.742,138.672
1532215028.752,18.555,25.879,31.738,1.953,-39.062
1532215028.756,5.859,25.879,27.344,-9.277,-104.492
1532215028.760,-9.766,34.180,27.832,7.812,80.078
1532215028.764,2.441,27.832,34.668,13.184,166.504
1532215028.768,16.113,25.879,37.598,9.277,20.508
1532215028.772,23.438,30.762,30.762,15.625,-67.383
1532215028.776,19.043,30.273,25.879,11.719,44.434
1532215028.780,18.066,26.855,31.250,6.348,135.254
1532215028.784,16.602,31.738,33.691,10.254,55.664
1532215028.787,7.812,36.621,35.156,10.254,-77.148
1532215028.791,15.625,32.715,33.691,8.789,9.277
1532215028.795,18.066,26.855,32.715,3.418,129.883
1532215028.799,22.461,23.438,31.738,-4.395,71.777
1532215028.803,25.391,24.414,32.715,-2.930,-66.406
1532215028.807,18.555,25.879,34.180,1.465,-37.598
1532215028.811,7.324,32.715,28.809,3.906,147.949
1532215028.815,3.906,40.527,28.320,1.953,141.602
1532215028.819,18.555,38.086,34.180,-3.906,-37.109
1532215028.823,18.066,35.645,31.738,3.906,-89.355
1532215028.826,17.578,32.227,31.738,6.836,86.426
1532215028.830,30.273,30.273,32.227,-7.812,167.480
1532215028.834,9.277,27.344,30.273,-9.277,20.020
1532215028.838,-5.371,26.855,33.691,-3.906,-93.262
1532215028.842,-5.371,35.645,29.297,-1.465,44.922
1532215028.846,7.324,24.902,28.809,-1.465,163.086
1532215028.850,14.648,11.230,30.273,3.418,75.195
1532215028.854,12.695,27.832,33.203,5.859,-106.445
1532215028.858,21.484,40.039,36.133,-4.883,-67.383
1532215028.862,12.207,36.133,30.762,-7.812,152.832
1532215028.866,-1.953,35.156,30.762,3.418,146.484
1532215028.869,-14.160,27.832,35.156,3.906,-59.570
1532215028.873,-2.930,23.926,34.668,6.836,-65.918
1532215028.877,12.695,24.414,33.691,4.395,122.559
1532215028.881,10.742,20.508,37.109,-4.395,158.691
1532215028.885,5.859,25.391,38.574,3.906,-17.090
1532215028.889,-6.836,32.227,32.715,0.488,-101.562
1532215028.893,-2.930,30.762,33.203,-0.488,60.059
1532215028.897,3.906,28.320,36.621,-4.395,104.004
1532215028.901,2.930,28.320,29.297,-4.395,-34.180
1532215028.905,17.090,30.273,25.391,8.789,-102.051
1532215028.908,17.578,28.320,25.879,-0.488,8.789
1532215028.912,11.719,27.832,24.902,-10.742,132.324
1532215028.916,22.461,32.227,26.855,-10.254,75.684
1532215028.920,24.414,25.879,29.297,-11.230,-91.797
1532215028.924,29.297,26.367,23.926,-7.324,-60.059
1532215028.928,30.762,40.039,20.508,-2.930,122.070
1532215028.932,29.297,42.480,29.297,3.418,104.980
1532215028.936,23.926,34.180,35.156,1.465,-91.797
1532215028.940,13.672,32.715,33.203,10.742,-94.238
1532215028.944,10.742,34.180,25.879,19.531,84.473
1532215028.948,8.789,29.785,28.320,21.484,159.668
1532215028.951,12.695,26.855,38.574,24.902,-2.441
1532215028.955,16.602,27.344,40.527,18.555,-113.770
1532215028.959,3.418,26.855,38.086,16.113,64.941
1532215028.963,0.488,16.602,38.086,17.578,162.598
1532215028.967,8.789,13.184,37.598,16.602,30.273
1532215028.971,15.137,26.367,31.738,18.066,-92.773
1532215028.975,29.297,34.668,27.832,16.602,-20.508
1532215028.979,14.648,39.551,29.785,12.207,120.117
1532215028.983,7.324,31.250,32.715,5.859,92.285
1532215028.987,17.090,25.391,31.250,4.395,-83.496
1532215028.991,8.301,33.691,24.414,8.301,-54.199
1532215028.994,12.695,31.250,23.438,1.953,77.148
1532215028.998,28.809,29.785,31.250,-2.930,53.223
1532215029.002,23.438,32.227,32.715,-1.465,-90.332
1532215029.006,9.277,26.855,28.320,0.977,-104.492
1532215029.010,14.648,25.879,30.273,10.254,78.613
1532215029.014,12.207,31.738,29.785,3.906,134.766
1532215029.018,18.066,30.273,23.438,0.488,-25.879
1532215029.022,23.438,24.414,22.949,8.789,-132.324
1532215029.026,22.461,22.461,25.879,6.836,17.578
1532215029.030,22.461,25.391,26.855,10.742,157.227
1532215029.033,15.137,24.902,25.879,13.184,32.227
1532215029.037,17.578,9.277,29.297,23.438,-140.137
1532215029.041,38.086,11.230,35.156,40.527,-4.395
1532215029.045,23.926,35.645,29.785,13.184,180.176
1532215029.049,-4.395,46.875,24.414,-12.695,105.957
1532215029.053,0.488,43.457,24.902,-15.625,-82.031
1532215029.057,6.836,33.691,22.949,-25.391,-61.035
1532215029.061,-3.906,36.621,18.066,-21.484,150.391
1532215029.065,-3.418,41.992,17.090,-16.602,139.648
1532215029.069,-1.465,40.039,19.043,-21.484,-72.754
1532215029.073,-9.277,42.480,20.996,-24.414,-106.445
1532215029.076,-2.441,40.527,24.414,-27.344,67.383
1532215029.080,-4.395,32.715,28.809,-17.578,161.621
1532215029.084,-4.883,25.879,30.273,-6.348,23.926
1532215029.088,6.836,27.344,25.391,-9.766,-68.848
1532215029.092,2.930,31.250,18.555,-14.648,65.430
1532215029.096,-1.465,33.691,15.625,-5.859,166.504
1532215029.100,7.324,35.156,17.090,1.465,54.199
1532215029.104,11.719,37.598,21.484,-3.418,-124.512
1532215029.108,23.926,39.551,24.902,-0.977,-39.551
1532215029.112,29.297,41.016,25.879,8.301,158.203
1532215029.116,27.344,36.621,24.902,17.578,107.422
1532215029.119,18.066,35.156,26.367,10.742,-91.797
1532215029.123,25.879,34.180,27.344,-0.977,-49.805
1532215029.127,20.508,34.668,21.973,2.930,145.996
1532215029.131,-3.906,36.133,20.020,5.371,160.156
1532215029.135,15.137,35.645,24.414,-7.812,-67.383
1532215029.139,18.066,33.203,25.391,-6.836,-127.930
1532215029.143,14.160,24.902,22.949,11.230,94.238
1532215029.147,22.461,28.809,23.438,9.766,168.457
1532215029.151,19.043,37.598,20.020,1.953,15.137
1532215029.155,19.531,34.668,17.090,10.742,-109.375
1532215029.158,15.137,31.738,25.391,15.625,33.203
1532215029.162,9.766,36.133,29.785,8.301,180.176
1532215029.166,24.414,41.504,25.879,0.977,62.988
1532215029.170,33.203,38.574,31.250,-2.441,-105.957
1532215029.174,14.160,32.227,30.762,-4.395,-61.035
1532215029.178,6.836,31.250,25.391,-5.859,105.957
1532215029.182,13.184,30.273,24.902,0.488,98.145
1532215029.186,20.996,25.879,25.879,2.441,-68.848
1532215029.190,19.043,31.250,23.926,8.301,-76.660
1532215029.194,12.207,34.180,26.855,12.695,74.707
1532215029.198,16.113,30.762,30.762,6.348,128.418
1532215029.201,24.414,31.250,28.320,4.395,-15.137
1532215029.205,24.414,29.785,28.809,10.742,-84.961
1532215029.209,23.438,28.809,32.227,13.672,71.777
1532215029.213,18.066,28.320,33.691,9.766,150.391
1532215029.217,15.625,31.250,31.738,3.906,28.320
1532215029.221,23.926,35.645,25.879,11.230,-105.957
1532215029.225,25.391,36.133,25.879,19.043,10.254
1532215029.229,29.785,29.785,29.785,14.160,167.480
1532215029.233,34.180,24.902,27.832,1.465,92.773
1532215029.237,19.043,26.367,28.809,4.883,-62.012
1532215029.240,0.977,24.414,26.855,11.719,-27.344
1532215029.244,3.418,25.391,22.461,8.301,141.602
1532215029.248,8.301,25.879,24.414,11.230,135.254
1532215029.252,19.043,20.508,28.320,14.648,-75.195
1532215029.256,19.043,21.484,31.250,8.789,-105.957
1532215029.260,3.418,28.320,31.250,12.207,91.797
1532215029.264,6.836,31.738,29.785,11.230,167.480
1532215029.268,17.578,27.344,32.227,9.277,3.418
1532215029.272,4.883,31.250,35.156,19.043,-122.559
1532215029.276,-0.977,32.715,33.691,10.742,26.367
1532215029.280,15.137,32.227,26.855,12.695,169.922
1532215029.283,27.344,32.715,21.973,18.555,52.246
1532215029.287,19.043,29.785,25.879,5.371,-100.098
1532215029.291,8.789,30.273,29.785,4.883,-8.301
1532215029.295,6.836,30.762,28.809,12.207,130.859
1532215029.299,13.184,28.320,26.367,9.766,107.422
1532215029.303,17.090,26.855,28.809,11.719,-66.895
1532215029.307,20.508,25.391,32.715,13.672,-82.520
1532215029.311,8.301,20.020,31.738,19.531,110.840
1532215029.315,3.906,21.973,36.133,17.578,135.742
1532215029.319,5.371,30.762,37.598,4.883,-59.570
1532215029.323,5.859,28.320,29.785,8.301,-91.797
1532215029.326,13.672,21.973,27.344,17.090,66.406
1532215029.330,12.207,23.438,28.809,14.648,109.375
1532215029.334,11.719,28.809,32.715,7.324,-27.832
1532215029.338,17.090,32.715,33.691,9.277,-134.277
1532215029.342,15.137,32.715,28.809,13.184,34.668
1532215029.346,6.836,30.762,28.809,3.906,162.598
1532215029.350,8.789,24.414,30.273,-1.465,49.805
1532215029.354,3.418,23.438,34.668,-0.488,-134.277
1532215029.358,7.324,28.809,33.203,6.836,-46.387
1532215029.362,25.391,31.250,27.344,14.648,145.996
1532215029.365,15.625,31.250,28.320,15.625,77.637
1532215029.369,10.254,29.297,29.785,17.090,-97.656
1532215029.373,14.648,27.344,31.738,13.184,-94.727
1532215029.377,15.137,28.809,33.691,10.742,101.074
1532215029.381,26.367,28.320,34.180,16.113,174.316
1532215029.385,36.133,24.902,39.062,23.438,-20.508
1532215029.389,34.180,26.855,36.133,25.879,-100.098
1532215029.393,27.344,32.227,29.785,16.602,69.824
1532215029.397,27.832,33.203,31.738,12.207,153.320
1532215029.401,31.250,32.227,32.715,16.113,31.250
1532215029.405,29.297,23.438,29.785,13.184,-104.004
1532215029.408,16.602,19.531,30.273,15.625,22.949
1532215029.412,1.465,32.227,23.926,5.859,183.105
1532215029.416,0.977,34.668,24.414,-6.348,44.922
1532215029.420,10.742,20.508,32.715,2.441,-130.371
1532215029.424,11.719,14.648,26.855,11.230,-50.781
1532215029.428,-3.906,25.879,26.367,4.883,152.344
1532215029.432,8.789,34.180,32.227,-4.883,132.812
1532215029.436,9.766,33.203,28.320,-6.836,-81.055
1532215029.440,12.207,31.250,20.996,-3.418,-72.754
1532215029.444,18.066,26.855,23.926,4.883,102.051
1532215029.448,2.930,22.461,26.367,6.348,131.348
1532215029.451,19.043,27.344,25.391,5.859,-53.223
1532215029.455,35.645,32.227,26.855,3.418,-144.043
1532215029.459,16.602,33.203,25.879,2.930,44.922
1532215029.463,4.395,25.391,23.926,7.324,144.043
1532215029.467,7.812,20.020,26.367,4.883,13.184
1532215029.471,6.348,29.297,30.762,4.395,-111.328
1532215029.475,5.371,33.691,30.762,4.395,2.441
1532215029.479,7.812,33.691,26.367,4.883,165.039
1532215029.483,10.742,35.645,27.832,9.277,60.059
1532215029.487,7.812,30.762,28.809,8.301,-114.258
1532215029.490,6.836,24.414,28.809,2.930,-26.855
1532215029.494,6.348,26.855,32.715,1.465,124.023
1532215029.498,9.766,29.297,27.344,3.418,98.145
1532215029.502,18.066,29.297,23.926,7.324,-61.035
1532215029.506,8.301,22.949,26.367,5.859,-96.191
1532215029.510,11.230,20.996,28.320,10.254,90.332
1532215029.514,15.625,28.809,36.133,6.348,152.832
1532215029.518,16.602,29.297,35.645,2.441,-24.414
1532215029.522,12.695,25.879,31.250,10.254,-113.770
1532215029.526,4.395,27.344,33.691,14.160,44.922
1532215029.530,12.207,36.621,36.621,15.137,168.945
1532215029.533,27.344,39.062,35.645,5.371,40.527
1532215029.537,36.621,33.691,31.738,3.418,-116.699
1532215029.541,15.625,29.785,28.809,9.277,-8.789
1532215029.545,8.789,27.344,26.855,13.672,148.926
1532215029.549,14.648,33.203,31.738,17.578,82.031
1532215029.553,8.789,37.598,37.109,12.695,-117.676
1532215029.557,18.555,33.203,33.691,-1.953,-91.797
1532215029.561,16.602,29.297,30.762,2.441,130.371
1532215029.565,12.695,29.785,27.832,12.207,130.859
1532215029.569,20.996,26.367,26.855,8.301,-80.078
1532215029.573,8.789,22.461,32.715,-2.930,-112.793
1532215029.576,-4.883,30.762,40.527,3.906,75.195
1532215029.580,-5.371,33.203,39.062,15.625,123.535
1532215029.584,8.789,33.203,34.180,5.859,-60.059
1532215029.588,12.207,36.621,35.156,-4.395,-145.020
1532215029.592,5.371,30.762,30.762,-8.789,13.672
1532215029.596,15.137,25.391,28.809,-5.371,118.652
1532215029.600,12.207,22.949,32.715,-2.930,33.691
1532215029.604,3.418,26.367,31.250,-0.488,-124.023
1532215029.608,12.207,31.250,30.762,8.789,-41.016
1532215029.612,11.230,33.691,30.273,4.883,126.465
1532215029.615,7.324,26.367,32.715,6.836,77.637
1532215029.619,20.996,22.949,42.969,11.230,-84.473
1532215029.623,26.855,34.668,42.969,8.789,-61.523
1532215029.627,23.438,36.621,39.062,13.672,123.535
1532215029.631,14.648,28.809,37.109,5.859,140.137
1532215029.635,20.508,29.785,34.668,2.930,-66.895
1532215029.639,24.414,31.250,32.715,13.672,-108.398
1532215029.643,8.789,28.320,31.738,10.254,85.938
1532215029.647,23.438,28.809,31.250,4.395,180.664
1532215029.651,28.809,19.043,28.809,6.348,64.941
1532215029.655,7.324,20.020,23.926,1.953,-113.770
1532215029.658,3.418,28.320,30.762,-3.906,-20.508
1532215029.662,15.137,25.879,33.203,0.977,152.344
1532215029.666,17.578,24.414,30.273,6.836,71.777
1532215029.670,-0.488,24.902,35.645,8.789,-104.492
1532215029.674,-12.207,27.344,38.574,-7.324,-81.543
1532215029.678,1.465,26.855,36.621,-13.672,105.957
1532215029.682,12.207,28.809,33.691,-0.488,124.512
1532215029.686,3.906,28.809,29.785,4.883,-74.707
1532215029.690,3.906,30.273,25.879,7.324,-69.336
1532215029.694,16.113,33.203,27.344,-2.441,93.262
1532215029.697,9.277,25.391,28.320,-9.766,139.160
1532215029.701,17.090,21.484,27.832,2.930,-2.930
1532215029.705,15.625,25.391,28.809,5.371,-104.980
1532215029.709,2.930,25.879,29.785,6.348,83.984
1532215029.713,14.160,25.391,31.738,11.230,181.641
1532215029.717,16.113,26.855,31.250,3.418,36.621
1532215029.721,5.371,29.785,27.832,-5.371,-100.586
1532215029.725,1.953,29.785,27.832,-0.977,-22.461
1532215029.729,15.625,23.438,30.273,7.324,135.742
1532215029.733,15.625,24.414,29.297,3.906,81.055
1532215029.737,10.742,30.273,30.273,-6.836,-122.070
1532215029.740,13.184,27.832,32.715,1.953,-70.801
1532215029.744,18.555,29.785,31.250,10.742,125.000
1532215029.748,16.602,32.715,31.250,5.859,132.324
1532215029.752,5.371,29.297,35.156,6.348,-64.941
1532215029.756,7.324,25.391,34.180,1.953,-70.312
1532215029.760,12.207,27.344,31.738,1.953,121.094
1532215029.764,5.859,27.832,25.879,4.395,175.293
1532215029.768,5.371,27.344,25.391,0.488,22.461
1532215029.772,13.672,32.715,32.715,1.465,-106.934
1532215029.776,5.859,29.785,30.273,-0.488,33.203
1532215029.780,-4.883,16.602,30.273,3.906,172.363
1532215029.783,3.418,21.484,32.715,17.578,56.641
1532215029.787,16.113,31.250,27.344,8.301,-100.098
1532215029.791,24.414,33.203,25.879,6.836,21.484
1532215029.795,19.043,31.250,28.320,7.812,152.344
1532215029.799,11.230,28.320,29.297,0.000,75.195
1532215029.803,11.230,23.926,24.902,0.000,-78.613
1532215029.807,11.719,19.043,22.461,2.930,-29.785
1532215029.811,20.996,17.578,25.391,6.836,162.109
1532215029.815,27.344,21.973,30.762,4.883,136.230
1532215029.819,21.973,29.785,35.645,6.836,-48.828
1532215029.822,10.742,36.133,35.645,8.789,-90.332
1532215029.826,29.297,43.457,30.273,6.836,78.613
1532215029.830,42.480,39.551,26.367,2.930,183.594
1532215029.834,27.344,31.738,26.855,-8.301,9.766
1532215029.838,22.949,31.250,30.273,-6.836,-138.184
1532215029.842,25.391,27.344,32.227,0.000,0.977
1532215029.846,28.320,27.832,26.367,-4.883,162.598
1532215029.850,20.996,26.367,26.367,3.418,85.938
1532215029.854,13.672,20.020,28.809,11.719,-133.301
1532215029.858,19.531,22.949,31.738,20.508,-39.551
1532215029.862,3.418,28.809,35.156,29.297,181.152
1532215029.865,-8.301,31.738,30.762,23.438,131.348
1532215029.869,4.883,31.250,30.762,21.973,-62.012
1532215029.873,5.859,29.785,32.227,24.902,-76.172
1532215029.877,2.930,26.367,30.762,17.090,87.402
1532215029.881,9.277,27.832,27.832,10.254,135.254
1532215029.885,18.555,23.926,27.832,20.996,-30.273
1532215029.889,31.738,16.602,32.715,30.273,-91.309
1532215029.893,17.090,26.367,28.320,9.766,86.426
1532215029.897,0.488,35.645,25.879,-6.836,152.832
1532215029.901,0.000,30.762,26.367,-10.254,0.977
1532215029.905,5.859,27.344,24.414,-6.836,-101.074
1532215029.908,24.414,29.297,17.090,-0.488,14.160
1532215029.912,16.113,38.086,22.461,-2.441,143.555
1532215029.916,2.930,38.086,33.691,-8.301,41.504
1532215029.920,6.836,35.156,34.668,-6.348,-128.906
1532215029.924,8.301,35.645,31.738,-0.977,-59.082
1532215029.928,13.672,32.227,29.785,3.418,104.980
1532215029.932,18.066,29.297,31.250,2.930,87.891
1532215029.936,20.996,27.832,32.227,-3.906,-85.449
1532215029.940,21.484,29.297,30.762,2.441,-83.496
1532215029.944,9.766,26.855,26.367,1.465,118.652
1532215029.947,39.551,30.273,26.367,0.977,153.320
1532215029.951,40.039,29.297,28.809,7.812,-40.527
1532215029.955,9.277,24.902,31.738,7.812,-110.352
1532215029.959,19.531,25.879,29.297,12.207,74.707
1532215029.963,27.832,28.320,27.832,15.137,176.758
1532215029.967,30.762,34.180,27.832,9.766,32.715
1532215029.971,24.414,33.203,25.391,1.953,-96.680
1532215029.975,17.578,29.785,26.855,-6.348,4.395
1532215029.979,17.090,30.762,27.832,-3.906,137.207
1532215029.983,14.648,28.320,26.855,3.906,87.402
1532215029.987,9.766,27.344,30.273,0.000,-107.422
1532215029.990,8.789,31.250,32.227,9.766,-54.199
1532215029.994,20.508,25.879,30.762,14.648,133.301
1532215029.998,30.273,23.926,30.762,8.301,115.723
1532215030.002,30.273,29.785,32.227,3.418,-68.359
1532215030.006,17.578,34.180,26.855,1.953,-120.605
1532215030.010,12.695,37.109,22.461,6.348,84.961
1532215030.014,17.090,31.738,21.484,-0.977,143.555
1532215030.018,21.973,32.227,18.555,-12.695,-47.852
1532215030.022,33.203,36.133,19.043,-14.160,-126.953
1532215030.026,32.227,34.180,24.414,1.465,37.598
1532215030.030,36.621,28.320,31.738,14.160,163.574
1532215030.033,38.086,27.832,34.668,7.812,10.254
1532215030.037,21.973,29.297,33.203,7.812,-145.996
1532215030.041,15.137,25.879,34.180,16.113,-23.438
1532215030.045,20.996,29.785,33.691,13.672,164.062
1532215030.049,26.855,33.691,28.320,12.695,86.426
1532215030.053,24.902,25.879,27.832,7.812,-110.352
1532215030.057,32.227,21.973,23.438,-1.465,-56.641
1532215030.061,28.809,28.320,21.484,0.488,120.117
1532215030.065,17.578,31.250,28.320,6.348,128.906
1532215030.069,19.531,30.762,32.715,5.371,-46.875
1532215030.072,15.625,29.785,32.715,-0.977,-87.891
1532215030.076,26.855,29.297,26.367,-11.719,76.660
1532215030.080,37.109,27.344,23.926,-14.160,133.789
1532215030.084,22.461,29.297,24.902,-5.859,-14.648
1532215030.088,9.766,31.738,27.832,2.441,-101.074
1532215030.092,14.648,30.762,29.297,6.348,22.949
1532215030.096,19.043,29.297,20.996,2.930,134.277
1532215030.100,15.625,27.344,18.555,-5.859,52.734
1532215030.104,15.625,23.438,25.391,-3.418,-130.371
1532215030.108,22.461,20.996,29.785,0.977,-48.828
1532215030.112,12.207,22.461,25.391,-0.977,142.090
1532215030.115,8.301,23.438,25.879,0.977,50.293
1532215030.119,15.625,28.809,28.809,2.441,-143.066
1532215030.123,27.832,28.320,23.926,8.789,-72.266
1532215030.127,36.621,22.949,21.973,19.043,138.672
1532215030.131,24.902,31.250,23.438,21.484,125.977
1532215030.135,14.648,36.621,28.320,13.672,-92.773
1532215030.139,23.926,37.109,37.598,13.672,-145.508
1532215030.143,22.949,33.203,34.180,19.531,54.199
1532215030.147,19.043,28.320,28.320,17.578,161.133
1532215030.151,25.879,29.297,29.785,12.207,21.484
1532215030.154,34.668,31.250,32.227,4.395,-152.832
1532215030.158,20.020,26.855,33.203,4.883,-13.184
1532215030.162,8.789,29.297,34.668,17.578,170.898
1532215030.166,28.320,33.203,33.691,20.508,59.082
1532215030.170,31.738,27.832,29.297,18.555,-130.371
1532215030.174,21.973,24.902,29.785,15.625,-73.242
1532215030.178,34.668,26.855,25.391,18.066,127.930
1532215030.182,39.551,34.180,26.367,23.438,108.398
1532215030.186,16.602,38.574,35.156,10.254,-109.863
1532215030.190,0.000,31.738,35.156,-2.930,-72.754
1532215030.194,8.789,30.273,34.668,4.883,120.117
1532215030.197,19.531,32.227,34.668,5.859,130.371
1532215030.201,13.672,26.367,28.809,5.371,-45.898
1532215030.205,5.859,24.414,29.297,8.301,-125.000
1532215030.209,3.906,26.367,34.668,5.371,80.078
1532215030.213,14.648,23.438,32.227,-0.488,175.293
1532215030.217,29.297,22.949,29.785,1.953,-13.184
1532215030.221,25.391,26.855,31.738,7.324,-153.320
1532215030.225,6.836,25.879,35.156,7.812,-0.488
1532215030.229,18.066,26.367,36.133,13.184,141.602
1532215030.233,26.367,29.785,32.227,12.207,63.477
1532215030.237,5.371,29.297,28.320,2.930,-106.445
1532215030.240,12.695,29.785,27.344,-1.465,-32.715
1532215030.244,18.066,30.762,27.344,0.977,146.484
1532215030.248,5.859,25.879,33.691,-1.953,113.281
1532215030.252,6.836,28.809,37.598,-6.836,-67.383
1532215030.256,12.695,32.227,36.133,-11.719,-111.816
1532215030.260,15.137,29.297,34.180,-11.719,80.566
1532215030.264,10.742,29.297,28.320,-3.906,147.461
1532215030.268,28.320,26.367,34.180,1.953,-27.832
1532215030.272,27.832,20.020,41.992,1.953,-108.398
1532215030.276,12.207,24.902,38.086,0.000,54.688
1532215030.279,14.648,28.320,35.156,2.930,178.711
1532215030.283,8.789,29.785,36.133,6.348,62.988
1532215030.287,12.207,32.227,31.250,8.301,-111.328
1532215030.291,17.578,31.738,25.879,11.719,-8.301
1532215030.295,17.090,31.250,31.250,9.277,145.508
1532215030.299,34.668,24.902,35.156,3.418,80.566
1532215030.303,25.879,26.367,33.203,3.906,-65.430
1532215030.307,0.488,32.227,26.855,9.766,-28.320
1532215030.311,15.137,29.297,23.926,6.348,131.836
1532215030.315,11.230,25.879,27.344,4.883,117.676
1532215030.319,0.000,24.414,23.438,4.883,-75.195
1532215030.322,18.066,28.809,23.438,0.977,-121.582
1532215030.326,21.484,31.738,30.273,3.418,75.684
1532215030.330,12.695,27.832,32.227,2.441,164.551
1532215030.334,15.137,31.250,32.715,3.906,-16.113
1532215030.338,7.812,34.180,25.391,4.883,-124.023
1532215030.342,13.184,32.715,25.879,-3.418,44.922
1532215030.346,16.602,31.250,31.250,-3.418,171.875
1532215030.350,6.836,26.367,30.762,-2.930,57.129
1532215030.354,9.766,23.438,28.320,-5.859,-140.625
1532215030.358,3.906,21.973,24.902,-0.977,-79.590
1532215030.362,8.789,20.508,27.832,4.883,141.113
1532215030.365,16.113,24.414,32.227,1.953,130.859
1532215030.369,6.836,31.250,31.250,-4.883,-63.477
1532215030.373,4.883,32.715,30.762,-2.441,-82.031
1532215030.377,14.160,31.250,30.273,4.883,100.586
1532215030.381,12.207,30.762,30.273,9.277,125.488
1532215030.385,6.348,27.832,30.273,6.836,-71.777
1532215030.389,14.160,22.461,29.785,7.324,-102.051
1532215030.393,5.859,20.996,28.320,10.254,61.523
1532215030.397,2.930,19.043,25.391,2.441,111.816
1532215030.401,26.367,21.484,26.367,5.859,-13.672
1532215030.404,24.414,27.832,26.855,12.207,-101.074
1532215030.408,5.371,28.320,29.785,13.672,35.645
1532215030.412,-4.395,26.367,33.203,16.113,154.297
1532215030.416,15.625,20.996,34.180,7.324,71.289
1532215030.420,30.273,19.531,34.668,3.906,-98.145
1532215030.424,5.859,28.809,37.598,10.742,-41.016
1532215030.428,5.371,31.738,33.203,14.648,154.785
1532215030.432,11.230,28.320,25.391,8.789,131.348
1532215030.436,-1.465,24.902,27.344,0.000,-54.688
1532215030.440,0.000,21.484,29.785,7.324,-56.641
1532215030.444,9.277,23.438,27.832,10.742,108.398
1532215030.447,9.766,28.809,22.949,6.348,139.160
1532215030.451,23.438,25.391,26.367,0.488,-37.109
1532215030.455,24.902,21.973,32.715,-5.859,-134.277
1532215030.459,6.348,23.926,33.203,-0.488,34.668
1532215030.463,11.719,28.809,30.762,3.418,150.879
1532215030.467,6.348,27.832,24.414,0.000,29.297
1532215030.471,-4.883,22.461,24.414,2.441,-110.352
1532215030.475,8.789,20.508,25.391,4.395,9.277
1532215030.479,21.484,25.879,26.367,2.930,167.480
1532215030.483,13.672,26.855,27.344,5.859,53.223
1532215030.486,10.742,22.949,29.785,11.719,-120.117
1532215030.490,9.766,23.438,32.227,6.836,-43.945
1532215030.494,21.973,30.273,34.180,7.812,110.352
1532215030.498,25.879,30.762,30.273,4.883,69.824
1532215030.502,13.184,26.855,26.367,1.953,-70.312
1532215030.506,18.066,28.809,27.832,9.277,-55.664
1532215030.510,15.137,26.367,25.879,14.160,121.582
1532215030.514,11.719,19.531,24.902,12.207,153.320
1532215030.518,19.043,19.531,25.391,7.324,-52.246
1532215030.522,20.508,26.855,26.367,3.906,-127.441
1532215030.526,28.320,29.785,28.320,1.953,41.992
1532215030.529,30.762,29.297,29.297,2.930,160.156
1532215030.533,15.625,25.391,27.832,-0.977,11.230
1532215030.537,18.555,22.949,27.832,-0.977,-147.949
1532215030.541,16.602,31.738,26.367,10.254,20.996
1532215030.545,8.301,33.691,27.832,13.672,178.223
1532215030.549,24.414,30.762,29.785,12.207,100.586
1532215030.553,37.109,30.762,27.832,7.324,-99.609
1532215030.557,15.625,26.367,25.391,4.883,-58.594
1532215030.561,1.465,21.484,24.414,4.395,162.109
1532215030.565,8.789,25.391,25.879,-2.930,158.691
1532215030.569,13.672,29.785,24.902,-3.418,-38.574
1532215030.572,22.949,29.785,20.508,0.488,-80.566
1532215030.576,26.367,26.855,26.367,-3.418,94.238
1532215030.580,18.066,25.391,28.809,-2.930,137.695
1532215030.584,6.348,25.879,24.414,1.953,-22.949
1532215030.588,14.160,27.344,26.855,1.953,-105.957
1532215030.592,31.738,27.832,29.785,5.371,38.574
1532215030.596,21.484,26.855,22.949,6.836,148.926
1532215030.600,14.648,29.297,21.484,9.766,44.922
1532215030.604,24.414,29.297,27.344,4.883,-117.188
1532215030.608,28.320,24.414,26.367,-0.977,-18.066
1532215030.611,19.043,22.461,24.902,1.465,173.828
1532215030.615,10.742,25.391,24.414,5.859,107.422
1532215030.619,18.555,26.367,27.344,7.812,-81.055
1532215030.623,18.555,24.902,28.809,1.953,-37.598
1532215030.627,14.160,25.391,27.832,3.418,160.645
1532215030.631,32.715,32.227,29.297,11.719,166.504
1532215030.635,23.438,34.180,32.715,6.836,-56.641
1532215030.639,7.324,30.762,30.762,0.488,-117.676
1532215030.643,13.672,29.297,27.832,8.301,92.773
1532215030.647,15.625,23.438,25.879,12.207,193.359
1532215030.651,23.926,29.785,25.879,9.277,20.020
1532215030.654,20.020,35.156,29.785,7.812,-130.371
1532215030.658,19.043,34.668,34.668,11.719,-6.836
1532215030.662,13.672,38.086,34.668,3.906,173.340
1532215030.666,13.672,29.785,32.715,1.953,92.285
1532215030.670,19.531,25.879,35.645,12.207,-99.609
1532215030.674,12.207,36.621,39.062,15.625,-37.598
1532215030.678,3.418,35.645,37.109,6.348,117.676
1532215030.682,7.324,33.203,32.715,-0.488,94.727
1532215030.686,19.043,28.320,31.250,4.883,-57.129
1532215030.690,8.789,19.531,32.227,8.789,-45.410
1532215030.694,8.301,25.391,33.691,6.348,130.859
1532215030.697,11.719,26.855,34.180,11.230,145.020
1532215030.701,21.973,27.344,32.715,14.160,-12.207
1532215030.705,23.926,29.785,31.250,6.348,-83.008
1532215030.709,4.883,27.832,27.832,7.324,60.547
1532215030.713,4.395,32.715,26.855,5.859,166.504
1532215030.717,8.789,36.133,30.762,-4.883,30.273
1532215030.721,4.883,35.645,34.180,3.418,-94.727
1532215030.725,1.953,27.832,34.668,19.531,28.809
1532215030.729,12.207,24.902,33.691,16.602,165.039
1532215030.733,3.906,27.344,34.180,1.465,84.473
1532215030.736,7.812,26.855,36.621,7.812,-89.355
1532215030.740,20.508,27.344,35.645,22.461,-24.902
1532215030.744,12.695,26.367,28.809,11.230,158.691
1532215030.748,13.672,31.738,21.484,5.859,130.371
1532215030.752,21.973,36.621,21.973,12.207,-83.496
1532215030.756,19.531,34.180,27.832,9.277,-86.914
1532215030.760,20.996,31.738,27.344,4.883,115.234
1532215030.764,32.227,30.762,32.227,1.953,165.039
1532215030.768,32.715,27.344,36.621,1.953,2.441
1532215030.772,23.926,23.438,30.762,1.953,-75.684
1532215030.776,19.531,24.414,26.855,0.977,38.574
1532215030.779,7.812,26.367,30.273,7.812,136.719
1532215030.783,8.789,29.297,32.227,12.207,33.203
1532215030.787,14.160,26.855,35.156,21.484,-122.070
1532215030.791,10.742,22.949,35.645,31.250,-11.719
1532215030.795,1.953,32.227,29.785,20.020,164.062
1532215030.799,-2.930,38.086,27.832,16.113,91.309
1532215030.803,11.719,29.785,30.762,15.625,-75.684
1532215030.807,15.625,20.996,35.645,9.277,-38.086
1532215030.811,-5.859,26.367,38.086,7.812,130.859
1532215030.815,-1.953,28.320,33.691,12.695,123.535
1532215030.819,10.254,24.414,27.832,9.766,-68.359
1532215030.822,16.602,21.973,26.367,1.465,-73.730
1532215030.826,15.137,19.531,30.273,12.695,100.586
1532215030.830,25.391,22.461,32.227,13.184,150.391
1532215030.834,22.949,26.855,27.344,1.465,-7.324
1532215030.838,-1.465,30.273,31.738,5.371,-101.562
1532215030.842,6.836,24.902,32.715,12.207,62.012
1532215030.846,20.508,20.996,20.020,10.742,176.270
1532215030.850,11.719,30.762,18.066,4.883,60.547
1532215030.854,10.254,29.785,32.715,-0.977,-105.469
1532215030.858,27.344,30.273,36.133,2.930,-59.570
1532215030.861,21.484,32.227,29.785,2.930,125.488
1532215030.865,-1.465,28.320,32.227,1.953,124.023
1532215030.869,2.930,27.344,30.273,4.883,-52.734
1532215030.873,11.230,29.297,24.902,11.719,-67.871
1532215030.877,30.273,31.738,27.832,15.137,122.559
1532215030.881,40.039,32.715,29.785,12.207,144.531
1532215030.885,20.996,30.273,27.344,9.766,-55.664
1532215030.889,5.859,20.020,23.438,7.324,-81.543
1532215030.893,0.977,19.043,24.414,9.766,82.031
1532215030.897,7.812,28.809,27.344,5.859,152.344
1532215030.901,24.902,35.645,23.926,5.859,9.277
1532215030.904,36.621,37.109,24.414,15.137,-127.441
1532215030.908,24.414,32.227,29.297,21.484,7.812
1532215030.912,7.812,23.926,30.762,17.090,148.926
1532215030.916,14.160,26.855,34.668,4.883,10.254
1532215030.920,24.414,29.297,36.133,3.418,-132.324
1532215030.924,24.414,27.344,34.668,16.113,-3.906
1532215030.928,18.066,27.832,27.832,13.184,162.598
1532215030.932,18.555,28.809,21.484,11.230,126.953
1532215030.936,27.344,27.344,30.762,19.531,-44.922
1532215030.940,17.090,24.414,32.715,17.578,-43.945
1532215030.943,11.719,25.879,26.367,10.742,104.980
1532215030.947,15.625,31.250,26.855,11.719,134.766
1532215030.951,4.395,30.762,34.180,16.113,-20.508
1532215030.955,20.020,22.949,39.551,22.949,-125.488
1532215030.959,35.156,22.949,36.133,18.555,27.344
1532215030.963,16.602,32.715,27.832,9.766,135.742
1532215030.967,5.371,33.203,25.879,3.906,-15.137
1532215030.971,3.418,30.762,21.973,-7.812,-111.328
1532215030.975,13.184,32.227,15.625,-9.766,12.207
1532215030.979,13.184,26.367,22.461,-8.301,142.578
1532215030.983,7.324,26.367,27.832,-13.184,79.102
1532215030.986,27.832,31.250,25.391,-5.371,-92.773
1532215030.990,20.020,24.902,20.996,3.418,-75.684
1532215030.994,4.395,28.809,21.484,0.488,110.352
1532215030.998,23.438,41.016,26.367,2.441,96.191
1532215031.002,21.973,36.621,29.297,5.859,-91.309
1532215031.006,17.090,32.715,30.273,16.113,-92.285
1532215031.010,20.508,33.691,28.320,19.531,100.586
1532215031.014,19.043,33.691,26.367,2.441,119.629
1532215031.018,21.484,33.691,25.391,1.465,-77.637
1532215031.022,28.320,30.273,26.855,8.789,-117.676
1532215031.026,26.367,28.809,26.855,6.348,59.570
1532215031.029,28.320,33.691,27.344,14.160,173.340
1532215031.033,35.156,35.645,29.785,8.789,41.016
1532215031.037,29.297,29.785,30.762,0.488,-131.836
1532215031.041,26.367,23.438,28.809,6.836,-23.438
1532215031.045,15.137,22.461,28.320,10.742,140.625
1532215031.049,10.254,31.250,32.715,7.812,78.125
1532215031.053,15.137,39.551,29.785,5.371,-110.840
1532215031.057,9.766,38.086,23.926,2.441,-82.031
1532215031.061,22.461,34.180,25.879,-0.977,137.695
1532215031.065,44.922,30.273,25.879,4.883,117.676
1532215031.068,19.531,27.344,27.832,3.418,-75.684
1532215031.072,6.836,29.785,32.227,-0.488,-104.492
1532215031.076,25.879,27.832,26.855,-2.930,91.797
1532215031.080,25.879,34.180,21.973,-1.953,183.594
1532215031.084,22.461,41.992,26.855,-0.977,-4.395
1532215031.088,14.160,37.109,24.902,-1.465,-126.953
1532215031.092,0.977,36.621,23.438,-6.836,35.156
1532215031.096,2.930,37.598,27.832,-12.207,110.840
1532215031.100,10.742,31.250,26.367,-7.324,-12.207
1532215031.104,16.602,23.926,31.250,0.977,-139.648
1532215031.108,19.043,18.066,37.598,7.812,-40.039
1532215031.111,7.324,18.555,37.598,6.836,148.438
1532215031.115,6.348,25.879,33.203,4.395,85.449
1532215031.119,1.465,31.250,28.320,6.348,-79.102
1532215031.123,9.766,33.691,28.320,3.418,-48.828
1532215031.127,17.090,31.250,31.250,2.441,123.047
1532215031.131,9.766,24.414,30.273,-2.930,137.207
1532215031.135,17.578,27.344,27.832,-8.789,-59.082
1532215031.139,13.672,32.715,25.879,-6.836,-110.840
1532215031.143,1.465,29.297,24.902,-6.348,74.707
1532215031.147,-4.395,31.250,26.855,-13.184,158.691
1532215031.151,11.230,37.109,31.250,-17.090,21.484
1532215031.154,21.973,35.156,37.109,-19.531,-94.238
1532215031.158,10.254,30.762,35.645,-16.602,29.785
1532215031.162,-0.977,24.414,31.738,-11.230,193.848
1532215031.166,-2.930,22.949,31.738,-8.301,83.496
1532215031.170,0.488,28.809,32.227,-2.441,-94.238
1532215031.174,6.348,28.809,30.273,-0.488,-7.324
1532215031.178,4.395,32.227,31.738,5.859,145.996
1532215031.182,5.371,31.738,33.203,9.277,83.984
1532215031.186,18.066,21.484,36.133,1.465,-95.215
1532215031.190,7.812,20.996,33.691,9.277,-85.449
1532215031.193,0.977,29.785,25.879,15.625,83.008
1532215031.197,17.090,31.738,24.902,2.930,126.953
1532215031.201,16.113,30.762,23.926,1.953,-44.922
1532215031.205,16.113,26.855,28.809,7.812,-131.836
1532215031.209,14.648,21.973,32.715,8.301,70.312
1532215031.213,17.090,25.879,27.344,3.418,166.992
1532215031.217,29.785,31.738,23.438,-0.977,17.578
1532215031.221,19.531,33.203,26.855,-3.418,-96.191
1532215031.225,0.488,29.297,30.762,0.488,8.789
1532215031.229,9.277,25.391,30.762,0.488,147.949
1532215031.233,29.297,27.832,29.785,-3.418,51.270
1532215031.236,15.137,24.414,27.344,0.000,-118.164
1532215031.240,14.160,21.484,23.438,8.789,-25.879
1532215031.244,27.344,27.832,19.531,6.348,148.438
1532215031.248,8.789,27.344,25.879,2.441,137.695
1532215031.252,4.395,26.855,33.691,9.766,-54.199
1532215031.256,7.812,30.273,28.809,10.254,-105.957
1532215031.260,8.789,33.691,29.785,10.254,46.387
1532215031.264,10.742,41.016,34.668,7.324,63.477
1532215031.268,0.488,36.133,30.762,-0.977,-57.617
1532215031.272,13.184,30.762,29.297,-0.488,-90.820
1532215031.275,8.789,31.738,27.832,2.441,40.527
1532215031.279,-2.930,26.855,26.367,5.859,129.883
1532215031.283,8.789,20.996,28.809,0.977,12.207
1532215031.287,10.742,21.973,30.273,2.441,-118.652
1532215031.291,19.043,28.809,32.227,13.672,-12.695
1532215031.295,11.230,33.203,27.832,4.395,116.211
1532215031.299,5.859,31.738,24.902,-3.906,63.477
1532215031.303,14.648,32.715,26.855,2.930,-94.727
1532215031.307,27.832,38.086,29.785,9.277,-43.457
1532215031.311,33.691,33.203,30.273,10.742,155.273
1532215031.315,25.391,28.320,26.367,8.301,142.578
1532215031.318,13.184,31.738,21.973,8.301,-65.430
1532215031.322,2.441,37.109,23.926,12.695,-75.684
1532215031.326,13.672,37.109,29.785,7.812,109.375
1532215031.330,30.273,29.785,30.273,6.836,161.133
1532215031.334,28.809,30.762,25.391,8.301,4.883
1532215031.338,11.719,33.203,26.855,0.977,-130.371
1532215031.342,14.160,27.344,29.297,5.859,34.180
1532215031.346,33.691,26.367,29.297,15.625,177.246
1532215031.350,29.297,34.180,33.203,16.602,65.918
1532215031.354,20.020,37.598,24.902,9.766,-85.449
1532215031.358,15.625,39.062,17.578,8.789,-2.930
1532215031.361,15.625,35.645,28.320,9.277,147.461
1532215031.365,21.484,30.762,33.203,7.812,80.078
1532215031.369,36.621,32.227,29.785,11.719,-83.984
1532215031.373,32.715,32.715,27.832,12.207,-61.035
1532215031.377,17.090,36.133,26.855,7.324,97.168
1532215031.381,23.926,35.645,26.855,8.789,128.418
1532215031.385,21.484,35.645,28.320,9.277,-34.180
1532215031.389,9.766,37.598,25.879,4.883,-71.777
1532215031.393,8.301,36.621,25.391,0.977,73.242
1532215031.397,10.254,35.156,29.785,-2.441,137.695
1532215031.400,6.348,32.227,30.273,1.953,0.000
1532215031.404,11.719,31.738,25.879,6.836,-130.371
1532215031.408,20.020,28.320,20.508,0.000,18.555
1532215031.412,21.484,29.297,23.926,-7.324,158.691
1532215031.416,14.648,37.109,26.855,-9.766,58.594
1532215031.420,19.043,37.598,27.832,-3.418,-104.980
1532215031.424,21.484,33.691,31.250,11.230,-23.926
1532215031.428,18.555,33.203,29.297,11.230,144.531
1532215031.432,18.555,38.574,30.273,8.301,100.586
1532215031.436,23.438,36.621,30.273,4.883,-98.633
1532215031.440,23.926,35.156,27.344,4.395,-70.312
1532215031.443,6.348,33.203,32.715,10.742,131.836
1532215031.447,1.953,31.738,36.621,8.789,149.414
1532215031.451,7.324,31.250,31.738,6.348,-18.555
1532215031.455,0.000,22.949,31.250,6.836,-119.629
1532215031.459,-1.953,19.531,30.762,8.789,43.457
1532215031.463,7.812,28.809,30.273,8.789,150.879
1532215031.467,16.602,32.227,29.297,5.371,0.977
1532215031.471,14.648,29.785,23.926,10.254,-98.145
1532215031.475,17.578,33.691,29.297,10.742,5.371
1532215031.479,13.184,35.156,32.715,1.953,147.461
1532215031.483,8.301,28.809,28.809,8.301,74.219
1532215031.486,20.020,25.391,33.203,13.184,-89.355
1532215031.490,14.648,27.832,34.180,11.719,-8.789
1532215031.494,5.859,30.762,27.344,11.719,147.949
1532215031.498,11.719,29.785,25.879,11.230,123.535
1532215031.502,16.113,26.367,25.391,8.789,-52.246
1532215031.506,26.855,25.879,19.531,7.324,-69.336
1532215031.510,19.043,31.250,23.438,7.324,103.516
1532215031.514,0.488,33.691,32.715,2.930,134.766
1532215031.518,8.789,33.691,33.691,-0.977,-65.430
1532215031.522,11.719,30.762,28.809,0.488,-119.629
1532215031.525,0.977,26.855,26.855,9.766,53.223
1532215031.529,6.836,31.250,27.832,21.973,154.785
1532215031.533,11.230,34.180,30.273,15.625,33.691
1532215031.537,-0.488,32.227,29.297,12.695,-135.254
1532215031.541,0.488,28.809,26.855,11.719,-26.367
1532215031.545,7.812,25.879,30.273,3.418,162.598
1532215031.549,6.348,28.320,31.250,1.953,80.078
1532215031.553,8.789,29.785,26.855,5.371,-111.816
1532215031.557,6.348,28.320,24.414,3.418,-55.664
1532215031.561,7.324,28.320,27.832,-0.488,147.949
1532215031.565,7.324,32.715,27.832,6.836,134.766
1532215031.568,5.859,32.227,24.414,4.395,-50.293
1532215031.572,0.488,27.832,22.949,-3.906,-98.145
1532215031.576,-3.418,32.715,26.367,0.488,73.242
1532215031.580,0.977,29.785,23.926,1.953,146.484
1532215031.584,3.906,27.832,21.484,-4.883,-14.160
1532215031.588,20.996,33.203,25.391,2.930,-104.004
1532215031.592,22.461,32.227,27.832,2.441,81.543
1532215031.596,17.578,20.996,24.902,-11.230,165.039
1532215031.600,30.273,23.438,25.879,-5.859,3.418
1532215031.604,14.160,33.203,29.785,8.301,-108.887
1532215031.608,-7.812,33.691,32.227,5.859,-18.555
1532215031.611,7.812,33.691,28.809,7.324,159.180
1532215031.615,22.461,37.109,27.344,-4.395,83.008
1532215031.619,12.207,37.109,31.250,-10.254,-128.418
1532215031.623,5.859,34.668,26.367,12.695,-75.195
1532215031.627,13.672,31.738,25.879,12.207,141.113
1532215031.631,4.395,25.391,32.715,6.836,167.480
1532215031.635,-6.348,27.344,31.250,9.277,-27.344
1532215031.639,4.395,25.391,31.738,5.371,-90.820
1532215031.643,7.324,21.484,34.668,5.859,79.102
1532215031.647,2.930,32.715,35.645,14.648,131.836
1532215031.650,13.672,35.645,31.738,10.742,-29.297
1532215031.654,26.855,32.715,28.320,-7.324,-117.188
1532215031.658,28.320,32.715,32.227,-0.488,34.668
1532215031.662,19.531,32.227,28.809,14.160,154.785
1532215031.666,15.137,37.109,20.996,14.160,38.086
1532215031.670,27.344,39.062,21.484,8.789,-113.281
1532215031.674,38.086,35.156,23.438,-4.395,-38.086
1532215031.678,37.109,35.645,24.902,-6.836,138.672
1532215031.682,39.062,35.156,27.344,-0.488,86.426
1532215031.686,27.344,34.180,27.832,1.953,-90.332
1532215031.690,14.160,30.273,25.879,8.301,-58.105
1532215031.693,-0.488,26.855,24.902,12.695,118.652
1532215031.697,-2.441,36.621,26.855,13.672,125.488
1532215031.701,5.859,36.621,27.344,15.625,-41.504
1532215031.705,16.113,31.738,24.902,13.184,-93.750
1532215031.709,9.766,32.227,27.832,18.066,64.941
1532215031.713,-11.230,28.809,32.227,17.090,141.602
1532215031.717,-11.719,27.832,29.297,-0.488,3.906
1532215031.721,4.883,28.320,25.391,0.488,-108.887
1532215031.725,12.207,24.902,23.926,6.348,19.531
1532215031.729,12.695,27.344,22.949,6.836,166.016
1532215031.732,23.926,27.832,27.832,8.301,71.777
1532215031.736,23.438,29.297,28.809,-2.441,-132.812
1532215031.740,12.207,37.109,23.926,-1.465,-81.543
1532215031.744,15.625,39.062,21.484,3.418,112.793
1532215031.748,14.648,38.086,23.926,0.977,78.613
1532215031.752,9.766,31.250,23.438,-1.465,-67.871
1532215031.756,9.766,24.414,28.320,-1.953,-62.500
1532215031.760,10.742,20.996,31.738,0.977,94.727
1532215031.764,4.395,26.367,23.438,0.488,130.859
1532215031.768,3.418,32.227,20.996,0.000,-26.855
1532215031.772,14.648,29.297,22.949,6.348,-102.539
1532215031.775,23.438,29.297,24.414,16.113,65.430
1532215031.779,24.414,37.109,26.367,12.695,168.945
1532215031.783,9.766,38.086,28.320,4.883,24.902
1532215031.787,10.742,36.621,22.461,5.859,-107.910
1532215031.791,25.879,41.016,25.391,17.090,22.949
1532215031.795,17.090,37.109,29.297,13.184,145.996
1532215031.799,6.836,30.762,23.926,5.371,31.250
1532215031.803,25.879,28.809,27.832,22.949,-111.816
1532215031.807,26.855,31.738,30.273,17.578,-43.945
1532215031.811,3.418,41.504,28.320,0.000,147.461
1532215031.815,-3.418,41.504,25.879,-4.395,134.277
1532215031.818,0.488,28.809,20.020,-11.719,-23.926
1532215031.822,17.578,30.273,15.625,-11.719,-48.828
1532215031.826,8.301,38.574,18.066,-10.742,93.262
1532215031.830,-5.859,40.527,24.414,-5.859,152.832
1532215031.834,7.812,40.039,30.273,6.836,-0.488
1532215031.838,10.254,36.621,28.320,9.766,-134.766
1532215031.842,11.230,33.203,27.832,14.160,20.020
1532215031.846,21.973,32.227,30.762,9.766,160.156
1532215031.850,23.926,30.762,24.414,4.395,15.137
1532215031.854,21.973,29.785,22.949,10.254,-140.137
1532215031.857,20.508,30.273,27.832,4.883,-34.668
1532215031.861,13.184,31.250,27.832,10.742,138.672
1532215031.865,13.184,30.273,23.926,8.301,71.777
1532215031.869,18.066,33.203,27.344,4.883,-108.887
1532215031.873,12.207,38.574,31.738,12.695,-58.105
1532215031.877,15.625,35.645,28.320,5.859,133.301
1532215031.881,17.090,31.250,28.809,5.371,151.855
1532215031.885,20.508,33.691,31.250,4.395,-28.809
1532215031.889,25.391,28.320,28.320,4.395,-79.102
1532215031.893,12.695,24.414,26.367,3.906,82.520
1532215031.897,13.184,24.902,28.320,-0.488,131.348
1532215031.900,21.973,22.461,27.832,3.418,-12.695
1532215031.904,21.973,30.273,24.414,6.836,-90.820
1532215031.908,10.742,40.039,26.367,10.254,55.664
1532215031.912,-4.395,38.574,27.344,12.207,176.270
1532215031.916,13.672,35.156,26.367,3.906,56.641
1532215031.920,34.180,33.203,27.832,-0.488,-107.910
1532215031.924,20.508,26.855,28.320,2.930,-26.367
1532215031.928,6.836,22.461,29.785,0.000,142.578
1532215031.932,28.320,30.762,25.879,-0.488,120.605
1532215031.936,32.715,39.551,25.391,-1.953,-62.500
1532215031.940,13.672,36.133,27.344,-0.977,-86.426
1532215031.943,12.695,32.227,27.832,1.465,121.582
1532215031.947,17.578,30.273,32.715,3.906,147.461
1532215031.951,14.648,28.809,32.715,9.766,-66.895
1532215031.955,11.719,25.879,26.367,5.859,-109.375
1532215031.959,18.555,26.367,23.926,1.953,94.238
1532215031.963,20.508,34.180,30.762,1.953,169.434
1532215031.967,19.531,36.133,33.691,1.465,18.555
1532215031.971,20.508,29.297,29.297,-0.977,-96.680
1532215031.975,8.301,30.762,30.273,4.883,10.742
1532215031.979,3.418,29.297,30.762,8.789,150.879
1532215031.982,16.602,28.320,26.855,11.230,73.730
1532215031.986,14.160,30.273,25.879,9.766,-90.332
1532215031.990,4.883,31.250,24.902,9.277,-26.855
1532215031.994,20.020,38.086,30.273,13.184,125.488
1532215031.998,18.066,34.668,35.156,4.883,52.734
1532215032.002,6.836,32.227,33.203,3.418,-93.750
1532215032.006,21.484,34.668,30.762,5.859,-51.758
1532215032.010,21.973,29.785,34.668,7.812,114.746
1532215032.014,19.043,24.414,36.133,8.789,123.047
1532215032.018,11.719,27.344,30.762,6.836,-36.133
1532215032.022,14.648,34.180,30.273,10.742,-68.848
1532215032.025,21.484,34.668,30.273,13.672,78.613
1532215032.029,13.184,30.273,28.809,13.672,173.828
1532215032.033,16.602,32.715,29.785,9.766,21.973
1532215032.037,15.625,32.715,27.344,0.977,-145.020
1532215032.041,24.902,39.062,22.949,-0.488,-4.395
1532215032.045,26.367,43.457,20.996,0.000,156.738
1532215032.049,17.090,39.551,24.414,-2.930,54.199
1532215032.053,14.648,35.156,29.297,-4.883,-124.512
1532215032.057,6.836,29.297,28.320,-0.488,-51.270
1532215032.061,12.207,32.715,25.879,6.836,129.395
1532215032.064,12.207,35.156,27.832,7.812,132.324
1532215032.068,2.441,32.227,28.320,2.441,-37.598
1532215032.072,17.578,31.250,25.879,0.488,-95.215
1532215032.076,25.391,29.785,32.227,8.789,76.660
1532215032.080,8.301,28.320,33.691,2.441,129.395
1532215032.084,0.000,27.344,28.320,-5.371,-28.320
1532215032.088,5.859,23.438,31.250,2.441,-117.676
1532215032.092,6.348,22.949,33.203,7.812,32.715
1532215032.096,5.371,25.391,32.715,2.930,143.555
1532215032.100,8.789,29.785,30.762,-1.465,3.418
1532215032.104,4.395,37.598,27.344,2.930,-113.281
1532215032.107,4.395,37.598,28.809,7.324,27.344
1532215032.111,3.906,30.762,33.691,7.324,154.297
1532215032.115,5.859,25.879,32.715,9.766,60.547
1532215032.119,21.484,25.879,28.320,12.207,-98.145
1532215032.123,31.250,26.367,23.438,12.207,-24.414
1532215032.127,7.812,31.738,20.508,11.230,136.230
1532215032.131,2.441,33.691,22.949,7.812,120.117
1532215032.135,18.555,33.691,29.297,0.977,-55.176
1532215032.139,21.484,34.668,32.227,0.977,-94.727
1532215032.143,20.020,31.738,27.832,4.883,97.168
1532215032.147,17.578,36.621,26.855,1.953,162.109
1532215032.150,9.766,35.156,28.809,-1.465,0.977
1532215032.154,13.672,33.203,33.691,5.859,-106.934
1532215032.158,10.742,34.180,30.762,4.883,57.617
1532215032.162,1.465,27.832,28.320,-0.488,184.082
1532215032.166,4.883,28.809,28.320,9.766,44.922
1532215032.170,5.371,33.691,24.414,10.742,-94.727
1532215032.174,3.906,39.062,25.391,-5.371,-9.766
1532215032.178,10.254,29.785,26.367,-5.371,137.695
1532215032.182,23.926,24.414,28.809,9.766,103.027
1532215032.186,8.789,41.504,30.273,11.230,-77.148
1532215032.189,-6.348,44.434,29.297,10.742,-60.547
1532215032.193,10.742,38.086,27.832,9.766,130.371
1532215032.197,25.879,35.645,26.367,4.395,143.066
1532215032.201,14.648,33.203,25.391,4.395,-35.645
1532215032.205,8.301,31.738,23.926,6.348,-91.797
1532215032.209,10.254,26.855,23.926,5.859,87.402
1532215032.213,9.766,26.855,25.879,4.395,173.340
1532215032.217,8.301,33.203,25.391,1.465,3.906
1532215032.221,0.977,32.715,23.926,0.000,-107.422
1532215032.225,7.324,22.949,23.926,-5.859,28.320
1532215032.229,22.461,26.367,26.367,2.930,160.156
1532215032.232,12.695,35.156,25.879,10.254,69.336
1532215032.236,0.977,39.062,19.531,4.395,-115.234
1532215032.240,20.020,41.504,21.484,7.324,-42.480
1532215032.244,6.348,33.691,29.297,4.883,144.531
1532215032.248,-9.277,28.320,29.785,1.953,121.094
1532215032.252,7.324,25.391,26.367,6.348,-82.520
1532215032.256,27.832,22.461,29.297,13.672,-67.383
1532215032.260,27.832,23.438,35.645,17.578,152.832
1532215032.264,14.648,31.738,28.809,16.113,158.691
1532215032.268,24.902,38.086,28.320,18.066,-23.438
1532215032.272,27.344,34.180,30.273,20.508,-85.938
1532215032.275,10.742,30.273,26.855,15.137,50.293
1532215032.279,20.020,23.438,31.738,7.324,136.719
1532215032.283,34.668,22.949,36.133,15.625,17.090
1532215032.287,35.645,32.227,33.203,18.066,-95.703
1532215032.291,33.691,32.715,29.785,17.578,33.691
1532215032.295,31.738,33.691,29.785,20.020,184.570
1532215032.299,26.855,32.715,31.738,20.020,93.262
1532215032.303,14.160,30.273,34.180,16.113,-63.965
1532215032.307,13.672,26.855,29.785,13.672,-0.977
1532215032.311,28.320,19.043,25.391,16.602,166.504
1532215032.314,30.273,22.949,27.344,9.277,112.305
1532215032.318,22.461,34.180,29.297,2.441,-85.938
1532215032.322,13.672,32.715,28.809,12.207,-68.359
1532215032.326,10.254,29.785,28.320,17.578,106.934
1532215032.330,25.879,32.227,30.762,17.090,156.250
1532215032.334,37.598,35.645,34.180,20.020,-45.410
1532215032.338,43.457,36.133,33.203,18.066,-139.648
1532215032.342,34.180,33.691,30.273,25.391,47.363
1532215032.346,28.320,27.344,33.203,30.273,164.551
1532215032.350,31.250,25.391,33.203,31.250,49.805
1532215032.354,27.344,29.785,30.762,26.855,-134.277
1532215032.357,27.832,30.762,30.762,12.695,-25.391
1532215032.361,34.180,34.668,36.133,14.648,155.762
1532215032.365,25.391,36.133,37.598,21.973,87.891
1532215032.369,16.602,33.691,34.668,18.066,-94.238
1532215032.373,2.930,31.250,31.250,7.812,-71.289
1532215032.377,0.000,32.715,30.273,9.277,120.117
1532215032.381,20.020,33.203,31.738,16.113,146.973
1532215032.385,27.344,24.902,27.832,13.672,-49.805
1532215032.389,18.066,27.344,26.367,16.113,-84.961
1532215032.393,20.996,37.109,30.273,15.625,121.094
1532215032.397,27.832,33.691,34.180,7.812,184.570
1532215032.400,19.043,27.832,32.227,9.766,-1.953
1532215032.404,17.578,29.785,30.273,19.043,-108.887
1532215032.408,20.996,30.762,32.227,21.484,42.969
1532215032.412,22.949,23.438,36.621,20.508,158.203
1532215032.416,25.391,23.926,35.156,12.695,46.875
1532215032.420,20.508,30.273,34.668,3.418,-93.262
1532215032.424,14.648,33.203,30.762,0.977,0.000
1532215032.428,19.043,34.180,26.367,-0.488,161.621
1532215032.432,16.113,35.645,28.809,4.883,91.797
1532215032.436,12.695,38.086,29.297,7.812,-85.938
1532215032.439,18.555,36.621,25.879,7.812,-45.410
1532215032.443,8.789,34.180,24.414,7.324,107.422
1532215032.447,10.254,31.250,27.344,7.324,132.324
1532215032.451,14.648,24.414,27.832,1.953,-17.090
1532215032.455,14.160,30.762,27.344,0.488,-100.098
1532215032.459,16.602,37.598,29.297,0.488,48.828
1532215032.463,16.602,27.344,30.762,5.859,162.598
1532215032.467,17.090,29.297,29.785,8.789,40.039
1532215032.471,16.602,37.109,28.320,5.371,-107.422
1532215032.475,20.508,36.133,25.391,7.324,22.461
1532215032.479,16.113,32.715,23.926,7.812,164.551
1532215032.482,7.324,28.809,26.855,0.000,65.918
1532215032.486,17.578,29.785,28.809,0.488,-89.355
1532215032.490,25.391,33.691,25.391,0.000,-46.387
1532215032.494,15.137,33.203,26.367,-2.441,124.023
1532215032.498,1.465,19.531,38.574,10.254,111.328
1532215032.502,13.184,18.555,38.574,19.043,-79.590
1532215032.506,20.020,37.109,24.902,0.977,-86.426
1532215032.510,-0.977,46.875,20.508,-17.578,112.305
1532215032.514,-7.812,48.340,18.066,-19.043,151.367
1532215032.518,-5.371,43.457,14.648,-23.926,-56.152
1532215032.521,-4.395,37.109,20.508,-22.949,-107.910
1532215032.525,-0.977,41.016,21.973,-12.207,69.336
1532215032.529,-11.230,43.945,18.555,-17.090,168.945
1532215032.533,-5.371,40.527,20.020,-19.043,49.805
1532215032.537,10.254,38.086,17.578,-11.719,-83.984
1532215032.541,3.906,40.527,15.137,-10.254,23.926
1532215032.545,8.301,40.527,19.043,-9.277,170.898
1532215032.549,9.277,36.621,23.438,-5.371,126.953
1532215032.553,-2.930,30.273,26.367,-3.906,-63.965
1532215032.557,8.789,28.809,25.879,-6.348,-47.852
1532215032.561,6.836,31.250,25.391,-5.371,145.508
1532215032.564,-2.441,37.598,25.879,-6.348,117.188
1532215032.568,6.348,41.504,23.926,-3.906,-80.566
1532215032.572,7.324,38.574,19.043,0.977,-106.445
1532215032.576,-1.953,38.574,23.438,1.465,63.477
1532215032.580,0.977,37.598,21.484,5.371,160.156
1532215032.584,2.930,32.227,18.066,15.625,0.000
1532215032.588,-2.441,32.227,26.855,12.695,-113.281
1532215032.592,6.348,32.715,32.715,3.418,43.945
1532215032.596,10.254,30.273,34.180,-1.465,160.645
1532215032.600,16.602,31.738,31.250,-3.906,19.531
1532215032.604,15.137,34.668,26.855,-2.441,-126.953
1532215032.607,22.461,32.227,24.902,0.977,-17.090
1532215032.611,31.738,34.180,24.902,0.488,158.203
1532215032.615,10.742,39.062,26.367,-0.488,98.145
1532215032.619,20.508,41.504,25.879,4.395,-115.723
1532215032.623,37.598,40.527,20.508,9.277,-91.309
1532215032.627,33.691,38.574,18.066,6.836,113.770
1532215032.631,27.344,39.062,21.484,2.441,136.230
1532215032.635,27.832,38.574,28.809,-1.953,-68.848
1532215032.639,20.508,36.621,29.297,-1.465,-111.816
1532215032.643,14.160,33.691,20.996,12.207,97.168
1532215032.646,4.395,29.297,26.367,23.926,187.500
1532215032.650,-4.883,28.320,37.109,21.973,25.391
1532215032.654,-10.254,32.715,37.109,14.160,-83.984
1532215032.658,3.906,30.273,31.738,12.695,62.988
1532215032.662,20.996,29.785,30.762,13.184,150.391
1532215032.666,6.836,32.715,30.273,7.812,34.668
1532215032.670,-0.488,36.621,28.809,5.371,-89.844
1532215032.674,9.277,40.039,26.855,7.324,5.859
1532215032.678,24.902,38.574,22.461,5.859,155.762
1532215032.682,23.438,36.133,20.996,0.000,102.539
1532215032.686,18.066,35.156,26.855,-2.930,-71.777
1532215032.689,16.113,32.227,30.762,-3.418,-48.340
1532215032.693,12.695,30.273,29.297,-5.371,117.676
1532215032.697,12.695,35.156,25.391,-6.348,119.629
1532215032.701,21.973,38.574,24.414,7.324,-62.988
1532215032.705,36.621,28.809,24.414,11.719,-111.328
1532215032.709,25.879,30.273,21.484,7.812,78.125
1532215032.713,15.137,40.527,23.926,10.254,163.086
1532215032.717,28.320,36.133,23.926,0.488,7.812
1532215032.721,26.855,33.691,26.367,-2.930,-97.656
1532215032.725,12.695,35.645,29.297,-0.977,30.273
1532215032.729,9.277,33.203,25.391,-1.465,168.945
1532215032.732,18.066,31.250,24.414,-2.441,50.781
1532215032.736,17.090,31.738,26.367,-7.324,-151.367
1532215032.740,13.672,30.762,27.344,-2.441,-59.570
1532215032.744,10.742,29.785,26.367,1.465,146.973
1532215032.748,19.043,29.785,27.832,2.441,101.562
1532215032.752,22.461,28.809,26.367,2.930,-88.867
1532215032.756,15.137,24.414,21.973,4.395,-91.797
1532215032.760,17.578,21.973,24.902,6.836,91.309
1532215032.764,23.438,24.902,32.715,6.348,109.863
1532215032.768,26.367,34.180,31.738,7.812,-72.266
1532215032.771,20.996,37.598,23.926,4.395,-107.422
1532215032.775,14.160,35.156,22.949,4.883,56.152
1532215032.779,9.277,32.715,24.414,1.953,136.719
1532215032.783,5.859,30.273,24.414,-1.465,12.207
1532215032.787,-0.488,29.297,23.438,0.000,-132.324
1532215032.791,10.254,29.297,26.367,5.371,1.953
1532215032.795,22.949,28.809,32.715,1.465,162.109
1532215032.799,18.555,30.762,32.227,-10.742,55.176
1532215032.803,7.812,36.133,27.832,0.000,-97.656
1532215032.807,8.301,37.109,26.367,-1.953,-25.879
1532215032.811,11.719,33.691,25.879,-4.395,133.789
1532215032.814,9.277,31.738,27.832,4.395,100.098
1532215032.818,21.973,36.621,26.855,0.977,-64.453
1532215032.822,16.113,35.645,24.902,1.953,-74.219
1532215032.826,-2.930,31.738,25.391,4.883,106.445
1532215032.830,4.395,36.133,27.344,12.695,176.758
1532215032.834,20.508,38.574,27.832,9.766,-12.695
1532215032.838,18.066,33.203,28.320,-2.930,-101.074
1532215032.842,16.113,31.250,30.273,2.930,66.895
1532215032.846,24.414,33.203,30.273,11.230,152.832
1532215032.850,21.484,27.832,29.297,15.137,19.043
1532215032.854,26.367,30.762,29.297,3.418,-126.953
1532215032.857,15.625,41.016,24.902,-5.859,-12.695
1532215032.861,4.395,42.480,22.949,-1.465,149.902
1532215032.865,5.859,42.480,23.926,-7.812,74.219
1532215032.869,-0.977,39.551,20.508,-18.066,-107.910
1532215032.873,6.836,35.156,20.020,-20.996,-68.848
1532215032.877,13.672,34.668,17.578,-17.090,111.328
1532215032.881,19.043,36.133,17.090,-6.836,103.516
1532215032.885,19.043,33.691,23.926,-8.301,-41.016
1532215032.889,0.488,31.738,25.391,-11.719,-45.410
1532215032.893,-7.812,34.180,19.531,-7.324,87.402
1532215032.896,-0.977,26.855,19.531,-9.766,148.926
1532215032.900,2.930,22.949,26.367,-9.766,25.391
1532215032.904,8.301,30.273,23.926,-8.301,-91.797
1532215032.908,11.230,31.250,22.949,-7.812,49.805
1532215032.912,4.883,30.762,26.367,-9.766,178.223
1532215032.916,8.789,31.250,26.855,-15.137,51.758
1532215032.920,14.160,28.320,27.344,-8.301,-97.656
1532215032.924,6.348,26.855,25.879,-4.883,-17.578
1532215032.928,3.418,31.250,24.902,-5.371,152.832
1532215032.932,9.766,29.297,20.508,-2.930,104.492
1532215032.936,12.207,26.367,16.113,-14.648,-128.418
1532215032.939,8.301,31.250,14.648,-14.648,-113.281
1532215032.943,1.953,29.297,19.043,1.465,90.332
1532215032.947,0.977,28.809,21.973,4.395,101.562
1532215032.951,5.859,32.227,21.484,6.836,-36.133
1532215032.955,18.555,33.203,21.484,3.418,-94.727
1532215032.959,17.578,32.227,20.508,2.930,93.262
1532215032.963,19.043,34.668,23.438,6.348,160.645
1532215032.967,14.648,35.645,23.438,8.789,-6.348
1532215032.971,0.488,35.645,20.508,12.695,-101.562
1532215032.975,4.395,38.086,18.066,10.742,12.695
1532215032.978,14.160,38.086,18.555,-0.488,143.066
1532215032.982,14.648,31.250,20.508,3.906,59.570
1532215032.986,0.977,28.809,21.973,6.348,-96.680
1532215032.990,8.301,34.668,25.391,10.254,-1.465
1532215032.994,15.625,37.598,20.996,12.207,170.898
1532215032.998,13.672,32.715,19.531,5.371,140.625
1532215033.002,1.953,27.832,25.879,0.977,-62.500
1532215033.006,-6.348,25.391,29.297,-1.465,-72.754
1532215033.010,10.742,25.879,25.879,5.859,140.625
1532215033.014,4.395,35.156,25.391,2.441,154.785
1532215033.018,-2.930,38.086,27.344,-3.418,-37.598
1532215033.021,16.113,36.621,25.391,-1.465,-102.051
1532215033.025,12.695,28.320,30.762,1.465,54.688
1532215033.029,11.719,24.414,33.203,2.930,173.828
1532215033.033,19.531,34.180,31.250,-1.465,23.438
1532215033.037,3.906,36.621,31.738,6.836,-123.047
1532215033.041,2.441,26.367,29.785,15.137,7.324
1532215033.045,5.859,26.855,26.855,14.648,145.020
1532215033.049,18.555,43.945,27.832,18.555,53.223
1532215033.053,22.461,46.387,31.738,16.602,-94.238
1532215033.057,22.461,40.527,31.250,12.207,-50.781
1532215033.061,35.645,37.109,26.367,16.602,117.188
1532215033.064,27.344,35.156,26.367,18.066,116.211
1532215033.068,17.578,34.668,25.879,11.230,-70.312
1532215033.072,23.926,35.645,23.438,10.254,-93.262
1532215033.076,17.578,35.156,20.020,6.836,76.660
1532215033.080,26.367,30.762,21.973,9.766,143.555
1532215033.084,37.109,35.645,24.414,12.207,-23.926
1532215033.088,16.602,34.180,21.484,7.812,-119.141
1532215033.092,11.719,28.320,24.902,13.672,37.109
1532215033.096,16.113,35.156,26.367,13.184,159.668
1532215033.100,6.348,39.062,22.461,8.789,29.785
1532215033.103,19.531,36.133,19.531,13.184,-123.535
1532215033.107,20.996,26.367,20.996,14.648,-15.137
1532215033.111,0.977,24.414,24.414,11.719,152.832
1532215033.115,11.230,32.715,21.484,11.230,63.477
1532215033.119,20.020,35.156,20.508,16.602,-113.281
1532215033.123,21.484,32.715,23.438,30.762,-26.367
1532215033.127,28.809,34.668,22.461,28.809,146.973
1532215033.131,23.438,37.109,21.484,25.391,106.934
1532215033.135,20.020,33.691,24.414,26.367,-90.820
1532215033.139,24.902,29.297,29.785,25.879,-113.281
1532215033.143,30.762,31.738,34.668,23.926,81.543
1532215033.146,31.738,39.062,29.785,20.996,166.504
1532215033.150,22.461,38.574,29.297,20.508,-3.418
1532215033.154,16.113,24.902,35.156,20.020,-140.137
1532215033.158,20.020,13.672,32.227,20.508,-2.441
1532215033.162,19.043,22.949,30.762,22.461,142.578
1532215033.166,17.090,27.832,34.180,21.484,46.387
1532215033.170,23.438,24.902,34.668,20.508,-108.887
1532215033.174,4.883,29.297,34.668,21.973,-30.273
1532215033.178,-5.859,24.902,34.668,28.320,141.602
1532215033.182,16.113,24.902,30.273,30.273,86.426
1532215033.186,15.625,34.668,31.250,24.414,-115.234
1532215033.189,2.930,33.691,32.227,12.695,-83.008
1532215033.193,7.324,29.297,31.738,12.695,107.910
1532215033.197,14.648,32.227,32.715,15.625,121.582
1532215033.201,17.090,35.645,25.879,11.230,-47.363
1532215033.205,8.789,35.156,27.344,9.277,-86.426
1532215033.209,3.418,30.762,29.785,9.766,105.957
1532215033.213,6.836,29.785,25.391,11.230,153.320
1532215033.217,8.789,36.133,31.738,1.465,-56.641
1532215033.221,14.648,30.273,29.785,-1.953,-136.719
1532215033.225,23.438,24.414,27.344,9.766,62.012
1532215033.228,12.695,27.832,31.250,11.230,187.500
1532215033.232,14.648,30.273,31.250,9.277,40.039
1532215033.236,33.691,28.809,31.738,4.395,-124.512
1532215033.240,20.508,20.020,27.344,13.184,-11.230
1532215033.244,2.930,21.973,29.785,16.602,145.020
1532215033.248,7.324,32.715,29.785,9.277,89.355
1532215033.252,7.324,27.344,29.785,14.648,-85.449
1532215033.256,2.930,28.809,36.621,7.812,-89.355
1532215033.260,11.719,36.621,35.645,9.766,106.445
1532215033.264,15.625,37.109,31.250,20.508,156.738
1532215033.268,12.207,35.645,30.762,11.719,-3.418
1532215033.271,11.719,30.762,32.227,1.465,-80.566
1532215033.275,-2.441,31.250,29.785,4.395,51.270
1532215033.279,8.301,34.180,31.250,8.789,151.855
1532215033.283,28.320,32.227,32.227,5.859,30.273
1532215033.287,15.625,25.879,23.438,7.324,-103.516
1532215033.291,22.461,28.320,23.926,17.578,30.273
1532215033.295,24.414,36.621,33.203,19.531,165.039
1532215033.299,14.160,35.645,31.738,8.301,73.730
1532215033.303,13.184,38.086,28.809,1.465,-96.680
1532215033.307,1.953,40.039,26.855,6.836,-30.273
1532215033.310,-1.465,36.133,27.344,5.371,146.973
1532215033.314,-2.441,36.621,32.227,6.348,89.355
1532215033.318,11.230,33.691,33.203,7.812,-87.402
1532215033.322,24.902,24.902,31.738,11.230,-91.309
1532215033.326,16.113,22.949,31.250,21.973,99.609
1532215033.330,2.441,24.414,28.320,19.531,140.137
1532215033.334,2.441,31.738,32.715,13.184,-55.664
1532215033.338,4.883,40.527,30.762,9.766,-134.766
1532215033.342,14.648,40.527,26.367,12.207,39.551
1532215033.346,18.555,36.133,27.832,3.906,138.184
1532215033.350,17.090,33.691,29.297,-1.953,4.883
1532215033.353,8.301,34.180,27.832,1.465,-109.863
1532215033.357,15.137,35.645,29.785,3.906,3.906
1532215033.361,17.090,36.621,33.691,1.465,159.668
1532215033.365,10.254,35.156,29.297,-2.930,87.891
1532215033.369,24.414,36.621,26.855,1.953,-75.195
1532215033.373,13.672,39.062,30.273,-0.488,-54.688
1532215033.377,1.465,37.109,31.250,-8.301,103.516
1532215033.381,14.160,33.691,29.785,-3.418,132.812
1532215033.385,22.461,31.738,29.785,1.953,-76.660
1532215033.389,17.578,32.227,31.250,8.789,-123.535
1532215033.393,8.301,25.391,30.762,15.625,88.379
1532215033.396,12.695,25.391,29.785,6.348,120.605
1532215033.400,17.090,38.574,30.273,-0.488,-48.340
1532215033.404,18.555,40.039,29.785,2.930,-108.398
1532215033.408,17.090,38.086,26.855,0.000,68.359
1532215033.412,27.832,40.527,26.855,-0.977,159.668
1532215033.416,19.531,40.039,28.809,-7.812,2.930
1532215033.420,0.488,40.039,26.367,-12.207,-137.695
1532215033.424,3.418,43.945,26.855,-7.812,-29.297
1532215033.428,0.977,41.016,24.902,-8.789,148.926
1532215033.432,3.418,39.062,26.855,-12.695,99.121
1532215033.435,5.371,34.180,23.438,-12.695,-117.676
1532215033.439,9.277,24.902,21.484,-9.766,-100.098
1532215033.443,18.555,27.832,30.762,-4.395,129.395
1532215033.447,9.766,31.250,32.715,0.977,123.047
1532215033.451,0.488,31.250,31.250,0.977,-82.031
1532215033.455,19.531,37.598,28.320,4.395,-125.977
1532215033.459,29.297,38.086,28.320,11.230,68.848
1532215033.463,10.742,32.227,24.902,15.625,125.488
1532215033.467,14.648,29.785,25.391,11.719,-20.020
1532215033.471,14.648,31.250,28.320,10.742,-90.820
1532215033.475,-0.488,33.691,26.855,15.137,22.949
1532215033.478,-4.883,33.203,26.367,11.719,129.395
1532215033.482,1.465,34.180,27.344,-0.488,48.340
1532215033.486,9.277,33.691,33.691,-1.465,-83.496
1532215033.490,17.578,27.344,32.227,5.859,0.488
1532215033.494,16.602,29.785,26.855,-7.324,148.926
1532215033.498,9.766,38.574,29.297,-7.324,115.723
1532215033.502,20.020,36.621,27.832,-0.977,-62.500
1532215033.506,15.625,34.668,25.391,-1.953,-66.895
1532215033.510,23.926,34.180,29.297,7.812,125.488
1532215033.514,32.715,31.738,33.691,7.812,119.141
1532215033.518,3.906,32.227,29.297,3.418,-72.266
1532215033.521,-4.883,34.668,22.461,7.812,-124.023
1532215033.525,-1.953,33.691,24.902,14.648,30.762
1532215033.529,-6.348,29.297,30.273,21.484,136.719
1532215033.533,11.230,29.297,30.273,9.766,-13.672
1532215033.537,27.832,26.855,30.273,-0.977,-147.949
1532215033.541,19.043,27.344,28.320,-1.953,-1.465
1532215033.545,13.184,37.598,22.949,0.977,129.395
1532215033.549,16.113,41.504,25.391,2.930,75.684
1532215033.553,13.672,40.039,24.902,-2.441,-75.684
1532215033.557,16.602,41.504,13.184,-6.348,-40.039
1532215033.560,20.508,40.039,12.695,-5.859,162.109
1532215033.564,37.598,36.621,23.438,-10.742,169.922
1532215033.568,28.809,32.715,28.320,-7.324,-41.016
1532215033.572,13.184,26.367,29.785,5.859,-76.172
1532215033.576,22.949,26.367,24.902,6.348,90.332
1532215033.580,1.953,30.762,22.461,5.859,115.234
1532215033.584,-3.906,31.250,28.320,21.484,-24.414
1532215033.588,6.348,28.320,30.273,17.578,-83.496
1532215033.592,9.766,28.320,30.273,6.836,83.496
1532215033.596,-2.441,32.227,29.297,12.695,172.852
1532215033.600,-11.719,32.227,28.809,15.625,24.414
1532215033.603,5.859,32.715,28.809,14.648,-111.816
1532215033.607,17.578,34.668,24.414,13.184,13.672
1532215033.611,29.785,37.598,29.297,15.625,170.898
1532215033.615,19.043,37.598,28.320,11.230,82.031
1532215033.619,6.348,37.598,22.461,6.836,-100.098
1532215033.623,20.508,32.715,22.949,8.789,-47.363
1532215033.627,23.438,22.461,24.902,9.277,148.438
1532215033.631,20.020,26.367,28.809,7.812,150.879
1532215033.635,10.742,32.715,23.926,3.418,-59.570
1532215033.639,6.348,33.203,24.902,-12.695,-116.699
1532215033.643,17.090,38.574,26.367,-19.043,94.727
1532215033.646,22.949,41.992,23.438,-11.230,147.949
1532215033.650,10.254,42.969,27.832,-13.184,-30.762
1532215033.654,-4.395,42.969,28.809,-15.137,-119.141
1532215033.658,-1.953,40.527,21.484,-5.859,31.738
1532215033.662,11.230,34.668,23.926,4.883,145.020
1532215033.666,13.184,34.180,31.250,9.277,19.043
1532215033.670,1.465,29.785,30.273,12.207,-117.676
1532215033.674,3.418,33.691,29.297,12.695,-35.156
1532215033.678,15.625,40.527,28.809,9.766,117.676
1532215033.682,8.789,33.691,26.367,5.859,84.961
1532215033.685,6.348,33.203,32.715,5.371,-118.164
1532215033.689,11.719,30.273,37.598,10.742,-75.684
1532215033.693,12.207,28.320,35.156,5.859,117.676
1532215033.697,11.230,30.273,31.738,-2.441,132.812
1532215033.701,4.395,32.715,29.785,-2.441,-20.996
1532215033.705,9.277,32.715,27.344,2.441,-94.727
1532215033.709,20.020,30.762,26.367,5.371,53.223
1532215033.713,23.926,38.086,30.762,6.348,133.789
1532215033.717,35.645,37.598,29.297,-2.441,-5.371
1532215033.721,28.809,34.180,25.879,1.953,-91.797
1532215033.725,16.602,39.551,29.297,12.207,68.359
1532215033.728,30.273,39.062,32.715,9.277,162.598
1532215033.732,29.297,34.668,35.645,11.230,16.602
1532215033.736,13.672,31.738,29.297,13.672,-122.070
1532215033.740,18.555,27.832,20.508,14.160,-11.719
1532215033.744,13.672,24.902,26.855,18.066,140.625
1532215033.748,7.812,26.367,32.227,18.066,90.332
1532215033.752,3.418,33.203,34.668,13.184,-60.547
1532215033.756,0.488,33.691,36.133,9.766,-54.688
1532215033.760,20.020,37.598,33.203,15.625,127.930
1532215033.764,27.344,36.621,35.645,15.625,158.691
1532215033.767,14.648,30.762,37.109,11.230,-33.203
1532215033.771,17.090,35.645,29.297,11.230,-99.609
1532215033.775,19.531,37.598,28.320,5.371,62.012
1532215033.779,18.066,34.180,32.227,3.906,145.020
1532215033.783,26.855,31.250,29.297,7.812,-0.488
1532215033.787,27.832,33.691,26.367,16.602,-125.488
1532215033.791,31.250,34.180,24.902,16.602,8.789
1532215033.795,32.227,29.297,28.809,8.789,161.133
1532215033.799,12.695,30.762,33.691,6.348,106.934
1532215033.803,10.742,33.203,33.203,7.324,-70.312
1532215033.807,19.043,32.715,32.715,6.348,-31.738
1532215033.810,19.043,39.551,32.227,5.859,176.270
1532215033.814,15.137,41.016,22.949,-1.953,137.207
1532215033.818,18.066,38.574,19.043,-16.113,-87.891
1532215033.822,8.789,29.785,20.996,-6.836,-99.609
1532215033.826,2.441,24.902,26.367,7.324,83.008
1532215033.830,-1.465,29.785,35.156,11.719,130.371
1532215033.834,0.977,37.109,31.738,5.371,-12.207
1532215033.838,12.695,41.016,32.227,6.836,-94.727
1532215033.842,9.766,36.621,32.715,7.812,69.336
1532215033.846,-0.977,27.832,31.738,5.371,171.387
1532215033.850,2.441,25.879,33.691,14.648,16.602
1532215033.853,19.531,33.691,31.738,11.230,-124.512
1532215033.857,10.254,33.203,27.832,-3.906,-14.160
1532215033.861,-7.324,29.785,25.391,8.789,135.742
1532215033.865,3.418,28.320,30.762,13.672,52.246
1532215033.869,13.184,28.320,37.109,-0.488,-98.633
1532215033.873,16.113,30.273,29.785,-3.906,-49.805
1532215033.877,14.648,31.250,19.043,-3.906,145.508
1532215033.881,13.672,30.762,19.043,-4.883,135.742
1532215033.885,3.418,27.344,25.879,-3.418,-65.918
1532215033.889,-4.395,24.414,31.738,0.977,-70.312
1532215033.892,-8.789,26.855,31.738,1.465,110.352
1532215033.896,-12.695,31.250,29.297,7.324,153.320
1532215033.900,1.953,32.227,30.273,3.418,-23.926
1532215033.904,6.836,35.156,30.273,0.977,-119.629
1532215033.908,2.441,37.109,25.879,12.695,36.621
1532215033.912,8.301,33.203,23.438,7.812,162.109
1532215033.916,14.160,31.250,28.320,-3.906,41.504
1532215033.920,13.672,34.180,30.762,7.324,-131.348
1532215033.924,19.043,34.180,31.250,21.484,-30.273
1532215033.928,14.160,33.691,27.832,11.230,149.902
1532215033.932,2.441,33.691,26.855,6.348,75.195
1532215033.935,-1.465,31.250,30.762,5.371,-123.535
1532215033.939,8.301,31.738,30.273,-1.953,-83.496
1532215033.943,9.766,32.227,27.344,5.859,113.281
1532215033.947,7.324,31.738,27.832,9.277,107.910
1532215033.951,12.207,33.691,29.297,8.301,-76.172
1532215033.955,10.254,28.320,26.367,3.418,-114.746
1532215033.959,11.719,21.484,23.926,3.906,41.504
1532215033.963,20.996,28.809,23.438,14.648,118.164
1532215033.967,21.973,38.574,27.344,11.719,-11.719
1532215033.971,3.906,41.504,31.250,6.836,-99.121
1532215033.975,0.488,33.203,26.367,6.348,33.203
1532215033.978,4.395,28.809,20.996,3.418,137.695
1532215033.982,9.766,31.250,20.996,-0.488,34.668
1532215033.986,20.508,31.250,22.949,6.348,-104.492
1532215033.990,10.742,38.086,20.508,7.812,3.906
1532215033.994,1.465,40.527,21.973,-0.488,148.926
1532215033.998,3.906,34.668,24.902,-8.789,60.059
1532215034.002,18.555,34.668,20.508,-1.953,-108.398
1532215034.006,11.719,36.621,19.531,6.348,-48.828
1532215034.010,6.348,30.762,24.902,1.465,132.812
1532215034.014,18.555,31.738,29.785,1.465,127.930
1532215034.017,20.996,35.645,28.320,0.488,-37.598
1532215034.021,11.230,31.250,25.879,-5.859,-75.684
1532215034.025,-4.883,27.832,25.879,-11.230,103.027
1532215034.029,-6.836,28.809,20.996,-15.625,206.055
1532215034.033,0.488,32.227,19.531,-10.254,51.270
1532215034.037,1.465,37.109,17.578,-5.371,-89.844
1532215034.041,-8.789,40.527,16.113,-2.441,37.598
1532215034.045,-0.977,29.785,24.414,2.930,137.695
1532215034.049,13.184,30.762,25.879,4.883,24.414
1532215034.053,7.812,41.992,29.297,0.977,-147.949
1532215034.057,2.930,41.992,31.250,1.465,-91.797
1532215034.060,7.324,39.062,27.344,4.395,98.633
1532215034.064,11.230,36.621,23.926,-5.371,105.469
1532215034.068,5.371,35.645,24.902,-7.812,-64.941
1532215034.072,-0.488,33.691,25.879,1.953,-107.910
1532215034.076,13.184,26.855,26.367,6.836,103.516
1532215034.080,26.367,21.484,26.367,10.254,186.035
1532215034.084,12.695,31.738,28.320,14.160,-11.719
1532215034.088,3.418,41.016,30.762,18.555,-119.141
1532215034.092,7.324,41.016,32.227,23.438,40.527
1532215034.096,19.531,40.039,33.203,13.184,136.719
1532215034.099,16.113,38.574,33.203,8.301,-5.859
1532215034.103,10.254,35.645,32.227,7.812,-113.281
1532215034.107,9.766,34.180,28.809,9.766,2.930
1532215034.111,14.160,34.180,28.320,13.184,134.766
1532215034.115,28.320,35.156,24.414,-0.977,30.273
1532215034.119,15.625,32.227,19.043,0.000,-131.836
1532215034.123,6.348,26.367,21.973,12.695,-43.945
1532215034.127,19.531,32.715,29.297,8.301,159.180
1532215034.131,14.648,40.039,32.715,8.789,164.551
1532215034.135,13.672,43.457,34.180,4.883,-62.012
1532215034.139,23.926,38.086,33.203,4.883,-103.516
1532215034.142,25.879,32.715,25.391,13.184,90.820
1532215034.146,26.855,37.109,24.902,9.277,138.672
1532215034.150,24.414,37.598,32.715,14.648,-7.812
1532215034.154,10.254,38.574,32.715,12.695,-104.980
1532215034.158,-2.441,37.598,25.391,2.441,55.176
1532215034.162,2.930,34.180,22.461,8.789,187.012
1532215034.166,5.371,30.762,26.367,7.324,26.855
1532215034.170,10.254,29.297,27.832,-3.418,-103.027
1532215034.174,19.531,35.645,22.461,-9.277,-8.301
1532215034.178,16.602,39.062,23.926,-9.766,117.188
1532215034.182,19.531,38.086,26.855,-0.977,69.336
1532215034.185,2.930,33.691,28.320,8.789,-102.051
1532215034.189,2.930,30.273,28.809,17.090,-43.945
1532215034.193,14.160,33.691,25.391,13.672,119.141
1532215034.197,16.602,38.086,26.367,-0.488,85.938
1532215034.201,18.555,37.598,26.855,-0.488,-58.105
1532215034.205,9.766,36.133,23.926,6.836,-71.777
1532215034.209,5.859,30.273,25.391,7.324,113.770
1532215034.213,9.277,23.926,28.809,2.441,149.414
1532215034.217,5.859,32.227,26.367,8.789,-37.598
1532215034.221,6.348,33.203,25.391,13.672,-133.789
1532215034.224,9.277,31.250,30.273,8.789,50.781
1532215034.228,15.137,38.086,30.762,4.395,179.199
1532215034.232,20.020,32.715,30.273,4.883,54.199
1532215034.236,10.254,32.227,31.250,-3.906,-111.328
1532215034.240,5.859,33.203,31.738,-0.488,-19.043
1532215034.244,2.441,30.273,31.738,12.207,160.156
1532215034.248,-9.277,34.668,30.762,8.301,99.121
1532215034.252,5.859,33.691,30.762,5.371,-97.168
1532215034.256,23.438,33.203,30.273,-2.930,-96.680
1532215034.260,17.578,34.180,31.738,-0.977,110.352
1532215034.264,-2.930,31.250,29.297,8.301,164.551
1532215034.267,-2.930,29.785,24.414,5.859,-26.855
1532215034.271,8.301,33.203,26.367,4.395,-89.844
1532215034.275,11.719,33.203,26.855,3.418,87.891
1532215034.279,10.254,32.715,24.414,4.395,149.902
1532215034.283,18.066,25.879,26.367,6.836,-5.859
1532215034.287,27.344,26.855,26.855,11.719,-98.633
1532215034.291,14.160,34.180,26.855,17.090,41.992
1532215034.295,11.719,31.738,28.320,8.301,164.551
1532215034.299,13.672,35.645,32.227,1.953,56.641
1532215034.303,14.160,40.039,36.621,15.137,-84.473
1532215034.307,15.625,33.691,32.715,16.113,-20.020
1532215034.310,9.766,30.762,27.344,5.371,147.949
1532215034.314,19.531,33.203,27.832,0.000,109.863
1532215034.318,21.973,35.156,27.832,-2.930,-101.562
1532215034.322,18.066,38.086,26.367,2.441,-83.984
1532215034.326,19.043,37.598,26.367,9.766,106.445
1532215034.330,12.207,29.297,27.344,11.719,125.488
1532215034.334,27.344,25.879,28.320,11.719,-56.152
1532215034.338,16.602,33.691,28.809,10.742,-137.695
1532215034.342,-2.930,30.273,26.855,9.277,51.270
1532215034.346,13.672,28.320,24.902,8.789,159.180
1532215034.349,20.508,33.203,25.879,15.137,6.348
1532215034.353,13.184,31.250,32.227,12.695,-107.422
1532215034.357,18.555,25.391,32.227,10.254,29.297
1532215034.361,20.020,24.902,22.949,12.207,177.734
1532215034.365,7.812,27.344,21.484,8.789,95.215
1532215034.369,0.000,26.855,28.320,4.883,-93.262
1532215034.373,3.418,31.250,30.273,4.883,-42.969
1532215034.377,13.672,32.715,26.855,3.418,124.023
1532215034.381,10.742,31.250,26.367,6.836,121.094
1532215034.385,7.812,26.855,24.414,12.695,-56.641
1532215034.389,8.301,24.414,23.926,5.371,-75.684
1532215034.392,14.648,29.785,23.926,0.000,110.352
1532215034.396,16.113,30.762,26.855,2.441,136.230
1532215034.400,8.789,31.738,34.180,8.301,-15.137
1532215034.404,3.906,30.273,34.668,11.719,-74.707
1532215034.408,6.348,26.855,30.273,7.812,52.734
1532215034.412,12.207,26.855,30.273,9.766,162.109
1532215034.416,19.531,26.367,33.691,7.324,21.973
1532215034.420,4.395,27.344,34.180,1.465,-159.180
1532215034.424,3.418,31.738,30.762,3.418,6.836
1532215034.428,12.207,26.855,28.320,5.371,182.617
1532215034.432,9.277,23.926,29.785,13.672,86.914
1532215034.435,20.508,34.180,29.297,8.789,-104.980
1532215034.439,17.090,34.668,26.367,-0.488,-65.918
1532215034.443,10.254,29.785,27.344,5.371,136.230
1532215034.447,16.113,29.785,28.320,12.207,152.344
1532215034.451,19.531,31.738,25.879,8.301,-30.762
1532215034.455,26.855,35.156,23.926,5.859,-95.215
1532215034.459,25.879,39.062,26.367,15.625,80.078
1532215034.463,19.043,34.668,30.273,12.207,149.414
1532215034.467,27.344,33.691,30.762,-1.465,-31.738
