timestamps,TP9,AF7,AF8,TP10,Right AUX
1532279800.414,58.594,17.090,24.902,45.410,243.652
1532279800.418,53.711,21.484,26.855,47.363,208.496
1532279800.422,39.551,16.602,28.809,58.105,-117.676
1532279800.426,31.738,15.137,26.855,63.965,-150.391
1532279800.430,34.180,17.578,21.484,57.617,167.480
1532279800.434,25.879,23.438,20.508,56.152,230.957
1532279800.438,34.668,24.902,24.414,54.199,-47.852
1532279800.442,64.941,21.973,25.391,45.410,-188.477
1532279800.446,49.316,26.367,30.273,51.758,35.156
1532279800.450,8.301,21.973,29.297,45.898,248.535
1532279800.453,18.555,18.555,27.344,33.691,34.668
1532279800.457,47.363,24.902,32.227,49.805,-195.312
1532279800.461,64.941,26.855,28.809,58.594,10.742
1532279800.465,71.289,25.391,30.273,71.777,278.809
1532279800.469,39.062,25.879,30.762,50.781,145.508
1532279800.473,25.879,24.902,27.344,30.762,-168.945
1532279800.477,26.855,15.137,31.738,55.176,-82.520
1532279800.481,22.461,14.648,35.645,51.758,231.934
1532279800.485,31.738,18.555,38.574,39.551,199.707
1532279800.489,45.410,20.020,38.574,43.945,-115.234
1532279800.492,47.363,19.531,33.691,50.293,-147.461
1532279800.496,51.270,21.973,40.527,63.965,150.391
1532279800.500,60.547,26.367,44.434,54.199,243.164
1532279800.504,12.695,17.090,38.574,44.434,-33.691
1532279800.508,0.000,12.695,46.875,56.152,-212.402
1532279800.512,58.105,26.855,51.758,75.684,45.898
1532279800.516,51.270,26.855,38.574,62.500,265.625
1532279800.520,45.898,23.926,49.805,67.383,34.180
1532279800.524,79.102,33.203,59.570,75.195,-203.125
1532279800.528,66.895,33.203,48.340,73.242,-25.879
1532279800.532,36.621,20.508,52.734,83.496,255.371
1532279800.535,47.363,26.855,57.617,84.473,153.809
1532279800.539,58.105,38.574,52.734,74.707,-164.062
1532279800.543,81.055,31.738,50.293,66.406,-141.113
1532279800.547,67.383,20.020,50.293,81.543,177.246
1532279800.551,63.965,27.832,54.199,89.355,216.309
1532279800.555,80.078,39.551,56.152,81.543,-113.770
1532279800.559,73.242,31.250,52.246,83.008,-198.730
1532279800.563,68.359,28.809,57.617,95.703,108.887
1532279800.567,49.805,24.902,51.758,78.125,257.324
1532279800.571,76.660,22.949,51.758,73.242,-12.695
1532279800.574,84.961,30.762,57.617,86.426,-218.750
1532279800.578,82.031,32.715,51.758,79.590,51.270
1532279800.582,79.590,33.203,53.223,71.777,298.340
1532279800.586,57.129,21.973,54.199,79.102,65.918
1532279800.590,77.148,25.879,54.199,83.008,-202.637
1532279800.594,91.309,31.250,54.199,80.566,-59.082
1532279800.598,68.359,26.367,46.387,96.680,229.980
1532279800.602,51.758,27.832,42.480,80.566,127.441
1532279800.606,62.012,26.367,46.875,57.617,-205.566
1532279800.610,64.453,25.879,49.316,60.059,-168.457
1532279800.614,93.262,31.738,56.152,90.332,162.598
1532279800.617,81.055,29.297,49.805,102.051,231.934
1532279800.621,74.707,27.344,43.457,80.078,-69.824
1532279800.625,96.191,28.809,42.969,66.406,-229.980
1532279800.629,80.566,22.949,46.387,94.238,80.078
1532279800.633,71.777,24.414,42.969,97.168,295.410
1532279800.637,72.754,35.156,43.457,84.961,29.297
1532279800.641,84.473,31.250,45.898,103.027,-205.078
1532279800.645,75.684,20.508,43.945,94.238,-5.371
1532279800.649,40.039,20.508,40.039,72.754,272.461
1532279800.653,44.922,30.762,38.574,81.543,95.215
1532279800.657,70.801,29.785,41.992,86.914,-204.590
1532279800.660,79.102,26.855,35.645,74.219,-79.590
1532279800.664,62.500,20.996,32.715,74.707,224.609
1532279800.668,66.406,20.996,40.039,95.703,165.039
1532279800.672,82.031,30.762,46.875,99.609,-149.414
1532279800.676,64.941,19.043,41.016,95.703,-142.090
1532279800.680,72.266,18.555,39.062,100.098,182.617
1532279800.684,86.426,33.691,45.410,94.727,228.516
1532279800.688,92.773,29.785,38.086,68.848,-82.520
1532279800.692,49.805,19.531,35.645,68.848,-191.895
1532279800.696,26.855,20.020,38.086,82.031,91.797
1532279800.699,76.660,24.414,42.480,78.613,264.160
1532279800.703,87.402,22.949,36.621,70.312,24.902
1532279800.707,92.285,24.414,35.645,76.660,-197.754
1532279800.711,66.895,30.273,41.504,89.355,-15.137
1532279800.715,64.941,26.855,36.133,88.867,253.418
1532279800.719,99.121,24.902,38.086,95.215,132.324
1532279800.723,96.680,22.461,32.715,85.449,-182.617
1532279800.727,93.750,21.484,32.227,81.543,-125.977
1532279800.731,86.426,29.297,43.945,77.148,217.285
1532279800.735,54.199,25.879,40.039,63.477,243.652
1532279800.739,71.777,24.902,31.250,70.801,-94.238
1532279800.742,102.051,23.926,25.391,71.289,-161.133
1532279800.746,94.238,24.414,37.109,91.797,166.992
1532279800.750,93.750,27.832,40.039,94.727,271.484
1532279800.754,75.195,26.367,30.762,59.570,3.418
1532279800.758,62.500,22.461,30.762,55.176,-163.574
1532279800.762,72.266,24.414,41.016,73.242,37.109
1532279800.766,50.293,23.438,41.016,68.848,261.719
1532279800.770,47.852,25.879,30.762,40.527,70.312
1532279800.774,62.500,24.902,26.855,45.410,-212.891
1532279800.778,69.824,25.879,38.086,72.266,-31.250
1532279800.782,82.031,30.273,46.387,81.543,256.348
1532279800.785,93.750,20.508,37.109,78.125,110.840
1532279800.789,98.145,28.809,28.809,75.195,-181.152
1532279800.793,71.289,29.297,27.832,69.336,-125.488
1532279800.797,69.336,20.996,39.551,76.660,190.430
1532279800.801,94.727,28.320,41.016,71.289,210.449
1532279800.805,80.566,32.715,30.762,62.012,-117.676
1532279800.809,77.148,38.086,20.996,59.082,-186.035
1532279800.813,47.852,39.062,17.090,66.895,108.398
1532279800.817,56.641,36.621,25.391,74.707,255.859
1532279800.821,44.434,35.156,27.344,60.059,5.371
1532279800.824,38.086,27.832,20.996,35.645,-244.629
1532279800.828,93.262,31.250,31.738,40.039,-8.301
1532279800.832,81.055,39.551,41.992,53.223,281.738
1532279800.836,69.336,33.691,40.527,32.227,94.238
1532279800.840,51.758,26.855,38.086,10.254,-182.129
1532279800.844,38.086,31.738,35.156,4.395,-42.480
1532279800.848,40.527,30.762,29.785,-7.812,250.000
1532279800.852,43.945,32.715,30.273,2.441,185.059
1532279800.856,41.504,30.762,24.902,3.418,-116.699
1532279800.860,49.316,29.785,27.344,20.020,-110.840
1532279800.864,47.363,42.480,33.203,33.203,178.223
1532279800.867,43.457,37.598,26.367,20.508,205.566
1532279800.871,51.270,32.715,28.320,7.812,-86.426
1532279800.875,49.805,32.227,31.738,0.488,-188.477
1532279800.879,67.871,32.227,31.250,11.230,109.863
1532279800.883,53.711,38.574,34.180,42.480,259.766
1532279800.887,44.434,35.645,31.738,55.176,-15.137
1532279800.891,95.215,38.574,26.367,38.574,-219.238
1532279800.895,92.773,38.086,23.438,29.297,25.391
1532279800.899,69.824,36.133,26.367,32.715,297.852
1532279800.903,41.992,31.250,37.598,37.109,98.145
1532279800.907,20.020,27.832,41.504,32.227,-197.266
1532279800.910,30.273,33.691,36.133,34.180,-87.402
1532279800.914,52.734,35.156,32.227,20.508,206.055
1532279800.918,83.984,35.156,33.203,29.785,179.688
1532279800.922,83.496,33.203,34.180,52.734,-176.270
1532279800.926,103.516,33.203,36.133,64.453,-194.336
1532279800.930,102.539,33.691,36.621,79.590,178.223
1532279800.934,87.891,35.156,35.645,77.148,262.207
1532279800.938,92.285,33.691,38.574,60.059,-49.316
1532279800.942,72.266,34.180,36.621,56.641,-205.566
1532279800.946,77.148,40.527,31.250,53.223,59.082
1532279800.949,74.707,36.621,33.203,34.668,233.887
1532279800.953,69.824,33.203,40.039,47.363,2.930
1532279800.957,75.195,40.039,40.039,55.176,-202.148
1532279800.961,70.801,45.898,32.715,57.617,-40.527
1532279800.965,73.730,41.504,34.668,62.012,208.008
1532279800.969,65.430,36.133,38.086,59.570,103.027
1532279800.973,65.918,31.738,40.039,73.242,-178.223
1532279800.977,61.523,36.621,41.016,78.125,-102.539
1532279800.981,69.824,40.039,39.551,71.289,204.102
1532279800.985,83.008,39.062,36.621,46.387,179.199
1532279800.989,77.637,39.062,35.645,37.598,-124.512
1532279800.992,68.359,32.227,45.898,76.172,-161.621
1532279800.996,57.129,27.832,51.270,80.566,143.066
1532279801.000,69.824,29.785,41.992,63.965,247.559
1532279801.004,73.242,35.645,36.133,50.781,-70.312
1532279801.008,68.359,36.621,41.504,61.523,-257.324
1532279801.012,75.195,36.133,39.551,43.945,37.598
1532279801.016,65.918,28.809,41.992,40.527,273.438
1532279801.020,54.688,31.738,44.922,56.152,44.922
1532279801.024,53.223,37.598,37.598,47.363,-240.234
1532279801.028,61.035,38.574,29.785,62.012,-70.312
1532279801.031,80.078,40.527,30.762,65.430,249.023
1532279801.035,86.426,38.574,37.598,62.012,164.062
1532279801.039,59.082,36.133,42.969,56.641,-168.457
1532279801.043,55.176,39.062,39.551,59.570,-147.949
1532279801.047,68.848,40.527,35.645,68.359,175.293
1532279801.051,69.824,38.086,37.598,71.777,205.078
1532279801.055,52.246,37.598,36.621,56.641,-123.047
1532279801.059,56.152,30.762,39.062,52.246,-208.008
1532279801.063,82.520,30.762,37.598,61.035,68.848
1532279801.067,72.266,33.691,33.691,60.547,205.078
1532279801.071,56.641,35.156,32.227,69.336,-29.297
1532279801.074,50.293,31.738,39.551,61.035,-240.723
1532279801.078,39.062,31.250,45.898,55.664,-11.230
1532279801.082,44.434,34.180,42.480,73.730,228.027
1532279801.086,62.012,35.645,39.062,72.754,39.062
1532279801.090,58.105,33.691,41.504,65.918,-233.398
1532279801.094,53.711,31.738,43.457,68.848,-95.215
1532279801.098,47.363,35.156,38.574,67.383,227.539
1532279801.102,53.223,39.062,32.227,54.199,123.047
1532279801.106,54.199,38.574,34.180,59.082,-212.891
1532279801.110,47.363,36.621,37.109,83.496,-155.273
1532279801.114,50.293,35.156,40.039,91.309,194.824
1532279801.117,43.945,33.203,41.016,75.684,227.051
1532279801.121,44.434,35.645,39.062,60.547,-78.613
1532279801.125,46.387,31.738,41.992,66.895,-196.289
1532279801.129,26.367,30.762,40.527,54.688,90.332
1532279801.133,28.320,37.598,34.180,50.781,287.109
1532279801.137,47.852,33.203,38.086,74.707,36.133
1532279801.141,44.922,27.344,43.457,73.242,-195.801
1532279801.145,52.734,30.762,42.480,80.078,-9.766
1532279801.149,48.340,34.180,41.992,75.195,260.742
1532279801.153,18.555,34.180,42.480,50.293,123.535
1532279801.156,12.695,30.762,45.410,53.223,-177.246
1532279801.160,33.203,29.785,46.387,80.566,-82.031
1532279801.164,47.852,33.203,41.016,87.402,248.047
1532279801.168,37.109,33.691,39.062,64.453,208.496
1532279801.172,35.156,34.668,35.645,68.848,-132.812
1532279801.176,50.781,33.691,33.691,86.426,-192.383
1532279801.180,39.551,30.762,35.156,79.590,136.230
1532279801.184,19.043,29.785,43.457,50.781,242.676
1532279801.188,3.418,34.668,38.574,33.691,-63.477
1532279801.192,-1.953,32.715,36.133,57.129,-197.266
1532279801.196,-3.418,20.996,52.246,55.664,84.961
1532279801.199,-6.836,17.090,55.664,37.109,308.105
1532279801.203,40.039,20.996,51.270,66.895,19.531
1532279801.207,64.941,26.367,43.457,78.125,-266.113
1532279801.211,37.109,29.785,35.156,59.082,-37.109
1532279801.215,35.156,28.809,35.156,49.805,267.578
1532279801.219,27.832,27.344,37.109,54.199,124.023
1532279801.223,18.555,26.855,34.180,46.387,-207.031
1532279801.227,30.762,23.926,34.180,36.133,-129.883
1532279801.231,32.227,20.508,39.062,56.152,201.660
1532279801.235,33.691,19.043,40.527,72.266,188.965
1532279801.239,27.832,21.973,33.691,67.871,-149.902
1532279801.242,17.090,26.367,28.809,60.059,-217.773
1532279801.246,24.414,22.949,31.738,41.504,109.375
1532279801.250,32.227,20.996,36.621,51.758,272.461
1532279801.254,40.039,20.508,39.062,77.148,-26.855
1532279801.258,41.504,24.414,33.203,84.961,-213.867
1532279801.262,18.555,21.484,33.691,60.059,40.039
1532279801.266,21.973,24.902,30.273,42.969,272.461
1532279801.270,50.293,34.180,18.555,76.660,107.910
1532279801.274,45.410,31.738,21.484,91.309,-173.340
1532279801.278,45.898,25.879,29.785,92.773,-33.203
1532279801.281,44.922,24.902,28.320,87.891,258.789
1532279801.285,33.691,26.855,28.809,69.336,135.254
1532279801.289,22.461,25.391,32.715,58.105,-185.059
1532279801.293,20.996,25.391,27.344,60.059,-140.137
1532279801.297,33.203,23.438,26.367,69.824,216.309
1532279801.301,13.184,19.043,32.715,60.059,232.422
1532279801.305,5.371,18.066,35.156,55.664,-107.910
1532279801.309,32.227,16.602,33.691,74.707,-174.805
1532279801.313,35.156,14.648,30.273,84.473,141.113
1532279801.317,46.387,17.090,28.809,97.656,283.691
1532279801.321,43.457,19.531,26.855,95.703,-15.625
1532279801.324,22.949,23.438,21.484,61.035,-232.422
1532279801.328,19.043,25.391,17.090,59.082,26.367
1532279801.332,35.645,27.832,11.719,94.238,287.598
1532279801.336,50.293,29.297,10.254,113.770,94.727
1532279801.340,51.270,24.414,17.090,115.234,-206.543
1532279801.344,45.410,20.020,20.996,105.469,-82.520
1532279801.348,33.203,21.484,17.578,90.820,260.742
1532279801.352,30.273,21.484,19.531,83.008,233.887
1532279801.356,28.809,17.090,19.531,78.125,-128.418
1532279801.360,23.438,16.602,21.484,71.777,-128.906
1532279801.364,22.461,14.160,26.367,82.520,226.074
1532279801.367,18.066,6.348,31.738,84.961,268.555
1532279801.371,10.742,16.602,20.996,71.289,-46.875
1532279801.375,38.574,25.879,10.742,77.637,-182.129
1532279801.379,62.500,25.391,11.719,93.262,86.426
1532279801.383,38.086,20.508,16.602,93.262,240.234
1532279801.387,16.602,14.648,21.484,74.707,-36.133
1532279801.391,9.766,11.719,23.438,60.547,-232.422
1532279801.395,24.902,15.625,19.531,68.359,-4.883
1532279801.399,34.668,23.926,17.090,76.660,297.852
1532279801.403,38.086,25.391,15.625,67.383,155.762
1532279801.406,54.199,22.949,16.602,77.637,-177.734
1532279801.410,60.547,20.508,23.438,89.355,-62.988
1532279801.414,51.758,20.996,26.367,90.332,270.020
1532279801.418,51.270,23.438,23.926,83.984,211.914
1532279801.422,43.945,22.461,27.344,71.777,-160.645
1532279801.426,26.855,19.043,29.785,70.312,-186.523
1532279801.430,22.949,17.090,27.344,80.566,172.363
1532279801.434,31.250,15.137,31.738,79.102,259.277
1532279801.438,37.598,21.484,27.832,84.961,-42.969
1532279801.442,41.016,24.902,23.438,84.961,-213.867
1532279801.446,35.645,24.902,24.414,66.406,49.805
1532279801.449,23.926,24.902,22.461,69.824,288.574
1532279801.453,37.598,24.414,22.949,81.543,75.684
1532279801.457,53.223,29.785,20.996,90.332,-187.988
1532279801.461,37.598,26.855,22.461,90.332,-28.320
1532279801.465,23.926,19.531,24.902,64.941,257.324
1532279801.469,34.180,24.414,18.555,59.570,142.090
1532279801.473,51.270,29.785,15.625,83.008,-167.969
1532279801.477,69.336,24.902,19.531,105.957,-108.398
1532279801.481,59.570,21.484,20.020,97.656,239.258
1532279801.485,46.387,21.973,17.090,77.637,247.070
1532279801.488,39.551,17.090,20.508,79.102,-91.309
1532279801.492,30.273,11.719,28.320,83.984,-158.691
1532279801.496,35.645,12.695,29.785,84.473,157.715
1532279801.500,32.715,15.137,28.320,77.148,282.227
1532279801.504,26.855,21.973,25.391,64.941,-22.949
1532279801.508,42.480,27.344,20.508,69.336,-200.195
1532279801.512,54.688,30.273,20.996,91.309,55.664
1532279801.516,46.875,29.785,26.367,99.121,275.391
1532279801.520,48.340,30.273,28.320,88.867,65.918
1532279801.524,50.293,34.180,28.320,77.637,-203.125
1532279801.528,48.828,37.109,24.902,82.520,-44.922
1532279801.531,38.574,35.156,27.344,84.473,269.043
1532279801.535,27.832,33.691,32.715,76.172,193.359
1532279801.539,32.715,35.645,31.250,76.172,-147.461
1532279801.543,17.578,30.762,37.109,83.496,-151.367
1532279801.547,36.621,26.367,39.062,112.793,225.586
1532279801.551,55.664,27.832,38.086,129.395,247.559
1532279801.555,36.621,28.320,42.480,111.328,-122.070
1532279801.559,40.039,30.273,41.992,107.910,-195.312
1532279801.563,38.574,29.297,39.062,97.656,90.820
1532279801.567,29.297,30.762,39.062,80.566,233.398
1532279801.571,24.902,31.250,40.527,74.219,-2.441
1532279801.574,10.742,26.855,41.016,64.941,-208.496
1532279801.578,24.902,27.832,42.480,80.566,25.879
1532279801.582,58.594,39.062,34.180,91.309,299.316
1532279801.586,63.965,47.363,28.320,87.402,107.422
1532279801.590,60.059,41.016,36.133,95.703,-189.453
1532279801.594,49.316,33.691,42.969,90.332,-60.059
1532279801.598,38.574,34.668,41.992,79.590,286.621
1532279801.602,33.203,32.227,42.480,74.219,239.258
1532279801.606,37.109,26.855,44.922,75.684,-143.555
1532279801.610,32.227,28.320,42.969,77.148,-157.715
1532279801.613,29.297,32.227,36.621,74.219,185.547
1532279801.617,39.062,29.785,38.086,78.613,245.605
1532279801.621,31.250,27.832,43.457,71.289,-98.145
1532279801.625,20.996,30.762,41.016,56.641,-240.723
1532279801.629,17.090,27.832,39.551,60.547,81.055
1532279801.633,3.906,22.949,41.016,72.754,277.344
1532279801.637,7.812,16.113,43.945,62.012,21.973
1532279801.641,24.414,17.578,44.922,50.293,-224.121
1532279801.645,24.902,21.973,42.480,63.477,-2.930
1532279801.649,20.996,15.137,47.852,78.613,280.762
1532279801.653,38.574,20.508,47.363,86.914,96.680
1532279801.656,54.688,28.809,38.574,84.961,-201.172
1532279801.660,42.480,25.391,36.621,83.008,-106.445
1532279801.664,36.133,24.902,40.039,76.172,212.402
1532279801.668,36.133,25.879,42.480,70.312,199.707
1532279801.672,36.621,26.855,42.480,78.125,-147.461
1532279801.676,43.945,27.832,39.551,85.449,-166.992
1532279801.680,41.504,28.320,38.086,83.008,190.918
1532279801.684,26.367,28.320,42.480,79.590,260.742
1532279801.688,23.438,26.855,44.922,77.148,-44.922
1532279801.692,23.438,27.344,42.480,71.777,-196.777
1532279801.696,28.809,28.809,40.039,68.848,54.688
1532279801.699,41.992,29.297,41.016,79.590,279.785
1532279801.703,40.527,31.250,41.504,74.707,44.434
1532279801.707,36.621,31.738,41.016,62.500,-216.309
1532279801.711,28.809,28.809,40.039,67.383,-20.996
1532279801.715,17.578,30.273,41.504,69.824,283.203
1532279801.719,29.297,28.809,44.434,71.289,146.973
1532279801.723,43.945,27.832,44.434,74.219,-201.172
1532279801.727,38.086,27.344,42.480,74.707,-113.281
1532279801.731,36.621,27.344,40.039,66.406,227.539
1532279801.735,28.320,29.297,38.574,62.988,220.703
1532279801.738,24.414,29.297,39.551,52.734,-121.094
1532279801.742,42.480,31.250,36.621,52.734,-188.477
1532279801.746,46.387,31.738,32.227,73.730,140.137
1532279801.750,32.227,28.320,33.691,79.102,263.672
1532279801.754,29.297,28.320,36.133,75.684,-40.039
1532279801.758,33.203,28.809,38.086,72.754,-236.816
1532279801.762,30.273,27.344,38.086,70.801,3.906
1532279801.766,13.672,26.855,35.156,50.781,272.461
1532279801.770,17.578,25.391,38.086,52.734,90.820
1532279801.774,33.691,24.414,38.086,68.848,-212.891
1532279801.778,36.133,25.879,35.645,69.824,-36.621
1532279801.781,36.621,24.902,36.133,70.801,260.254
1532279801.785,32.227,26.855,35.156,65.918,150.391
1532279801.789,26.367,28.809,31.738,59.570,-175.293
1532279801.793,27.344,28.320,29.297,54.688,-150.391
1532279801.797,26.367,25.879,32.715,61.035,206.055
1532279801.801,28.320,23.438,38.086,66.406,229.492
1532279801.805,31.738,27.832,36.133,53.711,-122.070
1532279801.809,34.668,34.668,31.250,64.941,-198.730
1532279801.813,32.715,33.203,34.180,68.848,135.254
1532279801.817,20.996,32.715,35.645,54.688,288.086
1532279801.821,20.020,34.180,34.180,54.199,-16.602
1532279801.824,28.809,34.668,32.227,58.594,-238.281
1532279801.828,30.273,33.691,33.203,58.105,3.418
1532279801.832,21.484,31.250,35.156,50.781,282.715
1532279801.836,25.879,32.227,37.109,52.734,108.398
1532279801.840,26.855,33.691,38.574,42.480,-229.004
1532279801.844,27.832,35.156,33.691,32.227,-117.676
1532279801.848,36.133,37.598,31.250,42.480,238.281
1532279801.852,33.691,35.645,34.180,51.270,166.504
1532279801.856,33.203,34.180,34.668,48.828,-166.016
1532279801.860,34.668,35.156,35.645,52.246,-150.879
1532279801.863,24.414,37.109,29.785,45.898,171.875
1532279801.867,21.973,39.551,29.297,47.363,231.445
1532279801.871,30.762,35.645,39.062,54.688,-86.914
1532279801.875,28.809,32.227,37.598,47.852,-222.656
1532279801.879,28.320,33.203,30.762,49.316,60.059
1532279801.883,33.203,35.645,30.762,49.316,269.043
1532279801.887,29.297,33.203,37.598,52.734,-2.441
1532279801.891,25.879,31.250,41.504,54.199,-267.578
1532279801.895,30.273,31.250,40.527,50.781,-20.996
1532279801.899,24.902,30.273,37.598,50.293,279.297
1532279801.903,20.508,29.785,39.551,47.852,105.469
1532279801.906,12.695,25.879,39.062,45.410,-228.027
1532279801.910,27.832,23.926,39.551,55.176,-136.230
1532279801.914,35.156,27.344,40.039,54.688,218.750
1532279801.918,17.578,31.738,33.203,47.363,220.215
1532279801.922,20.996,29.785,35.156,48.340,-170.410
1532279801.926,16.602,27.832,38.574,43.457,-228.027
1532279801.930,18.066,27.832,37.109,45.410,145.020
1532279801.934,23.438,27.832,39.551,43.945,230.957
1532279801.938,22.461,26.367,43.945,48.828,-69.336
1532279801.942,25.879,28.809,41.016,47.363,-228.027
1532279801.945,28.320,35.156,33.203,39.062,32.715
1532279801.949,28.320,38.086,27.832,39.551,301.270
1532279801.953,19.531,33.691,33.691,37.598,80.078
1532279801.957,9.766,31.250,34.180,31.738,-218.750
1532279801.961,7.324,31.738,32.227,34.180,-51.270
1532279801.965,19.043,28.320,36.621,47.363,273.926
1532279801.969,26.367,27.344,33.691,56.641,174.316
1532279801.973,27.832,22.461,38.086,45.898,-173.828
1532279801.977,34.180,20.996,39.551,47.363,-118.652
1532279801.981,27.344,20.508,33.203,52.246,211.914
1532279801.985,22.461,20.508,33.691,40.527,166.504
1532279801.988,22.461,23.926,31.738,40.039,-145.020
1532279801.992,23.438,24.902,26.855,40.527,-193.359
1532279801.996,21.484,24.902,28.320,35.156,125.488
1532279802.000,19.043,24.414,31.738,39.551,288.574
1532279802.004,25.391,27.832,31.738,48.340,-33.203
1532279802.008,22.461,28.809,28.809,42.969,-257.324
1532279802.012,21.973,25.879,25.391,37.598,31.250
1532279802.016,20.020,26.367,25.391,39.062,319.824
1532279802.020,20.508,25.391,27.832,43.457,97.168
1532279802.024,22.949,23.926,29.297,50.781,-246.094
1532279802.028,20.996,26.855,31.738,41.992,-93.262
1532279802.031,26.367,26.855,34.180,40.527,251.953
1532279802.035,28.320,29.785,27.832,35.645,161.133
1532279802.039,30.273,32.227,23.926,19.531,-181.641
1532279802.043,39.551,34.180,20.996,22.949,-171.875
1532279802.047,46.387,35.645,24.414,40.039,163.574
1532279802.051,38.574,31.250,31.250,45.410,214.355
1532279802.055,33.691,28.320,31.250,45.410,-125.000
1532279802.059,28.809,27.832,31.250,50.781,-225.586
1532279802.063,22.949,28.320,31.250,34.668,89.355
1532279802.067,31.250,30.762,29.785,38.574,273.926
1532279802.070,33.691,34.180,21.973,54.199,-0.977
1532279802.074,42.969,33.203,20.508,55.664,-258.301
1532279802.078,43.457,28.320,28.320,63.965,0.488
1532279802.082,37.598,26.855,31.250,53.711,286.133
1532279802.086,37.109,31.738,26.855,42.480,87.891
1532279802.090,36.133,36.621,21.484,35.645,-220.703
1532279802.094,31.738,38.574,17.578,20.020,-90.820
1532279802.098,31.250,36.133,18.555,35.645,266.113
1532279802.102,39.062,31.250,26.367,49.805,164.062
1532279802.106,34.180,32.227,27.832,32.715,-211.426
1532279802.110,32.227,35.645,21.973,41.504,-180.176
1532279802.113,39.062,35.645,20.508,45.898,152.832
1532279802.117,45.898,35.156,19.043,32.715,263.672
1532279802.121,46.387,30.273,22.949,60.059,-63.477
1532279802.125,49.316,28.809,27.344,71.777,-240.723
1532279802.129,47.852,28.320,26.855,68.359,86.426
1532279802.133,45.410,26.855,25.879,65.430,297.852
1532279802.137,40.527,25.391,25.391,58.105,11.230
1532279802.141,32.227,24.902,23.438,48.340,-238.281
1532279802.145,28.320,30.762,18.555,24.414,-27.832
1532279802.149,34.180,27.344,20.020,28.320,284.668
1532279802.153,41.992,23.926,21.973,51.758,139.648
1532279802.156,40.527,24.902,21.484,50.781,-214.355
1532279802.160,33.203,23.438,26.855,62.012,-121.094
1532279802.164,35.645,24.414,26.855,39.551,231.445
1532279802.168,35.645,23.926,27.832,29.785,218.750
1532279802.172,37.598,19.043,33.203,60.547,-139.648
1532279802.176,40.039,18.555,31.250,64.453,-177.246
1532279802.180,38.086,20.020,27.344,68.359,142.090
1532279802.184,45.410,21.973,26.367,53.223,225.586
1532279802.188,42.969,23.926,27.832,48.828,-75.195
1532279802.192,37.109,22.949,26.855,55.664,-245.605
1532279802.195,41.016,20.996,26.855,50.293,35.156
1532279802.199,33.691,22.949,24.902,36.621,310.059
1532279802.203,29.785,21.973,25.391,35.645,64.941
1532279802.207,30.762,21.484,24.902,46.387,-253.906
1532279802.211,38.086,25.879,23.438,57.129,-57.617
1532279802.215,49.805,24.902,29.297,66.895,250.977
1532279802.219,37.598,24.902,32.227,52.734,160.156
1532279802.223,37.598,29.785,31.250,36.133,-200.195
1532279802.227,43.457,29.785,31.738,36.133,-181.152
1532279802.231,36.133,28.809,35.156,44.434,216.797
1532279802.235,33.691,33.203,36.621,50.781,250.000
1532279802.238,28.809,32.227,33.691,32.715,-100.098
1532279802.242,31.250,33.691,31.738,33.203,-179.688
1532279802.246,42.969,34.180,33.691,53.711,166.504
1532279802.250,53.711,34.668,39.062,67.383,296.387
1532279802.254,58.594,38.086,39.551,77.148,-12.207
1532279802.258,61.035,35.645,40.039,67.871,-197.754
1532279802.262,50.781,32.227,42.480,65.918,55.176
1532279802.266,38.086,33.691,39.062,68.359,295.898
1532279802.270,34.668,41.992,34.180,49.805,88.379
1532279802.274,29.785,44.434,32.227,34.180,-204.590
1532279802.277,41.504,39.062,36.133,42.969,-51.270
1532279802.281,27.344,35.645,37.109,18.555,271.484
1532279802.285,-9.766,33.203,36.621,16.113,154.785
1532279802.289,8.789,34.668,37.598,39.062,-184.570
1532279802.293,23.926,36.621,38.574,28.809,-147.949
1532279802.297,38.086,37.598,37.109,34.180,214.355
1532279802.301,6.348,29.297,35.156,42.480,244.629
1532279802.305,-27.832,19.531,38.086,42.480,-118.652
1532279802.309,57.617,35.645,38.574,66.895,-221.191
1532279802.313,59.570,43.457,37.109,81.055,104.492
1532279802.317,38.086,41.992,29.785,64.941,304.199
1532279802.320,64.453,39.062,27.344,52.734,22.949
1532279802.324,20.996,22.949,31.738,33.203,-254.883
1532279802.328,-17.578,22.949,24.414,15.625,-29.785
1532279802.332,-24.902,23.438,23.926,40.527,282.715
1532279802.336,12.207,16.113,32.227,45.410,110.840
1532279802.340,62.012,24.414,24.902,29.297,-221.191
1532279802.344,76.172,32.227,26.367,63.965,-113.281
1532279802.348,74.707,28.809,28.809,71.777,258.789
1532279802.352,57.617,20.996,27.832,56.641,212.402
1532279802.356,0.000,10.742,31.738,53.711,-158.691
1532279802.360,-14.648,10.742,24.902,40.527,-175.293
1532279802.363,50.781,29.785,15.625,33.691,189.941
1532279802.367,88.379,31.738,14.648,35.156,261.719
1532279802.371,84.473,22.949,22.461,51.270,-83.984
1532279802.375,47.363,18.555,27.832,71.289,-204.102
1532279802.379,56.641,20.996,24.414,88.379,98.145
1532279802.383,32.715,20.996,21.973,57.129,262.207
1532279802.387,12.695,19.531,20.020,32.715,2.441
1532279802.391,55.176,18.066,21.484,41.504,-254.883
1532279802.395,31.250,16.113,19.531,37.109,-53.711
1532279802.399,12.695,15.137,20.996,42.969,267.578
1532279802.402,5.859,16.113,23.926,49.805,105.469
1532279802.406,40.527,14.160,22.949,56.152,-230.957
1532279802.410,33.691,15.625,21.973,58.105,-112.305
1532279802.414,12.207,14.648,21.973,38.086,238.281
1532279802.418,25.391,15.625,25.391,41.504,237.793
1532279802.422,9.277,17.578,31.250,62.988,-135.742
1532279802.426,21.484,15.137,28.320,56.641,-237.793
1532279802.430,40.527,16.602,22.949,67.383,124.512
1532279802.434,64.453,23.438,20.508,56.641,263.672
1532279802.438,48.340,20.020,23.926,58.105,-64.941
1532279802.442,31.738,19.531,29.785,60.059,-259.277
1532279802.445,29.297,20.508,29.297,61.523,46.875
1532279802.449,33.691,17.090,24.902,66.895,282.227
1532279802.453,34.668,20.020,21.973,56.641,41.504
1532279802.457,47.363,19.043,20.996,56.152,-212.402
1532279802.461,41.016,15.625,21.973,47.363,-44.434
1532279802.465,10.742,15.137,19.043,35.645,266.113
1532279802.469,25.879,19.531,16.113,41.016,159.180
1532279802.473,48.828,16.602,22.949,60.059,-193.359
1532279802.477,39.062,15.625,25.391,57.617,-145.508
1532279802.481,3.906,18.066,20.508,37.598,215.332
1532279802.485,-4.883,13.184,20.996,27.344,229.004
1532279802.488,10.742,10.254,25.391,50.293,-99.121
1532279802.492,37.109,17.090,24.902,72.754,-182.129
1532279802.496,58.105,19.531,24.414,70.312,122.559
1532279802.500,32.227,15.625,22.949,66.406,275.391
1532279802.504,32.715,15.625,23.926,50.781,-52.246
1532279802.508,24.414,17.578,23.438,42.969,-261.719
1532279802.512,16.602,17.090,24.414,58.594,37.109
1532279802.516,31.250,18.555,24.902,59.570,312.012
1532279802.520,28.320,20.996,25.391,48.828,108.398
1532279802.524,25.391,18.555,27.344,62.012,-198.242
1532279802.527,15.625,16.113,24.902,61.523,-62.500
1532279802.531,25.879,15.137,20.508,50.293,254.395
1532279802.535,30.762,13.184,23.438,61.035,195.801
1532279802.539,12.695,16.602,27.344,44.922,-158.203
1532279802.543,6.348,17.090,22.949,20.996,-173.828
1532279802.547,20.508,13.672,27.832,68.848,168.457
1532279802.551,37.598,14.160,31.250,101.074,239.258
1532279802.555,24.414,19.043,26.367,58.105,-80.078
1532279802.559,23.926,17.090,25.391,54.688,-195.801
1532279802.563,21.973,16.113,23.438,62.012,110.840
1532279802.567,18.066,16.602,26.855,64.941,273.438
1532279802.570,46.875,14.160,29.297,68.848,7.812
1532279802.574,40.527,14.160,24.902,55.664,-230.469
1532279802.578,26.855,17.578,22.949,62.988,-27.344
1532279802.582,34.180,18.555,22.949,57.617,265.625
1532279802.586,32.227,15.625,23.926,46.387,89.844
1532279802.590,28.320,19.531,20.996,53.711,-219.238
1532279802.594,32.715,21.484,20.996,51.758,-77.148
1532279802.598,20.508,16.602,26.367,58.594,258.301
1532279802.602,34.668,17.578,24.414,69.336,214.844
1532279802.606,44.434,21.484,22.461,59.082,-163.086
1532279802.610,42.969,17.578,27.344,66.895,-194.336
1532279802.613,31.738,19.531,25.391,63.965,150.391
1532279802.617,38.086,26.367,19.531,55.664,256.836
1532279802.621,40.527,23.438,24.414,55.664,-61.035
1532279802.625,32.227,21.973,27.832,52.246,-217.285
1532279802.629,40.039,22.461,29.297,66.406,98.633
1532279802.633,43.945,24.414,30.762,72.754,305.664
1532279802.637,51.270,26.855,29.785,80.078,21.973
1532279802.641,39.551,26.855,28.320,70.312,-251.465
1532279802.645,27.344,26.367,26.367,55.664,-52.246
1532279802.649,28.809,26.855,26.855,54.688,257.812
1532279802.652,26.367,27.832,25.391,51.758,141.602
1532279802.656,31.738,26.855,24.902,48.828,-176.758
1532279802.660,42.969,25.391,22.461,48.828,-120.117
1532279802.664,45.898,28.809,25.391,65.918,202.637
1532279802.668,49.316,30.273,29.785,76.660,236.816
1532279802.672,48.828,25.391,30.273,76.660,-108.887
1532279802.676,48.828,24.902,28.809,72.754,-197.754
1532279802.680,47.852,21.973,32.715,80.078,151.367
1532279802.684,51.758,21.973,33.203,86.914,274.414
1532279802.688,47.363,26.367,27.344,77.637,-40.527
1532279802.692,43.457,26.367,26.367,68.359,-210.938
1532279802.695,41.504,26.367,26.367,65.918,48.340
1532279802.699,38.086,27.344,24.902,69.824,277.344
1532279802.703,44.434,27.344,26.855,70.801,52.246
1532279802.707,45.410,26.855,28.320,78.125,-225.098
1532279802.711,54.688,27.344,26.367,84.473,-44.434
1532279802.715,54.688,27.832,26.367,66.895,274.414
1532279802.719,57.617,27.832,26.855,68.359,167.969
1532279802.723,61.035,28.809,26.855,69.336,-225.586
1532279802.727,61.523,31.250,25.879,64.941,-176.270
1532279802.731,51.758,31.738,21.484,68.848,223.633
1532279802.734,41.016,30.273,22.461,60.547,235.352
1532279802.738,53.711,27.344,25.879,69.336,-99.609
1532279802.742,67.383,24.414,23.926,69.336,-224.121
1532279802.746,62.500,22.949,21.973,56.152,83.008
1532279802.750,49.316,24.902,21.973,57.129,288.574
1532279802.754,57.617,29.297,22.949,62.012,3.906
1532279802.758,52.734,30.762,22.461,61.035,-214.844
1532279802.762,41.992,29.297,19.531,49.316,29.297
1532279802.766,52.246,27.344,20.020,49.316,264.648
1532279802.770,45.410,27.832,24.414,57.129,86.426
1532279802.774,32.715,26.367,25.879,53.711,-201.172
1532279802.777,41.016,25.391,22.949,54.199,-78.125
1532279802.781,42.480,23.926,28.809,57.617,231.934
1532279802.785,40.039,22.461,28.809,53.223,153.320
1532279802.789,40.527,23.926,26.855,56.152,-167.969
1532279802.793,30.273,23.926,27.344,52.246,-162.598
1532279802.797,37.109,25.879,24.414,41.992,186.035
1532279802.801,44.434,28.320,24.902,36.133,242.676
1532279802.805,41.016,29.297,28.320,45.410,-83.496
1532279802.809,39.062,28.809,29.297,60.059,-200.195
1532279802.813,43.457,26.367,24.414,56.152,92.285
1532279802.817,41.504,27.832,26.855,56.641,285.156
1532279802.820,41.016,28.809,29.785,69.336,30.273
1532279802.824,43.457,27.344,28.809,64.941,-224.609
1532279802.828,41.992,26.367,28.320,45.410,4.395
1532279802.832,29.785,25.879,27.344,20.020,292.969
1532279802.836,36.621,26.855,27.832,50.293,128.418
1532279802.840,42.480,24.414,33.203,86.914,-196.289
1532279802.844,22.949,24.902,30.273,62.988,-113.281
1532279802.848,27.344,29.297,24.414,40.527,249.023
1532279802.852,39.062,27.832,27.832,42.480,209.961
1532279802.856,42.969,26.855,31.250,62.500,-156.738
1532279802.859,47.852,27.344,28.809,56.641,-160.156
1532279802.863,38.574,26.367,30.273,61.035,159.180
1532279802.867,38.574,27.832,30.762,66.406,258.301
1532279802.871,41.504,29.785,26.367,50.781,-56.152
1532279802.875,21.484,26.855,26.855,50.293,-237.305
1532279802.879,13.672,23.926,24.414,45.898,78.613
1532279802.883,20.020,21.973,23.926,40.039,270.020
1532279802.887,31.738,22.949,27.832,55.664,0.000
1532279802.891,39.551,25.391,24.414,47.363,-227.539
1532279802.895,20.020,24.414,21.973,43.457,-26.367
1532279802.899,35.645,25.879,26.367,63.965,262.207
1532279802.902,49.316,27.344,26.367,55.176,128.418
1532279802.906,39.551,26.855,25.391,58.594,-175.781
1532279802.910,46.387,25.879,26.855,75.195,-112.305
1532279802.914,36.621,22.949,22.949,62.012,222.656
1532279802.918,32.227,21.484,22.461,57.617,221.680
1532279802.922,46.387,24.414,25.391,55.176,-141.113
1532279802.926,44.922,28.809,27.344,51.270,-228.027
1532279802.930,31.250,26.855,25.391,58.594,105.469
1532279802.934,16.113,23.926,23.926,48.828,267.090
1532279802.938,14.648,26.855,27.344,46.387,-23.926
1532279802.942,51.758,29.785,26.367,54.199,-229.492
1532279802.945,67.871,28.809,22.461,63.477,54.688
1532279802.949,63.965,26.367,24.902,67.383,302.734
1532279802.953,51.758,24.902,26.855,57.617,65.430
1532279802.957,43.457,23.926,29.785,62.012,-214.844
1532279802.961,42.969,23.926,29.297,62.012,-47.363
1532279802.965,52.246,25.391,25.879,53.711,261.719
1532279802.969,53.711,23.926,26.367,57.129,149.414
1532279802.973,41.992,23.438,25.391,60.547,-204.102
1532279802.977,42.480,25.391,26.855,66.895,-154.785
1532279802.981,41.992,23.438,28.809,64.453,188.965
1532279802.984,39.062,22.461,24.902,56.641,181.641
1532279802.988,25.391,24.902,22.949,50.293,-165.527
1532279802.992,32.227,22.461,23.926,57.129,-221.680
1532279802.996,38.574,23.438,26.855,65.430,106.934
1532279803.000,41.016,27.832,24.414,53.711,252.930
1532279803.004,49.805,28.809,21.973,51.270,-11.230
1532279803.008,39.551,26.855,24.902,60.059,-223.633
1532279803.012,40.039,27.344,26.367,70.801,-5.371
1532279803.016,41.016,26.367,31.250,72.754,266.602
1532279803.020,37.109,27.344,28.809,69.824,80.566
1532279803.024,34.668,29.785,25.879,59.570,-262.695
1532279803.027,41.504,28.809,28.320,60.059,-125.977
1532279803.031,35.156,27.344,28.809,61.035,237.793
1532279803.035,31.250,25.879,28.320,53.711,168.457
1532279803.039,39.551,26.367,29.785,60.059,-202.148
1532279803.043,37.109,29.297,29.297,56.152,-203.125
1532279803.047,29.297,23.926,29.785,54.199,178.711
1532279803.051,36.133,26.367,32.227,52.246,239.746
1532279803.055,38.086,31.738,31.250,50.781,-109.863
1532279803.059,30.762,30.273,29.785,55.176,-214.355
1532279803.063,41.016,28.320,31.738,55.664,104.004
1532279803.067,42.969,27.832,31.738,54.688,277.832
1532279803.070,43.945,29.297,30.762,50.293,-4.883
1532279803.074,37.109,28.809,30.762,54.199,-223.145
1532279803.078,37.109,28.809,31.738,55.664,36.621
1532279803.082,45.898,29.297,32.227,57.129,286.621
1532279803.086,41.992,29.297,29.785,46.875,86.426
1532279803.090,34.668,28.320,28.809,39.551,-204.590
1532279803.094,39.062,27.832,29.785,49.805,-73.730
1532279803.098,38.086,27.832,30.273,53.223,271.973
1532279803.102,35.645,29.785,32.227,50.293,201.172
1532279803.106,33.691,29.297,31.738,43.457,-168.945
1532279803.109,22.949,28.809,30.762,35.156,-184.082
1532279803.113,20.996,25.879,30.762,41.504,174.316
1532279803.117,28.320,25.391,33.203,48.340,287.109
1532279803.121,27.344,28.809,33.691,45.410,-46.875
1532279803.125,36.621,27.832,35.156,41.992,-255.859
1532279803.129,36.133,28.809,33.203,46.875,46.387
1532279803.133,9.277,35.156,29.297,32.715,294.922
1532279803.137,-4.883,36.133,33.691,22.461,52.734
1532279803.141,-1.465,32.227,39.551,31.250,-212.891
1532279803.145,12.207,32.227,39.062,30.273,-23.926
1532279803.149,16.602,32.715,39.062,37.109,283.691
1532279803.152,7.812,34.668,39.062,35.645,161.133
1532279803.156,6.836,35.156,37.109,26.855,-171.387
1532279803.160,12.207,34.180,35.645,28.320,-104.492
1532279803.164,20.996,35.645,34.180,31.738,222.656
1532279803.168,21.484,38.574,32.227,28.809,227.539
1532279803.172,15.625,38.086,32.715,23.926,-110.840
1532279803.176,20.996,37.598,31.738,27.344,-182.617
1532279803.180,22.949,40.039,29.297,31.738,150.391
1532279803.184,16.113,36.133,28.809,25.391,267.578
1532279803.188,16.602,33.203,31.738,20.996,-72.266
1532279803.191,20.508,32.715,34.180,26.367,-255.371
1532279803.195,26.855,30.762,33.203,33.203,46.875
1532279803.199,30.273,28.809,33.691,34.668,291.504
1532279803.203,24.902,24.414,39.551,30.273,52.734
1532279803.207,18.555,21.484,39.062,29.785,-221.680
1532279803.211,16.113,21.973,35.156,39.551,-42.480
1532279803.215,16.602,21.973,34.180,39.551,258.301
1532279803.219,18.066,21.973,34.180,34.180,169.434
1532279803.223,21.484,22.949,33.691,28.320,-173.828
1532279803.227,22.949,23.926,29.297,29.785,-165.527
1532279803.231,24.902,23.438,32.227,37.109,209.473
1532279803.234,20.020,24.902,34.180,37.109,245.117
1532279803.238,21.484,25.879,32.715,26.855,-102.051
1532279803.242,25.391,27.344,33.203,28.809,-192.383
1532279803.246,23.438,26.855,33.203,43.945,106.934
1532279803.250,24.902,27.344,32.715,36.621,262.695
1532279803.254,16.113,27.344,33.203,29.785,2.441
1532279803.258,16.113,26.855,34.180,34.180,-201.660
1532279803.262,19.043,26.855,34.668,30.762,23.926
1532279803.266,7.324,25.391,33.691,27.344,259.766
1532279803.270,7.812,24.902,34.180,28.809,76.660
1532279803.274,10.742,26.855,35.645,27.344,-233.887
1532279803.277,12.207,29.785,34.668,32.227,-74.707
1532279803.281,19.531,28.320,38.574,36.621,248.535
1532279803.285,25.391,27.344,40.527,29.297,161.621
1532279803.289,24.902,34.180,33.691,26.367,-161.621
1532279803.293,26.367,39.062,29.785,33.203,-199.219
1532279803.297,20.996,35.645,32.715,34.668,152.832
1532279803.301,7.812,32.715,33.203,26.855,236.328
1532279803.305,16.113,33.691,28.809,11.719,-127.930
1532279803.309,24.902,30.762,31.250,15.625,-248.047
1532279803.313,13.672,30.273,37.109,29.297,106.934
1532279803.316,21.484,33.203,35.156,24.414,306.641
1532279803.320,34.668,31.250,34.180,18.066,14.160
1532279803.324,31.738,31.738,31.738,22.461,-243.164
1532279803.328,27.344,35.156,29.785,28.809,-23.438
1532279803.332,28.809,32.715,27.344,30.762,274.414
1532279803.336,24.414,28.809,29.297,31.738,92.773
1532279803.340,11.719,27.344,32.715,30.273,-230.957
1532279803.344,14.648,26.367,35.156,37.109,-122.070
1532279803.348,20.020,26.367,35.645,41.504,228.516
1532279803.352,15.137,25.879,32.227,38.574,199.707
1532279803.356,10.742,26.855,29.785,34.668,-158.691
1532279803.359,11.719,27.832,29.297,30.273,-175.293
1532279803.363,19.043,24.902,31.738,31.250,156.250
1532279803.367,17.578,22.949,31.250,32.715,260.254
1532279803.371,13.184,25.391,28.809,30.273,-48.340
1532279803.375,26.367,22.949,31.250,33.691,-229.980
1532279803.379,34.180,21.484,30.762,42.969,51.758
1532279803.383,24.902,22.461,29.785,31.250,264.160
1532279803.387,21.484,21.973,31.250,37.598,15.137
1532279803.391,30.762,23.926,29.785,41.992,-238.770
1532279803.395,36.621,21.973,28.320,34.180,-51.270
1532279803.399,28.809,20.996,27.832,43.457,268.066
1532279803.402,22.949,21.484,31.738,38.086,149.902
1532279803.406,24.902,23.926,33.203,27.344,-213.379
1532279803.410,30.762,25.391,29.297,33.203,-129.395
1532279803.414,31.738,25.879,26.367,34.668,241.211
1532279803.418,24.902,25.879,27.344,29.297,241.699
1532279803.422,30.762,23.438,26.855,29.785,-100.586
1532279803.426,31.738,23.926,26.367,32.715,-185.547
1532279803.430,21.973,23.438,27.344,28.809,159.668
1532279803.434,31.738,23.438,28.320,35.156,307.129
1532279803.438,24.902,24.902,28.320,37.109,-20.996
1532279803.441,23.926,25.879,30.273,36.133,-238.770
1532279803.445,31.250,26.367,32.227,34.668,18.066
1532279803.449,27.832,20.996,31.738,34.180,297.363
1532279803.453,28.809,18.555,30.762,36.621,88.379
1532279803.457,27.344,20.508,31.250,41.016,-215.332
1532279803.461,35.645,20.508,30.273,41.504,-36.621
1532279803.465,31.250,22.461,27.344,38.086,280.273
1532279803.469,28.320,22.461,27.832,37.598,158.203
1532279803.473,39.551,22.949,29.785,39.551,-183.105
1532279803.477,31.738,26.367,28.809,34.668,-128.418
1532279803.481,34.180,25.391,25.879,25.391,216.797
1532279803.484,37.109,23.926,28.809,29.297,252.930
1532279803.488,31.738,26.367,31.738,37.109,-77.148
1532279803.492,39.062,24.414,27.832,39.551,-192.383
1532279803.496,44.434,23.438,23.926,37.109,125.000
1532279803.500,35.645,24.414,24.902,31.738,280.762
1532279803.504,33.691,23.926,28.809,33.203,-4.395
1532279803.508,45.410,24.414,29.785,41.504,-232.910
1532279803.512,32.715,25.391,29.785,44.434,-10.254
1532279803.516,42.480,25.879,29.297,39.062,278.809
1532279803.520,32.715,25.391,31.250,35.645,92.773
1532279803.524,13.672,22.949,33.691,32.227,-244.629
1532279803.527,38.574,20.508,35.645,39.551,-120.605
1532279803.531,37.598,22.949,33.691,31.250,239.746
1532279803.535,52.246,23.926,34.668,42.969,175.781
1532279803.539,61.523,23.926,33.691,51.758,-169.922
1532279803.543,44.434,30.762,33.203,33.691,-187.988
1532279803.547,31.738,27.832,36.621,37.109,147.949
1532279803.551,30.273,21.973,36.621,29.785,229.492
1532279803.555,41.016,25.391,34.668,22.461,-123.047
1532279803.559,36.133,25.879,33.203,22.461,-252.930
1532279803.563,38.574,27.344,29.785,30.273,72.754
1532279803.566,41.504,29.297,29.297,20.508,260.254
1532279803.570,48.828,28.809,33.691,8.301,-28.320
1532279803.574,45.898,29.785,30.273,31.738,-289.062
1532279803.578,26.367,25.391,31.250,42.969,-33.203
1532279803.582,21.973,25.879,31.250,31.250,258.301
1532279803.586,42.969,25.391,34.668,44.922,62.500
1532279803.590,55.176,22.461,39.551,59.082,-236.816
1532279803.594,71.289,28.809,36.133,60.059,-116.699
1532279803.598,69.824,33.203,32.227,66.406,208.984
1532279803.602,60.547,31.738,33.203,69.824,139.160
1532279803.606,42.480,30.273,31.250,49.805,-193.359
1532279803.609,41.504,26.367,30.762,50.293,-234.863
1532279803.613,58.105,25.879,35.156,70.801,113.770
1532279803.617,62.988,29.297,34.668,64.453,248.047
1532279803.621,53.223,31.738,33.691,66.406,-94.727
1532279803.625,57.129,33.691,35.645,65.430,-280.273
1532279803.629,54.688,34.668,33.691,41.504,26.367
1532279803.633,37.598,32.715,34.668,54.199,263.184
1532279803.637,55.176,32.227,37.109,70.312,11.230
1532279803.641,67.383,32.227,35.645,62.988,-250.977
1532279803.645,60.059,30.273,34.668,70.312,-68.359
1532279803.648,63.965,29.785,34.668,79.102,240.234
1532279803.652,69.824,30.273,34.668,70.312,139.648
1532279803.656,76.172,32.715,37.109,62.988,-204.102
1532279803.660,71.777,31.250,39.062,75.195,-148.926
1532279803.664,65.918,28.809,36.621,74.219,210.938
1532279803.668,67.871,29.785,40.527,81.055,205.566
1532279803.672,67.871,33.203,44.434,80.078,-132.324
1532279803.676,63.965,34.180,38.574,70.801,-185.059
1532279803.680,60.547,36.133,33.691,58.594,140.625
1532279803.684,45.410,34.180,33.203,41.016,243.164
1532279803.688,48.340,35.645,37.109,52.246,-55.664
1532279803.691,58.594,38.574,42.480,65.430,-227.539
1532279803.695,48.828,34.180,44.434,59.570,38.574
1532279803.699,47.363,29.297,42.969,66.406,315.918
1532279803.703,53.711,32.715,41.504,65.430,77.148
1532279803.707,54.688,37.598,40.527,53.711,-217.285
1532279803.711,52.246,38.086,37.598,58.105,-25.391
1532279803.715,43.945,37.109,35.156,51.758,300.781
1532279803.719,44.434,39.062,36.133,48.828,201.660
1532279803.723,36.133,43.457,34.668,32.227,-168.945
1532279803.727,22.949,40.527,34.180,24.414,-165.527
1532279803.731,25.879,36.621,39.551,39.062,191.895
1532279803.734,26.855,37.109,45.898,41.992,232.910
1532279803.738,16.602,34.180,49.316,34.180,-98.145
1532279803.742,13.672,33.691,47.363,21.973,-201.660
1532279803.746,32.227,38.574,45.410,37.598,110.840
1532279803.750,36.133,38.574,46.875,47.852,285.156
1532279803.754,26.855,37.598,48.340,38.574,-12.207
1532279803.758,20.508,36.621,47.363,38.086,-236.816
1532279803.762,15.625,32.715,43.945,38.574,-12.695
1532279803.766,25.879,35.156,37.598,46.875,254.883
1532279803.770,22.461,36.621,39.062,49.805,109.863
1532279803.773,7.812,33.203,45.410,34.180,-199.707
1532279803.777,15.137,33.203,47.852,40.039,-61.523
1532279803.781,15.625,34.180,44.922,45.898,236.816
1532279803.785,9.277,33.203,44.434,32.715,155.762
1532279803.789,21.973,33.691,45.898,42.969,-160.156
1532279803.793,15.625,35.645,41.992,37.109,-155.273
1532279803.797,-2.441,34.668,41.016,21.484,212.891
1532279803.801,11.230,33.691,47.852,28.320,287.598
1532279803.805,12.695,34.180,49.316,24.902,-63.965
1532279803.809,12.207,34.668,43.945,30.273,-230.469
1532279803.813,15.137,37.598,43.457,42.480,62.012
1532279803.816,3.906,39.062,43.945,30.273,290.039
1532279803.820,1.953,38.086,43.457,26.855,24.414
1532279803.824,3.418,38.574,46.875,22.949,-252.930
1532279803.828,0.000,39.062,47.363,24.414,-7.812
1532279803.832,-2.930,36.621,45.898,22.949,320.801
1532279803.836,-4.883,36.621,48.340,27.832,148.926
1532279803.840,9.766,38.574,48.340,48.340,-183.105
1532279803.844,11.230,36.133,46.387,50.781,-127.441
1532279803.848,-3.906,36.621,46.387,36.621,227.539
1532279803.852,4.395,37.598,45.410,28.320,206.543
1532279803.856,12.207,38.574,44.434,24.414,-150.391
1532279803.859,10.254,36.621,44.922,24.414,-184.570
1532279803.863,13.184,33.691,45.410,36.133,130.859
1532279803.867,19.531,36.133,47.852,41.504,221.680
1532279803.871,16.602,38.086,46.875,44.434,-75.684
1532279803.875,19.531,41.504,43.945,38.574,-217.285
1532279803.879,23.926,42.969,42.480,35.645,57.617
1532279803.883,12.207,39.551,44.434,38.086,284.180
1532279803.887,4.883,36.621,48.828,46.875,55.664
1532279803.891,7.324,36.621,48.340,48.340,-222.168
1532279803.895,3.906,36.621,46.875,47.852,-28.809
1532279803.898,4.883,32.715,47.363,51.270,278.809
1532279803.902,12.695,34.668,42.969,40.039,143.066
1532279803.906,22.461,41.016,38.086,22.949,-181.152
1532279803.910,18.555,36.133,39.551,23.926,-114.258
1532279803.914,1.465,30.762,45.410,41.504,219.238
1532279803.918,0.488,31.250,47.852,43.457,227.539
1532279803.922,11.719,31.738,43.945,38.086,-125.488
1532279803.926,22.461,32.227,41.504,41.016,-208.496
1532279803.930,15.137,29.297,41.992,42.480,152.832
1532279803.934,8.789,28.809,42.969,41.504,277.344
1532279803.938,12.695,31.738,46.387,38.574,-35.156
1532279803.941,17.090,33.691,44.922,36.133,-219.238
1532279803.945,13.184,33.691,40.039,36.133,28.809
1532279803.949,10.742,33.203,38.086,34.668,277.832
1532279803.953,9.766,32.227,39.551,34.180,77.637
1532279803.957,6.348,31.250,42.969,32.715,-208.008
1532279803.961,12.207,30.762,40.527,34.180,-63.965
1532279803.965,21.973,31.738,37.109,31.738,255.371
1532279803.969,24.414,33.691,38.086,31.250,196.289
1532279803.973,20.020,33.203,39.062,37.109,-145.020
1532279803.977,21.973,32.227,37.598,37.598,-162.598
1532279803.981,27.344,32.715,34.668,34.180,192.871
1532279803.984,29.785,31.738,33.691,37.598,265.137
1532279803.988,27.832,29.785,38.574,41.016,-87.402
1532279803.992,20.508,27.344,41.016,39.062,-192.871
1532279803.996,22.949,25.391,40.039,38.086,144.043
1532279804.000,27.832,21.973,40.039,41.992,313.477
1532279804.004,36.133,24.414,40.039,41.016,-9.766
1532279804.008,42.480,31.250,35.645,39.062,-238.770
1532279804.012,40.527,35.645,28.809,47.852,27.344
1532279804.016,34.668,36.133,26.855,48.340,282.715
1532279804.020,31.250,33.203,30.762,45.898,102.051
1532279804.023,32.715,31.738,34.180,47.852,-212.891
1532279804.027,15.625,29.785,36.621,49.316,-100.098
1532279804.031,6.348,29.297,38.086,47.852,242.188
1532279804.035,9.766,29.785,36.621,46.875,169.434
1532279804.039,11.719,33.203,35.645,46.387,-189.453
1532279804.043,15.137,35.645,34.668,42.480,-187.012
1532279804.047,15.137,33.691,35.645,41.016,170.410
1532279804.051,9.766,30.762,37.598,40.527,252.930
1532279804.055,4.395,34.180,41.504,41.992,-82.520
1532279804.059,9.277,37.598,39.062,42.969,-217.773
1532279804.063,10.742,38.086,35.645,37.598,93.750
1532279804.066,6.348,40.527,33.203,29.785,277.344
1532279804.070,8.301,40.527,34.668,26.855,5.371
1532279804.074,6.836,39.551,40.039,25.879,-231.934
1532279804.078,4.395,38.086,41.016,20.996,-15.625
1532279804.082,9.766,39.062,38.574,22.949,275.391
1532279804.086,13.184,40.039,36.621,28.809,108.887
1532279804.090,10.254,37.109,37.598,32.227,-222.168
1532279804.094,5.859,37.598,38.086,33.203,-134.766
1532279804.098,14.160,39.551,35.645,40.039,216.309
1532279804.102,23.926,39.551,34.180,38.086,196.289
1532279804.105,20.508,39.062,33.203,23.926,-155.273
1532279804.109,9.766,34.668,35.156,28.320,-173.828
1532279804.113,5.859,32.715,35.156,32.715,190.918
1532279804.117,4.883,31.250,37.109,31.738,309.570
1532279804.121,10.742,28.320,39.551,36.133,-18.066
1532279804.125,20.996,33.691,35.645,37.109,-195.312
1532279804.129,16.602,39.551,31.738,39.551,65.430
1532279804.133,17.578,39.062,31.250,40.039,300.781
1532279804.137,17.090,38.086,33.203,37.109,81.055
1532279804.141,16.113,36.133,36.133,35.645,-214.355
1532279804.145,18.555,33.203,35.156,35.156,-56.641
1532279804.148,23.926,32.715,35.156,38.574,260.742
1532279804.152,32.227,34.668,36.621,40.039,151.855
1532279804.156,31.738,38.086,33.203,37.109,-181.641
1532279804.160,24.902,41.504,29.297,41.992,-110.352
1532279804.164,20.508,42.969,27.832,40.527,219.238
1532279804.168,24.414,40.039,29.297,29.297,232.422
1532279804.172,18.066,36.621,31.738,27.832,-92.285
1532279804.176,13.184,37.598,33.203,34.668,-180.664
1532279804.180,20.508,39.062,33.691,39.062,125.000
1532279804.184,25.879,41.016,31.738,36.133,264.160
1532279804.188,30.273,42.969,30.762,29.785,-42.969
1532279804.191,30.762,39.551,33.691,32.227,-249.023
1532279804.195,27.832,37.598,34.180,41.016,40.527
1532279804.199,27.832,35.156,34.668,44.922,291.992
1532279804.203,30.762,32.715,38.574,44.922,51.270
1532279804.207,38.574,35.156,38.086,38.086,-244.141
1532279804.211,36.133,39.551,29.785,37.109,-62.500
1532279804.215,27.344,38.574,27.832,34.180,277.832
1532279804.219,17.090,35.645,33.203,29.297,184.082
1532279804.223,30.762,31.250,36.133,30.273,-197.266
1532279804.227,43.945,34.668,34.180,36.621,-159.668
1532279804.230,35.156,44.434,29.785,37.109,218.262
1532279804.234,38.574,46.875,30.273,35.156,257.812
1532279804.238,35.645,43.945,31.250,38.574,-88.867
1532279804.242,29.297,41.016,33.691,36.621,-213.379
1532279804.246,28.320,38.574,36.133,38.086,118.652
1532279804.250,33.203,36.621,34.180,43.945,331.055
1532279804.254,43.945,40.527,30.273,35.156,54.199
1532279804.258,40.039,44.922,30.762,36.133,-187.012
1532279804.262,32.715,43.457,31.738,37.109,1.953
1532279804.266,38.574,42.480,27.344,29.785,253.418
1532279804.270,39.551,41.016,28.809,38.574,116.211
1532279804.273,39.062,40.527,33.691,41.992,-186.523
1532279804.277,31.738,39.551,31.738,43.945,-93.262
1532279804.281,41.016,37.598,31.250,46.387,254.883
1532279804.285,46.387,37.109,35.645,42.969,192.871
1532279804.289,32.227,38.086,36.621,39.551,-171.875
1532279804.293,34.668,37.109,34.180,41.992,-153.809
1532279804.297,38.086,35.645,31.250,46.875,210.449
1532279804.301,36.133,35.156,29.297,39.551,275.879
1532279804.305,36.133,34.668,29.785,34.668,-56.152
1532279804.309,40.039,40.039,28.320,39.062,-192.871
1532279804.313,37.109,41.016,26.367,37.109,87.891
1532279804.316,35.156,36.621,27.344,37.109,297.363
1532279804.320,36.133,35.156,29.785,40.527,62.500
1532279804.324,43.457,35.156,31.250,38.574,-210.938
1532279804.328,48.340,36.133,32.227,41.992,-29.297
1532279804.332,46.387,35.645,32.715,43.945,268.066
1532279804.336,41.016,38.574,28.809,37.109,125.488
1532279804.340,34.668,40.039,26.367,36.133,-195.801
1532279804.344,35.645,33.203,28.809,38.086,-134.766
1532279804.348,36.133,27.832,30.762,36.133,210.938
1532279804.352,32.227,27.344,29.297,34.668,250.488
1532279804.355,33.691,26.855,28.809,33.203,-113.770
1532279804.359,35.645,29.297,25.391,33.691,-173.340
1532279804.363,35.156,31.250,19.531,35.156,178.223
1532279804.367,29.785,28.809,20.020,36.621,282.227
1532279804.371,28.809,25.879,23.438,29.785,-34.668
1532279804.375,28.809,24.414,24.414,25.879,-209.961
1532279804.379,29.297,24.414,22.461,31.250,79.102
1532279804.383,36.133,26.367,21.973,30.762,299.805
1532279804.387,36.621,30.273,24.414,30.273,56.152
1532279804.391,35.156,31.250,23.926,35.156,-215.820
1532279804.395,38.086,27.344,22.949,38.574,-42.969
1532279804.398,36.621,24.902,22.949,41.016,270.996
1532279804.402,34.668,25.391,26.855,38.574,128.906
1532279804.406,41.016,22.949,27.344,41.016,-219.238
1532279804.410,46.387,21.973,24.902,49.805,-148.926
1532279804.414,49.316,25.879,23.438,46.875,207.520
1532279804.418,43.945,26.367,20.508,41.992,215.332
1532279804.422,38.574,27.832,18.066,37.598,-103.516
1532279804.426,40.527,29.297,18.555,36.133,-180.176
1532279804.430,35.645,23.926,22.461,41.504,109.375
1532279804.434,33.203,22.461,24.414,41.504,293.457
1532279804.438,36.133,25.391,21.973,44.434,22.949
1532279804.441,41.504,21.484,23.926,46.387,-190.918
1532279804.445,40.527,18.555,29.297,44.922,44.922
1532279804.449,33.203,20.508,30.273,39.062,279.297
1532279804.453,33.203,21.484,28.809,43.945,82.031
1532279804.457,40.527,19.043,28.320,53.223,-214.355
1532279804.461,39.062,18.066,25.879,45.410,-78.125
1532279804.465,33.203,20.996,27.344,41.016,250.488
1532279804.469,32.715,21.973,27.344,37.109,172.852
1532279804.473,35.645,23.926,23.926,34.668,-156.738
1532279804.477,36.133,25.879,21.484,39.062,-146.973
1532279804.480,38.086,29.785,22.949,40.527,175.781
1532279804.484,34.668,31.250,25.391,30.762,236.328
1532279804.488,34.668,29.785,21.973,29.297,-96.191
1532279804.492,38.574,30.762,20.020,39.062,-196.289
1532279804.496,36.621,29.297,21.484,42.480,113.281
1532279804.500,37.598,26.367,23.926,45.898,272.461
1532279804.504,41.016,28.809,24.902,42.480,18.066
1532279804.508,36.621,30.273,23.926,40.527,-213.379
1532279804.512,38.086,29.297,24.902,48.340,9.766
1532279804.516,46.387,29.785,24.414,49.805,282.715
1532279804.520,46.875,29.297,21.973,47.852,95.215
1532279804.523,39.551,27.344,23.926,36.621,-224.121
1532279804.527,39.551,28.809,22.461,32.715,-106.445
1532279804.531,42.969,30.762,17.578,46.875,245.605
1532279804.535,39.062,26.367,20.996,49.316,198.730
1532279804.539,38.086,23.926,24.902,40.527,-148.926
1532279804.543,41.016,24.902,23.926,42.480,-176.758
1532279804.547,39.062,24.902,20.508,49.316,162.109
1532279804.551,33.203,27.344,18.066,43.945,249.512
1532279804.555,27.344,25.879,20.508,40.527,-67.383
1532279804.559,30.273,23.926,22.461,44.922,-231.445
1532279804.562,34.180,24.414,22.949,50.781,26.367
1532279804.566,29.785,25.391,22.949,43.457,258.789
1532279804.570,22.949,25.879,20.508,35.645,15.137
1532279804.574,20.996,25.391,19.531,39.062,-245.605
1532279804.578,24.414,25.391,22.949,48.340,-22.949
1532279804.582,28.809,24.902,24.902,47.852,264.648
1532279804.586,23.438,26.367,26.367,39.062,116.211
1532279804.590,17.578,26.367,25.879,34.180,-209.473
1532279804.594,25.391,26.367,23.438,37.109,-121.582
1532279804.598,28.809,26.367,26.367,43.457,243.164
1532279804.602,31.250,25.391,27.344,43.945,213.379
1532279804.605,31.250,26.855,25.879,40.527,-162.598
1532279804.609,30.762,25.879,23.926,40.527,-213.867
1532279804.613,36.133,26.367,21.484,42.969,138.672
1532279804.617,41.992,25.879,22.949,41.504,273.926
1532279804.621,37.109,23.926,23.438,34.668,-46.875
1532279804.625,36.133,24.414,21.973,29.785,-229.980
1532279804.629,38.086,24.414,22.949,32.715,33.203
1532279804.633,29.297,21.484,22.949,36.621,259.766
1532279804.637,32.227,22.461,19.531,36.621,48.828
1532279804.641,35.156,21.484,19.531,36.133,-230.469
1532279804.645,32.227,21.484,19.531,36.621,-58.594
1532279804.648,35.156,23.926,19.043,41.992,270.996
1532279804.652,36.133,23.438,20.508,43.945,171.387
1532279804.656,24.902,20.996,21.973,39.551,-165.527
1532279804.660,24.414,20.508,23.926,43.457,-140.625
1532279804.664,25.879,21.484,25.879,43.945,204.102
1532279804.668,20.508,19.043,24.414,35.156,229.980
1532279804.672,21.484,15.137,25.879,35.645,-125.000
1532279804.676,27.832,18.066,26.367,43.457,-210.938
1532279804.680,31.250,24.902,21.973,40.527,148.438
1532279804.684,31.738,24.902,19.531,34.180,297.363
1532279804.687,36.621,24.414,21.973,33.203,-6.836
1532279804.691,40.527,22.949,24.902,37.109,-224.121
1532279804.695,47.363,21.484,22.949,42.969,38.086
1532279804.699,47.852,24.902,18.555,49.316,304.688
1532279804.703,43.945,26.855,16.113,41.992,82.520
1532279804.707,30.762,22.461,18.555,31.250,-232.422
1532279804.711,16.113,16.113,20.020,40.039,-79.590
1532279804.715,17.090,16.602,22.949,47.852,246.582
1532279804.719,20.508,21.484,21.973,44.922,166.504
1532279804.723,17.578,20.020,19.531,39.062,-181.641
1532279804.727,17.578,20.020,18.555,37.598,-164.062
1532279804.730,18.066,23.438,16.602,36.133,206.055
1532279804.734,20.996,24.414,16.602,35.645,254.395
1532279804.738,23.438,23.438,20.996,34.180,-96.680
1532279804.742,19.531,19.531,21.973,33.203,-223.145
1532279804.746,17.090,16.602,21.484,34.180,93.750
1532279804.750,20.020,15.625,23.926,39.551,294.922
1532279804.754,22.461,13.184,23.438,38.086,30.762
1532279804.758,13.672,13.184,20.996,30.273,-203.613
1532279804.762,10.254,20.996,16.602,26.367,14.160
1532279804.766,13.184,25.879,13.672,15.625,261.719
1532279804.770,11.230,23.438,15.137,15.625,93.750
1532279804.773,15.625,23.926,13.672,22.461,-214.355
1532279804.777,15.137,24.902,14.160,21.973,-111.328
1532279804.781,11.230,25.879,14.648,20.508,230.957
1532279804.785,15.137,28.809,13.672,19.043,210.449
1532279804.789,17.090,26.855,16.602,16.602,-125.488
1532279804.793,16.602,22.949,19.043,19.531,-158.691
1532279804.797,10.742,20.996,19.531,18.555,187.988
1532279804.801,2.930,22.949,20.020,10.742,260.742
1532279804.805,5.371,25.391,19.531,6.348,-97.656
1532279804.809,10.254,22.949,20.996,11.230,-227.539
1532279804.812,17.578,23.438,20.996,24.902,85.938
1532279804.816,19.043,23.926,21.484,27.832,277.344
1532279804.820,17.090,22.461,21.973,20.020,17.578
1532279804.824,21.973,23.438,18.066,17.090,-237.305
1532279804.828,23.926,25.391,16.602,24.414,-19.531
1532279804.832,25.391,27.344,14.648,24.414,273.926
1532279804.836,26.855,28.320,16.602,20.996,104.980
1532279804.840,16.602,28.320,18.066,17.578,-210.449
1532279804.844,18.555,28.320,16.602,13.672,-135.742
1532279804.848,28.320,26.855,16.113,17.578,207.031
1532279804.852,25.391,26.367,17.578,24.902,230.469
1532279804.855,22.461,24.902,21.973,23.926,-109.375
1532279804.859,23.926,22.949,24.414,28.320,-173.828
1532279804.863,29.785,24.414,26.367,37.109,156.250
1532279804.867,33.203,27.832,24.902,39.551,284.668
1532279804.871,36.133,32.227,20.020,35.156,-24.902
1532279804.875,29.785,31.250,18.555,26.855,-233.887
1532279804.879,23.926,28.809,20.996,27.344,52.734
1532279804.883,19.531,29.297,20.996,26.367,289.551
1532279804.887,9.277,28.809,17.578,21.484,49.805
1532279804.891,0.000,27.832,18.555,21.484,-215.820
1532279804.895,-6.836,26.367,17.578,22.949,-44.434
1532279804.898,-4.395,27.832,15.625,27.832,275.391
1532279804.902,-2.441,29.297,16.113,23.926,156.250
1532279804.906,-14.648,24.414,16.602,16.113,-200.195
1532279804.910,-20.020,20.020,19.531,20.508,-145.508
1532279804.914,-20.508,20.508,18.066,22.949,241.699
1532279804.918,-17.090,23.438,19.043,24.902,267.578
1532279804.922,-10.254,21.973,21.973,28.320,-94.238
1532279804.926,-15.137,22.461,20.508,28.809,-186.035
1532279804.930,-14.160,24.902,20.020,28.809,123.535
1532279804.934,-17.090,25.391,17.090,27.832,279.785
1532279804.937,-20.020,25.879,18.066,25.879,3.906
1532279804.941,-16.113,23.926,22.949,22.461,-221.680
1532279804.945,-20.020,24.902,23.438,22.461,6.836
1532279804.949,-21.973,25.879,21.973,25.879,276.855
1532279804.953,-18.555,24.902,21.973,27.344,76.172
1532279804.957,-13.672,24.414,22.461,27.832,-223.145
1532279804.961,-13.672,24.414,23.926,31.738,-71.289
1532279804.965,-13.184,22.949,26.367,34.668,262.695
1532279804.969,-10.254,21.484,27.832,35.645,172.852
1532279804.973,-8.789,27.344,23.926,31.738,-166.016
1532279804.977,-9.277,29.297,22.461,31.250,-161.133
1532279804.980,-5.859,29.297,20.508,32.715,181.152
1532279804.984,-20.996,29.785,19.043,18.066,244.629
1532279804.988,-28.809,25.391,22.461,11.719,-94.238
1532279804.992,-20.020,23.438,20.996,20.508,-223.145
1532279804.996,-15.625,25.391,19.531,24.414,81.055
1532279805.000,-10.742,26.855,16.113,26.367,271.973
1532279805.004,-15.625,27.832,14.648,23.926,-9.766
1532279805.008,-20.508,26.367,19.043,20.508,-219.727
1532279805.012,-17.090,24.414,19.531,23.926,15.137
1532279805.016,-8.789,21.973,17.578,31.738,288.086
1532279805.019,-0.977,22.949,17.578,34.180,120.605
1532279805.023,-2.930,22.461,16.602,27.832,-206.055
1532279805.027,-10.742,19.531,12.207,25.879,-114.258
1532279805.031,-11.719,20.508,12.207,30.273,229.980
1532279805.035,-10.742,20.020,14.160,33.203,193.359
1532279805.039,-7.812,18.555,13.672,30.273,-148.438
1532279805.043,-1.465,22.949,16.602,26.367,-191.406
1532279805.047,-1.953,23.926,17.578,28.320,141.113
1532279805.051,-2.930,23.438,17.090,31.738,266.113
1532279805.055,-1.465,26.367,17.090,28.809,-68.848
1532279805.059,-0.977,27.344,16.113,26.855,-226.562
1532279805.062,-0.488,27.344,16.602,28.809,68.848
1532279805.066,-2.930,23.438,18.555,35.156,276.855
1532279805.070,1.465,21.484,18.066,34.180,15.625
1532279805.074,-0.977,20.020,18.066,28.809,-237.793
1532279805.078,-2.441,20.020,20.020,33.691,-12.207
1532279805.082,-2.930,22.949,19.531,34.668,280.762
1532279805.086,-4.883,21.973,17.578,30.762,120.117
1532279805.090,-0.488,22.461,14.648,33.691,-186.523
1532279805.094,3.418,23.438,14.648,38.574,-124.023
1532279805.098,4.883,22.949,14.648,37.598,216.797
1532279805.102,0.000,23.438,12.207,30.273,231.934
1532279805.105,0.488,23.438,11.230,24.414,-120.605
1532279805.109,3.906,23.438,14.648,29.785,-202.637
1532279805.113,2.441,23.438,17.578,33.691,128.906
1532279805.117,0.977,23.438,17.090,30.762,307.617
1532279805.121,3.418,23.438,18.066,28.809,-19.531
1532279805.125,8.789,25.391,19.531,29.297,-264.160
1532279805.129,12.695,25.879,19.531,36.621,22.949
1532279805.133,16.602,24.414,21.484,42.480,288.574
1532279805.137,12.695,23.438,22.949,40.039,72.266
1532279805.141,6.348,25.391,20.508,36.621,-235.352
1532279805.144,12.207,30.762,18.066,34.668,-64.941
1532279805.148,18.066,32.715,17.090,38.086,277.832
1532279805.152,19.043,29.785,20.508,40.039,173.340
1532279805.156,11.719,28.809,22.949,36.621,-163.086
1532279805.160,7.812,28.320,22.461,40.039,-140.625
1532279805.164,17.090,28.320,23.438,40.039,196.289
1532279805.168,17.578,30.273,23.438,35.645,233.398
1532279805.172,17.578,31.250,22.461,39.062,-122.559
1532279805.176,20.996,32.715,21.484,42.969,-228.027
1532279805.180,19.531,32.715,21.484,44.922,113.281
1532279805.184,18.555,32.227,23.926,39.062,229.492
1532279805.187,16.602,33.691,24.902,35.156,-58.594
1532279805.191,20.508,32.715,25.391,42.969,-222.656
1532279805.195,23.438,31.738,25.879,50.293,9.277
1532279805.199,20.996,33.691,29.785,54.199,261.230
1532279805.203,23.926,31.250,29.785,52.246,66.406
1532279805.207,23.438,30.273,30.273,50.293,-230.957
1532279805.211,23.926,29.297,31.738,53.223,-66.895
1532279805.215,27.832,27.832,30.762,53.223,263.184
1532279805.219,26.855,30.273,30.762,50.293,187.988
1532279805.223,26.855,32.715,33.203,50.293,-184.082
1532279805.227,31.738,34.180,33.203,48.828,-203.613
1532279805.230,29.785,34.668,30.273,50.781,179.199
1532279805.234,32.715,35.645,28.320,57.617,267.578
1532279805.238,35.156,39.062,28.320,54.199,-57.617
1532279805.242,28.809,40.039,29.297,47.363,-210.938
1532279805.246,29.785,37.109,28.320,49.805,88.379
1532279805.250,35.645,37.598,29.785,56.641,294.434
1532279805.254,38.086,41.504,29.785,54.688,41.504
1532279805.258,34.180,40.527,30.273,47.852,-180.176
1532279805.262,31.250,38.086,31.250,49.805,11.230
1532279805.266,30.762,37.109,31.250,46.875,271.973
1532279805.269,25.391,37.109,32.227,42.480,109.375
1532279805.273,30.762,36.621,31.250,44.922,-209.473
1532279805.277,34.668,36.621,28.809,51.758,-101.562
1532279805.281,30.762,35.645,31.250,55.176,203.613
1532279805.285,29.785,33.203,32.715,48.340,167.969
1532279805.289,29.297,34.180,31.250,44.434,-151.367
1532279805.293,39.551,35.156,30.762,48.828,-176.758
1532279805.297,46.387,35.645,30.762,57.129,185.547
1532279805.301,37.598,35.156,31.738,60.547,286.621
1532279805.305,35.645,32.715,34.668,53.223,-59.082
1532279805.309,34.180,32.715,33.691,50.781,-237.793
1532279805.312,30.762,33.203,28.809,53.223,58.105
1532279805.316,36.621,32.227,27.832,52.246,277.344
1532279805.320,37.598,32.227,32.227,52.246,33.691
1532279805.324,36.621,34.668,32.715,47.363,-225.098
1532279805.328,37.109,36.133,28.809,48.828,-37.109
1532279805.332,34.180,35.156,29.297,54.688,263.184
1532279805.336,33.203,34.668,28.809,51.758,135.254
1532279805.340,36.133,34.180,28.320,50.293,-201.660
1532279805.344,33.691,33.691,28.320,47.363,-143.066
1532279805.348,30.273,33.691,27.832,45.410,229.492
1532279805.352,37.598,33.203,28.809,46.387,238.281
1532279805.355,37.598,34.668,31.738,47.363,-152.344
1532279805.359,32.715,34.668,32.227,52.246,-217.773
1532279805.363,28.320,34.180,31.250,52.246,124.023
1532279805.367,26.367,32.715,32.715,49.316,254.883
1532279805.371,31.250,34.668,33.691,52.734,-29.785
1532279805.375,30.762,34.180,34.668,54.688,-214.355
1532279805.379,25.879,32.227,33.691,52.734,59.570
1532279805.383,24.902,33.203,31.250,51.270,294.922
1532279805.387,30.273,33.691,32.227,47.852,83.008
1532279805.391,26.855,32.715,31.738,44.922,-199.707
1532279805.394,25.391,32.227,29.297,44.922,-47.852
1532279805.398,29.785,34.180,29.785,45.898,262.695
1532279805.402,27.832,34.180,29.297,39.551,156.250
1532279805.406,30.273,34.180,29.785,33.691,-193.359
1532279805.410,38.574,36.621,29.785,41.016,-165.039
1532279805.414,44.922,38.574,29.297,44.434,188.477
1532279805.418,52.246,40.527,30.273,45.410,211.914
1532279805.422,47.852,40.039,28.809,44.434,-120.605
1532279805.426,41.016,37.109,29.785,47.852,-207.520
1532279805.430,39.551,35.156,32.715,54.688,115.723
1532279805.434,29.785,31.738,34.668,57.617,250.977
1532279805.437,27.832,31.250,38.574,58.594,-12.695
1532279805.441,27.832,36.133,36.621,54.199,-218.262
1532279805.445,21.484,35.156,33.691,52.246,-8.789
1532279805.449,17.090,32.715,32.715,53.711,255.859
1532279805.453,14.648,33.691,32.227,51.270,92.285
1532279805.457,12.695,33.691,32.227,44.922,-185.059
1532279805.461,13.672,32.715,31.738,42.969,-83.496
1532279805.465,22.461,29.785,30.273,40.039,212.402
1532279805.469,25.391,28.320,29.785,38.086,161.133
1532279805.473,18.555,28.320,28.320,38.086,-176.758
1532279805.476,24.414,27.344,26.855,41.992,-173.828
1532279805.480,34.180,27.832,27.344,49.316,174.805
1532279805.484,31.738,28.809,30.273,49.805,238.281
1532279805.488,27.344,25.879,31.250,46.387,-75.684
1532279805.492,31.250,25.879,31.250,48.828,-192.871
1532279805.496,30.762,26.855,31.738,49.805,111.816
1532279805.500,30.273,27.832,30.273,47.852,296.387
1532279805.504,29.785,29.785,27.832,39.551,-5.371
1532279805.508,24.902,29.297,27.344,35.645,-236.328
1532279805.512,22.461,26.367,28.809,44.434,20.996
1532279805.516,19.043,24.414,30.273,46.875,309.082
1532279805.519,13.184,23.438,28.809,42.969,117.188
1532279805.523,11.230,23.438,27.832,41.504,-257.324
1532279805.527,14.648,24.902,28.809,44.434,-138.184
1532279805.531,19.043,25.391,28.809,46.875,240.723
1532279805.535,21.973,25.391,29.785,46.387,207.520
1532279805.539,22.949,23.926,27.344,44.434,-156.250
1532279805.543,20.020,22.461,25.879,43.457,-185.547
1532279805.547,18.066,24.414,25.879,40.527,166.016
1532279805.551,17.090,24.902,24.902,37.598,277.832
1532279805.555,16.602,25.391,25.879,34.180,-50.781
1532279805.559,14.160,25.391,27.344,37.109,-205.566
1532279805.562,15.625,27.344,27.344,40.527,78.613
1532279805.566,20.020,29.297,30.762,41.016,274.902
1532279805.570,24.414,31.250,30.273,43.945,43.457
1532279805.574,27.344,34.180,26.367,43.457,-238.770
1532279805.578,27.832,31.738,24.902,43.457,-44.434
1532279805.582,24.414,29.297,22.949,37.109,254.395
1532279805.586,21.484,26.855,24.414,34.180,119.629
1532279805.590,24.414,24.902,26.855,39.551,-210.938
1532279805.594,22.461,22.461,26.855,41.016,-142.578
1532279805.598,25.391,23.926,22.949,43.457,227.051
1532279805.601,28.320,27.344,22.949,37.109,238.281
1532279805.605,23.438,26.855,23.926,27.344,-132.812
1532279805.609,21.484,25.879,25.391,30.762,-194.824
1532279805.613,16.602,25.391,23.926,33.203,150.879
1532279805.617,10.254,26.855,21.484,26.855,286.133
1532279805.621,10.742,26.855,22.949,28.809,-25.391
1532279805.625,17.090,22.949,25.879,35.156,-211.426
1532279805.629,18.555,22.461,26.367,36.621,74.219
1532279805.633,18.066,22.461,25.391,39.551,290.527
1532279805.637,16.602,20.508,27.344,40.039,63.477
1532279805.641,15.625,19.531,26.367,38.086,-218.750
1532279805.644,15.137,19.043,27.832,33.691,-88.379
1532279805.648,12.695,20.508,30.273,34.180,228.516
1532279805.652,11.230,20.508,28.809,38.086,182.617
1532279805.656,17.090,20.996,24.902,36.621,-158.691
1532279805.660,22.461,23.926,22.461,38.574,-149.902
1532279805.664,27.832,25.391,24.902,42.480,213.379
1532279805.668,31.738,24.902,25.879,40.527,268.066
1532279805.672,27.344,25.391,26.367,36.133,-67.871
1532279805.676,26.855,27.344,27.344,41.504,-198.730
1532279805.680,33.691,25.391,26.855,49.805,102.051
1532279805.684,36.621,23.926,27.832,46.875,264.648
1532279805.687,29.785,26.855,27.832,44.434,-21.973
1532279805.691,24.414,25.391,23.438,42.969,-245.117
1532279805.695,21.973,23.438,22.461,41.016,8.301
1532279805.699,20.996,25.879,23.926,41.992,289.551
1532279805.703,15.625,24.902,21.973,33.203,77.637
1532279805.707,12.695,21.973,22.949,25.391,-250.977
1532279805.711,17.090,24.414,22.461,38.086,-75.195
1532279805.715,19.531,26.367,21.484,42.480,282.227
1532279805.719,18.555,28.320,23.926,36.133,194.824
1532279805.723,13.672,33.203,24.902,36.133,-160.156
1532279805.726,14.648,34.668,24.414,33.691,-174.316
1532279805.730,12.207,35.156,24.414,31.250,177.734
1532279805.734,9.766,35.645,26.367,30.273,240.723
1532279805.738,11.230,35.156,28.320,31.250,-84.473
1532279805.742,17.090,35.156,29.785,35.156,-216.309
1532279805.746,16.602,33.203,28.809,33.691,78.613
1532279805.750,10.254,35.156,27.832,31.738,289.551
1532279805.754,11.230,39.062,28.320,29.785,12.695
1532279805.758,11.719,40.527,27.832,28.809,-234.375
1532279805.762,10.254,39.062,26.855,28.320,-6.836
1532279805.766,5.371,36.133,25.391,27.344,264.160
1532279805.769,5.371,33.203,24.902,25.879,111.816
1532279805.773,10.254,32.227,25.391,25.391,-228.516
1532279805.777,6.836,31.250,26.367,30.762,-135.254
1532279805.781,4.883,32.227,25.879,33.203,229.004
1532279805.785,9.766,34.668,26.367,28.809,187.012
1532279805.789,12.207,31.738,28.320,32.227,-147.461
1532279805.793,16.113,28.809,29.297,40.039,-161.621
1532279805.797,16.602,29.785,29.785,41.504,173.828
1532279805.801,12.695,29.297,27.832,37.598,253.906
1532279805.805,14.160,31.250,27.832,37.109,-87.402
1532279805.808,19.531,29.297,26.855,39.062,-202.637
1532279805.812,19.043,27.344,25.879,40.039,87.891
1532279805.816,11.230,29.785,26.855,38.574,275.391
1532279805.820,11.719,30.762,24.414,34.180,49.316
1532279805.824,12.207,28.809,23.438,29.785,-257.324
1532279805.828,15.625,25.879,22.949,35.645,-60.547
1532279805.832,20.508,24.414,23.438,39.551,285.156
1532279805.836,21.484,24.414,25.391,38.574,144.531
1532279805.840,20.996,25.879,25.879,36.133,-177.246
1532279805.844,24.414,22.461,26.855,38.086,-135.254
1532279805.848,26.855,21.973,28.320,46.387,214.844
1532279805.851,26.855,24.414,28.320,51.758,247.559
1532279805.855,26.367,21.484,29.297,52.246,-110.840
1532279805.859,23.926,20.996,26.367,51.758,-196.289
1532279805.863,28.320,25.391,23.926,51.270,139.648
1532279805.867,30.762,28.809,25.879,49.316,291.016
1532279805.871,23.926,27.832,25.391,45.898,-14.160
1532279805.875,18.066,25.879,25.391,41.016,-215.820
1532279805.879,17.578,26.855,22.949,42.969,33.203
1532279805.883,20.996,27.832,21.973,42.480,259.277
1532279805.887,25.879,27.832,25.391,37.109,32.715
1532279805.891,23.438,27.344,26.855,40.039,-251.953
1532279805.894,20.996,28.320,24.902,47.852,-59.570
1532279805.898,21.484,30.762,25.391,50.781,284.668
1532279805.902,24.902,30.762,28.320,48.340,171.387
1532279805.906,20.996,30.762,27.344,43.945,-153.809
1532279805.910,17.578,28.809,27.832,39.062,-111.816
1532279805.914,20.020,26.367,28.809,38.574,204.102
1532279805.918,16.602,26.855,28.320,40.527,229.980
1532279805.922,10.742,28.320,27.832,36.133,-105.469
1532279805.926,13.672,29.297,24.414,32.715,-235.840
1532279805.930,16.602,29.785,22.461,38.574,97.168
1532279805.933,14.648,31.738,24.414,38.086,304.688
1532279805.937,18.555,32.227,24.414,35.645,25.391
1532279805.941,19.531,30.762,26.855,38.086,-218.750
1532279805.945,18.066,29.297,27.344,34.668,-18.066
1532279805.949,16.602,27.832,29.297,37.109,276.855
1532279805.953,17.578,27.832,28.320,39.551,90.332
1532279805.957,18.066,28.320,26.855,40.527,-224.609
1532279805.961,25.879,27.832,27.832,43.945,-73.242
1532279805.965,24.414,25.879,28.809,41.504,255.859
1532279805.969,12.207,26.367,28.809,38.086,189.941
1532279805.973,12.695,25.879,28.809,34.668,-147.949
1532279805.976,15.625,22.949,30.762,36.621,-171.387
1532279805.980,15.625,21.973,32.227,40.527,159.668
1532279805.984,15.625,22.949,33.203,37.109,235.840
1532279805.988,18.066,25.879,29.785,33.203,-88.867
1532279805.992,18.066,28.320,26.855,33.203,-230.469
1532279805.996,11.719,24.414,28.320,33.203,95.215
1532279806.000,5.371,25.879,28.809,31.738,285.645
1532279806.004,7.324,29.785,27.832,28.809,10.742
1532279806.008,10.742,26.855,28.320,31.250,-221.680
1532279806.012,12.207,25.879,31.250,39.062,-28.809
1532279806.016,12.207,23.438,31.250,36.621,274.414
1532279806.019,6.836,20.508,30.273,33.203,127.930
1532279806.023,6.348,21.973,31.250,28.320,-218.262
1532279806.027,9.277,21.973,32.715,29.785,-126.465
1532279806.031,12.695,22.461,34.180,42.480,252.930
1532279806.035,14.648,23.438,35.156,41.992,217.285
1532279806.039,19.531,22.949,34.668,41.504,-149.414
1532279806.043,26.367,21.973,33.203,46.875,-168.945
1532279806.047,22.461,23.438,33.203,46.875,159.180
1532279806.051,17.090,26.367,30.273,42.480,265.137
1532279806.055,22.461,27.832,29.297,41.016,-32.227
1532279806.058,27.344,26.367,29.297,43.457,-213.867
1532279806.062,22.461,25.879,28.809,41.992,49.316
1532279806.066,17.578,25.879,29.785,38.574,261.230
1532279806.070,16.602,23.438,30.762,39.551,38.086
1532279806.074,17.090,21.484,29.297,40.527,-218.262
1532279806.078,15.625,24.414,29.297,41.992,-28.320
1532279806.082,20.508,27.344,29.297,42.480,274.902
1532279806.086,18.555,26.367,28.809,38.086,141.602
1532279806.090,12.695,26.855,29.785,36.621,-194.824
1532279806.094,11.230,24.902,29.297,38.574,-135.742
1532279806.098,5.371,21.484,31.738,38.086,214.844
1532279806.101,5.859,22.949,33.691,35.645,227.051
1532279806.105,10.742,24.902,32.227,33.691,-126.465
1532279806.109,14.648,27.344,30.273,37.598,-204.590
1532279806.113,12.207,26.855,27.832,40.039,134.766
1532279806.117,11.719,28.809,28.320,37.598,297.852
1532279806.121,14.648,29.297,30.762,35.156,6.836
1532279806.125,17.090,29.297,28.809,33.691,-206.543
1532279806.129,22.461,28.320,25.879,39.062,47.852
1532279806.133,14.648,25.879,26.855,40.527,305.176
1532279806.137,11.719,26.367,27.344,38.574,88.867
1532279806.141,20.996,29.297,27.344,36.133,-209.961
1532279806.144,18.555,31.250,25.879,31.250,-64.941
1532279806.148,17.090,30.762,25.879,29.297,278.809
1532279806.152,25.391,30.762,25.391,30.762,198.730
1532279806.156,26.855,29.785,23.926,33.691,-170.898
1532279806.160,30.273,30.762,21.484,33.691,-143.555
1532279806.164,36.621,33.691,20.020,28.809,184.082
1532279806.168,37.109,33.691,22.461,28.320,226.074
1532279806.172,32.715,30.273,23.926,33.203,-54.688
1532279806.176,26.367,26.855,25.391,40.527,-180.176
1532279806.180,24.414,24.902,27.832,45.898,106.445
1532279806.183,23.438,24.414,29.785,43.457,295.410
1532279806.187,22.949,28.320,28.809,42.480,14.160
1532279806.191,23.926,30.762,26.855,40.527,-222.656
1532279806.195,18.066,31.250,27.832,39.062,5.371
1532279806.199,15.625,31.250,30.273,38.574,290.527
1532279806.203,17.090,31.250,27.832,30.273,105.957
1532279806.207,19.043,28.809,28.320,22.949,-233.398
1532279806.211,20.996,25.391,29.785,34.180,-103.516
1532279806.215,17.578,24.902,30.273,42.480,261.230
1532279806.219,19.531,24.414,30.762,37.598,201.660
1532279806.223,18.066,26.367,27.344,32.715,-150.391
1532279806.226,14.648,27.832,26.367,36.621,-170.898
1532279806.230,17.090,25.391,27.344,40.039,177.246
1532279806.234,17.578,23.926,27.832,39.551,268.555
1532279806.238,21.484,24.902,28.809,39.551,-45.410
1532279806.242,25.391,25.391,27.832,37.598,-212.891
1532279806.246,28.320,28.320,24.414,39.551,51.758
1532279806.250,27.832,28.320,23.438,42.969,238.281
1532279806.254,26.367,26.367,27.344,41.992,-17.090
1532279806.258,29.297,24.902,28.320,39.062,-235.840
1532279806.262,22.461,22.949,24.902,39.551,-27.344
1532279806.265,18.066,23.926,26.367,38.574,257.812
1532279806.269,21.484,24.414,27.344,34.668,114.746
1532279806.273,22.949,24.902,25.391,33.691,-184.570
1532279806.277,24.414,22.949,25.391,40.039,-73.242
1532279806.281,24.902,22.461,27.344,42.969,254.395
1532279806.285,21.973,21.973,30.762,41.016,228.027
1532279806.289,16.602,18.555,30.762,40.039,-125.000
1532279806.293,22.949,17.090,26.367,42.480,-151.367
1532279806.297,26.855,18.555,25.879,46.875,177.734
1532279806.301,20.996,22.461,25.879,46.387,265.137
1532279806.305,20.508,23.926,26.367,31.738,-53.223
1532279806.308,22.461,23.438,27.832,28.320,-236.328
1532279806.312,26.367,22.949,26.367,41.016,70.312
1532279806.316,25.391,22.461,21.973,39.062,289.062
1532279806.320,21.973,21.484,21.973,32.227,58.594
1532279806.324,20.020,22.461,23.438,29.297,-200.684
1532279806.328,13.184,22.949,21.484,31.738,-23.438
1532279806.332,12.695,23.438,22.949,35.156,300.293
1532279806.336,17.578,26.855,25.391,34.668,176.758
1532279806.340,20.020,26.855,23.926,36.621,-171.875
1532279806.344,23.438,24.902,22.949,35.645,-148.926
1532279806.348,21.484,23.926,23.438,32.227,186.523
1532279806.351,24.414,23.926,24.414,34.668,229.980
1532279806.355,22.949,23.438,25.879,35.156,-109.375
1532279806.359,18.066,22.461,23.926,35.156,-187.988
1532279806.363,20.508,23.438,23.438,36.133,130.859
1532279806.367,19.531,24.902,24.414,34.180,274.414
1532279806.371,18.066,27.344,22.461,32.715,-26.855
1532279806.375,17.578,27.832,21.973,32.227,-215.332
1532279806.379,17.090,26.855,24.414,35.156,35.156
1532279806.383,15.625,26.367,24.902,34.180,297.852
1532279806.387,17.578,28.809,27.832,31.738,74.219
1532279806.390,19.531,31.250,26.855,32.227,-226.074
1532279806.394,24.902,31.738,22.949,33.691,-58.594
1532279806.398,25.879,30.762,22.949,36.133,237.793
1532279806.402,21.484,33.691,23.926,31.738,141.602
1532279806.406,21.484,39.062,24.414,23.926,-226.074
1532279806.410,27.344,39.062,21.484,24.414,-173.340
1532279806.414,25.391,36.621,21.484,34.668,210.938
1532279806.418,20.508,33.203,23.438,34.668,259.766
1532279806.422,23.438,31.738,22.461,29.297,-86.914
1532279806.426,28.809,33.203,23.926,37.109,-210.449
1532279806.430,28.320,32.227,21.973,42.969,121.094
1532279806.433,23.926,28.320,20.508,43.457,290.527
1532279806.437,22.949,26.855,23.438,42.969,4.883
1532279806.441,23.438,28.809,24.414,39.551,-244.629
1532279806.445,27.344,29.785,22.949,38.574,-19.043
1532279806.449,30.762,29.785,20.020,43.945,284.668
1532279806.453,27.832,31.250,20.996,46.387,114.258
1532279806.457,24.902,30.762,23.438,43.945,-184.570
1532279806.461,22.949,29.297,23.438,45.410,-82.031
1532279806.465,18.066,30.762,23.438,41.504,242.188
1532279806.469,18.555,31.738,25.391,38.574,202.637
1532279806.473,21.973,31.250,27.344,42.480,-136.719
1532279806.476,22.461,29.297,25.879,41.504,-163.086
1532279806.480,20.020,27.832,24.414,41.016,172.363
1532279806.484,19.531,28.809,23.926,35.645,225.586
1532279806.488,20.996,27.832,25.391,33.203,-118.652
1532279806.492,19.531,26.367,25.879,40.039,-234.375
1532279806.496,18.066,25.879,24.902,42.480,86.914
1532279806.500,17.090,27.344,28.320,42.480,271.973
1532279806.504,19.043,26.367,29.785,43.457,2.441
1532279806.508,16.602,26.367,27.832,37.598,-236.816
1532279806.512,20.020,29.297,25.879,37.598,-19.043
1532279806.515,15.625,29.785,23.438,40.527,277.344
1532279806.519,16.113,30.273,22.949,37.598,132.324
1532279806.523,21.484,29.297,24.414,35.156,-223.633
1532279806.527,21.973,30.273,24.902,37.109,-150.391
1532279806.531,26.855,32.227,26.855,42.969,230.469
1532279806.535,24.414,32.227,25.879,41.016,223.633
1532279806.539,22.949,35.156,25.879,41.016,-123.535
1532279806.543,27.832,36.621,27.344,43.457,-187.500
1532279806.547,28.320,35.645,25.879,43.945,157.227
1532279806.551,22.461,37.598,23.438,37.598,276.367
1532279806.555,19.531,39.551,26.367,32.227,-51.758
1532279806.558,17.578,39.062,27.344,34.180,-240.234
1532279806.562,20.996,38.574,25.391,30.762,21.973
1532279806.566,17.090,37.598,27.344,23.438,249.023
1532279806.570,11.719,35.156,28.809,21.484,50.781
1532279806.574,16.602,38.086,24.414,23.438,-230.957
1532279806.578,17.578,39.551,24.414,26.367,-59.082
1532279806.582,15.625,39.062,28.809,28.809,254.395
1532279806.586,11.230,40.039,29.297,23.926,116.699
1532279806.590,14.160,40.527,28.809,24.902,-206.055
1532279806.594,16.602,40.039,27.832,33.203,-138.184
1532279806.598,10.742,37.598,26.855,32.715,224.121
1532279806.601,10.742,36.621,28.809,33.691,255.859
1532279806.605,17.090,37.598,28.809,31.738,-106.934
1532279806.609,16.602,37.598,28.809,31.250,-222.656
1532279806.613,14.160,37.598,28.809,32.715,118.164
1532279806.617,16.602,37.598,28.320,31.250,306.641
1532279806.621,19.531,38.574,29.785,29.785,-16.113
1532279806.625,26.367,37.598,27.832,30.273,-260.254
1532279806.629,26.367,35.645,26.855,36.133,20.020
1532279806.633,25.391,37.109,28.809,40.527,310.547
1532279806.637,23.926,37.109,28.320,37.109,98.145
1532279806.640,28.320,34.180,28.809,34.180,-237.793
1532279806.644,26.855,34.180,28.320,33.203,-83.496
1532279806.648,16.113,35.156,28.809,33.203,249.512
1532279806.652,17.090,33.203,30.273,37.109,163.086
1532279806.656,17.090,31.250,27.832,36.133,-181.152
1532279806.660,14.648,28.320,26.367,32.227,-155.273
1532279806.664,16.113,26.855,29.297,35.645,203.125
1532279806.668,12.207,28.320,27.344,35.645,219.727
1532279806.672,9.766,28.809,27.344,33.691,-111.328
1532279806.676,8.789,27.832,28.809,34.668,-205.566
1532279806.680,7.812,26.367,25.391,37.598,107.422
1532279806.683,12.695,26.855,24.902,31.250,249.023
1532279806.687,13.672,29.785,23.926,19.043,-21.484
1532279806.691,10.254,30.762,22.461,16.602,-207.031
1532279806.695,12.207,29.785,22.949,21.484,18.555
1532279806.699,16.602,30.273,24.414,23.926,273.438
1532279806.703,16.113,32.715,26.855,20.020,104.492
1532279806.707,14.160,33.691,27.832,17.090,-170.410
1532279806.711,18.555,32.715,25.879,20.996,-50.781
1532279806.715,27.344,36.621,25.879,28.320,249.023
1532279806.719,27.832,39.062,25.879,33.203,200.684
1532279806.722,21.973,37.598,28.320,31.738,-181.152
1532279806.726,22.949,36.621,33.691,30.273,-229.492
1532279806.730,26.367,38.086,36.621,35.156,175.781
1532279806.734,29.297,41.016,36.621,35.156,288.086
1532279806.738,29.785,41.992,38.574,36.621,-67.383
1532279806.742,31.250,41.016,39.062,37.109,-242.676
1532279806.746,37.598,42.969,36.133,38.086,52.734
1532279806.750,32.715,43.945,35.645,38.086,278.809
1532279806.754,25.391,42.480,35.156,29.297,45.898
1532279806.758,24.414,43.945,33.691,29.297,-190.918
1532279806.762,25.391,42.969,33.203,33.691,3.906
1532279806.765,25.391,41.504,34.668,28.809,248.535
1532279806.769,27.832,41.016,34.668,32.715,102.051
1532279806.773,32.227,41.504,33.691,39.551,-179.688
1532279806.777,32.227,41.992,29.297,40.527,-107.422
1532279806.781,28.320,41.504,28.809,39.062,222.656
1532279806.785,24.414,37.598,30.273,33.691,219.727
1532279806.789,26.367,34.668,30.762,32.715,-125.488
1532279806.793,30.762,36.133,32.715,39.062,-165.039
1532279806.797,36.133,38.574,32.715,44.434,165.527
1532279806.801,30.762,39.551,32.715,40.039,250.000
1532279806.805,26.367,39.551,32.715,37.598,-60.059
1532279806.808,28.809,37.598,32.227,40.527,-213.867
1532279806.812,27.344,37.109,32.227,40.039,71.777
1532279806.816,30.273,39.551,34.180,41.016,295.410
1532279806.820,32.227,42.480,34.180,38.086,57.617
1532279806.824,31.738,42.480,30.762,30.273,-261.719
1532279806.828,34.668,41.992,32.227,34.668,-79.590
1532279806.832,35.645,39.551,33.203,41.992,275.391
1532279806.836,37.598,34.180,34.180,38.574,158.203
1532279806.840,34.180,32.227,35.645,36.621,-200.684
1532279806.844,31.738,31.250,32.227,39.551,-182.129
1532279806.847,33.691,27.344,30.762,42.969,187.012
1532279806.851,26.367,27.832,31.250,41.016,248.047
1532279806.855,22.949,28.320,26.855,36.621,-108.887
1532279806.859,23.438,28.809,26.367,38.574,-199.219
1532279806.863,26.855,29.297,27.344,38.086,105.469
1532279806.867,20.508,28.809,27.832,30.762,239.746
1532279806.871,16.113,29.297,30.273,27.832,-12.695
1532279806.875,20.020,29.785,32.227,31.738,-226.074
1532279806.879,16.602,29.297,29.297,34.668,19.043
1532279806.883,16.113,28.809,28.809,35.156,272.949
1532279806.887,16.113,30.762,31.738,35.156,54.199
1532279806.890,20.508,31.250,30.273,34.180,-224.609
1532279806.894,23.438,29.297,29.297,35.156,-76.172
1532279806.898,22.461,29.785,28.320,42.480,250.977
1532279806.902,23.926,31.250,30.762,41.992,146.973
1532279806.906,26.855,31.738,33.691,37.109,-195.801
1532279806.910,27.832,33.203,32.715,41.016,-153.809
1532279806.914,24.902,33.203,32.227,42.480,216.797
1532279806.918,21.484,33.203,31.250,42.969,287.598
1532279806.922,19.043,31.250,30.273,39.062,-102.539
1532279806.926,24.414,30.762,30.273,39.062,-249.512
1532279806.930,27.832,32.715,27.344,42.969,101.074
1532279806.933,23.438,33.691,26.855,40.039,271.973
1532279806.937,23.438,34.668,27.832,36.133,-27.832
1532279806.941,28.320,33.691,27.344,35.156,-246.582
1532279806.945,33.691,32.715,25.879,35.645,-7.812
1532279806.949,41.016,34.668,24.414,36.621,262.207
1532279806.953,36.621,33.691,23.926,34.668,87.402
1532279806.957,33.691,33.691,24.902,34.668,-209.961
1532279806.961,35.645,34.180,24.902,41.016,-82.031
1532279806.965,32.715,35.645,27.832,43.457,218.750
1532279806.969,34.180,37.109,33.691,44.922,171.387
1532279806.972,30.273,34.668,34.668,45.410,-140.625
1532279806.976,23.438,34.668,34.668,48.828,-158.203
1532279806.980,24.902,34.180,35.645,52.246,178.711
1532279806.984,26.855,33.203,35.156,52.734,260.742
1532279806.988,25.879,34.668,33.691,50.781,-51.270
1532279806.992,31.738,36.133,34.180,48.340,-198.730
1532279806.996,37.109,34.180,35.156,53.711,70.801
1532279807.000,37.109,35.645,33.691,57.617,298.340
1532279807.004,40.039,39.551,34.180,54.688,35.645
1532279807.008,38.086,38.574,34.180,52.734,-259.766
1532279807.012,31.738,37.109,33.691,54.688,-16.602
1532279807.015,30.762,35.645,34.668,54.688,284.668
1532279807.019,34.180,34.668,36.621,50.293,129.883
1532279807.023,34.668,34.668,37.109,47.363,-198.730
1532279807.027,35.645,34.180,35.645,51.758,-118.164
1532279807.031,36.621,33.691,35.645,53.223,232.422
1532279807.035,39.551,33.691,36.133,50.293,236.328
1532279807.039,40.039,34.180,34.668,51.270,-113.770
1532279807.043,38.574,33.691,33.691,47.852,-196.777
1532279807.047,38.086,32.715,31.738,47.363,158.691
1532279807.051,33.691,32.715,30.762,49.316,308.105
1532279807.055,33.203,31.250,30.762,46.875,-42.969
1532279807.058,33.691,26.367,32.227,47.852,-227.051
1532279807.062,33.203,22.949,34.180,50.293,54.199
1532279807.066,35.645,22.949,34.668,50.781,278.320
1532279807.070,36.621,20.996,33.203,53.711,58.594
1532279807.074,36.621,20.996,34.180,53.711,-246.094
1532279807.078,37.109,21.484,35.645,57.129,-59.570
1532279807.082,40.039,20.508,33.203,59.082,275.879
1532279807.086,39.551,20.020,32.227,53.711,139.648
1532279807.090,39.551,20.020,34.180,51.758,-186.523
1532279807.094,44.434,19.043,34.668,56.152,-125.488
1532279807.097,41.504,17.578,33.203,59.082,227.539
1532279807.101,38.574,18.555,30.273,54.199,213.867
1532279807.105,36.621,21.484,30.762,46.387,-149.902
1532279807.109,38.086,21.973,29.785,47.852,-205.566
1532279807.113,39.551,21.973,29.297,51.758,114.746
1532279807.117,39.062,21.484,31.250,55.176,278.809
1532279807.121,39.062,20.996,32.227,54.688,-5.371
1532279807.125,34.180,21.973,31.250,48.828,-231.934
1532279807.129,34.180,21.973,31.738,49.316,19.531
1532279807.133,34.180,20.996,32.227,49.316,292.969
1532279807.137,26.855,19.043,29.297,40.527,97.656
1532279807.140,26.367,19.043,29.297,36.133,-221.680
1532279807.144,33.691,21.973,28.809,40.039,-112.305
1532279807.148,31.250,20.996,28.320,42.969,227.539
1532279807.152,27.832,21.973,30.273,42.969,179.199
1532279807.156,28.320,20.996,29.297,39.062,-160.156
1532279807.160,27.344,18.555,26.855,39.062,-139.160
1532279807.164,25.879,18.555,28.320,41.992,186.035
1532279807.168,21.973,20.020,30.762,39.551,269.043
1532279807.172,19.531,21.484,32.227,35.645,-69.824
1532279807.176,17.578,20.508,31.250,33.691,-212.402
1532279807.179,17.578,19.043,31.738,38.086,115.234
1532279807.183,17.578,18.066,34.180,36.621,273.438
1532279807.187,14.160,18.555,33.203,31.250,9.277
1532279807.191,13.184,18.555,32.227,31.738,-208.984
1532279807.195,13.184,18.066,31.738,33.691,3.418
1532279807.199,11.230,20.020,29.297,35.645,294.922
1532279807.203,10.254,23.926,31.738,26.855,117.676
1532279807.207,4.395,22.949,30.762,19.043,-187.988
1532279807.211,1.953,20.996,28.320,21.973,-89.844
1532279807.215,7.324,21.484,31.250,23.926,233.887
1532279807.219,6.836,21.973,33.691,24.414,220.215
1532279807.222,-3.418,20.020,35.156,19.043,-130.371
1532279807.226,-4.395,18.555,34.180,20.508,-180.664
1532279807.230,1.465,20.020,29.785,24.414,159.668
1532279807.234,1.953,25.391,25.391,18.066,236.816
1532279807.238,1.953,28.809,23.926,11.719,-88.867
1532279807.242,-5.371,25.879,26.855,11.230,-218.750
1532279807.246,-11.230,24.414,29.785,5.859,53.223
1532279807.250,-10.742,26.855,27.832,2.930,259.277
1532279807.254,-11.230,28.320,30.273,7.812,34.180
1532279807.258,-13.672,26.367,36.621,8.789,-222.656
1532279807.262,-13.184,23.926,35.645,14.648,-26.367
1532279807.265,-7.812,24.902,33.203,21.484,284.180
1532279807.269,-4.395,27.344,35.156,20.020,144.043
1532279807.273,-3.906,26.855,37.598,20.020,-165.527
1532279807.277,-0.488,26.367,37.598,24.414,-104.004
1532279807.281,2.441,27.832,36.133,24.902,221.191
1532279807.285,5.859,29.785,32.227,17.090,206.543
1532279807.289,6.348,30.762,30.273,13.672,-137.207
1532279807.293,5.371,31.738,31.738,18.066,-181.641
1532279807.297,6.348,29.785,31.250,21.973,160.156
1532279807.301,1.953,28.320,30.273,19.531,273.438
1532279807.304,2.930,27.832,27.344,12.207,-34.180
1532279807.308,14.160,31.250,24.414,18.066,-236.816
1532279807.312,14.160,34.180,21.973,22.461,16.602
1532279807.316,9.277,33.691,21.973,20.996,280.762
1532279807.320,9.277,32.227,25.391,21.973,63.965
1532279807.324,8.789,27.832,26.367,20.508,-247.070
1532279807.328,9.766,23.926,26.367,24.902,-80.566
1532279807.332,13.672,25.879,27.344,30.762,267.578
1532279807.336,13.184,24.414,28.320,30.762,174.316
1532279807.340,16.602,21.484,29.297,34.180,-190.430
1532279807.344,22.461,23.438,30.273,34.180,-185.059
1532279807.347,24.414,23.926,30.273,35.156,169.922
1532279807.351,25.391,23.438,30.762,41.504,225.586
1532279807.355,24.414,24.414,29.297,37.598,-99.609
1532279807.359,25.879,23.926,27.832,37.109,-193.848
1532279807.363,27.832,24.414,28.320,38.086,112.793
1532279807.367,25.879,26.367,25.879,38.086,276.855
1532279807.371,21.484,24.902,25.879,37.109,-2.441
1532279807.375,20.020,22.461,25.391,35.156,-216.309
1532279807.379,27.832,23.438,25.879,41.016,41.992
1532279807.383,30.273,24.902,26.855,38.574,284.668
1532279807.387,20.020,26.855,26.367,28.809,66.406
1532279807.390,21.973,27.832,26.367,32.715,-197.754
1532279807.394,23.926,26.367,29.297,38.574,-57.617
1532279807.398,19.043,25.879,28.320,39.551,265.137
1532279807.402,19.043,27.832,23.438,33.203,178.711
1532279807.406,16.113,28.320,26.367,31.250,-183.105
1532279807.410,15.625,25.391,27.832,34.668,-146.973
1532279807.414,17.578,24.414,25.391,35.156,193.359
1532279807.418,17.090,25.879,23.926,33.691,247.559
1532279807.422,13.672,26.855,27.344,33.203,-76.172
1532279807.426,15.137,25.879,29.785,31.250,-227.539
1532279807.429,17.578,24.414,29.785,36.133,95.703
1532279807.433,14.648,28.320,29.785,37.598,309.082
1532279807.437,14.160,29.297,30.273,35.156,25.391
1532279807.441,13.672,25.879,32.715,37.598,-230.469
1532279807.445,12.695,23.926,32.227,39.062,-6.348
1532279807.449,12.207,25.391,32.227,39.551,282.227
1532279807.453,15.137,30.273,30.762,36.133,117.188
1532279807.457,14.648,33.691,28.320,29.785,-195.801
1532279807.461,9.277,29.785,31.250,29.785,-94.727
1532279807.465,7.812,26.367,34.180,31.250,243.652
1532279807.469,10.254,28.809,32.227,26.367,223.633
1532279807.472,11.230,32.227,28.809,22.949,-122.070
1532279807.476,9.277,34.180,27.832,23.926,-175.293
1532279807.480,8.789,31.738,30.762,28.809,155.762
1532279807.484,8.789,30.762,35.645,21.973,235.840
1532279807.488,12.207,30.762,34.668,16.602,-58.594
1532279807.492,13.184,30.273,29.785,24.902,-199.219
1532279807.496,8.789,27.832,28.320,27.832,84.961
1532279807.500,5.859,26.367,30.762,28.320,316.895
1532279807.504,2.441,27.344,33.691,26.855,51.758
1532279807.508,4.883,27.344,32.715,29.297,-244.629
1532279807.512,8.301,25.391,32.227,37.109,-32.227
1532279807.515,4.395,26.367,29.297,36.621,297.852
1532279807.519,4.883,29.785,27.344,33.203,154.297
1532279807.523,6.836,29.785,29.297,28.320,-195.801
1532279807.527,3.418,29.785,30.762,23.438,-153.809
1532279807.531,7.324,30.273,30.762,32.227,208.496
1532279807.535,10.254,29.297,30.273,36.133,229.980
1532279807.539,5.859,32.227,28.809,30.273,-115.723
1532279807.543,7.812,34.180,28.320,26.855,-157.715
1532279807.547,7.812,29.297,30.762,30.762,170.410
1532279807.551,4.395,25.879,31.738,27.832,278.809
1532279807.554,6.348,27.344,32.227,22.949,-50.781
1532279807.558,8.789,29.785,28.809,25.391,-239.258
1532279807.562,10.254,31.738,25.391,26.855,30.273
1532279807.566,10.254,31.250,24.902,23.438,241.211
1532279807.570,6.836,31.250,26.855,23.926,30.273
1532279807.574,4.883,30.273,26.855,28.320,-236.328
1532279807.578,8.789,28.320,26.855,32.227,-61.035
1532279807.582,9.766,27.832,29.297,32.715,277.344
1532279807.586,10.254,27.832,28.809,28.320,158.691
1532279807.590,12.207,29.785,26.367,24.414,-194.336
1532279807.594,15.137,29.785,23.926,26.367,-139.160
1532279807.597,17.090,30.762,23.438,28.809,231.934
1532279807.601,17.578,30.762,27.832,28.320,257.324
1532279807.605,20.508,30.273,28.809,22.461,-111.816
1532279807.609,23.926,30.762,25.879,24.414,-208.496
1532279807.613,25.391,33.691,23.438,30.273,132.324
1532279807.617,22.949,38.086,23.926,28.809,311.035
1532279807.621,22.461,37.109,23.438,22.461,1.953
1532279807.625,18.555,37.109,21.484,16.602,-246.094
1532279807.629,18.066,38.574,21.973,19.531,12.695
1532279807.633,20.508,35.156,22.461,23.926,301.270
1532279807.636,20.508,35.156,22.949,20.508,108.887
1532279807.640,23.926,39.062,21.484,21.484,-230.469
1532279807.644,24.902,39.062,21.973,23.438,-98.633
1532279807.648,19.043,37.598,23.438,23.926,260.254
1532279807.652,14.160,38.086,24.414,21.973,170.898
1532279807.656,13.672,39.551,23.438,19.043,-159.180
1532279807.660,15.625,39.551,25.391,21.973,-132.324
1532279807.664,18.555,40.039,27.344,23.438,185.059
1532279807.668,18.555,42.480,28.320,20.508,213.379
1532279807.672,15.137,41.504,27.344,18.066,-101.074
1532279807.676,11.719,38.574,27.344,21.973,-220.703
1532279807.679,12.695,39.062,28.320,25.391,66.406
1532279807.683,13.672,36.133,29.297,25.879,259.766
1532279807.687,13.184,35.156,30.273,24.902,11.230
1532279807.691,12.695,40.039,29.297,20.996,-230.469
1532279807.695,11.230,40.039,24.414,22.461,-30.762
1532279807.699,15.625,39.551,23.438,24.902,257.812
1532279807.703,11.230,41.504,26.855,19.043,81.543
1532279807.707,3.418,38.574,28.320,10.254,-261.719
1532279807.711,9.277,34.668,29.785,18.066,-114.258
1532279807.715,9.277,31.738,29.785,22.949,250.977
1532279807.719,8.789,32.715,31.738,18.555,210.449
1532279807.722,15.137,35.156,33.203,18.066,-162.109
1532279807.726,20.508,36.133,29.297,21.484,-217.773
1532279807.730,19.531,34.180,24.902,22.461,144.043
1532279807.734,15.625,33.203,23.926,21.484,253.906
1532279807.738,13.184,33.203,24.902,20.996,-45.898
1532279807.742,7.324,32.715,23.438,20.508,-223.633
1532279807.746,5.371,34.180,21.484,25.391,34.668
1532279807.750,3.906,35.156,21.973,27.832,289.062
1532279807.754,-0.977,32.227,19.531,24.414,68.359
1532279807.758,-2.930,32.715,20.996,25.879,-220.703
1532279807.761,1.953,36.133,21.484,30.273,-32.227
1532279807.765,5.859,35.156,21.484,30.273,239.258
1532279807.769,2.441,31.250,26.855,26.855,106.445
1532279807.773,0.977,30.273,28.320,25.879,-194.336
1532279807.777,6.348,27.832,28.809,33.203,-140.137
1532279807.781,12.695,27.344,28.809,38.086,204.590
1532279807.785,13.672,27.832,29.297,32.227,209.473
1532279807.789,16.113,27.832,31.738,29.785,-117.188
1532279807.793,17.090,29.785,29.785,32.715,-178.711
1532279807.797,17.090,29.785,29.297,34.668,141.113
1532279807.801,13.184,30.273,27.832,27.832,281.250
1532279807.804,9.277,32.715,26.367,16.113,-45.898
1532279807.808,12.207,32.227,25.391,19.043,-246.582
1532279807.812,12.695,30.273,25.391,27.344,32.715
1532279807.816,7.324,28.809,25.879,26.855,288.574
1532279807.820,2.441,28.809,29.297,23.926,90.332
1532279807.824,3.418,28.320,28.809,22.949,-214.844
1532279807.828,2.441,24.902,24.902,27.344,-55.664
1532279807.832,6.836,24.414,27.344,30.762,273.926
1532279807.836,5.859,23.926,29.297,25.391,171.875
1532279807.840,2.930,23.926,29.297,24.414,-180.176
1532279807.844,5.859,24.414,29.297,24.414,-168.457
1532279807.847,11.230,25.391,28.320,23.926,175.293
1532279807.851,15.625,27.832,26.367,27.344,244.141
1532279807.855,10.742,31.738,23.926,21.973,-88.379
1532279807.859,12.207,33.203,20.996,19.531,-204.590
1532279807.863,13.184,29.785,20.020,21.484,129.883
1532279807.867,11.719,31.250,21.484,20.508,317.383
1532279807.871,9.277,30.273,24.414,18.555,26.367
1532279807.875,8.789,25.879,28.809,21.484,-239.258
1532279807.879,10.254,26.367,29.297,26.367,7.812
1532279807.883,11.230,29.297,26.855,25.879,288.574
1532279807.886,15.625,27.344,29.785,27.832,77.148
1532279807.890,19.531,25.391,30.762,33.203,-213.379
1532279807.894,20.508,27.344,27.832,35.156,-65.430
1532279807.898,20.020,26.367,26.855,34.180,256.836
1532279807.902,20.020,26.367,28.320,24.902,182.129
1532279807.906,17.578,30.273,27.832,19.043,-167.969
1532279807.910,19.043,30.273,26.855,26.367,-146.973
1532279807.914,19.531,27.832,26.855,30.273,192.871
1532279807.918,17.090,25.879,26.855,25.879,276.855
1532279807.922,19.043,27.344,26.855,26.367,-49.805
1532279807.926,18.066,27.832,25.391,29.297,-230.469
1532279807.929,20.508,26.367,23.438,33.203,82.520
1532279807.933,21.973,26.367,24.414,35.156,310.547
1532279807.937,20.020,29.785,25.879,32.227,54.199
1532279807.941,24.414,31.250,25.391,34.180,-207.520
1532279807.945,27.832,32.715,25.391,30.273,-25.391
1532279807.949,19.531,35.156,26.367,24.414,270.508
1532279807.953,11.230,30.762,28.320,22.949,130.371
1532279807.957,14.648,28.320,27.832,19.531,-218.262
1532279807.961,20.508,28.809,27.344,20.996,-129.883
1532279807.965,18.555,29.785,27.344,24.414,246.582
1532279807.969,16.113,28.320,25.391,20.508,210.938
1532279807.972,14.160,29.297,25.391,20.508,-155.762
1532279807.976,20.508,29.785,25.879,32.227,-167.969
1532279807.980,30.273,29.297,27.344,40.039,158.203
1532279807.984,31.738,33.691,27.832,34.180,229.980
1532279807.988,24.902,37.109,24.902,26.855,-75.195
1532279807.992,22.949,34.180,21.973,30.273,-235.352
1532279807.996,24.902,33.203,23.926,34.180,52.246
1532279808.000,20.020,34.180,24.902,29.785,287.109
1532279808.004,18.066,31.738,24.902,21.484,39.551
1532279808.008,16.113,30.273,23.926,18.555,-241.211
1532279808.011,11.230,27.344,22.949,22.461,-76.660
1532279808.015,15.625,29.785,24.902,26.367,255.859
1532279808.019,17.090,30.762,26.855,23.926,161.133
1532279808.023,15.137,27.832,26.855,21.484,-187.988
1532279808.027,19.531,27.832,25.391,25.879,-134.277
1532279808.031,20.020,27.344,23.926,30.273,222.656
1532279808.035,17.578,28.320,22.461,26.855,228.516
1532279808.039,16.113,28.320,22.949,26.367,-127.441
1532279808.043,20.508,29.785,23.438,32.715,-227.051
1532279808.047,26.367,31.738,25.879,39.062,114.746
1532279808.051,26.367,31.250,26.367,41.992,275.391
1532279808.054,20.020,30.762,26.855,41.016,-32.227
1532279808.058,22.461,31.250,26.855,41.504,-225.586
1532279808.062,22.461,29.297,26.855,43.457,30.273
1532279808.066,13.184,28.320,28.320,41.016,281.738
1532279808.070,8.301,27.344,29.785,37.598,56.641
1532279808.074,3.906,25.391,30.273,36.621,-213.379
1532279808.078,8.789,28.320,29.297,40.527,-38.086
1532279808.082,14.648,31.738,26.367,38.086,269.043
1532279808.086,17.090,32.227,24.902,27.832,147.949
1532279808.090,19.531,32.227,25.879,30.762,-188.477
1532279808.093,19.043,32.227,24.414,36.621,-140.137
1532279808.097,17.090,29.297,23.926,40.039,219.727
1532279808.101,18.555,29.297,25.391,39.062,249.023
1532279808.105,20.020,30.762,25.879,31.738,-93.262
1532279808.109,20.020,28.320,23.926,30.762,-188.965
1532279808.113,18.066,29.297,22.461,35.156,113.281
1532279808.117,19.531,32.715,21.484,33.203,288.086
1532279808.121,20.996,33.691,20.996,32.227,-12.695
1532279808.125,17.578,33.203,18.555,25.879,-256.348
1532279808.129,15.625,34.668,19.531,23.926,1.465
1532279808.133,17.578,34.180,20.020,29.785,299.805
1532279808.136,18.555,31.738,19.043,29.297,125.977
1532279808.140,17.578,30.273,22.461,29.297,-188.477
1532279808.144,17.578,29.785,23.926,29.785,-80.078
1532279808.148,17.090,26.855,21.484,29.785,260.742
1532279808.152,17.090,27.832,21.484,26.367,209.473
1532279808.156,15.625,31.738,20.996,22.949,-146.973
1532279808.160,15.625,33.203,19.531,22.949,-170.898
1532279808.164,14.160,32.227,19.531,22.949,169.434
1532279808.168,7.324,27.832,19.043,19.043,253.906
1532279808.172,5.371,27.832,20.020,14.648,-92.773
1532279808.176,8.789,27.344,21.973,17.578,-262.207
1532279808.179,12.695,26.855,20.508,24.902,72.754
1532279808.183,16.113,27.344,19.531,23.926,278.320
1532279808.187,16.602,26.855,18.555,19.043,-22.949
1532279808.191,19.043,28.809,19.043,24.902,-243.652
1532279808.195,22.949,28.809,22.461,31.738,1.953
1532279808.199,21.484,28.320,23.926,34.180,287.598
1532279808.203,19.531,28.320,22.949,29.785,113.770
1532279808.207,19.531,27.344,21.484,26.855,-216.797
1532279808.211,18.555,28.809,20.996,29.785,-121.582
1532279808.215,20.508,31.250,21.484,31.250,239.258
1532279808.218,22.949,32.227,20.996,27.832,221.680
1532279808.222,21.973,31.738,22.461,19.043,-166.504
1532279808.226,20.508,32.227,22.949,11.719,-231.445
1532279808.230,23.438,32.227,22.461,21.484,147.461
1532279808.234,29.785,30.762,24.414,32.715,280.762
1532279808.238,26.855,30.762,23.438,27.344,-28.320
1532279808.242,22.949,31.738,23.438,21.484,-222.168
1532279808.246,25.391,32.715,23.926,26.367,46.387
1532279808.250,22.949,29.785,21.484,29.297,305.176
1532279808.254,19.043,29.785,20.996,26.367,68.359
1532279808.258,18.555,31.250,24.902,26.367,-230.957
1532279808.261,18.066,31.250,25.391,29.785,-49.316
1532279808.265,19.531,30.273,25.391,30.273,263.672
1532279808.269,19.531,30.273,27.344,32.227,132.324
1532279808.273,16.113,30.273,28.320,34.180,-184.570
1532279808.277,18.066,27.832,25.879,38.574,-125.488
1532279808.281,16.602,25.391,24.902,41.016,212.891
1532279808.285,13.184,26.367,27.344,37.598,237.305
1532279808.289,16.113,25.879,27.344,40.527,-99.121
1532279808.293,22.461,25.879,26.855,47.363,-152.344
1532279808.297,24.414,26.367,28.320,51.270,176.270
1532279808.301,19.043,25.391,29.785,48.340,288.086
1532279808.304,16.602,25.391,32.715,41.504,-45.410
1532279808.308,15.137,26.367,31.738,41.504,-253.418
1532279808.312,15.625,24.902,28.320,46.875,29.297
1532279808.316,18.555,23.926,28.320,45.898,298.828
1532279808.320,16.113,26.367,26.855,37.598,94.727
1532279808.324,15.137,27.832,25.391,32.227,-269.043
1532279808.328,18.066,30.762,26.855,37.109,-119.629
1532279808.332,16.113,31.250,31.738,41.016,270.508
1532279808.336,18.555,29.785,33.203,38.086,174.316
1532279808.340,22.461,31.250,33.203,41.016,-163.574
1532279808.343,26.855,34.668,34.668,44.434,-114.258
1532279808.347,26.855,38.086,32.715,41.016,206.543
1532279808.351,22.461,41.016,31.738,38.086,238.281
1532279808.355,24.902,42.480,35.645,38.086,-98.145
1532279808.359,30.762,41.504,34.668,43.457,-218.262
1532279808.363,33.691,38.574,33.691,45.410,72.266
1532279808.367,37.598,40.039,33.691,43.945,238.770
1532279808.371,35.156,39.551,37.598,45.410,-5.371
1532279808.375,32.227,37.109,38.574,48.828,-208.008
1532279808.379,38.086,39.551,31.250,52.246,43.457
1532279808.383,37.598,39.062,27.832,47.852,310.547
1532279808.386,33.691,37.598,27.344,39.551,106.934
1532279808.390,29.297,37.109,26.367,36.621,-202.148
1532279808.394,26.367,34.180,25.879,40.039,-78.613
1532279808.398,25.391,33.203,26.367,44.922,248.535
1532279808.402,25.879,32.227,25.879,41.992,208.008
1532279808.406,27.832,29.785,24.902,36.621,-166.016
1532279808.410,25.391,25.391,24.902,39.551,-190.918
1532279808.414,22.949,22.461,24.902,41.504,188.965
1532279808.418,18.555,21.973,26.367,41.992,245.605
1532279808.422,18.555,21.484,25.391,40.527,-108.398
1532279808.426,20.996,21.973,25.391,34.668,-229.492
1532279808.429,21.973,21.973,25.879,37.598,83.496
1532279808.433,21.484,23.438,26.367,40.039,290.039
1532279808.437,20.508,24.902,23.926,35.156,42.480
1532279808.441,23.438,25.391,22.949,35.156,-226.562
1532279808.445,20.508,23.438,24.414,38.086,-27.832
1532279808.449,13.672,19.531,27.344,38.086,294.434
1532279808.453,13.672,18.066,28.320,37.598,162.598
1532279808.457,18.066,18.555,25.879,38.086,-166.992
1532279808.461,20.508,20.996,25.391,41.016,-110.352
1532279808.465,24.414,23.438,23.926,40.039,224.609
1532279808.468,22.461,24.414,21.484,36.133,229.980
1532279808.472,19.531,21.973,22.949,33.691,-144.043
1532279808.476,19.531,20.996,24.414,34.668,-225.586
1532279808.480,20.996,20.996,23.438,40.527,164.551
1532279808.484,22.949,21.973,21.973,36.133,266.113
1532279808.488,22.461,22.949,20.996,31.250,-58.594
1532279808.492,21.973,22.949,21.973,32.715,-207.031
1532279808.496,23.926,22.461,22.461,34.668,24.902
1532279808.500,23.438,20.996,21.973,32.227,275.391
1532279808.504,21.484,20.996,20.996,27.344,41.504
1532279808.508,20.996,20.996,20.996,28.809,-249.023
1532279808.511,25.879,21.484,21.484,37.109,-41.992
1532279808.515,31.250,23.926,23.438,39.062,268.066
1532279808.519,28.320,26.855,23.438,27.344,163.574
1532279808.523,27.344,27.832,22.949,22.461,-175.781
1532279808.527,28.320,26.367,25.391,33.203,-137.695
1532279808.531,25.391,24.414,24.414,40.039,212.402
1532279808.535,21.973,25.391,22.461,40.039,251.465
1532279808.539,17.090,27.832,24.902,41.504,-99.121
1532279808.543,13.184,26.367,29.297,40.527,-220.215
1532279808.547,11.719,24.902,29.785,35.156,92.773
1532279808.550,8.789,22.949,26.855,36.621,256.348
1532279808.554,9.277,23.438,26.855,40.527,-32.227
1532279808.558,12.695,26.855,25.879,40.527,-241.211
1532279808.562,14.648,26.367,22.461,40.527,29.785
1532279808.566,18.066,27.344,22.949,38.574,287.109
1532279808.570,19.043,26.855,25.391,34.668,60.059
1532279808.574,18.555,28.320,27.344,34.180,-220.215
1532279808.578,16.113,25.879,27.344,37.598,-28.809
1532279808.582,17.578,23.438,27.344,41.504,279.297
1532279808.586,21.484,23.926,30.273,41.504,194.824
1532279808.590,19.531,22.949,29.297,37.598,-159.668
1532279808.593,17.578,21.973,27.344,37.109,-163.574
1532279808.597,16.113,22.949,26.855,38.086,197.754
1532279808.601,16.602,24.902,27.344,33.203,256.836
1532279808.605,18.555,26.367,25.879,24.414,-105.469
1532279808.609,19.531,26.367,23.438,22.461,-212.402
1532279808.613,18.555,23.926,26.367,30.762,122.559
1532279808.617,17.090,21.484,28.809,36.133,275.391
1532279808.621,20.996,23.926,31.738,36.621,0.977
1532279808.625,21.973,24.414,32.227,36.133,-218.262
1532279808.629,21.484,23.926,30.273,38.574,18.066
1532279808.633,23.438,24.902,30.273,41.016,282.715
1532279808.636,20.508,25.879,30.273,41.016,89.355
1532279808.640,16.602,27.344,30.273,37.109,-207.520
1532279808.644,18.555,25.391,30.762,35.156,-96.191
1532279808.648,20.508,22.461,32.227,37.598,230.957
1532279808.652,18.555,20.508,33.203,39.551,185.059
1532279808.656,19.043,20.996,32.715,35.156,-142.090
1532279808.660,21.484,21.484,30.273,33.691,-153.809
1532279808.664,22.949,24.414,28.320,36.621,149.902
1532279808.668,21.973,27.344,26.367,37.598,265.137
1532279808.672,19.531,26.855,27.832,35.645,-38.574
1532279808.675,17.090,26.367,30.273,33.203,-200.684
1532279808.679,14.160,26.367,28.809,33.691,78.613
1532279808.683,14.160,26.855,29.785,32.227,287.109
1532279808.687,19.043,26.367,30.762,34.180,38.574
1532279808.691,21.973,24.902,29.297,37.598,-239.746
1532279808.695,22.461,24.902,29.297,38.086,-24.902
1532279808.699,25.879,27.344,27.344,39.062,272.461
1532279808.703,22.461,27.832,27.344,33.691,116.699
1532279808.707,20.996,30.273,26.367,28.809,-218.750
1532279808.711,23.926,30.273,26.367,34.180,-145.508
1532279808.715,21.484,25.879,27.344,35.156,221.191
1532279808.718,16.602,24.902,27.832,30.762,212.402
1532279808.722,18.555,27.344,29.785,28.320,-174.316
1532279808.726,21.973,27.832,26.367,31.250,-204.102
1532279808.730,20.508,26.855,23.438,36.621,160.156
1532279808.734,17.578,28.320,23.926,31.250,261.719
1532279808.738,15.137,29.785,23.926,25.391,-36.621
1532279808.742,17.090,29.785,23.438,24.902,-235.352
1532279808.746,17.578,28.320,21.484,24.902,31.738
1532279808.750,14.160,24.902,23.438,28.320,304.199
1532279808.754,15.137,22.949,22.461,30.273,82.031
1532279808.758,19.043,25.391,20.020,32.715,-204.102
1532279808.761,19.531,26.855,20.996,31.738,-25.391
1532279808.765,19.043,25.879,21.973,32.227,303.223
1532279808.769,18.066,26.367,21.973,33.691,187.500
1532279808.773,16.602,27.832,23.438,31.738,-175.781
1532279808.777,17.578,27.832,23.926,35.645,-135.254
1532279808.781,21.484,27.344,23.926,39.551,206.543
1532279808.785,26.855,28.320,23.926,34.180,216.309
1532279808.789,27.344,31.250,21.484,29.785,-105.469
1532279808.793,26.367,31.738,22.461,35.645,-160.645
1532279808.797,26.367,30.273,23.438,41.016,150.391
1532279808.800,27.832,29.297,24.902,44.434,288.574
1532279808.804,28.320,27.832,27.344,44.434,-11.719
1532279808.808,25.879,26.367,27.344,42.480,-218.262
1532279808.812,25.391,25.879,26.855,42.969,32.227
1532279808.816,23.438,25.879,24.902,44.922,300.293
1532279808.820,23.438,26.367,26.367,44.922,103.027
1532279808.824,25.391,28.320,29.297,42.969,-205.566
1532279808.828,21.973,28.320,26.855,42.480,-66.406
1532279808.832,17.578,25.391,21.973,39.062,275.391
1532279808.836,18.066,25.879,23.926,36.133,205.566
1532279808.840,22.949,29.785,25.391,39.551,-168.945
1532279808.843,23.438,28.809,23.926,39.551,-177.734
1532279808.847,22.461,25.391,24.902,33.691,174.805
1532279808.851,14.648,23.926,27.832,29.785,222.656
1532279808.855,5.371,23.438,24.902,28.320,-103.516
1532279808.859,11.230,24.414,20.508,33.691,-203.613
1532279808.863,17.090,23.926,20.508,39.062,123.047
1532279808.867,12.207,22.461,22.949,36.133,285.156
1532279808.871,6.836,21.973,22.461,29.785,-21.484
1532279808.875,6.836,23.438,21.973,29.297,-221.191
1532279808.879,6.348,24.414,20.020,30.762,18.066
1532279808.883,8.789,25.391,19.531,30.273,284.668
1532279808.886,9.766,24.902,21.484,29.297,94.727
1532279808.890,9.277,20.508,19.043,30.273,-211.914
1532279808.894,11.230,20.020,16.602,30.762,-87.891
1532279808.898,12.695,22.949,18.066,35.156,244.141
1532279808.902,8.789,24.414,19.043,28.809,187.988
1532279808.906,10.254,27.344,18.555,23.926,-179.688
1532279808.910,16.113,26.367,19.043,31.250,-185.059
1532279808.914,16.602,22.949,17.578,33.203,164.551
1532279808.918,15.625,23.926,18.555,32.715,262.207
1532279808.922,15.137,26.367,18.555,33.203,-64.453
1532279808.925,17.090,25.391,17.090,30.273,-263.672
1532279808.929,19.043,24.414,18.066,32.715,41.992
1532279808.933,19.043,21.973,19.531,35.645,273.438
1532279808.937,20.508,21.484,20.996,33.203,41.992
1532279808.941,20.020,22.461,19.531,31.250,-229.004
1532279808.945,20.020,22.949,19.531,31.738,-55.176
1532279808.949,21.973,26.855,20.508,35.156,268.066
1532279808.953,22.461,29.785,22.949,32.227,157.715
1532279808.957,22.461,29.297,22.949,29.297,-184.570
1532279808.961,26.367,28.320,21.484,33.203,-122.070
1532279808.965,30.762,29.785,22.461,30.762,218.750
1532279808.968,29.297,29.785,23.926,29.297,193.359
1532279808.972,25.879,26.855,23.438,32.715,-151.855
1532279808.976,25.879,24.902,22.461,37.109,-177.246
1532279808.980,26.367,23.438,22.949,40.527,169.922
1532279808.984,20.996,24.414,22.949,30.762,247.559
1532279808.988,16.113,23.438,23.438,24.902,-56.152
1532279808.992,13.672,20.996,23.438,28.320,-227.539
1532279808.996,12.695,20.508,25.879,31.738,48.828
1532279809.000,11.230,23.438,26.367,31.250,299.805
1532279809.004,16.602,25.391,28.320,31.738,67.383
1532279809.007,25.391,24.414,30.762,38.574,-244.629
1532279809.011,27.344,24.414,28.320,43.945,-73.242
1532279809.015,28.809,25.879,25.391,45.898,271.484
1532279809.019,30.762,26.367,23.926,43.457,172.363
1532279809.023,32.227,28.320,23.926,34.668,-192.871
1532279809.027,29.297,27.832,24.414,28.809,-175.781
1532279809.031,24.414,25.391,24.414,30.762,197.754
1532279809.035,23.926,26.855,23.438,30.762,224.609
1532279809.039,28.809,30.762,25.391,32.715,-126.953
1532279809.043,30.762,31.250,26.855,34.668,-188.965
1532279809.047,30.273,32.227,23.926,36.621,121.582
1532279809.050,31.250,34.180,19.531,39.062,254.395
1532279809.054,29.297,31.738,21.973,36.621,-16.602
1532279809.058,28.809,30.273,24.902,37.109,-251.953
1532279809.062,27.344,30.273,22.461,36.621,-15.625
1532279809.066,28.320,30.273,22.949,34.668,229.980
1532279809.070,28.809,30.273,23.438,38.086,65.918
1532279809.074,24.902,28.809,22.461,40.527,-227.539
1532279809.078,22.949,26.855,24.902,43.945,-89.844
1532279809.082,20.508,24.902,26.367,46.875,256.836
1532279809.086,20.020,25.391,25.391,45.410,185.059
1532279809.090,23.926,25.879,25.391,44.434,-164.551
1532279809.093,24.414,26.855,25.391,42.969,-182.129
1532279809.097,24.902,26.855,26.367,41.992,187.012
1532279809.101,27.344,26.855,26.855,40.527,254.883
1532279809.105,28.320,27.832,24.414,36.133,-107.910
1532279809.109,33.203,27.344,23.926,37.109,-241.211
1532279809.113,34.180,27.832,24.902,38.086,93.750
1532279809.117,29.297,27.344,25.879,35.645,294.434
1532279809.121,28.320,25.391,24.414,34.180,10.254
1532279809.125,29.785,25.391,23.926,34.180,-254.883
1532279809.129,28.320,26.367,23.438,34.180,-36.133
1532279809.132,24.902,25.391,24.414,35.156,278.320
1532279809.136,21.973,25.391,26.367,32.227,105.957
1532279809.140,21.973,27.344,27.344,33.203,-200.195
1532279809.144,28.320,27.344,27.344,33.203,-93.262
1532279809.148,29.785,26.855,28.809,32.715,204.590
1532279809.152,21.973,25.391,31.250,36.621,153.809
1532279809.156,22.461,25.879,32.227,36.621,-154.297
1532279809.160,27.832,24.414,29.785,42.480,-154.297
1532279809.164,27.832,25.391,26.855,39.551,156.250
1532279809.168,28.320,28.809,28.320,32.715,233.887
1532279809.172,24.902,30.273,28.320,32.227,-60.547
1532279809.175,22.949,28.320,25.391,34.180,-214.844
1532279809.179,25.879,25.879,26.367,36.621,38.086
1532279809.183,27.832,26.367,28.809,35.645,251.953
1532279809.187,24.414,26.367,28.320,31.738,56.641
1532279809.191,21.484,26.367,27.344,32.227,-194.824
1532279809.195,19.531,22.461,28.320,36.133,-23.438
1532279809.199,15.625,21.973,32.227,36.133,275.879
1532279809.203,14.160,23.438,33.691,32.715,123.047
1532279809.207,16.113,23.438,31.250,33.691,-195.801
1532279809.211,20.020,26.367,27.832,39.551,-108.887
1532279809.215,18.066,25.391,25.879,38.574,216.797
1532279809.218,16.113,23.926,28.320,35.156,240.234
1532279809.222,14.648,25.879,30.273,32.227,-126.465
1532279809.226,13.672,27.832,27.344,30.273,-222.656
1532279809.230,17.578,24.902,24.902,31.738,143.555
1532279809.234,17.578,23.438,29.785,28.809,281.250
1532279809.238,13.672,23.926,29.297,24.414,-17.578
1532279809.242,16.113,20.996,27.344,28.320,-212.891
1532279809.246,19.531,21.484,29.785,35.156,35.156
1532279809.250,16.602,24.902,30.273,33.203,257.324
1532279809.254,11.719,22.949,31.738,29.785,63.477
1532279809.257,13.672,20.996,32.227,32.227,-192.383
1532279809.261,19.531,23.438,30.762,39.551,-47.852
1532279809.265,18.555,24.902,29.297,33.203,211.426
1532279809.269,16.602,25.391,27.344,24.414,121.094
1532279809.273,20.020,26.367,26.855,30.273,-164.551
1532279809.277,20.508,24.902,26.367,33.203,-121.582
1532279809.281,24.902,24.902,23.438,30.762,202.148
1532279809.285,32.715,26.855,23.926,29.297,231.445
1532279809.289,31.738,27.344,24.414,20.996,-103.516
1532279809.293,28.809,27.832,27.344,15.137,-210.449
1532279809.297,29.785,26.855,28.320,19.043,122.070
1532279809.300,31.250,25.879,25.391,19.531,281.738
1532279809.304,28.809,26.367,25.391,22.461,-16.113
1532279809.308,24.414,23.438,26.855,27.344,-248.047
1532279809.312,20.508,21.484,28.320,39.551,7.812
1532279809.316,18.555,22.949,28.320,49.805,292.480
1532279809.320,20.020,23.438,29.297,50.293,87.891
1532279809.324,13.672,21.484,30.273,43.457,-218.750
1532279809.328,6.836,20.508,26.855,37.598,-77.637
1532279809.332,9.766,24.902,25.879,37.109,243.164
1532279809.336,15.625,27.832,26.367,34.668,183.594
1532279809.339,14.648,27.832,26.855,28.809,-154.785
1532279809.343,13.672,25.391,27.832,27.344,-173.340
1532279809.347,17.578,23.926,25.391,28.809,170.898
1532279809.351,17.578,22.949,28.809,28.809,248.535
1532279809.355,18.066,22.949,32.715,26.855,-73.242
1532279809.359,18.555,22.949,32.715,30.273,-185.059
1532279809.363,21.484,25.879,32.715,34.180,80.566
1532279809.367,22.461,30.273,29.785,32.227,260.742
1532279809.371,21.973,31.250,28.809,32.227,34.180
1532279809.375,21.484,32.715,30.273,34.180,-200.195
1532279809.379,19.531,32.715,31.250,38.086,5.371
1532279809.382,15.625,28.809,32.715,39.551,237.793
1532279809.386,19.531,28.320,31.250,37.598,96.680
1532279809.390,23.926,30.762,30.273,40.039,-176.758
1532279809.394,21.973,29.297,28.320,39.551,-104.980
1532279809.398,21.973,27.344,28.320,37.598,229.004
