timestamps,TP9,AF7,AF8,TP10,Right AUX
1532214880.424,10.742,34.180,28.809,13.672,192.871
1532214880.428,16.602,36.133,29.785,15.137,-70.312
1532214880.432,12.207,34.180,32.715,14.160,-190.430
1532214880.436,9.277,30.273,30.762,13.672,66.895
1532214880.439,19.043,28.320,25.879,15.625,197.754
1532214880.443,25.391,32.715,22.949,12.695,14.160
1532214880.447,25.879,37.109,16.113,11.230,-159.668
1532214880.451,24.902,34.668,12.695,11.230,-21.973
1532214880.455,25.879,29.785,17.578,3.906,205.566
1532214880.459,23.438,28.809,19.043,0.488,94.727
1532214880.463,23.926,30.762,19.531,1.953,-148.438
1532214880.467,27.344,33.203,20.508,7.812,-52.734
1532214880.471,24.414,33.691,20.020,5.859,198.730
1532214880.475,27.344,29.785,21.484,-0.488,186.035
1532214880.479,31.250,30.762,22.461,3.906,-70.312
1532214880.482,27.832,30.762,21.973,5.859,-131.836
1532214880.486,26.855,28.320,20.508,11.230,146.484
1532214880.490,30.273,27.344,18.066,10.742,214.355
1532214880.494,27.344,26.855,18.066,-0.488,-56.641
1532214880.498,20.508,24.902,18.555,6.348,-184.082
1532214880.502,21.484,24.902,22.461,14.648,53.223
1532214880.506,20.020,25.879,23.926,11.230,217.285
1532214880.510,21.973,25.391,22.461,9.277,29.297
1532214880.514,27.344,28.320,21.973,7.812,-167.480
1532214880.518,28.809,29.785,21.973,8.301,-14.648
1532214880.521,24.902,29.297,20.020,2.441,201.172
1532214880.525,31.250,29.297,20.020,0.977,116.699
1532214880.529,34.668,29.785,21.484,0.977,-158.691
1532214880.533,21.973,28.320,23.926,-0.488,-122.559
1532214880.537,22.949,30.762,24.414,2.930,174.805
1532214880.541,20.508,34.180,22.949,1.953,170.410
1532214880.545,11.719,31.738,24.902,-0.488,-83.496
1532214880.549,13.184,31.250,26.367,0.000,-136.719
1532214880.553,10.254,34.180,29.297,-3.418,99.121
1532214880.557,6.836,34.180,27.832,-9.277,220.703
1532214880.561,8.789,34.180,26.367,-9.277,-2.441
1532214880.564,4.883,29.785,28.809,-3.418,-161.133
1532214880.568,7.812,25.879,28.320,0.977,48.828
1532214880.572,17.578,31.250,20.020,-4.883,200.195
1532214880.576,22.461,40.527,12.207,-13.672,41.992
1532214880.580,17.578,42.480,14.648,-15.625,-189.453
1532214880.584,4.395,40.039,18.555,-19.531,-63.477
1532214880.588,0.000,38.574,16.602,-15.137,186.035
1532214880.592,-0.488,38.086,22.949,-19.531,96.680
1532214880.596,-1.953,36.621,30.273,-23.438,-158.691
1532214880.600,-0.977,31.250,31.738,-1.465,-112.305
1532214880.604,-2.930,25.879,36.133,3.906,163.086
1532214880.607,2.441,22.949,39.062,9.766,226.562
1532214880.611,7.324,22.461,36.133,13.672,-26.855
1532214880.615,11.230,21.484,32.715,11.230,-166.504
1532214880.619,19.531,24.902,34.180,19.043,110.840
1532214880.623,17.090,30.273,29.297,19.531,272.461
1532214880.627,17.578,32.715,20.508,11.230,39.062
1532214880.631,16.113,32.715,20.996,5.371,-187.500
1532214880.635,7.324,28.320,25.879,4.883,-11.719
1532214880.639,8.789,26.855,27.344,11.230,236.328
1532214880.643,9.766,24.414,30.762,12.695,112.305
1532214880.646,3.906,19.043,36.621,15.625,-146.484
1532214880.650,8.789,21.484,35.156,24.902,-81.055
1532214880.654,12.207,22.461,34.668,29.297,164.551
1532214880.658,27.832,20.508,33.691,33.203,165.527
1532214880.662,33.203,24.414,29.297,31.738,-110.840
1532214880.666,17.090,30.273,26.855,28.320,-125.000
1532214880.670,19.043,33.203,24.414,26.855,136.230
1532214880.674,17.578,30.762,25.879,20.996,175.781
1532214880.678,11.230,28.320,29.785,14.648,-53.711
1532214880.682,10.254,28.320,29.785,17.090,-152.344
1532214880.686,10.742,27.832,26.855,22.949,80.078
1532214880.689,13.184,28.809,28.320,22.949,197.266
1532214880.693,16.602,29.785,29.785,16.602,-21.973
1532214880.697,18.555,28.320,31.250,17.578,-202.148
1532214880.701,25.391,26.367,32.715,23.438,-40.039
1532214880.705,22.461,25.879,31.738,24.902,196.289
1532214880.709,15.625,27.344,28.320,23.926,90.820
1532214880.713,20.508,30.273,27.344,18.555,-205.078
1532214880.717,14.160,30.273,28.809,16.113,-108.887
1532214880.721,9.766,29.785,26.367,17.090,194.336
1532214880.725,16.602,35.645,21.484,12.695,169.434
1532214880.729,26.367,37.598,15.625,10.254,-102.539
1532214880.732,28.809,34.180,10.742,8.301,-189.453
1532214880.736,15.137,32.227,10.254,5.859,74.219
1532214880.740,2.441,30.762,8.301,3.418,237.305
1532214880.744,12.207,33.691,7.324,4.395,-26.855
1532214880.748,11.230,34.668,9.766,6.348,-217.773
1532214880.752,1.953,34.180,11.719,6.836,26.367
1532214880.756,5.859,29.297,14.648,12.695,210.449
1532214880.760,5.371,27.832,15.137,9.277,15.137
1532214880.764,0.977,34.180,10.254,-1.953,-200.684
1532214880.768,-4.395,37.598,6.348,-2.930,-44.434
1532214880.771,5.859,40.039,4.883,-8.301,196.289
1532214880.775,13.184,44.434,0.488,-19.531,76.660
1532214880.779,1.465,43.457,6.836,-19.043,-178.711
1532214880.783,-1.953,40.527,16.602,-13.672,-118.652
1532214880.787,1.465,41.992,15.137,-2.930,160.645
1532214880.791,7.324,43.457,15.625,6.348,153.320
1532214880.795,9.277,41.016,17.090,2.930,-117.676
1532214880.799,1.953,38.086,20.508,-1.953,-175.781
1532214880.803,3.418,37.109,22.949,0.977,83.008
1532214880.807,1.953,37.109,18.555,-0.977,184.082
1532214880.811,4.883,41.016,12.695,-11.230,-56.641
1532214880.814,10.254,43.457,5.859,-13.672,-202.637
1532214880.818,2.930,40.039,2.930,-9.277,6.836
1532214880.822,-5.859,36.621,11.230,-8.789,183.105
1532214880.826,-9.766,33.203,17.578,-9.277,59.082
1532214880.830,-0.488,34.180,16.113,-2.930,-182.617
1532214880.834,5.371,37.598,16.113,0.977,-90.332
1532214880.838,4.395,37.598,19.043,-3.418,193.848
1532214880.842,9.277,41.992,18.066,-4.395,131.836
1532214880.846,14.648,42.480,17.090,0.977,-148.438
1532214880.850,11.230,39.551,20.020,8.301,-121.582
1532214880.853,-4.395,37.598,25.391,0.488,140.625
1532214880.857,-8.301,32.227,27.344,-2.930,186.523
1532214880.861,-0.977,25.391,25.879,5.371,-50.293
1532214880.865,0.000,26.367,22.461,5.859,-143.555
1532214880.869,0.488,31.738,17.090,3.906,75.684
1532214880.873,2.930,35.156,12.207,-0.488,188.965
1532214880.877,12.695,40.039,10.742,-2.441,-5.859
1532214880.881,14.160,39.551,15.625,4.883,-197.754
1532214880.885,-0.488,29.785,22.461,9.766,-6.836
1532214880.889,0.488,25.879,23.926,8.301,216.309
1532214880.893,19.531,35.156,18.066,8.789,78.613
1532214880.896,30.762,39.062,12.695,13.184,-150.391
1532214880.900,17.090,34.668,12.695,13.184,-63.477
1532214880.904,10.254,30.762,17.090,12.207,212.402
1532214880.908,15.625,28.809,20.508,12.695,166.992
1532214880.912,26.367,26.855,23.438,14.160,-135.742
1532214880.916,34.668,33.691,18.555,20.020,-135.742
1532214880.920,34.180,41.504,10.254,17.090,145.020
1532214880.924,33.203,41.016,7.812,13.184,238.770
1532214880.928,26.367,38.574,11.230,10.254,3.418
1532214880.932,17.090,37.109,19.531,1.953,-147.461
1532214880.936,18.066,39.062,18.066,0.488,64.941
1532214880.939,21.484,39.551,10.742,3.906,219.727
1532214880.943,20.020,39.551,8.301,2.930,34.180
1532214880.947,15.137,38.086,13.184,6.836,-174.316
1532214880.951,5.371,35.156,20.020,7.324,-25.879
1532214880.955,-1.465,34.668,20.996,3.906,208.984
1532214880.959,-0.977,36.133,17.578,2.930,125.000
1532214880.963,0.977,36.133,19.043,7.812,-155.273
1532214880.967,6.348,31.738,21.484,18.066,-85.449
1532214880.971,12.207,31.250,17.090,11.719,191.895
1532214880.975,10.254,35.156,11.719,-0.977,162.109
1532214880.978,6.348,36.133,8.301,3.418,-97.168
1532214880.982,7.324,32.227,9.766,13.184,-129.883
1532214880.986,6.836,31.250,14.648,15.137,121.582
1532214880.990,18.066,35.645,11.230,15.625,192.383
1532214880.994,29.297,37.109,5.371,17.090,-45.898
1532214880.998,20.508,32.715,8.301,16.602,-173.828
1532214881.002,12.207,30.273,14.648,15.137,44.922
1532214881.006,8.789,28.320,13.184,13.184,208.008
1532214881.010,17.578,22.949,16.113,21.973,54.688
1532214881.014,24.902,27.344,14.648,20.996,-177.734
1532214881.018,26.367,30.762,6.836,18.555,-60.059
1532214881.021,25.879,31.250,7.812,25.391,211.426
1532214881.025,15.625,32.227,10.254,20.020,128.418
1532214881.029,17.578,29.785,13.672,22.949,-147.949
1532214881.033,19.043,30.762,10.254,30.762,-78.613
1532214881.037,20.020,32.715,8.301,30.273,191.406
1532214881.041,24.902,35.645,11.230,28.320,182.617
1532214881.045,21.484,33.203,12.695,28.320,-90.820
1532214881.049,21.973,29.785,15.137,31.250,-154.297
1532214881.053,17.578,29.297,16.113,32.227,107.910
1532214881.057,18.555,32.227,14.160,28.320,238.770
1532214881.061,21.484,32.715,17.090,21.973,46.387
1532214881.064,9.277,29.297,20.996,20.508,-137.695
1532214881.068,2.441,28.809,18.555,23.926,17.578
1532214881.072,1.953,29.785,17.090,21.973,212.402
1532214881.076,6.348,28.809,19.043,21.973,78.613
1532214881.080,11.719,29.297,16.602,26.367,-169.434
1532214881.084,8.789,32.227,12.207,22.949,-43.945
1532214881.088,0.977,34.668,11.719,18.555,229.492
1532214881.092,2.930,35.156,12.207,13.184,119.629
1532214881.096,1.953,37.109,13.672,5.371,-171.875
1532214881.100,-3.418,40.039,13.184,10.254,-120.117
1532214881.103,3.418,41.016,13.184,18.555,148.926
1532214881.107,0.000,38.086,18.066,21.484,198.730
1532214881.111,-10.742,34.180,21.973,12.695,-48.828
1532214881.115,-13.672,31.738,24.414,5.859,-163.574
1532214881.119,-9.277,33.203,25.391,17.090,91.797
1532214881.123,-5.371,37.109,20.996,22.461,224.609
1532214881.127,-4.883,39.062,17.090,21.484,52.734
1532214881.131,0.488,38.086,18.555,26.367,-133.301
1532214881.135,6.348,36.621,20.020,29.297,21.484
1532214881.139,6.836,36.621,18.555,26.855,227.051
1532214881.143,10.254,39.062,18.555,22.461,80.566
1532214881.146,11.230,39.551,16.113,19.531,-174.316
1532214881.150,13.184,40.527,10.742,20.996,-93.750
1532214881.154,12.695,41.504,10.254,19.531,178.223
1532214881.158,19.531,41.504,3.906,20.020,191.895
1532214881.162,26.367,39.551,1.953,24.902,-74.219
1532214881.166,14.648,38.086,8.789,29.297,-128.906
1532214881.170,11.230,41.504,2.930,26.855,125.977
1532214881.174,18.066,42.969,-5.371,26.855,205.078
1532214881.178,17.578,39.062,-0.488,31.250,-12.695
1532214881.182,7.812,31.738,8.789,29.297,-160.156
1532214881.185,4.883,28.320,11.230,31.250,67.383
1532214881.189,13.672,27.344,12.207,38.086,257.324
1532214881.193,23.438,28.320,14.160,36.133,39.551
1532214881.197,22.461,29.785,16.113,33.691,-187.012
1532214881.201,23.926,29.785,14.160,40.039,-7.812
1532214881.205,31.250,32.227,11.230,43.945,216.309
1532214881.209,25.879,37.598,8.301,28.809,114.258
1532214881.213,17.090,41.504,5.859,13.672,-170.410
1532214881.217,17.578,40.527,3.418,26.367,-131.836
1532214881.221,18.066,37.598,4.395,33.691,182.617
1532214881.225,19.531,37.598,3.418,24.902,189.941
1532214881.228,22.461,45.898,-5.859,19.531,-83.496
1532214881.232,23.438,45.898,-6.836,24.414,-114.258
1532214881.236,23.926,37.109,5.371,28.320,130.371
1532214881.240,10.742,32.227,10.742,21.973,194.824
1532214881.244,9.277,28.320,13.672,22.461,-35.156
1532214881.248,23.926,26.855,19.531,31.250,-167.969
1532214881.252,21.973,33.691,14.648,22.461,27.832
1532214881.256,12.695,42.969,6.836,2.930,187.988
1532214881.260,17.578,47.852,4.395,10.254,29.297
1532214881.264,16.602,44.922,5.371,22.949,-165.527
1532214881.268,2.441,31.738,12.207,21.973,-19.531
1532214881.271,2.930,26.855,16.113,17.090,193.848
1532214881.275,10.254,33.691,10.254,10.742,114.258
1532214881.279,11.719,38.086,6.348,6.348,-139.160
1532214881.283,10.742,40.039,11.230,15.137,-127.930
1532214881.287,9.277,34.180,15.625,25.879,132.324
1532214881.291,12.695,31.738,18.555,23.926,169.434
1532214881.295,13.184,38.574,15.137,12.207,-94.238
1532214881.299,8.789,41.992,11.230,13.184,-180.176
1532214881.303,10.742,40.039,9.277,20.020,79.590
1532214881.307,12.207,40.039,6.348,18.066,197.266
1532214881.310,10.742,43.457,4.395,13.184,-25.879
1532214881.314,11.719,43.945,3.906,11.230,-194.336
1532214881.318,13.184,39.062,6.836,13.184,20.508
1532214881.322,10.254,36.621,10.742,12.207,215.332
1532214881.326,18.066,37.598,9.277,9.766,62.500
1532214881.330,30.762,38.574,2.930,12.695,-151.855
1532214881.334,37.109,37.598,2.441,19.043,-68.848
1532214881.338,38.574,33.203,9.277,17.578,177.734
1532214881.342,34.668,31.250,16.113,12.695,140.625
1532214881.346,26.367,33.203,21.484,18.066,-129.395
1532214881.350,26.367,29.785,24.414,34.180,-117.188
1532214881.353,33.203,27.832,24.414,35.645,125.000
1532214881.357,23.438,34.668,19.531,25.879,136.230
1532214881.361,15.625,38.086,15.625,33.691,-86.914
1532214881.365,1.953,30.273,22.461,37.109,-181.152
1532214881.369,-6.348,22.949,31.738,37.109,60.059
1532214881.373,4.395,24.414,33.691,36.133,232.910
1532214881.377,3.906,29.785,25.879,22.461,40.527
1532214881.381,7.324,38.574,11.719,15.625,-174.316
1532214881.385,15.137,39.062,12.207,20.020,-11.230
1532214881.389,4.395,31.738,24.414,11.719,225.098
1532214881.393,-3.906,32.715,26.367,-1.465,93.750
1532214881.396,-1.465,31.250,23.926,-2.441,-164.062
1532214881.400,8.789,24.902,26.367,11.230,-60.547
1532214881.404,15.625,25.879,26.367,19.531,205.078
1532214881.408,11.719,26.367,26.367,24.902,159.668
1532214881.412,11.230,24.414,31.250,26.367,-118.652
1532214881.416,9.766,23.438,30.762,29.785,-154.785
1532214881.420,17.578,20.508,25.879,42.969,120.605
1532214881.424,15.137,22.461,24.902,36.133,209.473
1532214881.428,12.207,24.414,21.973,21.484,-44.434
1532214881.432,16.602,27.832,17.578,18.555,-181.152
1532214881.435,15.625,33.203,11.719,23.926,15.137
1532214881.439,22.461,33.691,10.742,27.344,187.988
1532214881.443,16.602,28.320,13.184,15.137,62.500
1532214881.447,15.137,27.832,11.719,12.207,-150.879
1532214881.451,20.508,25.391,13.672,19.531,-15.137
1532214881.455,20.020,22.949,16.602,20.508,235.352
1532214881.459,34.180,26.855,15.625,25.391,148.438
1532214881.463,34.668,28.320,16.113,26.855,-133.789
1532214881.467,26.367,25.879,19.043,31.250,-73.242
1532214881.471,32.715,25.879,18.066,39.062,195.801
1532214881.475,34.668,28.809,13.672,36.133,162.598
1532214881.478,33.203,29.785,11.719,35.156,-89.355
1532214881.482,36.133,26.855,13.184,41.016,-141.602
1532214881.486,27.832,24.414,12.695,42.969,122.070
1532214881.490,19.043,25.391,10.742,36.133,234.375
1532214881.494,24.902,22.949,11.230,30.762,-15.137
1532214881.498,28.320,21.484,9.766,40.039,-150.879
1532214881.502,30.762,19.043,6.836,49.805,54.688
1532214881.506,30.762,20.508,6.836,44.434,226.562
1532214881.510,31.250,25.879,3.906,31.738,46.875
1532214881.514,32.715,24.902,1.465,28.809,-185.547
1532214881.517,31.250,24.902,4.883,36.621,-51.758
1532214881.521,37.109,23.926,6.348,36.133,199.707
1532214881.525,36.133,25.391,4.395,30.762,135.254
1532214881.529,31.250,27.344,1.953,27.832,-125.000
1532214881.533,31.250,25.879,-1.953,20.996,-137.207
1532214881.537,27.344,26.855,-3.418,18.066,120.117
1532214881.541,24.902,29.297,0.977,23.438,189.941
1532214881.545,24.414,27.832,6.836,18.555,-51.758
1532214881.549,24.414,26.367,7.324,20.508,-140.625
1532214881.553,14.648,28.320,3.906,21.973,81.543
1532214881.557,10.742,30.273,3.906,19.043,204.590
1532214881.560,14.160,31.250,9.766,15.137,6.836
1532214881.564,11.719,32.227,11.719,10.254,-167.969
1532214881.568,9.277,27.832,12.695,13.184,5.859
1532214881.572,14.648,22.461,16.602,13.184,193.359
1532214881.576,28.320,23.438,13.672,13.672,47.363
1532214881.580,29.297,28.809,10.254,16.602,-155.273
1532214881.584,20.996,35.645,8.789,13.672,-26.367
1532214881.588,15.625,35.645,14.648,7.324,179.688
1532214881.592,10.254,31.250,21.484,5.371,137.695
1532214881.596,10.254,28.320,18.066,6.348,-100.098
1532214881.600,9.277,29.785,18.066,8.789,-109.375
1532214881.603,13.672,29.785,19.531,15.625,164.551
1532214881.607,25.391,29.297,14.160,22.949,214.844
1532214881.611,23.438,31.250,10.254,20.996,-53.711
1532214881.615,10.742,32.715,9.277,12.695,-176.270
1532214881.619,11.230,29.297,7.812,13.184,72.754
1532214881.623,20.996,25.879,7.812,15.625,238.281
1532214881.627,24.414,27.344,8.301,18.555,43.945
1532214881.631,19.043,30.273,7.324,19.043,-186.035
1532214881.635,13.184,24.902,7.324,14.648,-35.645
1532214881.639,19.531,22.949,12.207,24.902,215.820
1532214881.642,28.320,26.855,12.207,29.297,121.582
1532214881.646,31.250,31.738,5.859,27.832,-158.203
1532214881.650,35.156,33.203,3.418,29.785,-108.887
1532214881.654,27.344,27.832,7.812,27.832,173.828
1532214881.658,22.461,26.855,14.160,29.297,161.621
1532214881.662,26.367,31.250,13.184,36.621,-107.910
1532214881.666,27.344,30.273,12.207,39.062,-118.164
1532214881.670,24.414,27.344,13.184,37.109,150.391
1532214881.674,20.020,26.367,16.113,27.344,213.867
1532214881.678,21.484,26.855,15.625,23.926,-12.207
1532214881.682,24.414,29.785,16.602,29.297,-126.953
1532214881.685,22.949,30.273,17.578,30.762,74.707
1532214881.689,22.461,25.879,16.113,30.762,209.473
1532214881.693,27.344,27.344,18.066,29.297,39.551
1532214881.697,29.297,30.762,16.113,27.832,-168.945
1532214881.701,35.645,31.250,12.207,29.785,-48.340
1532214881.705,29.297,27.832,14.648,26.855,184.570
1532214881.709,18.555,24.902,17.578,23.438,126.953
1532214881.713,26.855,27.344,17.090,18.555,-166.016
1532214881.717,26.855,28.809,20.020,20.996,-139.648
1532214881.721,24.414,26.855,21.484,30.273,169.434
1532214881.725,25.879,26.367,27.832,30.762,187.012
1532214881.728,22.461,24.902,30.273,25.879,-84.473
1532214881.732,14.160,19.531,26.367,24.414,-159.668
1532214881.736,23.438,17.090,22.949,21.973,103.027
1532214881.740,20.996,20.508,19.043,15.625,229.004
1532214881.744,9.277,23.438,22.461,11.719,20.996
1532214881.748,16.113,25.391,24.902,12.695,-151.367
1532214881.752,15.137,25.879,22.949,17.578,38.086
1532214881.756,19.531,28.809,25.391,20.508,224.121
1532214881.760,24.902,28.320,28.320,16.113,71.289
1532214881.764,21.484,24.414,25.879,13.184,-170.410
1532214881.767,22.461,24.902,20.508,19.043,-62.012
1532214881.771,28.320,26.855,15.625,11.719,179.199
1532214881.775,22.461,29.785,13.672,-3.906,68.359
1532214881.779,13.184,28.809,13.672,-2.441,-171.387
1532214881.783,12.207,26.367,17.090,8.301,-108.398
1532214881.787,11.719,26.367,17.090,13.672,170.410
1532214881.791,10.742,26.855,16.602,3.418,181.641
1532214881.795,14.160,26.367,15.625,-1.465,-70.801
1532214881.799,15.137,28.809,14.160,6.836,-151.855
1532214881.803,9.277,30.273,14.160,6.348,83.984
1532214881.807,4.395,28.809,11.230,2.441,208.496
1532214881.810,8.789,27.832,7.812,4.395,-14.648
1532214881.814,17.578,26.367,6.836,10.254,-202.148
1532214881.818,16.602,31.738,2.441,8.789,0.977
1532214881.822,11.719,36.621,3.906,1.465,203.125
1532214881.826,2.930,33.203,7.812,-5.371,53.711
1532214881.830,-0.977,32.227,8.301,-5.859,-185.547
1532214881.834,-1.953,33.691,9.277,-10.742,-119.629
1532214881.838,4.883,35.156,9.277,-8.301,174.805
1532214881.842,9.766,34.180,11.719,-0.488,185.547
1532214881.846,0.977,32.715,16.113,-4.395,-118.164
1532214881.850,-2.930,28.809,15.625,-4.883,-142.090
1532214881.853,3.418,25.879,14.648,-4.395,133.789
1532214881.857,5.371,26.367,13.184,-3.418,180.176
1532214881.861,6.836,27.832,13.672,-2.441,-53.223
1532214881.865,2.930,27.832,13.672,-2.930,-159.668
1532214881.869,-0.488,28.320,12.207,1.465,83.496
1532214881.873,4.883,29.785,13.672,0.000,238.281
1532214881.877,5.859,34.180,14.160,-6.836,3.418
1532214881.881,2.441,36.621,13.672,-5.371,-195.801
1532214881.885,-3.418,30.762,11.719,-3.418,17.090
1532214881.889,3.418,24.902,12.207,-0.977,250.488
1532214881.892,15.137,29.785,9.766,-2.441,107.422
1532214881.896,23.926,36.133,5.859,-2.441,-177.246
1532214881.900,20.020,31.738,11.719,4.883,-88.379
1532214881.904,13.672,24.902,17.578,6.836,194.824
1532214881.908,18.555,26.367,15.625,6.836,151.855
1532214881.912,19.043,29.297,13.184,7.812,-149.902
1532214881.916,20.996,28.320,14.160,12.695,-161.621
1532214881.920,21.973,25.391,15.625,22.461,136.719
1532214881.924,22.949,26.367,12.695,21.484,189.453
1532214881.928,25.391,29.297,11.230,14.648,-59.570
1532214881.932,22.461,29.297,13.672,10.742,-203.125
1532214881.935,19.043,30.762,13.184,9.277,32.227
1532214881.939,25.391,30.762,13.184,8.301,222.656
1532214881.943,20.996,26.855,15.625,2.930,40.527
1532214881.947,13.184,28.320,17.578,6.836,-177.246
1532214881.951,16.602,29.785,18.555,12.695,-40.039
1532214881.955,17.090,29.297,17.578,5.859,206.055
1532214881.959,21.484,30.762,19.531,5.859,104.004
1532214881.963,21.973,31.738,24.414,9.277,-193.848
1532214881.967,23.926,29.297,24.414,12.695,-132.324
1532214881.971,23.926,29.785,25.391,14.648,155.762
1532214881.974,15.137,33.203,27.832,9.766,176.270
1532214881.978,16.113,31.738,28.320,5.859,-89.844
1532214881.982,16.113,33.691,27.344,4.395,-182.617
1532214881.986,15.137,37.598,26.367,6.836,82.031
1532214881.990,22.461,33.203,28.320,7.812,175.293
1532214881.994,20.508,28.320,32.227,-0.488,-81.543
1532214881.998,10.254,25.879,37.109,2.441,-219.727
1532214882.002,9.766,25.879,36.621,7.812,10.742
1532214882.006,13.184,28.320,34.180,3.906,230.469
1532214882.010,13.672,33.203,33.691,-2.930,82.031
1532214882.014,11.230,39.551,31.250,-9.766,-159.180
1532214882.017,9.766,38.086,33.203,-4.395,-12.695
1532214882.021,11.230,34.180,39.551,1.465,242.676
1532214882.025,11.230,32.227,41.504,-1.953,173.828
1532214882.029,11.719,26.367,41.504,-9.277,-109.375
1532214882.033,7.324,27.344,41.504,-6.836,-118.652
1532214882.037,9.277,33.203,40.039,-0.977,184.082
1532214882.041,8.301,37.598,37.598,-7.324,209.961
1532214882.045,7.324,41.016,36.133,-14.160,-83.984
1532214882.049,15.625,39.551,35.156,-7.812,-156.738
1532214882.053,15.625,36.133,32.227,-8.301,74.219
1532214882.057,18.066,35.645,32.227,-13.672,208.008
1532214882.060,20.020,38.086,26.855,-11.719,-5.371
1532214882.064,15.625,36.133,21.973,-14.160,-194.336
1532214882.068,15.137,33.691,22.461,-8.301,17.578
1532214882.072,20.996,34.668,22.949,-2.930,213.867
1532214882.076,19.531,32.227,24.414,-5.371,94.727
1532214882.080,9.277,31.250,24.902,-1.953,-165.039
1532214882.084,11.719,31.250,27.344,6.348,-90.820
1532214882.088,17.578,31.250,30.762,12.207,212.891
1532214882.092,25.879,27.832,30.762,8.301,153.320
1532214882.096,29.297,33.203,22.461,-4.395,-150.391
1532214882.099,29.297,41.016,16.113,-2.441,-153.809
1532214882.103,30.273,32.227,19.531,7.812,132.324
1532214882.107,18.066,26.855,25.391,9.277,197.266
1532214882.111,16.602,26.367,28.320,6.836,-80.566
1532214882.115,24.414,24.902,27.344,9.766,-170.898
1532214882.119,24.902,28.320,18.066,16.113,64.453
1532214882.123,25.879,29.785,7.324,12.207,203.613
1532214882.127,38.574,29.297,2.441,11.230,23.926
1532214882.131,38.086,29.785,-2.930,13.672,-194.336
1532214882.135,29.297,30.273,-7.324,11.230,-16.602
1532214882.139,30.762,33.203,-12.695,9.277,220.703
1532214882.142,22.949,33.691,-15.137,4.395,94.238
1532214882.146,20.508,30.762,-10.254,3.906,-160.156
1532214882.150,22.461,28.320,-7.324,6.348,-84.473
1532214882.154,23.926,29.785,-6.836,1.953,168.457
1532214882.158,22.949,28.809,-7.324,3.418,174.805
1532214882.162,23.926,28.320,-5.859,8.789,-87.891
1532214882.166,20.508,28.320,-6.348,8.789,-131.348
1532214882.170,20.508,25.879,-8.301,7.812,161.133
1532214882.174,22.949,29.297,-4.883,9.277,228.516
1532214882.178,21.484,32.227,2.441,11.230,-34.180
1532214882.182,26.367,32.227,4.395,7.324,-173.340
1532214882.185,29.785,30.762,0.000,4.395,64.453
1532214882.189,24.414,31.738,-4.395,4.883,249.512
1532214882.193,21.484,34.180,-5.371,2.930,30.762
1532214882.197,20.996,32.227,-0.488,2.930,-172.363
1532214882.201,12.695,29.297,8.301,6.348,-19.531
1532214882.205,4.883,29.785,12.207,1.465,218.262
1532214882.209,8.789,30.273,12.207,-1.953,163.574
1532214882.213,13.184,31.738,8.789,-6.348,-163.086
1532214882.217,12.207,34.668,-0.488,-12.695,-135.742
1532214882.221,7.812,35.156,-3.418,-9.277,187.500
1532214882.224,4.395,32.715,2.930,-15.625,200.684
1532214882.228,0.977,28.320,6.348,-18.066,-63.477
1532214882.232,13.184,27.832,5.859,-12.207,-170.410
1532214882.236,27.832,26.855,6.836,-7.324,89.844
1532214882.240,25.879,29.785,4.883,-6.836,243.652
1532214882.244,22.461,37.109,2.441,-18.066,11.719
1532214882.248,34.180,42.480,2.441,-15.625,-157.227
1532214882.252,36.621,40.527,3.418,-2.441,35.156
1532214882.256,14.648,33.203,14.648,-3.418,249.512
1532214882.260,-7.812,30.762,23.438,-13.672,83.008
1532214882.264,-16.113,32.227,23.438,-10.742,-168.945
1532214882.267,-8.789,30.273,24.902,7.324,-31.738
1532214882.271,7.324,28.809,22.949,10.254,207.520
1532214882.275,2.441,30.273,21.484,-0.488,139.160
1532214882.279,-8.301,30.273,24.414,3.418,-126.465
1532214882.283,-1.465,27.832,26.855,10.254,-109.863
1532214882.287,7.812,28.320,22.461,14.648,170.898
1532214882.291,14.160,35.156,15.137,8.789,202.148
1532214882.295,11.719,34.668,14.648,-0.977,-66.406
1532214882.299,6.836,28.320,16.113,0.488,-157.227
1532214882.303,7.812,26.367,17.090,7.812,104.980
1532214882.306,10.254,25.879,16.602,5.371,263.184
1532214882.310,15.625,26.855,14.160,-2.441,14.160
1532214882.314,21.484,28.320,9.277,-5.859,-196.777
1532214882.318,18.555,29.785,4.883,0.488,18.555
1532214882.322,18.555,29.297,5.371,5.859,235.352
1532214882.326,25.879,32.715,7.812,7.324,103.027
1532214882.330,29.297,36.621,8.301,7.324,-160.645
1532214882.334,24.902,34.180,11.230,4.883,-90.332
1532214882.338,21.484,29.785,14.648,7.324,191.406
1532214882.342,28.809,25.391,14.160,14.648,164.062
1532214882.346,51.270,30.762,6.836,16.113,-116.699
1532214882.349,54.688,41.992,2.441,16.602,-152.832
1532214882.353,36.133,43.945,4.395,8.789,112.305
1532214882.357,22.949,38.086,5.371,-1.953,190.430
1532214882.361,17.090,34.668,3.906,-2.441,-60.547
1532214882.365,21.484,34.668,8.789,5.371,-175.293
1532214882.369,18.555,32.715,16.602,14.648,83.496
1532214882.373,7.812,25.879,23.926,4.883,228.027
1532214882.377,1.465,23.438,26.367,-7.812,-7.324
1532214882.381,8.301,25.879,22.949,2.930,-181.641
1532214882.385,17.090,27.832,24.414,18.066,1.465
1532214882.389,20.020,29.297,22.949,21.484,227.051
1532214882.392,22.949,29.297,17.578,22.949,110.352
1532214882.396,21.484,29.297,18.066,28.809,-178.223
1532214882.400,26.367,27.832,20.508,36.133,-96.680
1532214882.404,32.715,26.367,22.949,39.551,211.914
1532214882.408,31.250,27.832,26.367,35.156,201.660
1532214882.412,34.180,28.320,26.855,20.508,-103.027
1532214882.416,33.691,28.320,26.855,18.066,-172.852
1532214882.420,28.320,30.273,25.879,25.391,125.000
1532214882.424,30.273,32.715,23.438,16.602,228.027
1532214882.428,25.391,32.227,17.090,6.348,-20.996
1532214882.431,18.555,31.738,10.742,5.859,-188.477
1532214882.435,20.020,32.715,7.812,5.371,37.109
1532214882.439,17.578,29.297,5.371,5.859,223.145
1532214882.443,9.277,29.785,9.277,5.859,31.250
1532214882.447,12.207,34.180,10.742,5.859,-176.270
1532214882.451,14.648,33.691,9.766,10.742,-49.805
1532214882.455,9.277,31.250,11.230,10.254,205.566
1532214882.459,13.184,29.785,12.695,8.789,160.645
1532214882.463,14.648,26.367,20.020,9.277,-136.230
1532214882.467,3.418,23.926,24.414,1.953,-116.699
1532214882.471,-4.395,25.879,24.414,-3.906,187.500
1532214882.474,-5.371,26.367,26.855,-6.348,148.926
1532214882.478,1.953,28.809,24.414,-3.418,-140.625
1532214882.482,6.836,32.227,18.066,0.000,-179.688
1532214882.486,2.441,34.180,14.160,-2.930,91.309
1532214882.490,6.348,38.574,15.137,-2.441,211.426
1532214882.494,13.672,38.574,17.578,0.488,-22.949
1532214882.498,12.207,36.621,14.160,3.906,-169.434
1532214882.502,5.859,37.109,12.207,8.789,41.504
1532214882.506,4.395,31.738,15.625,9.277,233.398
1532214882.510,8.301,28.320,15.137,4.883,76.660
1532214882.514,10.254,32.715,8.789,-10.742,-203.613
1532214882.517,15.625,36.621,1.953,-8.789,-84.473
1532214882.521,15.625,38.574,0.000,2.930,195.801
1532214882.525,7.324,35.156,2.930,-4.395,123.047
1532214882.529,10.254,29.297,5.371,-7.324,-154.785
1532214882.533,12.695,30.762,4.883,0.000,-119.629
1532214882.537,11.230,32.227,6.836,9.277,164.551
1532214882.541,17.090,30.273,10.254,13.184,201.172
1532214882.545,19.531,29.297,12.207,11.719,-69.336
1532214882.549,21.973,27.344,11.719,19.043,-143.555
1532214882.553,22.461,26.855,12.695,20.996,71.777
1532214882.556,22.949,29.785,12.695,16.113,205.078
1532214882.560,26.855,29.297,11.230,17.578,33.691
1532214882.564,22.461,26.367,10.742,16.113,-190.430
1532214882.568,16.113,26.367,10.254,19.043,-14.648
1532214882.572,19.531,26.367,13.184,25.391,192.871
1532214882.576,17.090,26.855,16.113,21.973,65.918
1532214882.580,8.301,24.414,15.625,16.602,-180.664
1532214882.584,7.812,22.949,13.672,18.066,-89.355
1532214882.588,10.254,24.902,14.160,16.113,213.867
1532214882.592,8.301,24.414,15.137,9.277,169.434
1532214882.596,0.977,23.438,14.160,1.953,-130.859
1532214882.599,3.418,25.879,15.137,3.906,-146.973
1532214882.603,9.277,25.879,10.742,4.395,122.070
1532214882.607,9.277,24.902,8.301,0.488,230.957
1532214882.611,5.859,26.367,8.789,-3.906,-21.484
1532214882.615,9.766,27.832,7.324,-0.977,-219.238
1532214882.619,11.230,29.297,4.883,8.301,49.316
1532214882.623,7.812,30.762,2.441,11.230,246.094
1532214882.627,7.812,32.715,5.371,8.301,24.414
1532214882.631,8.789,34.180,5.371,11.719,-177.734
1532214882.635,10.742,31.738,3.418,17.090,-17.578
1532214882.639,11.719,27.832,4.395,18.555,202.637
1532214882.642,14.160,30.273,2.930,13.184,100.586
1532214882.646,16.602,34.668,-2.441,9.766,-172.852
1532214882.650,13.184,35.645,-2.441,9.766,-95.703
1532214882.654,5.859,33.203,5.371,1.465,167.480
1532214882.658,2.930,29.297,5.859,-2.930,196.777
1532214882.662,-1.953,29.297,3.906,-2.930,-58.594
1532214882.666,-7.812,32.715,5.371,0.000,-128.906
1532214882.670,-10.254,35.156,3.418,2.441,145.508
1532214882.674,-9.766,35.156,0.000,-3.906,220.215
1532214882.678,-2.441,39.062,-2.930,-6.348,-11.719
1532214882.681,0.488,41.504,-1.465,-4.883,-149.902
1532214882.685,-1.953,37.598,3.418,-4.883,67.383
1532214882.689,-9.766,34.668,4.395,-11.230,255.371
1532214882.693,-9.766,33.691,8.301,-13.184,78.613
1532214882.697,0.977,31.738,14.160,-9.277,-166.016
1532214882.701,-1.465,35.156,14.160,-9.766,-12.207
1532214882.705,-4.395,41.016,16.113,-10.742,235.840
1532214882.709,-0.977,38.086,16.602,-11.719,163.086
1532214882.713,0.488,30.762,15.625,-17.578,-100.098
1532214882.717,14.160,30.273,16.602,-13.672,-114.258
1532214882.721,22.461,35.156,14.648,-6.348,185.059
1532214882.724,7.812,35.645,17.090,-7.812,207.520
1532214882.728,-5.371,33.691,21.484,-4.883,-82.520
1532214882.732,-5.859,31.738,20.020,3.906,-155.762
1532214882.736,-4.395,29.297,19.531,10.742,99.609
1532214882.740,4.883,34.180,20.508,7.812,235.352
1532214882.744,7.812,42.480,19.531,1.953,33.203
1532214882.748,2.930,41.992,16.113,2.930,-170.898
1532214882.752,12.695,39.062,15.137,2.441,-20.508
1532214882.756,24.902,38.086,15.625,2.930,198.242
1532214882.760,17.578,39.062,9.277,0.488,100.586
1532214882.763,15.625,40.039,7.812,-1.465,-165.039
1532214882.767,7.812,37.598,10.254,5.371,-73.242
1532214882.771,3.418,35.156,12.695,8.789,210.449
1532214882.775,10.254,31.250,14.160,3.906,174.805
1532214882.779,15.625,30.273,13.672,2.930,-134.766
1532214882.783,11.230,29.297,14.648,7.324,-133.301
1532214882.787,7.812,30.273,18.066,10.254,165.527
1532214882.791,16.113,33.691,19.531,5.859,202.637
1532214882.795,14.160,33.691,17.090,-3.906,-92.773
1532214882.799,0.977,30.762,17.090,-3.418,-188.477
1532214882.803,-2.930,25.391,20.020,0.488,72.266
1532214882.806,6.348,22.461,20.020,5.371,226.562
1532214882.810,12.695,25.391,14.160,-1.953,31.738
1532214882.814,10.254,28.320,9.277,-10.254,-184.082
1532214882.818,9.766,28.809,10.254,-6.348,4.395
1532214882.822,17.578,33.203,10.254,-3.418,238.281
1532214882.826,24.414,40.039,4.395,-0.977,113.281
1532214882.830,25.879,41.016,7.324,0.488,-169.434
1532214882.834,20.020,35.645,13.184,-5.371,-104.004
1532214882.838,18.555,36.621,9.766,-4.395,181.641
1532214882.842,10.742,34.180,9.277,-3.906,182.129
1532214882.846,-3.906,28.809,10.742,-8.789,-107.422
1532214882.849,1.953,28.320,14.160,-1.953,-160.645
1532214882.853,3.418,27.832,18.066,4.883,113.770
1532214882.857,9.277,26.367,20.508,12.695,190.430
1532214882.861,20.996,29.785,20.996,19.043,-46.387
1532214882.865,20.508,35.645,15.137,16.113,-176.758
1532214882.869,15.137,38.086,8.789,12.695,59.570
1532214882.873,8.789,33.203,12.207,11.230,214.355
1532214882.877,8.301,25.879,14.648,5.371,21.484
1532214882.881,7.812,28.320,10.742,-0.977,-187.988
1532214882.885,4.395,31.738,11.719,1.465,-22.461
1532214882.888,5.371,28.809,16.113,8.789,237.793
1532214882.892,8.301,25.391,21.484,6.836,115.234
1532214882.896,8.301,22.949,23.438,5.371,-196.777
1532214882.900,12.207,22.949,18.066,13.184,-109.375
1532214882.904,13.184,30.762,9.277,11.230,172.363
1532214882.908,16.113,36.621,6.836,8.789,166.016
1532214882.912,15.137,33.203,11.719,10.742,-92.285
1532214882.916,0.488,28.320,13.184,8.789,-152.344
1532214882.920,2.441,28.809,12.207,10.254,130.371
1532214882.924,8.789,28.809,8.301,13.672,247.559
1532214882.928,3.418,25.879,4.883,12.207,-30.762
1532214882.931,-3.418,23.438,2.441,8.789,-232.422
1532214882.935,0.488,23.438,-6.836,8.789,9.277
1532214882.939,8.789,23.438,-14.648,11.230,250.488
1532214882.943,2.441,22.461,-19.043,3.418,102.051
1532214882.947,-0.488,22.949,-24.414,4.883,-152.344
1532214882.951,9.766,23.438,-24.414,13.184,-34.180
1532214882.955,14.160,24.414,-29.785,10.742,206.543
1532214882.959,17.090,28.320,-36.621,6.836,127.930
1532214882.963,19.531,30.762,-37.109,8.789,-131.348
1532214882.967,11.230,26.367,-32.227,10.254,-116.699
1532214882.971,7.324,23.926,-25.391,7.324,178.223
1532214882.974,12.695,26.367,-24.902,7.812,203.613
1532214882.978,11.719,30.762,-30.273,3.906,-107.422
1532214882.982,12.695,32.227,-35.156,6.348,-181.641
1532214882.986,16.113,33.203,-41.504,12.207,86.426
1532214882.990,33.203,37.109,-52.246,18.555,200.684
1532214882.994,27.344,35.156,-49.316,14.160,-35.645
1532214882.998,5.859,25.879,-39.551,12.207,-191.895
1532214883.002,5.371,24.414,-43.457,18.555,39.062
1532214883.006,7.324,26.855,-46.875,16.602,255.371
1532214883.010,7.324,25.879,-44.922,15.625,69.824
1532214883.013,11.719,25.879,-51.270,18.066,-209.473
1532214883.017,20.020,27.344,-57.617,24.902,-89.355
1532214883.021,16.113,27.344,-55.176,24.902,185.059
1532214883.025,10.254,27.832,-52.734,16.602,136.719
1532214883.029,7.324,23.438,-58.594,9.766,-152.832
1532214883.033,4.395,21.484,-62.500,5.371,-160.156
1532214883.037,-0.488,20.996,-55.664,12.695,122.070
1532214883.041,4.395,17.578,-52.246,22.461,188.965
1532214883.045,14.160,19.043,-57.617,15.625,-60.547
1532214883.049,18.066,24.414,-64.941,8.789,-186.523
1532214883.053,11.719,27.344,-69.336,8.789,50.293
1532214883.056,9.277,29.297,-68.848,10.742,212.402
1532214883.060,11.230,26.855,-61.035,14.160,-23.438
1532214883.064,9.277,22.949,-51.758,12.207,-213.379
1532214883.068,13.184,26.855,-54.688,14.160,-2.441
1532214883.072,21.973,28.320,-59.570,11.719,203.613
1532214883.076,19.531,26.855,-55.664,10.742,82.031
1532214883.080,16.602,25.391,-48.340,15.625,-152.344
1532214883.084,13.672,22.461,-47.363,15.625,-93.750
1532214883.088,13.184,21.973,-47.852,15.625,184.082
1532214883.092,12.207,22.461,-45.898,7.812,175.781
1532214883.095,6.348,22.461,-44.434,0.488,-103.516
1532214883.099,8.301,23.926,-45.410,6.836,-135.254
1532214883.103,14.160,25.391,-48.340,15.625,128.906
1532214883.107,18.555,26.855,-49.805,20.996,226.074
1532214883.111,14.160,25.391,-45.898,15.625,-39.062
1532214883.115,10.742,22.461,-37.598,14.160,-181.641
1532214883.119,8.789,25.879,-34.180,16.113,66.406
1532214883.123,7.812,25.391,-32.227,8.301,232.910
1532214883.127,12.207,21.484,-30.273,8.301,62.988
1532214883.131,11.230,24.414,-30.273,6.348,-191.895
1532214883.135,14.160,27.832,-30.762,2.930,-83.008
1532214883.138,16.113,25.879,-31.738,11.230,192.383
1532214883.142,10.254,23.438,-27.344,13.672,109.375
1532214883.146,16.602,19.043,-18.555,12.207,-162.598
1532214883.150,41.016,19.043,-15.137,13.672,-92.773
1532214883.154,41.016,29.297,-17.090,6.348,172.363
1532214883.158,30.273,34.668,-19.043,0.488,161.133
1532214883.162,28.320,33.203,-14.648,0.000,-115.234
1532214883.166,24.414,31.250,-8.301,5.371,-153.320
1532214883.170,19.531,30.273,-6.348,11.719,126.953
1532214883.174,17.578,30.762,-6.836,9.277,198.730
1532214883.178,23.926,36.133,-8.301,12.695,-25.879
1532214883.181,24.414,40.039,-6.836,23.926,-165.527
1532214883.185,20.508,34.668,0.000,26.855,28.809
1532214883.189,12.695,32.715,3.418,27.344,198.242
1532214883.193,9.277,34.668,7.324,23.926,33.691
1532214883.197,14.160,32.715,7.812,20.996,-184.570
1532214883.201,12.207,28.320,3.906,21.973,-29.785
1532214883.205,9.277,26.855,6.348,21.973,243.164
1532214883.209,20.508,27.344,8.789,21.484,141.602
1532214883.213,18.066,26.855,8.789,18.066,-169.922
1532214883.217,9.277,29.785,2.930,13.184,-141.113
1532214883.220,9.277,31.738,-3.418,9.766,171.387
1532214883.224,2.930,29.785,-1.465,7.324,190.918
1532214883.228,5.859,29.785,-0.488,10.254,-75.684
1532214883.232,13.672,29.297,-0.977,17.090,-144.531
1532214883.236,18.066,31.738,-4.395,22.949,109.863
1532214883.240,29.297,38.086,-11.230,21.973,226.562
1532214883.244,30.273,38.574,-16.602,17.090,-13.184
1532214883.248,20.020,30.762,-14.160,14.648,-216.797
1532214883.252,17.090,27.832,-12.695,10.254,-26.855
1532214883.256,16.113,25.879,-15.625,8.789,186.035
1532214883.260,14.160,24.414,-15.137,12.207,62.988
1532214883.263,18.555,21.973,-17.578,13.672,-186.523
1532214883.267,20.508,20.508,-20.508,18.555,-74.219
1532214883.271,20.996,25.879,-18.555,12.207,206.055
1532214883.275,22.949,27.832,-17.090,4.883,153.320
1532214883.279,24.902,24.902,-14.648,8.789,-121.094
1532214883.283,19.043,23.438,-13.184,15.625,-134.277
1532214883.287,14.160,21.973,-15.625,20.508,120.605
1532214883.291,17.578,24.414,-13.672,18.555,194.824
1532214883.295,17.578,23.926,-10.254,18.555,-27.832
1532214883.299,9.277,19.531,-11.230,20.020,-148.438
1532214883.303,9.766,18.555,-15.137,22.461,77.148
1532214883.306,17.090,19.531,-17.090,22.461,221.191
1532214883.310,17.090,20.996,-12.207,19.531,-1.465
1532214883.314,10.254,19.043,-6.836,21.973,-215.332
1532214883.318,16.113,15.625,-4.883,33.691,-10.742
1532214883.322,25.391,19.043,-5.859,38.574,226.074
1532214883.326,24.902,25.391,-7.812,34.668,89.355
1532214883.330,22.461,28.320,-3.906,32.715,-170.410
1532214883.334,17.090,27.344,-0.488,24.902,-127.930
1532214883.338,11.719,25.879,-2.441,23.926,179.199
1532214883.342,15.625,24.902,-2.930,24.902,205.566
1532214883.345,23.438,23.926,-3.418,20.020,-107.422
1532214883.349,25.391,25.391,-4.395,23.926,-156.250
1532214883.353,19.531,27.344,-6.348,22.949,116.211
1532214883.357,14.648,27.344,-6.348,22.461,216.797
1532214883.361,16.602,27.344,-3.906,22.949,-8.301
1532214883.365,20.020,26.855,-3.418,24.414,-161.133
1532214883.369,29.297,27.344,-6.836,28.809,55.664
1532214883.373,26.367,30.762,-11.230,24.414,251.465
1532214883.377,19.043,32.715,-12.695,22.949,67.383
1532214883.381,16.602,31.250,-10.742,20.508,-159.668
1532214883.385,5.371,26.855,-9.277,10.742,-13.184
1532214883.388,1.953,26.855,-10.742,7.324,230.957
1532214883.392,7.324,24.414,-8.301,13.672,152.832
1532214883.396,19.043,21.973,-2.441,17.578,-141.113
1532214883.400,20.020,27.832,-3.418,12.695,-131.836
1532214883.404,16.113,33.691,-10.742,1.465,168.457
1532214883.408,18.066,36.133,-13.184,-2.441,207.031
1532214883.412,21.973,36.621,-5.371,-3.906,-108.887
1532214883.416,15.625,32.227,5.859,-1.953,-193.359
1532214883.420,10.742,27.832,10.254,6.348,114.258
1532214883.424,9.277,24.414,8.301,4.395,224.609
1532214883.428,15.625,21.484,6.348,2.441,-20.020
1532214883.431,20.996,25.391,-0.977,3.906,-190.430
1532214883.435,20.020,32.227,-10.254,11.230,25.879
1532214883.439,18.066,29.297,-9.766,10.742,265.137
1532214883.443,13.184,27.832,-7.324,0.977,112.793
1532214883.447,14.648,26.855,-8.789,-1.465,-146.973
1532214883.451,10.742,26.367,-8.789,-0.977,-55.664
1532214883.455,9.277,25.879,-9.277,-2.441,174.805
1532214883.459,18.066,24.902,-13.672,0.977,126.953
1532214883.463,18.555,27.832,-20.508,6.348,-131.348
1532214883.467,12.695,26.367,-20.020,10.742,-114.746
1532214883.470,12.207,20.996,-13.672,13.672,141.602
1532214883.474,13.184,20.996,-11.230,15.625,193.848
1532214883.478,19.531,25.391,-13.184,20.508,-79.102
1532214883.482,17.578,24.414,-14.160,22.461,-171.875
1532214883.486,7.812,21.973,-9.766,24.902,98.633
1532214883.490,18.555,21.973,-2.441,27.344,215.332
1532214883.494,21.973,26.855,-5.859,15.137,-20.508
1532214883.498,9.766,32.227,-8.301,8.301,-210.938
1532214883.502,4.395,32.227,2.441,10.742,8.789
1532214883.506,3.418,28.809,7.812,11.719,235.352
1532214883.510,14.160,29.785,4.883,15.137,85.449
1532214883.513,22.949,30.273,1.953,17.578,-178.223
1532214883.517,29.785,30.762,1.953,26.367,-61.035
1532214883.521,27.344,31.250,6.836,26.367,219.238
1532214883.525,22.461,31.250,10.742,21.484,174.805
1532214883.529,20.508,30.273,9.277,21.973,-106.445
1532214883.533,12.207,25.879,7.324,16.602,-126.953
1532214883.537,3.418,23.926,9.766,17.578,155.762
1532214883.541,10.254,25.879,9.766,20.996,216.797
1532214883.545,18.555,32.227,2.930,12.695,-64.941
1532214883.549,14.648,39.551,-6.348,9.277,-170.898
1532214883.552,14.160,41.016,-7.812,8.789,63.477
1532214883.556,12.207,34.180,-4.395,4.883,190.430
1532214883.560,10.254,31.738,-5.859,7.812,-12.207
1532214883.564,8.301,32.227,-13.184,8.301,-185.059
1532214883.568,11.230,31.250,-16.113,9.277,4.395
1532214883.572,14.648,36.621,-20.020,11.719,228.027
1532214883.576,4.883,38.086,-18.555,9.277,145.996
1532214883.580,-0.977,34.668,-13.184,10.742,-132.812
1532214883.584,-1.465,35.645,-15.137,16.113,-85.449
1532214883.588,6.348,36.621,-18.555,16.113,208.496
1532214883.592,15.625,38.086,-18.555,16.602,187.500
1532214883.595,15.137,36.621,-16.113,17.090,-89.355
1532214883.599,8.789,36.133,-13.672,14.160,-115.723
1532214883.603,0.488,33.691,-14.160,11.719,159.180
1532214883.607,-2.441,28.809,-14.160,15.625,227.539
1532214883.611,8.789,27.832,-10.742,18.066,-51.270
1532214883.615,11.719,35.156,-12.695,10.742,-209.473
1532214883.619,1.953,36.133,-20.508,5.371,35.156
1532214883.623,2.930,34.668,-20.508,9.277,242.676
1532214883.627,6.836,36.133,-13.672,15.137,71.777
1532214883.631,12.207,34.668,-14.648,17.578,-175.293
1532214883.635,20.508,35.156,-16.602,13.672,-45.410
1532214883.638,19.531,41.992,-20.020,9.277,233.398
1532214883.642,24.902,46.875,-20.508,10.254,149.902
1532214883.646,26.367,43.945,-11.719,8.301,-132.324
1532214883.650,19.043,39.062,-5.859,6.348,-108.887
1532214883.654,13.672,36.133,-5.859,6.836,172.852
1532214883.658,12.207,31.250,-0.488,5.859,213.867
1532214883.662,21.484,30.762,2.930,8.789,-73.730
1532214883.666,25.391,37.109,0.000,8.301,-147.461
1532214883.670,20.020,40.527,-1.953,1.953,119.629
1532214883.674,19.531,38.086,-1.953,1.465,217.773
1532214883.677,19.043,37.109,-1.953,0.977,-20.508
1532214883.681,15.625,36.621,1.465,-1.465,-176.758
1532214883.685,11.719,41.016,6.836,-0.488,43.457
1532214883.689,10.742,43.945,7.812,0.977,249.023
1532214883.693,15.137,44.434,13.184,-8.301,53.223
1532214883.697,19.531,44.434,17.090,-10.742,-201.172
1532214883.701,18.555,42.480,18.555,1.953,-42.480
1532214883.705,20.508,42.480,21.484,11.230,222.168
1532214883.709,21.973,41.992,21.484,9.277,156.738
1532214883.713,11.719,39.062,22.461,0.488,-124.512
1532214883.717,0.000,35.156,29.297,-1.953,-111.328
1532214883.720,0.977,34.668,34.180,2.441,173.828
1532214883.724,10.254,34.668,32.715,3.418,206.543
1532214883.728,14.160,35.156,27.832,-0.977,-57.129
1532214883.732,13.672,39.551,27.344,-2.930,-160.156
1532214883.736,9.766,41.016,30.273,-5.371,77.148
1532214883.740,6.836,37.109,30.273,0.000,225.098
1532214883.744,11.230,38.574,31.250,5.859,31.738
1532214883.748,13.672,38.574,33.203,7.812,-181.641
1532214883.752,11.230,35.156,34.180,9.766,1.953
1532214883.756,7.324,36.133,32.227,4.883,232.910
1532214883.760,8.789,34.180,28.809,-0.488,84.961
1532214883.763,17.090,32.227,27.832,5.859,-170.898
1532214883.767,21.973,33.203,24.414,19.531,-62.988
1532214883.771,18.555,36.621,25.879,20.508,209.473
1532214883.775,19.043,39.551,23.926,13.184,151.855
1532214883.779,20.020,37.598,15.625,12.695,-130.859
1532214883.783,19.531,36.621,10.742,11.719,-151.367
1532214883.787,16.602,35.156,12.207,14.160,136.719
1532214883.791,15.625,31.738,10.742,12.695,202.637
1532214883.795,23.438,34.180,6.836,2.930,-68.359
1532214883.799,27.344,41.016,-0.488,9.766,-177.734
1532214883.802,21.973,39.551,-1.465,19.531,76.172
1532214883.806,12.695,35.156,3.418,14.160,250.000
1532214883.810,13.672,35.156,0.977,6.836,44.434
1532214883.814,22.949,38.086,-3.418,10.254,-181.152
1532214883.818,26.855,37.109,-3.906,21.973,-15.625
1532214883.822,19.531,32.715,-2.930,19.531,220.703
1532214883.826,16.602,31.250,-1.953,14.648,122.559
1532214883.830,19.043,31.250,2.930,20.020,-159.668
1532214883.834,15.137,28.320,4.395,21.484,-145.020
1532214883.838,16.113,24.414,2.441,24.902,125.488
1532214883.842,23.926,26.367,0.977,29.785,170.898
1532214883.845,31.250,30.762,-1.465,25.391,-84.473
1532214883.849,29.297,32.715,-4.395,22.949,-169.434
1532214883.853,25.391,30.273,-2.930,24.414,103.516
1532214883.857,30.762,30.273,-6.348,23.926,228.027
1532214883.861,28.809,31.738,-14.160,22.461,-18.555
1532214883.865,23.926,30.762,-13.184,20.508,-196.289
1532214883.869,27.344,30.762,-8.301,22.461,43.457
1532214883.873,28.320,34.180,-5.371,18.555,210.938
1532214883.877,32.227,34.668,-1.953,17.090,26.855
1532214883.881,32.715,29.785,1.465,25.879,-186.035
1532214883.884,23.438,29.297,5.371,28.320,-40.039
1532214883.888,16.113,30.273,8.301,26.367,229.004
1532214883.892,21.484,29.297,11.230,27.344,122.070
1532214883.896,26.855,30.273,8.789,29.785,-152.832
1532214883.900,26.855,30.273,6.836,33.691,-97.656
1532214883.904,25.391,30.762,9.277,36.133,159.668
1532214883.908,19.531,32.715,11.230,29.785,168.945
1532214883.912,16.113,29.297,12.695,26.855,-106.445
1532214883.916,19.531,22.949,13.672,31.250,-180.664
1532214883.920,25.879,24.902,12.207,39.551,109.375
1532214883.924,32.227,33.691,4.395,35.156,228.516
1532214883.927,36.133,37.598,1.465,29.785,-25.391
1532214883.931,26.855,34.180,5.859,27.832,-223.145
1532214883.935,11.230,31.250,10.742,21.484,-25.391
1532214883.939,9.277,28.320,12.207,23.926,218.262
1532214883.943,17.090,26.855,13.184,29.785,96.191
1532214883.947,25.879,28.320,20.020,32.715,-172.363
1532214883.951,26.855,32.715,29.297,29.297,-76.172
1532214883.955,20.996,34.180,32.715,28.320,204.102
1532214883.959,19.531,36.133,34.180,22.949,164.062
1532214883.963,22.461,31.250,36.133,17.090,-136.719
1532214883.967,23.438,28.809,36.621,23.438,-135.254
1532214883.970,23.438,34.180,35.156,24.902,146.484
1532214883.974,25.391,34.668,33.691,15.625,185.059
1532214883.978,20.996,36.621,30.762,12.695,-82.520
1532214883.982,7.812,36.133,32.227,13.184,-192.871
1532214883.986,8.789,30.273,35.156,9.766,69.824
1532214883.990,13.672,30.762,31.738,8.789,212.891
1532214883.994,11.719,33.691,26.855,8.301,-11.719
1532214883.998,20.996,37.109,25.391,8.301,-205.078
1532214884.002,20.996,44.922,24.414,11.719,13.672
1532214884.006,16.602,45.410,26.367,11.230,236.816
1532214884.009,11.719,38.574,32.227,3.906,87.402
1532214884.013,10.742,38.574,33.691,-5.371,-187.012
1532214884.017,14.160,38.574,31.250,-3.906,-106.445
1532214884.021,13.672,34.180,33.203,9.766,206.543
1532214884.025,9.277,31.738,37.109,8.301,168.457
1532214884.029,6.836,35.156,32.227,-0.488,-128.906
1532214884.033,6.836,37.598,26.855,0.977,-150.879
1532214884.037,3.418,34.668,31.250,0.000,131.836
1532214884.041,-1.953,30.762,34.668,-7.812,195.801
1532214884.045,-1.953,30.273,34.668,-11.230,-55.664
1532214884.049,13.672,31.250,36.133,-1.465,-202.148
1532214884.052,26.367,31.738,35.645,10.254,30.762
1532214884.056,27.832,34.180,29.297,2.930,240.234
1532214884.060,35.156,40.527,29.785,-7.812,35.156
1532214884.064,34.668,41.016,34.180,-6.836,-224.609
1532214884.068,27.344,36.133,29.297,1.465,-26.855
1532214884.072,27.344,37.598,24.902,9.766,221.680
1532214884.076,15.137,36.133,30.273,4.883,86.914
1532214884.080,0.977,32.715,31.738,2.930,-162.109
1532214884.084,-8.301,32.715,24.414,9.277,-81.543
1532214884.088,-4.883,34.180,22.461,12.207,195.312
1532214884.092,1.465,35.156,20.020,9.277,170.898
1532214884.095,0.977,31.738,13.184,5.859,-102.539
1532214884.099,8.301,32.227,9.277,12.695,-167.969
1532214884.103,12.695,33.691,7.812,15.625,90.332
1532214884.107,11.230,32.227,8.789,8.789,205.078
1532214884.111,8.301,33.691,13.184,-5.371,-33.203
1532214884.115,5.859,31.738,13.184,-10.742,-216.797
1532214884.119,6.348,26.367,6.836,-0.977,32.227
1532214884.123,6.836,24.902,3.906,0.977,255.371
1532214884.127,13.184,26.855,6.348,0.000,86.914
1532214884.131,16.602,30.273,4.395,4.883,-156.250
1532214884.134,12.695,33.691,-4.883,6.836,-46.387
1532214884.138,8.789,38.574,-11.719,4.883,210.449
1532214884.142,6.836,37.598,-8.789,1.465,134.277
1532214884.146,10.742,29.785,-8.789,2.441,-145.020
1532214884.150,7.812,30.273,-11.230,4.883,-99.609
1532214884.154,3.418,32.227,-8.789,-2.441,145.996
1532214884.158,9.277,29.297,-7.324,1.953,177.734
1532214884.162,10.742,25.391,-7.324,9.766,-52.734
1532214884.166,6.836,25.879,-3.906,12.695,-152.832
1532214884.170,3.906,24.414,-3.418,15.625,121.094
1532214884.174,13.672,27.344,-5.859,19.043,217.773
1532214884.177,24.902,30.762,-12.207,20.020,-18.066
1532214884.181,22.461,33.203,-12.207,18.555,-161.621
1532214884.185,20.020,37.109,-8.301,20.020,46.387
1532214884.189,20.996,37.598,-5.859,20.996,239.746
1532214884.193,15.625,37.109,0.000,15.625,68.848
1532214884.197,7.812,35.156,1.953,14.160,-166.504
1532214884.201,4.883,30.273,2.441,20.508,-45.898
1532214884.205,7.812,26.367,6.836,22.949,206.543
1532214884.209,12.207,29.785,11.719,23.438,146.973
1532214884.213,15.137,35.645,8.301,16.113,-157.715
1532214884.217,18.555,39.062,-0.488,8.789,-157.227
1532214884.220,11.230,33.691,-3.418,15.625,146.973
1532214884.224,3.906,31.250,-1.953,17.090,209.961
1532214884.228,7.324,35.645,-0.977,13.184,-46.875
1532214884.232,10.742,34.180,1.953,19.043,-145.996
1532214884.236,13.184,30.762,1.465,24.902,109.375
1532214884.240,23.438,32.715,1.953,26.855,228.027
1532214884.244,27.344,36.621,5.371,23.926,26.855
1532214884.248,20.508,37.109,3.418,20.020,-140.137
1532214884.252,11.230,36.621,2.930,15.625,-9.277
1532214884.256,13.184,37.598,5.371,8.301,201.660
1532214884.259,20.996,38.086,4.883,10.254,112.305
1532214884.263,15.137,36.621,-0.977,14.160,-151.855
1532214884.267,10.742,33.691,-9.766,13.672,-62.500
1532214884.271,10.742,34.180,-14.648,13.184,186.035
1532214884.275,12.695,32.227,-8.301,11.719,161.133
1532214884.279,18.555,28.809,1.953,12.695,-118.164
1532214884.283,17.090,26.855,2.930,11.230,-149.414
1532214884.287,5.859,26.855,2.930,7.812,153.320
1532214884.291,6.836,31.250,2.441,0.000,209.473
1532214884.295,14.160,34.180,1.953,-10.254,-93.750
1532214884.299,8.789,32.227,5.859,-6.836,-175.781
1532214884.302,3.906,30.762,10.254,0.488,78.125
1532214884.306,6.836,30.762,9.277,1.465,247.070
1532214884.310,18.066,32.227,1.465,0.977,41.992
1532214884.314,20.508,31.250,-4.883,-0.488,-210.449
1532214884.318,13.184,27.832,-7.812,3.418,-51.758
1532214884.322,15.625,29.297,-17.090,7.812,186.523
1532214884.326,18.555,31.250,-23.438,8.789,106.934
1532214884.330,21.484,30.762,-24.414,11.230,-141.113
1532214884.334,25.391,31.738,-22.461,10.742,-103.516
1532214884.338,23.438,30.273,-17.578,7.812,166.016
1532214884.341,24.902,32.715,-19.043,4.395,188.477
1532214884.345,27.832,38.574,-21.484,3.418,-79.590
1532214884.349,19.043,36.621,-21.973,8.301,-130.371
1532214884.353,20.996,33.691,-19.043,10.254,97.168
1532214884.357,24.414,36.621,-15.625,11.230,170.410
1532214884.361,23.438,37.109,-12.695,14.648,-7.324
1532214884.365,24.414,33.691,-9.277,19.043,-147.949
1532214884.369,21.484,32.715,-8.789,19.531,51.270
1532214884.373,20.996,35.156,-8.789,13.184,230.469
1532214884.377,23.926,38.086,-4.395,10.742,67.871
1532214884.381,21.484,34.668,1.953,11.719,-171.875
1532214884.384,8.789,31.250,4.883,6.836,-61.035
1532214884.388,5.371,32.227,8.301,7.324,210.938
1532214884.392,7.812,29.297,11.719,5.371,119.141
1532214884.396,5.859,28.809,8.301,2.441,-166.016
1532214884.400,2.441,27.344,-1.465,7.324,-102.051
1532214884.404,6.348,24.414,-4.395,11.719,178.223
1532214884.408,13.672,23.926,0.977,15.137,188.477
1532214884.412,14.648,27.344,-0.488,5.859,-82.031
1532214884.416,18.066,33.203,-5.859,4.395,-150.879
1532214884.420,9.766,34.668,-6.836,8.789,117.676
1532214884.424,2.930,33.203,-3.418,3.906,229.004
1532214884.427,3.418,34.668,0.488,3.418,-15.137
1532214884.431,6.348,34.180,0.488,1.465,-206.543
1532214884.435,10.742,31.738,0.000,0.977,-10.742
1532214884.439,16.602,30.273,2.930,10.742,221.191
1532214884.443,18.066,27.344,4.883,12.695,106.445
1532214884.447,10.254,29.297,1.465,9.766,-140.137
1532214884.451,2.930,30.273,3.906,10.254,-46.387
1532214884.455,0.488,28.320,11.230,8.301,222.168
1532214884.459,-2.930,27.344,9.277,2.441,170.410
1532214884.463,-0.977,27.344,5.859,6.348,-112.793
1532214884.466,7.812,29.297,4.883,16.113,-109.375
1532214884.470,11.230,34.668,4.883,17.578,149.414
1532214884.474,9.766,32.715,6.836,15.625,187.012
1532214884.478,9.277,29.297,9.277,12.207,-60.059
1532214884.482,10.742,29.297,9.277,14.160,-161.133
1532214884.486,9.277,27.832,7.324,20.020,105.957
1532214884.490,13.184,28.320,2.441,20.508,243.652
1532214884.494,20.508,27.832,-1.953,21.484,9.277
1532214884.498,27.344,26.855,-4.395,27.832,-166.016
1532214884.502,27.344,26.855,-7.812,35.156,6.836
1532214884.506,25.879,30.273,-12.207,29.785,225.586
1532214884.509,22.949,33.691,-12.207,20.996,136.719
1532214884.513,12.207,30.762,-12.207,11.230,-151.367
1532214884.517,9.277,26.367,-13.184,12.207,-97.168
1532214884.521,13.184,26.367,-13.184,25.879,189.453
1532214884.525,20.020,25.879,-12.207,29.297,190.918
1532214884.529,22.949,24.902,-16.113,25.391,-62.500
1532214884.533,21.484,29.785,-20.508,21.484,-130.859
1532214884.537,27.832,29.297,-24.902,24.414,104.980
1532214884.541,36.133,31.738,-25.391,32.715,221.191
1532214884.545,34.668,37.109,-22.461,31.250,0.488
1532214884.549,26.855,34.180,-24.414,25.879,-135.254
1532214884.552,20.508,30.762,-26.367,26.367,79.102
1532214884.556,20.020,28.320,-27.344,23.926,249.023
1532214884.560,17.090,26.855,-28.320,21.484,83.984
1532214884.564,13.184,28.809,-30.273,22.461,-175.781
1532214884.568,15.137,28.809,-36.133,21.973,-14.648
1532214884.572,20.508,29.297,-35.645,20.020,204.102
1532214884.576,21.484,31.738,-30.762,19.043,97.168
1532214884.580,21.484,31.738,-29.785,15.625,-122.070
1532214884.584,20.996,30.762,-35.156,16.602,-85.938
1532214884.588,19.043,29.785,-40.527,16.602,163.574
1532214884.591,15.625,29.785,-37.598,9.277,211.426
1532214884.595,12.695,27.832,-34.180,7.324,-69.824
1532214884.599,13.184,26.855,-35.645,11.719,-173.828
1532214884.603,14.648,29.785,-37.109,16.113,126.465
1532214884.607,17.090,30.273,-35.156,16.602,206.055
1532214884.611,24.414,28.809,-31.738,13.184,-59.570
1532214884.615,30.762,26.855,-32.715,11.230,-214.355
1532214884.619,24.414,33.691,-34.180,12.695,27.344
1532214884.623,12.695,37.109,-37.109,6.348,233.398
1532214884.627,11.230,32.715,-36.621,2.441,85.938
1532214884.631,17.090,32.227,-28.320,5.859,-155.762
1532214884.634,16.113,31.250,-23.926,5.371,-79.590
1532214884.638,15.137,30.273,-22.461,10.254,189.453
1532214884.642,13.672,29.297,-21.973,10.254,167.969
1532214884.646,16.113,29.297,-19.043,4.883,-114.258
1532214884.650,15.625,29.297,-15.625,12.207,-118.164
1532214884.654,11.719,32.715,-16.113,17.090,166.016
1532214884.658,16.602,35.156,-14.648,14.160,179.199
1532214884.662,20.020,32.715,-15.137,14.160,-103.516
1532214884.666,21.973,33.691,-14.648,18.555,-181.152
1532214884.670,18.555,34.668,-12.695,16.113,86.914
1532214884.673,21.484,32.715,-9.766,7.324,191.895
1532214884.677,16.602,32.227,-7.324,3.906,-45.898
1532214884.681,10.254,34.180,-7.812,9.766,-199.707
1532214884.685,11.230,36.133,-7.324,14.648,11.230
1532214884.689,8.301,38.086,-6.348,13.672,218.262
1532214884.693,12.207,39.551,-7.324,10.254,71.289
1532214884.697,14.160,39.062,-6.836,11.719,-187.012
1532214884.701,15.625,40.527,-3.906,14.648,-88.379
1532214884.705,20.020,41.504,-5.371,17.578,195.801
1532214884.709,16.602,41.016,-9.766,14.648,138.184
1532214884.713,11.230,37.598,-9.766,4.883,-175.293
1532214884.716,10.742,34.180,-4.883,3.418,-211.426
1532214884.720,13.672,31.738,-2.441,5.859,104.492
1532214884.724,15.137,32.227,-3.906,5.371,215.332
1532214884.728,10.742,34.180,-2.930,7.812,-40.527
1532214884.732,4.395,34.668,-2.930,2.441,-175.293
1532214884.736,4.883,33.203,-5.371,2.441,61.035
1532214884.740,7.812,34.180,-8.301,6.836,233.887
1532214884.744,12.207,40.039,-9.277,0.000,47.852
1532214884.748,3.906,42.480,-7.324,-1.953,-169.434
1532214884.752,-4.395,38.574,-2.930,2.930,-20.020
1532214884.756,1.465,38.574,0.977,4.395,220.703
1532214884.759,8.301,38.086,1.953,7.324,141.602
1532214884.763,10.254,37.109,1.953,8.301,-136.719
1532214884.767,4.883,40.527,5.371,8.301,-77.148
1532214884.771,4.395,39.062,10.254,6.836,205.566
1532214884.775,10.254,34.180,13.184,8.301,171.387
1532214884.779,12.207,33.691,15.625,18.555,-96.680
1532214884.783,11.719,34.180,12.207,20.508,-127.441
1532214884.787,16.602,32.715,7.324,20.996,145.508
1532214884.791,19.043,33.691,6.836,18.066,235.840
1532214884.795,13.672,36.133,6.836,10.254,-22.949
1532214884.798,15.625,37.598,6.836,14.160,-166.992
1532214884.802,8.301,33.691,7.812,19.531,57.129
1532214884.806,5.371,32.715,8.301,20.996,234.375
1532214884.810,12.207,39.062,0.977,18.555,42.969
1532214884.814,15.625,43.457,-9.766,13.184,-193.359
1532214884.818,19.043,41.992,-14.160,25.391,-23.926
1532214884.822,9.766,37.109,-8.789,28.809,231.934
1532214884.826,-0.488,34.668,-8.301,17.090,117.676
1532214884.830,-0.977,32.227,-12.207,13.184,-145.996
1532214884.834,0.000,28.320,-12.695,18.066,-104.492
1532214884.838,3.418,25.391,-17.090,22.949,152.344
1532214884.841,2.441,24.902,-17.578,18.555,162.598
1532214884.845,8.301,27.344,-16.602,12.695,-116.211
1532214884.849,10.254,28.809,-20.020,15.625,-168.457
1532214884.853,11.230,30.762,-21.484,23.438,78.125
1532214884.857,16.602,31.250,-24.414,21.484,176.270
1532214884.861,11.230,30.762,-27.344,14.160,-33.691
1532214884.865,5.859,30.273,-27.344,13.672,-178.711
1532214884.869,8.301,27.832,-24.902,16.602,45.410
1532214884.873,15.137,26.855,-27.832,17.090,241.211
1532214884.877,15.137,30.762,-31.738,14.648,126.953
1532214884.881,11.719,31.250,-28.809,11.719,-130.371
1532214884.884,9.766,28.809,-24.414,10.254,-29.785
1532214884.888,10.742,29.785,-25.879,8.301,227.539
1532214884.892,15.625,30.762,-28.809,6.348,149.414
1532214884.896,15.137,30.273,-23.926,5.371,-158.203
1532214884.900,9.766,30.762,-20.996,5.859,-152.832
1532214884.904,7.812,29.297,-20.020,6.836,152.832
1532214884.908,16.113,29.297,-14.648,10.742,193.848
1532214884.912,21.973,34.180,-14.648,5.371,-82.520
1532214884.916,21.973,33.691,-16.602,0.488,-189.453
1532214884.920,12.695,26.367,-15.137,8.789,102.051
1532214884.923,0.977,25.391,-14.648,6.348,262.207
1532214884.927,12.695,30.762,-12.695,2.930,35.645
1532214884.931,27.832,32.715,-14.648,1.465,-179.199
1532214884.935,38.574,36.133,-16.113,1.953,12.695
1532214884.939,38.574,40.039,-15.137,1.953,230.957
1532214884.943,29.785,34.668,-16.113,-1.953,102.539
1532214884.947,20.996,27.832,-12.207,2.930,-144.043
1532214884.951,11.230,26.855,-6.348,9.277,-74.219
1532214884.955,6.836,25.879,-5.371,10.254,174.805
1532214884.959,9.766,24.414,-8.301,16.113,151.367
1532214884.963,16.602,29.297,-10.254,17.090,-117.188
1532214884.966,12.695,35.156,-11.719,17.578,-119.141
1532214884.970,2.441,38.086,-11.230,17.090,151.367
1532214884.974,-1.953,32.715,-6.836,9.277,206.543
1532214884.978,-0.488,24.902,-0.488,11.230,-48.828
1532214884.982,13.672,22.461,5.371,26.367,-177.734
1532214884.986,20.508,27.832,2.930,26.855,94.238
1532214884.990,12.207,36.621,-2.930,9.766,260.742
1532214884.994,9.277,39.551,-1.465,0.488,35.156
1532214884.998,6.836,41.504,-0.977,3.418,-189.941
1532214885.002,3.906,39.551,0.488,13.184,-20.508
1532214885.005,1.465,32.227,3.418,15.625,225.586
1532214885.009,0.977,28.809,6.348,16.113,126.953
1532214885.013,12.695,30.273,3.418,19.531,-164.551
1532214885.017,20.996,32.715,-5.859,21.484,-110.840
1532214885.021,15.137,37.109,-14.160,18.066,199.219
1532214885.025,14.160,39.551,-19.043,11.230,184.082
1532214885.029,12.207,39.551,-13.184,9.766,-112.793
1532214885.033,2.441,36.621,-6.836,6.348,-157.715
1532214885.037,4.883,34.180,-11.230,8.789,106.934
1532214885.041,3.418,35.156,-19.531,7.812,197.266
1532214885.045,2.441,34.668,-23.926,-0.488,-44.922
1532214885.048,2.930,31.738,-23.438,0.977,-172.363
1532214885.052,6.836,29.785,-20.508,5.371,43.945
1532214885.056,17.090,29.785,-21.973,2.441,211.426
1532214885.060,15.625,33.203,-29.785,-2.441,62.500
1532214885.064,7.324,39.062,-34.180,-8.301,-142.578
1532214885.068,9.277,38.086,-34.668,-7.324,-22.461
1532214885.072,15.137,35.156,-28.809,-0.977,212.402
1532214885.076,10.254,33.691,-24.902,-3.418,145.020
1532214885.080,1.953,29.785,-25.879,-6.836,-135.254
1532214885.084,1.465,27.832,-27.832,-0.977,-124.512
1532214885.088,11.230,27.344,-27.832,7.812,148.926
1532214885.091,16.113,27.344,-22.949,7.324,158.203
1532214885.095,14.160,28.320,-22.461,0.488,-109.375
1532214885.099,13.184,31.738,-24.414,1.953,-177.734
1532214885.103,17.578,36.133,-21.973,4.883,102.539
1532214885.107,11.719,32.715,-19.043,-0.488,232.422
1532214885.111,0.000,27.344,-12.207,-9.277,-26.367
1532214885.115,-2.930,25.391,-5.371,-15.625,-209.961
1532214885.119,2.930,21.973,-4.395,-3.906,12.695
1532214885.123,7.812,21.973,-3.906,7.812,249.023
1532214885.127,9.277,23.438,-5.371,7.324,96.191
1532214885.130,8.301,23.438,-3.906,5.371,-187.500
1532214885.134,7.324,24.414,0.488,6.348,-67.871
1532214885.138,15.625,26.367,-0.977,13.672,201.660
1532214885.142,24.414,27.832,-6.836,9.766,110.352
1532214885.146,19.531,26.855,-7.812,2.930,-154.785
1532214885.150,10.254,24.902,-2.930,3.906,-142.090
1532214885.154,11.719,25.879,-5.371,3.418,140.137
1532214885.158,15.137,25.391,-6.836,6.836,199.707
1532214885.162,13.184,26.367,-1.465,6.836,-83.496
1532214885.166,17.578,24.414,4.883,9.766,-166.016
1532214885.170,24.414,22.461,10.742,20.996,102.539
1532214885.173,20.508,27.832,12.207,19.043,249.512
1532214885.177,17.578,36.133,11.719,10.254,41.016
1532214885.181,18.555,38.086,10.254,13.184,-184.082
1532214885.185,22.461,33.691,7.812,20.508,-3.418
1532214885.189,25.391,32.227,10.742,21.973,204.102
1532214885.193,22.949,33.691,12.695,13.672,42.480
1532214885.197,24.902,35.156,6.836,11.719,-195.312
1532214885.201,25.879,35.645,3.418,21.973,-62.988
1532214885.205,23.926,36.133,5.859,20.508,203.125
1532214885.209,24.414,35.645,8.789,16.113,192.871
1532214885.213,21.484,38.574,5.859,11.230,-96.191
1532214885.216,15.137,35.156,1.953,7.812,-143.066
1532214885.220,12.695,30.273,0.977,15.625,153.320
1532214885.224,17.578,27.832,0.000,19.043,226.562
1532214885.228,22.461,30.273,1.953,13.672,-39.551
1532214885.232,21.973,37.109,-1.953,7.324,-201.660
1532214885.236,19.531,38.574,-2.930,9.277,56.641
1532214885.240,11.719,32.715,8.789,11.230,243.164
1532214885.244,4.395,30.273,15.625,0.000,23.926
1532214885.248,0.000,34.668,19.043,-4.883,-193.359
1532214885.252,-0.977,38.086,25.391,1.953,-37.598
1532214885.255,2.930,37.109,29.297,6.348,205.566
1532214885.259,9.277,33.691,33.691,7.324,97.168
1532214885.263,8.789,30.273,36.133,4.883,-168.457
1532214885.267,-2.930,30.273,32.715,3.418,-102.539
1532214885.271,-2.930,32.227,18.555,-1.465,166.992
1532214885.275,6.348,34.668,-0.488,-11.230,127.441
1532214885.279,9.277,33.691,-12.695,-11.230,-131.348
1532214885.283,11.719,32.715,-18.555,-0.977,-142.578
1532214885.287,13.672,33.691,-24.902,1.465,129.395
1532214885.291,3.418,33.203,-24.902,-3.418,220.703
1532214885.295,2.441,31.250,-28.320,-6.348,-36.621
1532214885.298,7.812,31.250,-37.109,-4.395,-166.992
1532214885.302,12.695,32.715,-40.527,0.977,61.523
1532214885.306,15.625,31.738,-41.504,1.953,249.512
1532214885.310,11.719,29.297,-41.504,-5.859,71.289
1532214885.314,3.418,25.391,-41.504,-9.277,-177.246
1532214885.318,2.930,27.344,-44.922,-2.930,-29.785
1532214885.322,11.230,30.273,-49.316,3.906,214.844
1532214885.326,20.508,28.320,-54.199,6.836,132.324
1532214885.330,21.973,26.855,-58.105,6.348,-142.090
1532214885.334,9.277,28.320,-61.523,-7.324,-136.719
1532214885.338,8.789,29.785,-67.383,-9.277,133.789
1532214885.341,13.184,29.297,-67.871,4.395,184.082
1532214885.345,20.020,31.250,-67.383,7.324,-79.102
1532214885.349,24.902,35.645,-73.242,8.789,-167.969
1532214885.353,18.066,36.621,-81.543,8.301,113.281
1532214885.357,20.508,35.156,-85.938,2.930,242.188
1532214885.361,17.090,35.645,-86.914,0.000,-16.602
1532214885.365,1.465,32.227,-87.402,-0.488,-215.332
1532214885.369,2.930,28.809,-90.820,6.836,18.555
1532214885.373,5.859,31.250,-93.750,6.836,207.031
1532214885.377,4.395,33.203,-98.145,-2.930,40.039
1532214885.380,4.883,32.715,-104.492,0.000,-171.875
1532214885.384,7.812,34.668,-106.934,6.836,-71.289
1532214885.388,11.230,35.645,-113.281,8.789,194.824
1532214885.392,8.301,34.180,-117.676,3.906,128.418
1532214885.396,7.812,34.668,-114.258,2.441,-155.762
1532214885.400,10.254,33.203,-112.305,8.789,-140.625
1532214885.404,4.883,29.297,-114.258,8.789,145.508
1532214885.408,4.395,27.344,-124.023,7.324,190.430
1532214885.412,7.324,30.273,-136.719,0.977,-99.121
1532214885.416,10.742,32.227,-149.414,1.465,-195.312
1532214885.420,12.695,34.668,-164.551,3.418,78.613
1532214885.423,14.160,39.551,-172.852,0.977,233.887
1532214885.427,17.090,40.039,-168.457,1.953,20.508
1532214885.431,20.996,35.156,-154.785,5.859,-195.312
1532214885.435,17.090,34.668,-145.020,9.277,-13.672
1532214885.439,9.766,35.156,-138.672,11.719,208.496
1532214885.443,13.184,33.203,-135.742,11.230,74.219
1532214885.447,15.137,33.203,-139.648,11.230,-192.383
1532214885.451,12.207,38.086,-145.508,10.742,-106.934
1532214885.455,12.207,39.062,-152.832,10.254,196.289
1532214885.459,7.812,36.133,-161.621,7.324,157.227
1532214885.462,9.766,33.691,-171.875,6.348,-143.555
1532214885.466,20.020,33.691,-183.105,14.160,-121.582
1532214885.470,16.602,34.668,-192.871,14.648,149.902
1532214885.474,1.953,31.738,-200.195,2.441,178.223
1532214885.478,0.488,25.391,-203.125,6.348,-52.246
1532214885.482,7.812,29.297,-202.148,12.207,-165.527
1532214885.486,5.859,36.133,-208.984,4.883,57.129
1532214885.490,4.395,38.086,-222.168,-2.441,242.188
1532214885.494,10.254,39.551,-235.840,-1.953,49.805
1532214885.498,16.113,37.598,-248.535,6.348,-186.035
1532214885.502,17.578,33.203,-264.160,14.648,-20.020
1532214885.505,18.066,32.715,-280.273,15.625,230.469
1532214885.509,16.113,33.691,-295.898,7.812,142.090
1532214885.513,16.602,33.203,-314.941,1.953,-146.484
1532214885.517,18.555,31.250,-324.707,9.277,-107.910
1532214885.521,12.695,25.391,-323.730,16.113,162.598
1532214885.525,6.348,23.926,-321.289,7.812,163.574
1532214885.529,0.000,26.367,-319.824,0.977,-83.008
1532214885.533,5.859,29.297,-321.289,4.395,-171.387
1532214885.537,11.719,31.738,-326.172,5.859,81.543
1532214885.541,14.648,31.250,-337.402,8.789,245.117
1532214885.545,11.230,33.203,-343.750,6.836,7.812
1532214885.548,0.977,32.227,-345.215,2.441,-191.406
1532214885.552,1.953,33.203,-342.285,7.324,12.695
1532214885.556,5.859,31.250,-331.543,11.230,202.637
1532214885.560,2.441,27.344,-325.684,6.348,21.973
1532214885.564,-5.371,24.902,-322.266,6.836,-201.172
1532214885.568,-5.371,24.414,-313.965,14.160,-20.508
1532214885.572,1.465,25.391,-308.594,11.230,209.961
1532214885.576,3.906,26.367,-309.570,5.859,106.445
1532214885.580,15.137,29.785,-309.570,15.137,-152.344
1532214885.584,16.602,30.273,-307.129,27.832,-113.281
1532214885.587,10.254,30.762,-303.223,28.320,184.570
1532214885.591,9.766,34.180,-298.340,18.066,218.750
1532214885.595,8.301,32.715,-295.898,8.789,-92.285
1532214885.599,9.766,30.762,-292.969,10.254,-182.617
1532214885.603,14.648,29.297,-291.016,17.090,104.004
1532214885.607,14.648,27.832,-293.945,14.648,233.887
1532214885.611,8.789,28.809,-294.922,2.441,-23.438
1532214885.615,7.324,28.809,-298.828,-2.930,-246.094
1532214885.619,7.812,29.297,-302.734,0.000,-4.395
1532214885.623,8.789,31.738,-301.758,3.906,243.164
1532214885.627,11.230,32.715,-296.875,9.277,98.633
1532214885.630,7.812,33.691,-291.992,6.348,-162.598
1532214885.634,7.812,34.180,-287.109,3.906,-69.336
1532214885.638,14.648,33.691,-280.273,13.672,194.336
1532214885.642,18.555,34.180,-271.973,20.996,130.859
1532214885.646,24.414,39.062,-264.160,20.996,-125.977
1532214885.650,21.484,39.551,-257.324,20.508,-146.484
1532214885.654,14.160,36.621,-257.812,12.207,120.117
1532214885.658,12.207,36.133,-259.277,9.766,191.406
1532214885.662,13.672,38.574,-254.395,17.090,-75.684
1532214885.666,10.742,38.574,-249.023,19.043,-180.664
1532214885.670,6.348,33.691,-243.652,19.531,86.426
1532214885.673,5.371,29.785,-239.258,16.113,238.281
1532214885.677,2.930,31.250,-235.840,14.648,3.418
1532214885.681,3.906,31.738,-231.934,20.996,-191.895
1532214885.685,-4.395,27.344,-224.609,24.902,1.465
1532214885.689,-0.488,25.879,-217.773,29.785,219.727
1532214885.693,9.766,24.902,-213.379,30.273,105.957
1532214885.697,8.789,24.414,-205.078,21.484,-179.688
1532214885.701,15.137,29.785,-204.102,18.555,-94.727
1532214885.705,13.672,36.133,-206.055,20.020,218.750
1532214885.709,11.719,37.109,-199.707,20.996,181.152
1532214885.712,12.695,32.715,-192.383,14.160,-155.273
1532214885.716,10.254,27.344,-187.988,13.184,-178.223
1532214885.720,14.160,28.809,-185.547,24.902,145.508
1532214885.724,14.160,30.273,-181.152,29.297,253.418
1532214885.728,9.766,28.809,-174.316,23.926,-9.766
1532214885.732,2.441,23.926,-170.898,17.090,-211.914
1532214885.736,-0.488,22.949,-170.898,18.555,38.574
1532214885.740,8.301,25.391,-164.551,24.414,215.820
1532214885.744,10.254,22.949,-162.109,20.996,35.156
1532214885.748,1.465,19.043,-161.621,22.461,-164.551
1532214885.752,-1.953,17.578,-158.203,26.367,-24.414
1532214885.755,5.859,21.973,-157.715,27.832,212.402
1532214885.759,10.254,22.461,-155.273,31.738,170.410
1532214885.763,11.230,20.996,-144.531,31.738,-135.742
1532214885.767,11.230,24.902,-135.254,32.715,-117.188
1532214885.771,5.859,25.879,-133.301,29.297,181.641
1532214885.775,4.883,28.809,-131.348,25.879,210.449
1532214885.779,15.625,31.738,-130.859,31.738,-68.359
1532214885.783,17.090,34.180,-133.789,35.645,-167.480
1532214885.787,10.742,33.691,-139.160,34.180,136.719
1532214885.791,9.766,30.273,-140.137,26.367,226.562
1532214885.794,8.301,28.809,-136.719,19.043,-44.922
1532214885.798,3.418,25.391,-134.766,22.949,-193.359
1532214885.802,2.930,23.926,-133.301,26.855,16.602
1532214885.806,9.277,24.902,-134.277,26.367,218.262
1532214885.810,13.184,25.879,-130.371,24.414,52.734
1532214885.814,17.090,28.809,-125.977,20.508,-207.031
1532214885.818,19.531,31.250,-129.883,23.438,-63.965
1532214885.822,24.414,32.715,-129.395,24.414,222.656
1532214885.826,24.414,31.250,-126.465,14.160,155.273
1532214885.830,22.461,30.273,-129.395,5.371,-137.207
1532214885.834,30.762,32.227,-127.441,11.719,-137.207
1532214885.837,38.086,30.273,-130.371,20.508,162.109
1532214885.841,37.109,31.250,-135.254,17.578,237.305
1532214885.845,27.832,32.715,-130.859,16.602,-60.059
1532214885.849,14.160,28.320,-127.930,20.996,-173.828
1532214885.853,6.348,26.367,-125.488,24.414,73.730
1532214885.857,11.719,27.344,-120.117,29.297,202.637
1532214885.861,11.719,29.297,-117.188,31.738,28.809
1532214885.865,3.418,29.297,-119.141,21.973,-151.367
1532214885.869,-0.488,27.344,-115.723,18.555,28.809
1532214885.873,-4.883,26.367,-105.469,19.043,229.492
1532214885.877,-6.348,26.367,-94.727,17.578,75.195
1532214885.880,-3.418,25.879,-84.473,14.160,-185.547
1532214885.884,6.348,24.414,-78.613,19.043,-89.844
1532214885.888,17.578,26.367,-70.801,25.391,190.430
1532214885.892,18.555,33.203,-55.664,15.137,138.672
1532214885.896,10.742,37.109,-27.344,1.953,-173.828
1532214885.900,2.441,35.645,46.387,2.930,-177.246
1532214885.904,2.930,33.691,154.297,5.859,157.227
1532214885.908,4.395,31.250,249.512,7.812,225.098
1532214885.912,6.836,31.250,328.613,6.836,-92.773
1532214885.916,5.371,29.785,389.648,5.371,-226.074
1532214885.919,3.906,27.344,439.941,10.254,60.547
1532214885.923,9.277,29.785,486.328,13.672,240.723
1532214885.927,11.230,33.203,523.926,19.043,19.043
1532214885.931,4.395,32.227,553.223,15.137,-191.895
1532214885.935,4.395,33.691,578.613,10.254,-0.977
1532214885.939,8.301,33.203,596.191,16.602,240.723
1532214885.943,7.812,29.785,607.422,16.113,146.484
1532214885.947,8.301,28.320,604.980,12.695,-129.395
1532214885.951,6.836,29.297,585.449,16.113,-79.102
1532214885.955,11.230,26.855,573.242,20.020,202.148
1532214885.959,13.672,25.879,559.570,17.090,187.500
1532214885.962,8.301,30.273,532.715,10.742,-114.258
1532214885.966,7.324,30.762,502.930,18.555,-151.855
1532214885.970,5.859,29.785,488.281,25.879,136.719
1532214885.974,10.254,29.785,508.789,24.414,230.469
1532214885.978,10.254,26.367,534.668,22.949,-23.438
1532214885.982,11.719,24.902,545.898,24.902,-184.082
1532214885.986,20.508,28.320,551.270,32.227,82.031
1532214885.990,22.461,30.762,555.176,35.156,267.090
1532214885.994,20.020,34.668,557.617,25.391,54.688
1532214885.998,16.113,33.691,555.664,18.066,-191.406
1532214886.002,15.137,32.227,550.293,25.879,-27.344
1532214886.005,18.555,34.180,543.945,27.832,256.348
1532214886.009,22.461,33.691,537.109,23.926,155.273
1532214886.013,23.926,31.738,529.297,20.996,-161.133
1532214886.017,19.043,31.738,515.137,20.508,-105.957
1532214886.021,13.672,30.762,503.906,20.508,205.566
1532214886.025,10.254,29.785,499.512,17.090,190.918
1532214886.029,10.742,33.691,491.699,16.113,-115.234
1532214886.033,14.648,33.203,481.934,14.160,-191.406
1532214886.037,15.137,29.785,470.215,15.137,90.332
1532214886.041,17.090,32.715,457.031,16.602,205.078
1532214886.044,15.137,34.668,443.848,11.719,-32.715
1532214886.048,13.184,31.250,432.129,11.719,-194.336
1532214886.052,9.277,26.855,422.852,10.742,-2.930
1532214886.056,9.766,25.391,416.992,12.207,203.125
1532214886.060,14.648,26.367,409.668,10.254,68.848
1532214886.064,19.531,27.344,396.484,8.301,-179.688
1532214886.068,20.020,29.785,381.348,16.602,-57.129
1532214886.072,14.648,34.180,369.629,6.836,202.148
1532214886.076,11.230,35.645,356.934,-5.859,105.957
1532214886.080,8.301,31.738,344.238,2.441,-177.246
1532214886.084,3.906,29.785,333.008,3.906,-137.207
1532214886.087,3.906,28.320,319.824,3.906,175.293
1532214886.091,13.672,25.391,308.105,4.883,184.570
1532214886.095,18.555,28.320,302.734,0.488,-108.398
1532214886.099,16.113,30.762,302.246,4.883,-173.828
1532214886.103,8.301,29.297,300.781,12.695,109.375
1532214886.107,6.348,29.785,296.387,11.230,236.328
1532214886.111,5.859,30.273,292.480,6.348,-10.742
1532214886.115,0.977,26.855,284.180,4.395,-218.750
1532214886.119,-1.465,24.902,274.414,4.883,-3.906
1532214886.123,3.418,25.391,276.367,11.230,232.910
1532214886.127,8.789,21.484,273.926,13.184,69.336
1532214886.130,20.508,20.508,266.113,13.672,-221.191
1532214886.134,18.066,28.809,257.812,8.789,-120.117
1532214886.138,9.277,34.180,247.070,4.883,222.168
1532214886.142,12.207,35.645,243.164,4.395,197.754
1532214886.146,11.230,34.668,238.770,5.859,-155.273
1532214886.150,9.277,31.250,228.516,11.230,-181.152
1532214886.154,5.371,29.297,223.633,11.230,125.488
1532214886.158,7.812,33.203,220.215,11.230,242.188
1532214886.162,16.602,33.203,220.703,15.137,-29.297
1532214886.166,16.602,26.855,223.633,18.555,-200.684
1532214886.169,11.719,25.879,224.121,20.020,63.965
1532214886.173,11.230,30.273,227.539,13.184,217.773
1532214886.177,12.207,32.715,230.957,9.277,22.461
1532214886.181,10.254,32.227,229.980,12.695,-177.246
1532214886.185,9.766,29.785,228.516,15.137,0.000
1532214886.189,13.184,30.762,228.027,17.090,236.816
1532214886.193,12.695,33.691,223.633,9.766,102.539
1532214886.197,9.766,34.180,220.703,5.859,-177.246
1532214886.201,5.859,33.203,222.168,9.766,-103.027
1532214886.205,1.953,32.227,219.727,5.859,210.449
1532214886.209,3.418,30.273,218.750,5.859,193.848
1532214886.212,13.672,33.691,216.797,7.812,-130.371
1532214886.216,19.531,37.598,207.031,4.395,-170.898
1532214886.220,15.625,40.527,199.707,10.254,148.438
1532214886.224,19.531,42.480,195.801,11.719,235.840
1532214886.228,18.066,39.062,196.289,5.859,-50.293
1532214886.232,11.230,36.621,198.730,6.348,-198.730
1532214886.236,12.207,36.133,195.801,7.812,55.176
1532214886.240,10.742,30.762,194.336,7.324,259.766
1532214886.244,12.695,28.320,195.801,10.254,43.945
1532214886.248,18.066,31.250,189.941,12.207,-203.613
1532214886.251,17.578,35.645,185.059,8.789,-25.391
1532214886.255,18.555,38.086,180.176,4.883,227.539
1532214886.259,21.484,36.133,179.199,8.301,123.047
1532214886.263,14.160,33.691,180.176,2.930,-162.109
1532214886.267,7.812,31.738,177.734,2.930,-124.512
1532214886.271,14.648,28.809,173.828,8.789,162.598
1532214886.275,20.508,28.809,171.875,8.301,156.738
1532214886.279,12.695,33.691,173.340,4.395,-109.863
1532214886.283,4.883,32.227,170.410,0.000,-168.945
1532214886.287,3.906,27.832,164.062,-0.488,110.352
1532214886.291,7.812,28.809,162.598,-3.906,219.727
1532214886.294,7.324,33.691,161.621,-6.836,-46.387
1532214886.298,3.418,33.691,159.668,-0.977,-211.426
1532214886.302,5.859,29.297,159.668,8.789,21.484
1532214886.306,7.812,29.297,159.180,9.277,222.656
1532214886.310,14.160,36.133,155.273,5.371,51.270
1532214886.314,16.602,38.574,150.879,-1.465,-214.844
1532214886.318,11.719,34.668,147.461,0.488,-89.355
1532214886.322,5.371,34.668,148.438,7.812,208.008
1532214886.326,7.812,36.621,154.297,8.301,131.348
1532214886.330,12.695,35.156,151.367,9.277,-163.574
1532214886.334,16.113,34.180,147.461,10.254,-151.855
1532214886.337,20.996,35.156,142.578,12.207,172.363
1532214886.341,20.508,35.645,139.160,10.742,234.375
1532214886.345,18.555,36.621,139.648,5.371,-63.477
1532214886.349,12.207,36.133,135.742,1.953,-162.598
1532214886.353,8.789,35.645,133.789,5.371,95.215
1532214886.357,8.301,35.645,134.766,10.742,230.469
1532214886.361,13.672,36.621,133.789,13.672,0.488
1532214886.365,14.648,33.691,136.230,12.695,-176.758
1532214886.369,5.859,31.250,134.277,12.207,30.762
1532214886.373,3.418,33.203,129.395,10.742,223.145
1532214886.376,8.789,34.180,131.348,10.742,115.234
1532214886.380,16.113,35.645,129.395,11.719,-146.484
1532214886.384,20.508,35.645,124.023,13.184,-82.031
1532214886.388,16.113,35.156,122.559,13.184,167.480
1532214886.392,10.254,40.039,122.559,3.906,121.094
1532214886.396,9.277,40.527,117.188,-0.488,-149.902
1532214886.400,6.836,38.574,111.328,3.418,-147.461
1532214886.404,-2.930,35.156,113.770,0.488,163.574
1532214886.408,-1.953,33.691,114.746,1.953,221.680
1532214886.412,7.324,34.180,116.211,2.930,-71.777
1532214886.416,12.695,33.691,117.188,3.906,-186.035
1532214886.419,10.742,36.621,113.281,9.766,102.051
1532214886.423,6.348,35.645,109.375,10.254,274.414
1532214886.427,6.836,32.227,109.375,10.254,50.781
1532214886.431,7.812,36.133,115.234,10.254,-202.148
1532214886.435,4.395,35.645,115.723,11.719,-11.719
1532214886.439,8.789,30.273,113.281,20.020,236.328
1532214886.443,20.996,30.273,112.793,20.996,77.637
1532214886.447,23.926,34.668,104.980,12.207,-201.660
1532214886.451,11.719,34.668,102.051,11.230,-116.211
1532214886.455,6.348,32.227,105.957,6.836,154.785
1532214886.459,11.230,30.762,108.398,8.789,153.320
1532214886.462,7.812,29.297,108.398,15.625,-108.887
1532214886.466,7.324,28.809,107.422,20.020,-165.039
1532214886.470,12.695,26.367,109.375,21.973,128.418
1532214886.474,12.207,27.344,111.816,19.043,267.578
1532214886.478,11.230,31.738,110.352,14.648,10.254
1532214886.482,12.207,35.156,104.492,9.766,-190.918
1532214886.486,15.625,37.598,101.074,11.719,41.016
1532214886.490,16.113,33.691,100.098,16.113,249.023
1532214886.494,18.066,33.203,102.539,13.184,66.406
1532214886.498,19.531,36.133,103.027,13.672,-187.988
1532214886.501,16.113,35.645,101.074,21.484,-37.109
1532214886.505,12.207,35.156,97.168,18.555,233.887
1532214886.509,12.207,32.715,95.703,10.742,148.926
1532214886.513,15.137,31.250,97.656,9.277,-153.320
1532214886.517,13.672,31.738,97.656,13.672,-111.328
1532214886.521,18.066,32.227,93.750,16.113,200.684
1532214886.525,22.461,30.273,92.773,18.555,216.309
1532214886.529,16.602,28.809,93.750,20.508,-76.172
1532214886.533,17.578,32.227,93.750,21.484,-172.363
1532214886.537,23.926,35.156,94.727,24.414,82.520
1532214886.541,24.414,35.156,92.773,26.367,206.543
1532214886.544,27.344,34.668,89.355,21.973,-32.227
1532214886.548,28.320,34.668,91.797,21.484,-212.891
1532214886.552,30.273,36.621,91.797,21.484,21.484
1532214886.556,32.715,34.668,88.867,15.625,221.680
1532214886.560,32.227,34.180,89.355,17.090,18.066
1532214886.564,27.344,37.109,86.914,18.066,-228.516
1532214886.568,31.250,38.086,85.449,21.973,-61.523
1532214886.572,31.738,34.668,85.449,22.461,177.734
1532214886.576,27.344,33.691,83.008,20.020,104.980
1532214886.580,29.297,34.180,82.520,19.043,-149.902
1532214886.583,25.391,32.227,80.566,14.648,-147.949
1532214886.587,29.785,32.227,80.566,18.066,170.410
1532214886.591,24.902,33.203,80.566,14.160,199.707
1532214886.595,19.531,36.133,80.078,7.812,-124.512
1532214886.599,19.531,36.621,83.008,15.625,-202.637
1532214886.603,16.113,32.715,82.031,19.043,104.492
1532214886.607,17.090,33.691,81.543,17.090,231.445
1532214886.611,19.531,35.645,80.566,15.137,-9.766
1532214886.615,18.555,38.086,79.102,15.137,-192.383
1532214886.619,19.043,42.480,76.660,19.043,5.859
1532214886.623,16.602,41.992,75.684,18.555,234.375
1532214886.626,18.066,40.527,78.613,13.672,118.164
1532214886.630,21.484,41.016,83.984,12.207,-182.129
1532214886.634,20.996,38.086,87.402,12.207,-126.465
1532214886.638,18.555,37.598,84.473,12.695,202.637
1532214886.642,15.137,39.062,81.543,10.742,173.828
1532214886.646,15.137,38.574,81.055,9.766,-138.184
1532214886.650,13.672,40.527,81.543,11.230,-157.227
1532214886.654,8.789,41.504,83.496,10.742,144.531
1532214886.658,10.742,41.016,84.473,11.230,222.168
1532214886.662,14.648,39.551,87.402,8.301,-66.406
1532214886.666,17.578,41.016,85.938,8.789,-176.270
1532214886.669,18.555,43.457,83.008,12.695,70.312
1532214886.673,13.672,42.969,83.496,6.836,236.816
1532214886.677,6.348,44.922,82.520,0.000,62.988
1532214886.681,8.789,48.828,80.566,0.488,-186.035
1532214886.685,10.254,47.363,79.102,3.906,-17.578
1532214886.689,7.812,45.898,81.543,7.812,233.887
1532214886.693,7.812,44.922,83.496,1.465,83.496
1532214886.697,10.254,42.480,86.914,-5.371,-191.895
1532214886.701,9.277,40.527,86.426,2.930,-93.262
1532214886.705,16.602,43.457,82.520,11.230,207.031
1532214886.708,21.973,41.504,83.008,7.812,212.402
1532214886.712,16.602,38.574,85.938,0.977,-75.195
1532214886.716,20.508,41.504,83.984,-0.488,-154.785
1532214886.720,26.367,41.016,76.172,-5.371,127.930
1532214886.724,27.832,41.992,76.172,-6.348,220.703
1532214886.728,29.297,42.969,78.125,-4.883,-16.602
1532214886.732,26.855,41.504,80.078,-1.953,-183.105
1532214886.736,20.508,38.574,78.613,8.301,13.184
1532214886.740,17.090,34.180,80.566,21.484,250.488
1532214886.744,15.625,33.203,86.426,24.902,63.965
1532214886.748,17.090,35.645,84.473,24.902,-198.730
1532214886.751,20.508,35.156,78.613,26.855,-33.691
1532214886.755,22.461,32.715,74.219,27.832,224.121
1532214886.759,15.137,31.738,77.148,23.438,147.461
1532214886.763,6.348,30.762,80.078,18.555,-132.324
1532214886.767,3.418,31.738,82.031,17.090,-104.004
1532214886.771,0.977,33.691,84.473,13.184,190.918
1532214886.775,4.883,37.109,85.449,7.812,199.219
1532214886.779,8.301,35.156,81.543,7.812,-81.055
1532214886.783,6.348,30.762,77.637,10.254,-154.785
1532214886.787,7.812,31.738,79.102,14.160,110.352
1532214886.791,11.230,33.203,79.590,14.648,239.746
1532214886.794,10.742,35.645,76.660,10.742,-29.785
1532214886.798,10.254,37.598,73.730,9.277,-219.238
1532214886.802,14.648,35.645,72.754,12.695,15.137
1532214886.806,15.137,34.668,73.730,16.113,231.445
1532214886.810,11.230,37.109,76.660,16.602,85.938
1532214886.814,11.719,40.039,78.125,15.625,-198.730
1532214886.818,6.836,38.086,74.707,14.648,-79.590
1532214886.822,9.277,35.645,73.730,18.066,225.586
1532214886.826,14.160,34.668,77.637,18.066,151.855
1532214886.830,14.648,32.715,80.078,14.160,-129.883
1532214886.833,11.230,30.762,79.102,7.324,-157.715
1532214886.837,20.508,31.738,79.102,11.230,127.441
1532214886.841,28.809,30.762,76.660,20.996,187.988
1532214886.845,12.207,28.809,72.754,10.254,-92.773
1532214886.849,10.742,32.227,72.266,6.348,-149.414
1532214886.853,13.184,34.180,68.359,6.836,104.004
1532214886.857,16.602,33.203,65.918,8.301,246.582
1532214886.861,21.973,35.645,67.383,12.695,22.461
1532214886.865,19.531,36.621,69.336,11.230,-212.891
1532214886.869,18.555,38.086,69.336,12.695,-6.836
1532214886.873,14.160,38.086,64.453,7.812,232.422
1532214886.876,10.742,38.086,65.430,-0.977,93.750
1532214886.880,18.555,39.062,68.359,10.254,-180.176
1532214886.884,23.438,36.133,68.359,19.043,-99.609
1532214886.888,16.602,33.691,68.359,13.184,191.406
1532214886.892,11.719,33.203,68.848,7.324,178.223
1532214886.896,14.648,33.691,71.289,7.324,-96.680
1532214886.900,20.020,35.156,72.754,11.719,-131.836
1532214886.904,19.531,35.645,73.242,18.555,156.250
1532214886.908,14.160,34.668,71.777,17.090,282.227
1532214886.912,16.113,36.133,69.824,9.766,5.371
1532214886.916,13.672,40.039,70.312,9.277,-199.219
1532214886.919,10.742,36.621,73.730,11.230,49.805
1532214886.923,12.207,31.738,76.660,9.277,241.699
1532214886.927,7.812,30.762,73.242,11.719,57.129
1532214886.931,10.742,30.273,71.777,13.184,-177.734
1532214886.935,21.973,33.203,71.777,15.137,-50.293
1532214886.939,20.020,34.668,74.219,21.484,216.309
1532214886.943,19.531,32.715,74.707,22.461,131.348
1532214886.947,24.902,35.156,71.777,18.555,-160.645
1532214886.951,20.020,41.504,70.801,20.020,-117.676
1532214886.955,20.020,43.457,67.383,20.996,170.410
1532214886.958,27.832,43.945,64.453,14.648,167.480
1532214886.962,21.973,46.387,62.012,6.836,-151.367
1532214886.966,14.160,42.969,62.988,8.789,-186.035
1532214886.970,13.184,38.086,66.406,10.742,122.070
1532214886.974,9.277,38.086,66.895,0.488,185.059
1532214886.978,10.742,41.504,63.477,-2.441,-35.645
1532214886.982,9.766,40.039,64.453,5.371,-190.918
1532214886.986,1.953,38.086,66.895,4.883,47.363
1532214886.990,1.953,39.062,68.848,4.883,259.277
1532214886.994,5.371,40.527,70.312,5.371,66.406
1532214886.998,10.254,42.480,65.430,7.812,-182.617
1532214887.001,11.230,40.527,61.523,16.113,-40.039
1532214887.005,9.277,40.039,63.477,17.578,214.355
1532214887.009,11.719,40.039,66.406,14.648,121.582
1532214887.013,9.766,39.551,68.359,9.277,-181.152
1532214887.017,3.418,37.109,68.848,5.859,-166.016
1532214887.021,2.930,32.715,66.406,10.742,164.551
1532214887.025,5.371,34.180,63.965,10.742,202.637
1532214887.029,5.859,38.086,59.570,3.906,-83.008
1532214887.033,5.371,41.992,57.129,4.883,-166.992
1532214887.037,4.395,42.480,59.570,12.695,107.910
1532214887.040,1.953,39.551,61.035,15.137,232.910
1532214887.044,-1.953,33.691,61.523,10.254,5.371
1532214887.048,6.348,30.762,63.965,13.184,-167.480
1532214887.052,14.648,31.250,64.941,19.043,18.066
1532214887.056,12.695,31.738,65.918,20.996,233.398
1532214887.060,13.184,32.715,64.453,18.066,103.027
1532214887.064,12.695,38.086,60.547,12.207,-171.387
1532214887.068,8.789,40.039,59.570,14.648,-41.504
1532214887.072,2.930,34.180,56.152,9.277,212.402
1532214887.076,4.395,33.203,54.199,5.371,153.809
1532214887.080,10.742,35.645,54.688,8.301,-136.719
1532214887.083,5.859,34.668,54.688,9.766,-138.184
1532214887.087,10.254,35.156,52.734,14.648,164.551
1532214887.091,16.602,33.203,55.664,16.113,215.820
1532214887.095,7.324,32.715,61.523,13.672,-75.684
1532214887.099,13.184,32.227,63.477,16.602,-198.242
1532214887.103,21.973,33.691,60.547,19.531,80.078
1532214887.107,23.926,39.551,56.641,16.113,276.367
1532214887.111,24.414,40.527,56.152,11.719,55.176
1532214887.115,17.578,40.039,55.664,0.977,-227.539
1532214887.119,10.254,38.086,54.199,3.418,-43.457
1532214887.123,11.230,36.621,53.711,16.602,201.660
1532214887.126,16.602,37.598,54.688,16.113,101.074
1532214887.130,17.090,38.574,56.641,14.648,-159.668
1532214887.134,18.555,35.645,58.105,19.531,-112.793
1532214887.138,26.367,32.715,60.059,26.855,190.430
1532214887.142,18.555,34.668,58.594,20.996,202.148
1532214887.146,7.324,34.668,59.570,10.742,-88.379
1532214887.150,16.602,35.645,58.105,15.625,-127.441
1532214887.154,25.391,35.645,51.270,12.695,115.723
1532214887.158,26.367,37.109,49.316,7.324,215.332
1532214887.162,20.996,36.133,52.246,9.277,-28.320
1532214887.165,11.719,33.203,55.664,10.254,-184.082
1532214887.169,13.672,32.715,55.664,12.695,64.941
1532214887.173,17.578,31.738,55.664,13.672,240.234
1532214887.177,12.695,29.297,57.129,15.137,94.238
1532214887.181,13.672,27.832,58.594,16.113,-146.973
1532214887.185,9.766,27.344,58.105,18.555,-17.578
1532214887.189,12.695,26.855,59.570,20.996,246.582
1532214887.193,22.461,29.297,60.059,19.531,120.605
1532214887.197,25.879,35.156,56.152,20.996,-150.391
1532214887.201,28.320,34.180,56.152,28.320,-85.449
1532214887.205,28.809,31.250,56.641,29.785,195.312
1532214887.208,28.320,35.156,58.594,26.367,183.594
1532214887.212,30.273,41.016,58.594,17.578,-120.117
1532214887.216,25.391,39.551,55.176,11.230,-196.289
1532214887.220,16.113,33.203,52.734,17.090,114.746
1532214887.224,16.602,32.715,52.734,15.625,255.859
1532214887.228,16.602,32.715,52.246,9.277,-26.367
1532214887.232,17.090,32.227,56.152,12.695,-242.188
1532214887.236,10.742,33.203,61.035,17.090,30.273
1532214887.240,16.113,37.109,61.523,19.043,289.551
1532214887.244,21.484,35.645,61.523,20.508,95.215
1532214887.248,18.066,35.645,61.523,19.043,-183.105
1532214887.251,22.949,37.109,59.570,21.973,-66.895
1532214887.255,21.484,39.551,53.711,11.230,166.016
1532214887.259,14.160,41.504,52.246,6.836,90.820
1532214887.263,5.859,36.621,57.129,8.301,-163.086
1532214887.267,0.977,33.203,58.594,8.301,-125.977
1532214887.271,6.836,34.180,57.617,10.254,166.992
1532214887.275,14.160,36.133,56.641,4.395,175.293
1532214887.279,11.230,37.598,56.641,4.395,-111.816
1532214887.283,11.230,39.551,58.594,10.742,-160.156
1532214887.287,14.648,39.062,58.594,15.625,107.910
1532214887.290,16.113,35.645,57.617,13.184,234.863
1532214887.294,9.277,33.203,60.059,1.465,0.488
1532214887.298,6.348,34.180,57.129,0.000,-191.895
1532214887.302,5.859,32.715,55.176,8.789,41.016
1532214887.306,6.348,32.715,57.129,12.695,257.812
1532214887.310,13.672,33.203,57.617,13.184,99.121
1532214887.314,13.184,33.203,59.570,10.742,-182.129
1532214887.318,11.230,34.180,61.523,12.207,-66.406
1532214887.322,13.184,34.668,60.547,15.625,218.750
1532214887.326,18.066,36.133,60.059,18.555,179.199
1532214887.330,24.414,35.156,58.594,19.531,-111.816
1532214887.333,18.555,34.668,56.641,12.695,-154.297
1532214887.337,14.160,34.668,58.594,9.277,125.000
1532214887.341,22.461,34.180,57.129,15.625,221.191
1532214887.345,21.484,36.133,57.129,10.254,-41.504
1532214887.349,11.719,39.062,55.176,2.930,-182.129
1532214887.353,6.836,39.062,53.711,4.395,95.215
1532214887.357,9.766,36.133,57.129,6.836,262.207
1532214887.361,12.695,33.691,55.664,1.465,36.133
1532214887.365,9.766,35.645,50.293,-1.465,-206.055
1532214887.369,5.859,37.598,47.852,2.930,-18.555
1532214887.372,1.953,32.715,52.734,-0.977,232.910
1532214887.376,-1.465,29.785,58.594,-7.324,92.773
1532214887.380,0.000,30.762,58.105,-6.836,-185.059
1532214887.384,2.441,28.809,55.664,-2.930,-93.750
1532214887.388,0.488,26.855,57.617,0.977,197.754
1532214887.392,1.953,29.297,58.105,-6.348,151.855
1532214887.396,12.695,33.203,55.176,-14.648,-160.645
1532214887.400,13.672,37.598,51.758,-5.371,-164.062
1532214887.404,10.254,38.086,46.875,4.883,146.484
1532214887.408,6.348,33.691,49.316,3.418,232.910
1532214887.412,4.395,30.273,55.176,0.000,-41.992
1532214887.415,-0.488,29.297,54.688,1.465,-195.312
1532214887.419,-2.930,28.809,52.734,6.348,72.266
1532214887.423,5.371,28.320,50.781,6.836,270.996
1532214887.427,15.137,30.273,49.805,6.348,47.363
1532214887.431,18.555,36.133,50.293,5.859,-215.820
1532214887.435,15.137,38.086,49.805,-1.465,-27.832
1532214887.439,8.301,33.691,50.293,-0.977,258.789
1532214887.443,4.883,28.809,50.293,1.465,132.324
1532214887.447,9.766,28.320,52.734,2.441,-168.945
1532214887.451,12.207,28.809,54.688,8.789,-106.445
1532214887.455,12.695,32.227,54.199,11.230,185.059
1532214887.458,12.207,34.668,52.246,8.789,192.871
1532214887.462,8.301,35.645,48.828,4.883,-123.535
1532214887.466,4.883,37.109,47.852,5.371,-190.430
1532214887.470,4.883,34.180,45.898,2.930,117.676
1532214887.474,7.324,32.227,43.457,1.953,235.352
1532214887.478,3.906,31.250,45.410,7.324,-18.555
1532214887.482,6.348,29.785,50.293,12.207,-209.961
1532214887.486,6.348,28.809,51.270,18.555,30.762
1532214887.490,13.184,27.832,51.270,23.438,237.793
1532214887.494,19.531,34.668,50.781,20.996,0.977
1532214887.497,17.578,36.621,48.828,16.602,-221.191
1532214887.501,16.113,32.715,47.852,18.066,-41.992
1532214887.505,16.602,33.203,48.828,19.531,195.312
1532214887.509,18.066,33.691,47.852,20.020,110.352
1532214887.513,28.320,32.227,46.875,19.531,-175.293
1532214887.517,29.785,29.785,47.852,19.531,-150.391
1532214887.521,19.531,31.250,45.898,20.996,164.062
1532214887.525,26.855,34.180,44.922,21.973,225.098
1532214887.529,27.832,36.133,42.480,18.066,-52.246
1532214887.533,22.461,37.109,45.410,14.648,-181.641
1532214887.537,17.090,34.180,47.363,14.648,83.496
1532214887.540,16.113,31.738,42.969,14.160,251.953
1532214887.544,21.973,30.762,42.480,12.695,17.090
1532214887.548,17.578,30.273,44.922,11.230,-182.129
1532214887.552,11.719,31.250,43.457,11.719,0.977
1532214887.556,11.719,35.156,41.504,9.277,206.543
1532214887.560,24.414,39.551,42.969,6.836,77.148
1532214887.564,28.320,39.062,44.922,7.812,-228.516
1532214887.568,22.461,37.109,44.922,12.695,-129.395
1532214887.572,27.832,35.645,44.434,15.137,191.895
1532214887.576,28.320,36.621,42.969,3.906,136.719
1532214887.580,27.832,36.133,44.922,0.000,-131.836
1532214887.583,35.156,35.645,43.945,6.348,-125.977
1532214887.587,42.480,36.621,39.062,7.324,152.832
1532214887.591,43.945,36.133,38.574,7.324,218.262
1532214887.595,35.645,33.203,41.016,9.277,-57.129
1532214887.599,24.414,33.203,41.992,14.160,-179.199
1532214887.603,21.973,32.715,42.480,20.508,102.539
1532214887.607,25.879,32.715,42.969,27.344,261.719
1532214887.611,14.160,33.203,41.016,22.461,36.133
1532214887.615,10.254,31.250,41.992,20.996,-196.777
1532214887.619,18.066,32.715,45.898,27.344,-3.906
1532214887.622,14.648,36.133,48.340,25.879,258.301
1532214887.626,17.578,37.109,51.270,23.438,116.699
1532214887.630,20.020,36.621,49.316,19.531,-177.246
1532214887.634,17.090,34.668,45.898,10.742,-145.020
1532214887.638,19.531,34.668,48.340,10.742,176.758
1532214887.642,19.043,34.180,46.875,14.648,214.844
1532214887.646,14.160,31.250,41.992,11.230,-89.355
1532214887.650,17.090,32.715,39.551,14.648,-140.625
1532214887.654,10.742,30.762,39.551,16.113,140.137
1532214887.658,11.719,29.785,44.434,13.184,217.285
1532214887.662,20.020,36.133,46.387,14.648,-27.344
1532214887.665,18.555,39.062,44.434,18.555,-177.246
1532214887.669,16.113,38.086,44.434,26.367,50.781
1532214887.673,17.578,41.016,49.805,25.879,215.820
1532214887.677,20.508,43.945,52.246,23.438,9.766
1532214887.681,20.996,38.086,48.828,22.949,-208.496
1532214887.685,16.602,32.227,45.898,20.996,-45.898
1532214887.689,11.719,32.227,45.898,20.020,220.703
1532214887.693,7.812,33.691,43.945,13.184,136.230
1532214887.697,7.812,34.668,44.434,10.742,-128.418
1532214887.701,6.348,34.668,46.387,12.207,-107.422
1532214887.704,-0.977,36.621,46.875,11.230,185.547
1532214887.708,1.465,37.598,48.340,15.625,207.520
1532214887.712,5.859,39.551,47.852,11.719,-116.699
1532214887.716,8.301,40.527,47.852,9.277,-205.566
1532214887.720,11.230,36.133,49.316,19.531,108.887
1532214887.724,12.207,35.645,50.781,21.484,225.586
1532214887.728,18.555,37.598,50.781,20.508,-26.855
1532214887.732,16.602,35.645,53.223,20.996,-172.852
1532214887.736,8.789,33.203,55.176,22.461,47.363
1532214887.740,10.742,33.203,49.805,21.973,256.348
1532214887.744,9.277,39.062,47.363,13.184,81.543
1532214887.747,6.836,45.410,44.922,6.836,-182.129
1532214887.751,10.742,45.410,39.551,12.695,-71.289
1532214887.755,11.230,37.598,42.969,14.160,193.359
1532214887.759,2.930,32.715,44.922,8.789,151.367
1532214887.763,4.883,35.156,45.898,12.207,-143.066
1532214887.767,21.484,36.133,45.410,21.973,-134.766
1532214887.771,14.648,38.086,41.992,17.090,158.203
1532214887.775,6.348,41.992,41.016,4.883,215.332
1532214887.779,9.277,40.039,42.480,6.348,-52.246
1532214887.783,4.395,36.133,45.410,10.254,-167.969
1532214887.787,-0.488,35.645,44.434,8.789,89.355
1532214887.790,1.953,36.133,43.457,5.859,265.137
1532214887.794,4.883,36.621,44.434,2.441,60.059
1532214887.798,5.371,34.180,43.457,5.371,-183.105
1532214887.802,8.789,32.715,40.039,11.230,-9.277
1532214887.806,16.113,35.156,38.574,14.648,236.328
1532214887.810,16.602,34.668,41.016,15.137,107.422
1532214887.814,5.859,33.203,44.922,5.371,-210.938
1532214887.818,1.953,33.691,45.410,5.859,-133.789
1532214887.822,9.277,34.668,43.945,13.184,176.270
1532214887.826,15.137,31.738,46.387,14.648,113.281
1532214887.829,17.090,29.785,46.875,16.113,-166.504
1532214887.833,17.090,29.785,43.945,18.066,-160.645
1532214887.837,9.277,32.227,42.480,17.578,154.785
1532214887.841,9.277,30.762,42.969,14.160,249.023
1532214887.845,18.555,27.344,41.504,11.230,-44.922
1532214887.849,18.555,30.273,38.086,15.625,-172.852
1532214887.853,14.160,35.645,36.133,10.742,55.664
1532214887.857,17.090,37.598,36.621,7.812,217.285
1532214887.861,17.090,33.203,38.574,12.207,41.016
1532214887.865,12.695,31.250,41.016,6.348,-195.312
1532214887.869,8.789,32.715,42.969,8.301,-21.484
1532214887.872,11.719,30.762,41.992,9.277,233.887
1532214887.876,18.555,28.809,42.480,11.719,114.746
1532214887.880,20.020,28.809,45.410,17.090,-187.988
1532214887.884,10.742,29.297,44.922,16.602,-125.977
1532214887.888,9.766,29.297,43.945,19.043,185.059
1532214887.892,16.113,31.250,44.922,15.625,196.777
1532214887.896,13.184,31.738,43.945,8.789,-109.863
1532214887.900,8.301,28.320,41.992,14.160,-154.297
1532214887.904,3.906,27.344,43.945,18.066,141.113
1532214887.908,7.812,28.809,46.875,14.648,229.492
1532214887.912,14.648,25.879,46.387,12.207,-36.621
1532214887.915,16.602,21.484,45.898,15.137,-223.633
1532214887.919,16.602,21.484,47.852,24.414,7.324
1532214887.923,14.160,25.879,52.246,22.949,221.680
1532214887.927,14.648,28.809,51.758,20.508,53.711
1532214887.931,20.020,27.832,45.898,20.508,-152.832
1532214887.935,27.344,30.762,41.016,22.949,-44.434
1532214887.939,24.414,34.668,41.504,24.414,189.941
1532214887.943,14.160,32.227,42.969,15.625,133.789
1532214887.947,8.789,30.273,43.945,10.742,-87.402
1532214887.951,8.789,28.809,46.387,11.719,-69.824
1532214887.954,9.766,25.879,47.852,9.766,96.191
1532214887.958,12.695,27.344,46.387,13.672,141.113
1532214887.962,10.254,30.762,46.875,14.160,19.531
1532214887.966,8.301,31.250,46.875,10.254,-44.434
1532214887.970,7.324,26.855,46.387,13.184,49.316
1532214887.974,3.906,22.949,47.852,13.184,121.582
1532214887.978,7.812,24.414,46.387,14.160,18.066
1532214887.982,5.371,25.391,47.363,15.137,-83.496
1532214887.986,1.465,27.832,46.387,9.277,27.832
1532214887.990,4.395,30.273,45.898,9.277,113.281
1532214887.994,3.906,32.227,49.316,-0.488,47.852
1532214887.997,0.977,32.227,49.805,-6.836,-76.172
1532214888.001,-2.441,31.738,48.340,1.465,-34.668
1532214888.005,-2.930,30.273,48.828,4.395,119.141
1532214888.009,5.371,28.809,48.828,11.230,113.770
1532214888.013,9.766,29.297,45.898,14.160,-19.043
1532214888.017,7.324,28.320,46.387,14.160,-33.203
1532214888.021,9.766,29.297,46.387,19.043,98.633
1532214888.025,11.230,26.367,42.969,17.578,98.145
1532214888.029,8.301,25.879,41.992,11.719,-13.672
1532214888.033,10.254,30.762,43.945,11.719,-41.016
1532214888.037,17.090,33.203,45.898,17.578,34.180
1532214888.040,15.137,31.738,44.922,17.090,99.121
1532214888.044,20.020,34.180,43.945,16.602,18.555
1532214888.048,25.391,33.203,41.992,22.461,-72.754
1532214888.052,24.902,27.344,44.922,22.949,-22.461
1532214888.056,20.020,25.879,52.246,18.555,67.383
1532214888.060,13.672,24.902,51.758,19.043,53.711
1532214888.064,17.578,24.902,47.852,24.414,-24.414
1532214888.068,20.020,26.367,45.410,28.320,14.648
1532214888.072,19.531,27.832,45.898,26.367,108.398
1532214888.076,14.160,28.320,45.898,23.926,91.797
1532214888.079,5.859,28.320,42.480,19.043,-31.738
1532214888.083,4.395,27.344,41.016,19.043,-35.645
1532214888.087,9.277,26.367,42.969,20.996,102.051
1532214888.091,17.090,27.344,44.434,20.020,129.395
1532214888.095,16.113,27.832,45.898,15.137,-33.691
1532214888.099,12.207,27.344,45.898,17.578,-86.914
1532214888.103,14.648,29.297,48.828,27.344,43.457
1532214888.107,17.090,29.297,50.781,25.879,124.023
1532214888.111,19.043,32.715,46.875,20.020,33.203
1532214888.115,23.438,34.668,45.410,17.090,-78.613
1532214888.119,24.902,30.762,44.922,18.066,-0.488
1532214888.122,20.020,31.250,40.039,17.578,112.305
1532214888.126,15.137,32.227,40.039,11.230,61.035
1532214888.130,18.066,30.762,43.457,12.207,-53.223
1532214888.134,20.996,29.297,48.340,12.207,-31.250
1532214888.138,18.066,27.344,47.852,13.184,89.844
1532214888.142,15.625,27.344,43.457,20.996,108.887
1532214888.146,21.484,25.391,45.410,27.832,-41.992
1532214888.150,24.902,25.391,45.898,32.227,-83.496
1532214888.154,25.391,25.391,41.016,26.367,102.051
1532214888.158,19.531,29.785,34.668,19.043,169.434
1532214888.161,10.254,30.762,34.180,10.742,-5.859
1532214888.165,6.348,30.762,38.574,6.348,-125.977
1532214888.169,8.301,32.227,40.039,10.742,45.410
1532214888.173,4.395,31.250,41.504,7.324,210.938
1532214888.177,-1.953,27.344,45.410,1.465,35.156
1532214888.181,2.930,25.879,46.387,4.395,-179.688
1532214888.185,2.930,26.855,41.992,7.812,-33.203
1532214888.189,4.395,26.367,38.086,12.207,230.957
1532214888.193,13.184,29.785,38.574,8.301,127.441
1532214888.197,12.695,32.715,36.133,1.465,-199.219
1532214888.201,13.184,31.250,34.180,6.348,-155.762
1532214888.204,10.742,30.762,34.180,7.324,169.922
1532214888.208,8.301,30.273,37.598,6.836,231.934
1532214888.212,16.113,33.203,39.062,6.836,-63.965
1532214888.216,21.973,34.180,37.598,11.230,-166.016
1532214888.220,28.320,32.715,39.551,19.531,128.906
1532214888.224,29.785,33.691,41.016,20.508,226.074
1532214888.228,22.949,32.227,42.480,20.020,-16.113
1532214888.232,21.973,29.785,45.410,19.043,-207.520
1532214888.236,23.926,31.250,42.969,19.043,-26.855
1532214888.240,28.809,31.738,38.086,20.996,231.445
1532214888.244,31.738,36.621,39.551,24.414,94.727
1532214888.247,29.297,38.086,41.992,26.855,-188.965
1532214888.251,26.855,31.250,40.039,24.902,-80.566
1532214888.255,25.391,33.203,41.992,23.926,223.633
1532214888.259,27.832,33.203,44.922,22.461,173.828
1532214888.263,28.320,28.320,42.969,18.555,-131.348
1532214888.267,23.438,27.832,42.480,20.996,-138.184
1532214888.271,24.902,30.762,41.504,25.391,153.809
1532214888.275,22.461,33.691,40.527,23.438,195.312
1532214888.279,16.113,30.762,40.527,18.555,-83.008
1532214888.283,11.719,31.250,41.992,14.160,-202.148
1532214888.286,4.395,32.227,38.574,10.254,74.707
1532214888.290,5.859,30.273,36.621,7.812,240.723
1532214888.294,11.230,29.297,38.086,0.000,-22.949
1532214888.298,7.324,29.785,38.086,1.465,-220.703
1532214888.302,9.277,33.691,37.598,12.695,1.465
1532214888.306,12.207,37.598,33.691,17.090,244.629
1532214888.310,12.207,37.598,34.180,11.230,144.043
1532214888.314,15.137,37.109,38.574,4.883,-130.859
1532214888.318,10.742,38.574,36.133,9.277,-90.332
1532214888.322,14.160,38.574,36.621,19.043,183.594
1532214888.326,20.996,38.574,37.598,17.578,187.012
1532214888.329,21.484,33.691,37.598,9.766,-99.609
1532214888.333,13.672,31.738,41.016,3.906,-159.180
1532214888.337,9.277,32.715,39.551,7.324,123.535
1532214888.341,11.719,31.250,37.109,10.742,227.051
1532214888.345,12.207,34.180,35.645,12.207,-36.133
1532214888.349,14.648,37.109,35.156,19.043,-195.801
1532214888.353,18.555,38.574,33.203,16.602,53.223
1532214888.357,17.578,38.086,29.785,12.207,239.746
1532214888.361,18.066,35.156,29.297,15.625,51.758
1532214888.365,18.066,33.691,32.227,18.555,-184.082
1532214888.369,16.113,33.203,29.785,18.066,-1.953
1532214888.372,15.137,33.203,28.320,15.137,255.371
1532214888.376,8.789,31.738,31.738,9.277,99.121
1532214888.380,4.395,31.738,30.273,4.395,-202.148
1532214888.384,7.324,32.715,31.250,9.277,-115.723
1532214888.388,7.812,28.809,30.273,13.672,199.707
1532214888.392,8.301,25.391,30.762,7.812,177.246
1532214888.396,13.184,26.855,31.738,4.395,-110.840
1532214888.400,16.113,32.227,27.344,8.301,-144.531
1532214888.404,9.766,32.227,28.320,11.230,123.047
1532214888.408,0.977,28.320,31.738,11.719,240.234
1532214888.411,2.930,30.273,30.762,7.812,-20.508
1532214888.415,9.277,31.738,26.367,6.348,-213.379
1532214888.419,16.113,33.203,22.461,13.672,9.766
1532214888.423,13.184,35.156,21.973,15.625,232.910
1532214888.427,7.324,34.180,24.902,9.277,67.871
1532214888.431,10.742,31.738,27.832,3.418,-225.586
1532214888.435,15.137,31.250,25.391,4.883,-84.961
1532214888.439,20.996,31.738,23.438,13.672,221.680
1532214888.443,25.391,31.738,23.926,11.719,133.789
1532214888.447,22.461,31.738,24.414,4.395,-160.645
1532214888.451,24.902,33.203,23.438,1.953,-108.887
1532214888.454,27.832,33.203,24.414,-2.930,183.105
1532214888.458,25.879,33.691,25.391,-6.836,218.750
1532214888.462,30.273,36.621,25.391,-3.906,-52.734
1532214888.466,22.461,29.297,25.879,9.766,-168.945
1532214888.470,18.066,23.438,25.879,21.484,106.934
1532214888.474,20.020,30.762,24.414,15.625,232.910
1532214888.478,9.766,33.691,21.484,11.230,-25.391
1532214888.482,6.836,31.250,21.973,19.043,-207.031
1532214888.486,8.789,31.738,20.996,21.484,36.133
1532214888.490,8.301,33.691,21.484,20.020,254.395
1532214888.493,4.395,33.691,24.902,18.066,68.359
1532214888.497,-0.488,33.691,30.273,17.090,-193.848
1532214888.501,4.395,34.180,29.785,18.555,-78.125
1532214888.505,11.230,31.738,26.367,17.578,206.055
1532214888.509,13.672,30.273,24.414,20.996,165.039
1532214888.513,15.137,32.227,24.414,15.137,-168.457
1532214888.517,10.254,32.227,24.902,8.301,-194.336
1532214888.521,13.184,32.715,23.438,16.113,145.508
1532214888.525,20.020,35.645,17.090,17.578,225.586
1532214888.529,26.855,38.086,14.648,21.484,-62.500
1532214888.533,23.926,39.062,18.555,23.926,-212.402
1532214888.536,14.160,38.574,17.090,20.508,62.500
1532214888.540,14.160,35.645,13.184,17.090,266.113
1532214888.544,20.020,30.273,8.789,14.648,35.156
1532214888.548,22.461,29.785,7.324,18.555,-209.473
1532214888.552,21.973,34.668,6.836,19.531,-8.789
1532214888.556,21.973,38.574,1.465,15.137,231.934
1532214888.560,24.902,40.039,1.465,14.648,107.422
1532214888.564,23.926,37.109,6.348,15.137,-180.176
1532214888.568,15.137,36.133,6.836,22.949,-85.938
1532214888.572,14.648,37.598,7.324,23.438,203.613
1532214888.576,22.461,36.133,5.371,16.602,157.227
1532214888.579,27.344,35.645,-0.977,15.625,-141.602
1532214888.583,20.996,31.738,-1.465,13.672,-161.621
1532214888.587,10.742,27.832,-0.977,10.254,151.855
1532214888.591,12.695,30.762,-3.906,9.277,210.449
1532214888.595,20.020,35.156,-5.371,12.207,-85.938
1532214888.599,20.020,37.109,-9.766,14.160,-212.891
1532214888.603,19.531,36.133,-13.672,16.602,47.852
1532214888.607,17.090,33.203,-9.766,14.648,240.723
1532214888.611,17.090,32.715,-2.441,8.789,41.016
1532214888.615,21.973,32.227,-1.953,4.395,-232.910
1532214888.618,23.926,30.762,-5.371,14.648,-55.176
1532214888.622,23.438,31.250,-5.371,23.438,241.699
1532214888.626,23.438,30.762,0.000,18.066,125.000
1532214888.630,24.902,29.297,3.418,18.555,-203.613
1532214888.634,20.996,27.344,3.906,17.578,-143.066
1532214888.638,20.996,27.344,1.953,16.602,195.312
1532214888.642,24.902,31.250,0.488,18.066,212.891
1532214888.646,27.344,33.691,5.859,19.531,-98.145
1532214888.650,23.438,29.785,9.277,22.949,-181.152
1532214888.654,15.137,30.762,8.301,18.066,104.980
1532214888.658,14.160,33.203,5.371,12.207,251.465
1532214888.661,12.695,29.297,3.418,15.625,17.578
1532214888.665,14.648,29.785,5.859,17.578,-209.473
1532214888.669,15.625,28.320,10.742,20.508,23.438
1532214888.673,11.719,26.855,16.602,23.438,282.227
1532214888.677,15.137,29.785,18.066,19.531,106.934
1532214888.681,14.160,29.785,14.648,13.672,-191.406
1532214888.685,6.348,29.297,14.648,17.578,-60.059
1532214888.689,6.836,29.785,14.160,23.438,235.840
1532214888.693,16.602,27.344,12.207,19.531,162.109
1532214888.697,12.207,29.297,12.695,12.695,-164.062
1532214888.701,4.883,30.273,8.789,14.648,-129.883
1532214888.704,3.906,26.367,4.883,19.043,198.242
1532214888.708,10.254,23.926,9.766,18.066,225.586
1532214888.712,16.602,29.297,9.766,16.602,-82.520
1532214888.716,19.043,33.203,1.953,23.926,-178.223
1532214888.720,16.113,29.297,0.488,26.367,104.492
1532214888.724,6.348,27.832,1.465,18.066,243.164
1532214888.728,3.906,29.297,-1.953,14.160,8.301
1532214888.732,6.836,27.832,-3.418,16.602,-215.820
1532214888.736,9.277,27.344,-2.930,24.902,0.488
1532214888.740,8.789,25.879,-2.930,28.320,217.773
1532214888.743,9.277,29.297,-5.371,24.902,42.969
1532214888.747,15.137,30.762,-4.395,28.809,-201.660
1532214888.751,14.160,32.227,-4.395,29.785,-93.750
1532214888.755,12.207,30.273,-9.277,17.578,156.250
1532214888.759,8.789,26.855,-10.254,19.043,116.211
1532214888.763,0.000,28.809,-10.254,19.531,-127.441
1532214888.767,-2.441,27.832,-7.324,14.648,-122.070
1532214888.771,0.000,25.391,-4.395,20.020,169.434
1532214888.775,5.371,26.367,0.000,21.484,247.070
1532214888.779,11.719,28.320,4.883,13.672,-43.945
1532214888.783,7.324,31.250,7.812,11.230,-192.383
1532214888.786,-1.953,29.297,8.301,15.625,68.359
1532214888.790,-1.465,28.809,7.812,14.648,275.879
1532214888.794,8.789,35.156,6.836,9.277,52.734
1532214888.798,9.766,35.156,2.441,8.789,-211.426
1532214888.802,-4.395,28.809,4.395,5.859,-26.855
1532214888.806,-11.230,29.785,7.812,-2.441,248.535
1532214888.810,-9.277,33.203,7.812,-0.488,133.789
1532214888.814,-2.930,33.691,7.324,7.324,-184.082
1532214888.818,2.441,33.691,10.254,16.602,-108.398
1532214888.822,1.953,31.738,7.324,19.043,206.055
1532214888.826,1.953,34.180,6.348,16.602,213.379
1532214888.829,5.859,37.598,9.766,15.137,-109.375
1532214888.833,7.812,34.668,6.836,16.602,-210.449
1532214888.837,7.812,32.715,2.441,19.531,84.961
1532214888.841,9.766,36.133,5.859,21.484,253.906
1532214888.845,8.301,34.668,13.672,15.625,-8.301
1532214888.849,6.348,33.203,17.090,11.719,-225.098
1532214888.853,7.324,34.668,17.578,13.184,0.000
1532214888.857,9.766,33.203,16.602,13.184,215.332
1532214888.861,12.207,31.738,18.066,14.160,71.289
1532214888.865,15.625,30.273,19.043,14.648,-199.707
1532214888.868,14.160,29.297,18.555,20.996,-41.504
1532214888.872,15.137,29.297,21.484,22.461,220.215
1532214888.876,9.277,29.297,21.484,17.090,111.328
1532214888.880,6.348,30.273,19.043,11.230,-153.809
1532214888.884,4.883,33.203,19.043,9.766,-111.328
1532214888.888,1.953,28.809,21.484,12.695,188.477
1532214888.892,11.230,27.344,22.949,8.301,192.383
1532214888.896,13.184,27.832,20.996,0.488,-113.770
1532214888.900,6.836,26.367,19.531,7.324,-159.668
1532214888.904,3.906,26.855,22.461,14.648,98.633
1532214888.908,5.371,29.297,23.926,15.625,248.535
1532214888.911,13.184,31.250,25.391,12.207,-0.488
1532214888.915,17.090,31.738,25.391,11.230,-224.609
1532214888.919,11.230,32.715,22.461,15.137,40.527
1532214888.923,13.672,33.203,23.438,15.625,245.117
1532214888.927,17.090,32.227,25.879,12.207,15.625
1532214888.931,8.301,33.203,29.785,10.742,-256.836
1532214888.935,7.324,34.668,31.738,4.883,-93.750
1532214888.939,16.113,35.645,31.738,8.789,198.242
1532214888.943,20.508,34.668,32.715,19.043,151.855
1532214888.947,19.043,31.250,32.715,14.160,-140.625
1532214888.950,16.113,30.273,33.691,13.672,-160.645
1532214888.954,17.578,32.715,41.016,16.602,166.504
1532214888.958,18.555,35.156,49.316,15.625,243.164
1532214888.962,15.137,35.645,58.105,13.672,-41.016
1532214888.966,8.301,36.621,63.965,12.207,-158.691
1532214888.970,5.371,36.133,67.871,12.695,96.191
1532214888.974,5.371,35.156,68.359,12.695,226.074
1532214888.978,6.836,34.180,69.824,11.230,-26.855
1532214888.982,14.648,32.715,74.707,10.254,-221.680
1532214888.986,7.812,30.273,78.125,13.672,-1.465
1532214888.990,0.488,30.273,80.078,14.648,231.934
1532214888.993,5.859,29.297,82.031,9.766,65.918
1532214888.997,9.277,30.762,80.566,8.789,-212.402
1532214889.001,10.254,31.250,75.684,17.578,-85.449
1532214889.005,8.301,27.832,75.684,20.508,230.957
1532214889.009,9.277,28.320,76.172,13.672,184.082
1532214889.013,12.207,30.273,77.148,7.324,-147.461
1532214889.017,15.625,32.715,77.637,14.648,-171.875
1532214889.021,24.414,30.762,74.707,23.438,152.344
1532214889.025,20.996,30.273,75.195,19.043,224.609
1532214889.029,20.508,31.738,75.684,14.648,-57.129
1532214889.033,25.879,32.227,74.219,10.742,-189.941
1532214889.036,19.043,32.227,72.754,8.789,53.711
1532214889.040,18.066,29.785,71.289,18.555,244.629
1532214889.044,17.090,26.367,72.754,18.555,27.344
1532214889.048,16.602,23.438,71.777,20.508,-194.336
1532214889.052,23.438,24.902,71.289,31.250,-25.879
1532214889.056,31.738,30.273,70.801,36.133,230.469
1532214889.060,36.621,34.668,68.848,34.180,127.930
1532214889.064,35.645,36.133,69.824,29.297,-161.133
1532214889.068,29.297,34.668,70.312,26.855,-85.449
1532214889.072,23.438,34.668,67.871,21.973,197.754
1532214889.075,23.926,34.668,66.895,15.625,187.988
1532214889.079,24.414,32.715,66.895,18.066,-99.121
1532214889.083,21.484,32.227,64.453,22.949,-154.297
1532214889.087,23.926,32.715,58.594,21.973,159.180
1532214889.091,25.879,37.109,60.059,18.555,238.770
1532214889.095,26.367,39.062,63.477,15.625,-51.758
1532214889.099,20.996,36.133,63.477,15.137,-188.477
1532214889.103,18.066,33.691,64.941,16.113,49.316
1532214889.107,25.391,37.598,64.941,21.484,250.488
1532214889.111,31.738,38.086,62.988,20.508,45.410
1532214889.115,25.391,32.715,59.082,10.254,-228.516
1532214889.118,18.066,33.691,57.617,14.160,-67.383
1532214889.122,21.973,34.668,58.105,23.926,204.102
1532214889.126,22.461,33.691,57.617,24.902,116.211
1532214889.130,17.090,31.250,59.570,20.508,-167.480
1532214889.134,17.578,31.738,63.477,20.020,-144.043
1532214889.138,20.020,36.133,62.500,20.996,183.105
1532214889.142,18.555,35.156,59.082,17.090,217.285
1532214889.146,20.996,29.785,59.570,15.625,-112.793
1532214889.150,27.344,31.738,57.129,16.602,-179.688
1532214889.154,25.391,35.645,51.758,15.137,119.141
1532214889.158,14.160,33.203,51.270,9.766,265.137
1532214889.161,11.230,33.691,53.223,4.395,12.695
1532214889.165,15.137,34.180,53.711,6.836,-216.797
1532214889.169,19.531,33.203,55.664,15.137,17.578
1532214889.173,25.391,33.691,54.199,7.324,236.328
1532214889.177,21.484,34.180,54.199,0.488,55.664
1532214889.181,11.719,33.691,55.664,8.789,-201.172
1532214889.185,8.789,34.180,52.734,13.672,-89.355
1532214889.189,6.348,32.715,48.828,11.719,219.727
1532214889.193,6.348,32.227,45.410,6.348,190.918
1532214889.197,9.277,34.180,47.363,6.348,-141.602
1532214889.200,16.602,37.109,51.758,15.625,-145.508
1532214889.204,16.602,32.715,51.270,16.602,159.180
1532214889.208,6.836,29.785,48.828,7.812,216.797
1532214889.212,11.230,34.668,47.852,7.324,-71.289
1532214889.216,14.160,34.180,45.410,12.207,-200.684
1532214889.220,4.395,28.320,43.457,11.230,52.246
1532214889.224,-2.441,28.320,44.434,4.395,231.934
1532214889.228,-0.977,28.320,44.434,5.371,29.297
1532214889.232,6.836,27.344,43.945,14.648,-226.074
1532214889.236,15.625,29.785,41.016,15.137,-45.898
1532214889.240,17.578,34.180,34.668,12.695,240.723
1532214889.243,14.160,36.133,27.832,9.277,100.586
1532214889.247,11.719,33.691,32.715,4.883,-189.941
1532214889.251,3.906,32.715,38.574,7.324,-87.891
1532214889.255,2.441,32.715,37.109,7.324,213.379
1532214889.259,9.766,32.715,40.527,6.836,184.570
1532214889.263,12.207,32.715,43.457,10.254,-135.742
1532214889.267,10.742,27.344,43.457,14.648,-169.922
1532214889.271,10.254,28.809,42.969,16.113,122.070
1532214889.275,10.742,34.668,40.527,10.742,207.520
1532214889.279,13.672,34.180,39.551,8.789,-46.387
1532214889.282,16.113,31.250,38.574,13.672,-208.496
1532214889.286,11.719,30.273,41.504,13.672,43.945
1532214889.290,3.906,33.203,42.480,7.812,244.141
1532214889.294,7.812,37.109,36.621,3.418,48.828
1532214889.298,14.160,35.645,33.691,5.371,-192.383
1532214889.302,10.742,31.738,33.203,11.230,-33.203
1532214889.306,9.277,32.715,29.297,15.137,230.957
1532214889.310,10.254,33.691,28.320,12.695,149.902
1532214889.314,11.230,32.227,32.227,4.395,-182.129
1532214889.318,10.742,32.227,30.762,1.953,-141.113
1532214889.322,15.137,37.598,26.855,11.719,194.336
1532214889.325,18.066,40.527,28.809,10.254,195.312
1532214889.329,18.066,35.156,34.180,4.395,-112.793
1532214889.333,17.578,31.738,34.668,3.906,-183.594
1532214889.337,21.973,34.668,32.715,1.953,103.516
1532214889.341,30.762,36.133,31.250,-1.465,227.539
1532214889.345,41.016,36.621,32.715,-2.930,9.277
1532214889.349,40.039,37.109,35.645,4.395,-194.336
1532214889.353,30.762,37.109,36.621,11.719,-24.902
1532214889.357,29.297,39.062,35.156,11.719,195.801
1532214889.361,23.926,37.598,32.227,16.602,61.035
1532214889.365,20.996,34.180,27.344,20.508,-203.613
1532214889.368,7.324,32.227,27.344,22.461,-51.758
1532214889.372,-3.906,32.227,32.227,22.949,220.215
1532214889.376,-4.395,29.297,31.738,16.113,126.465
1532214889.380,-1.953,27.344,30.762,11.230,-161.133
1532214889.384,7.812,30.762,32.227,15.137,-113.770
1532214889.388,11.719,33.203,32.715,16.602,218.262
1532214889.392,7.812,30.762,35.645,11.230,197.266
1532214889.396,9.277,27.344,38.574,6.836,-110.840
1532214889.400,7.324,27.832,36.621,5.371,-163.574
1532214889.404,10.742,30.273,36.133,11.230,102.539
1532214889.407,17.090,31.738,34.668,16.113,242.676
1532214889.411,10.254,31.250,35.156,11.719,0.488
1532214889.415,9.277,32.715,39.062,4.883,-215.820
1532214889.419,11.719,31.250,41.016,11.230,6.836
1532214889.423,9.766,30.273,40.527,15.625,234.863
1532214889.427,11.230,30.762,41.016,15.625,68.359
1532214889.431,16.602,24.414,43.457,18.066,-174.805
1532214889.435,19.531,21.484,42.480,19.531,-72.754
1532214889.439,23.438,27.832,40.039,19.531,216.797
1532214889.443,28.809,32.715,39.062,15.625,163.574
1532214889.447,25.879,34.668,40.527,12.695,-157.227
1532214889.450,20.020,32.227,41.992,14.648,-157.715
1532214889.454,20.508,30.762,42.480,20.996,150.391
1532214889.458,24.902,32.715,42.969,21.973,237.305
1532214889.462,31.738,34.180,40.527,22.949,-30.273
1532214889.466,28.809,34.180,40.527,22.461,-163.086
1532214889.470,20.508,32.227,41.504,18.066,85.938
1532214889.474,23.926,32.227,39.062,16.113,230.469
1532214889.478,25.391,32.715,40.039,16.602,31.738
