timestamps,TP9,AF7,AF8,TP10,Right AUX
1532280487.878,46.875,19.531,33.203,57.617,207.031
1532280487.882,47.363,21.484,33.203,52.734,293.457
1532280487.886,43.457,21.484,35.156,44.922,-93.262
1532280487.890,40.039,20.508,34.180,41.016,-272.949
1532280487.894,41.992,20.020,34.180,46.387,69.824
1532280487.898,41.504,21.484,34.668,46.875,295.898
1532280487.902,41.504,23.438,36.621,42.480,15.137
1532280487.906,41.016,22.949,37.598,38.086,-276.855
1532280487.910,38.574,26.367,34.180,35.645,-54.199
1532280487.913,39.062,27.344,32.227,38.086,296.875
1532280487.917,39.551,27.832,31.738,32.715,145.508
1532280487.921,44.434,27.832,34.668,36.133,-217.285
1532280487.925,46.387,28.320,37.109,41.504,-142.578
1532280487.929,41.016,27.344,34.668,41.016,231.445
1532280487.933,38.574,27.832,33.203,35.645,229.492
1532280487.937,43.457,29.297,30.762,29.297,-137.207
1532280487.941,48.828,29.785,28.809,35.645,-201.660
1532280487.945,53.223,32.715,32.715,42.969,158.691
1532280487.949,50.781,34.180,33.691,38.574,251.953
1532280487.952,48.828,33.203,30.762,37.109,-85.449
1532280487.956,51.758,30.273,29.297,51.758,-245.117
1532280487.960,41.504,29.785,28.320,59.082,41.992
1532280487.964,35.156,29.297,30.762,56.152,284.180
1532280487.968,38.086,28.320,29.297,48.828,47.363
1532280487.972,41.504,31.738,29.297,49.805,-252.441
1532280487.976,42.480,32.715,29.297,52.246,-76.660
1532280487.980,43.457,30.273,27.832,51.758,287.598
1532280487.984,50.293,30.762,31.250,51.758,180.664
1532280487.988,56.641,33.203,31.738,55.176,-193.848
1532280487.992,56.152,31.738,27.344,57.129,-158.691
1532280487.995,47.852,31.250,29.297,50.781,200.684
1532280487.999,43.457,34.180,30.762,48.828,244.629
1532280488.003,45.898,32.715,27.344,45.898,-112.793
1532280488.007,44.434,29.297,26.367,39.551,-226.074
1532280488.011,36.621,28.809,25.391,38.574,106.445
1532280488.015,35.156,25.879,25.879,45.410,300.781
1532280488.019,37.109,26.367,29.785,48.828,-7.324
1532280488.023,37.109,26.855,28.320,42.969,-256.348
1532280488.027,37.598,25.879,25.879,42.480,11.719
1532280488.031,40.527,27.832,25.391,43.457,316.406
1532280488.035,42.969,26.367,31.738,46.387,125.977
1532280488.038,43.945,28.320,34.668,47.363,-197.754
1532280488.042,46.387,32.715,31.250,48.828,-52.246
1532280488.046,43.945,34.180,33.691,49.805,254.883
1532280488.050,42.480,33.203,36.133,44.434,170.898
1532280488.054,45.898,31.250,39.062,49.805,-142.578
1532280488.058,53.711,29.785,40.039,52.734,-144.531
1532280488.062,49.316,28.809,39.062,53.223,216.309
1532280488.066,40.527,29.297,40.039,49.316,276.855
1532280488.070,45.410,29.785,41.016,39.551,-104.980
1532280488.074,41.992,30.273,41.016,36.133,-229.492
1532280488.077,40.527,28.320,41.504,41.504,108.887
1532280488.081,41.504,28.809,41.016,41.504,308.594
1532280488.085,36.621,28.809,42.969,32.227,4.395
1532280488.089,38.574,28.320,44.434,31.250,-267.090
1532280488.093,45.410,30.762,43.945,43.457,-25.879
1532280488.097,47.852,28.809,44.434,51.270,309.570
1532280488.101,45.410,26.855,44.922,47.363,131.836
1532280488.105,41.504,28.320,43.457,41.504,-241.699
1532280488.109,43.457,31.250,43.457,43.457,-111.816
1532280488.113,44.922,29.297,43.945,46.875,267.090
1532280488.117,42.969,27.344,42.969,38.086,220.703
1532280488.120,43.457,27.344,45.410,32.715,-135.742
1532280488.124,46.875,28.320,46.875,39.062,-172.363
1532280488.128,45.410,27.344,43.457,38.086,191.895
1532280488.132,39.551,24.902,41.016,37.598,291.992
1532280488.136,40.039,25.879,41.016,35.645,-38.574
1532280488.140,43.457,26.367,39.062,38.574,-208.008
1532280488.144,45.898,26.855,35.645,47.363,64.453
1532280488.148,46.387,25.879,38.086,38.086,300.293
1532280488.152,46.387,25.879,39.062,36.621,32.715
1532280488.156,54.199,26.855,35.645,45.898,-228.027
1532280488.160,58.594,27.344,33.691,47.852,-12.207
1532280488.163,56.641,29.785,33.691,49.805,287.598
1532280488.167,54.688,29.297,36.133,50.293,139.648
1532280488.171,49.316,27.344,36.621,44.434,-213.867
1532280488.175,47.363,29.297,36.133,41.504,-127.930
1532280488.179,48.340,31.250,40.039,45.410,215.332
1532280488.183,42.480,29.785,42.480,43.945,210.938
1532280488.187,39.551,28.320,39.062,35.645,-167.969
1532280488.191,40.527,31.250,37.598,36.621,-268.555
1532280488.195,38.574,28.320,39.551,41.016,141.113
1532280488.199,38.086,26.367,42.480,39.551,302.246
1532280488.202,41.016,31.250,43.457,40.039,-41.504
1532280488.206,42.480,33.691,43.945,42.969,-253.906
1532280488.210,41.992,34.180,43.457,48.340,29.785
1532280488.214,39.551,32.715,43.945,47.852,311.035
1532280488.218,37.109,32.715,49.316,42.969,75.684
1532280488.222,35.645,33.691,47.363,40.039,-261.230
1532280488.226,36.621,34.180,41.504,38.574,-87.402
1532280488.230,40.039,37.109,44.434,39.062,259.277
1532280488.234,42.969,38.086,48.828,43.945,153.809
1532280488.238,37.109,34.668,49.316,44.922,-191.895
1532280488.242,33.691,34.668,45.898,43.945,-130.371
1532280488.245,36.621,38.574,43.457,44.434,234.375
1532280488.249,34.668,39.062,41.992,40.527,255.371
1532280488.253,37.109,38.086,41.504,42.969,-87.891
1532280488.257,38.574,38.086,44.434,47.363,-203.613
1532280488.261,39.062,40.039,44.434,50.781,131.348
1532280488.265,44.434,42.480,46.875,51.758,298.828
1532280488.269,41.016,41.504,44.434,47.363,-27.832
1532280488.273,38.574,40.039,40.039,41.992,-235.352
1532280488.277,41.016,39.551,41.016,46.387,22.461
1532280488.281,41.504,41.504,40.039,48.828,309.082
1532280488.284,41.504,43.457,37.598,43.945,101.074
1532280488.288,42.969,42.480,36.621,42.969,-251.465
1532280488.292,44.922,42.480,37.598,49.316,-95.215
1532280488.296,46.387,41.016,35.156,49.316,280.762
1532280488.300,43.945,36.621,33.691,45.898,209.961
1532280488.304,41.016,36.133,32.715,45.410,-158.203
1532280488.308,41.016,36.621,29.785,44.922,-175.781
1532280488.312,39.062,34.180,29.785,44.922,198.242
1532280488.316,35.156,35.156,26.367,40.527,286.133
1532280488.320,34.668,36.621,23.926,37.109,-96.191
1532280488.324,35.156,36.133,23.438,36.621,-256.348
1532280488.327,36.621,36.621,22.949,34.668,61.523
1532280488.331,35.156,37.598,21.484,37.598,286.621
1532280488.335,35.156,36.133,19.531,41.504,19.531
1532280488.339,37.109,34.668,20.508,40.527,-253.906
1532280488.343,40.039,36.621,20.020,45.898,-6.348
1532280488.347,40.039,37.598,15.137,46.875,313.477
1532280488.351,36.133,36.133,14.648,40.527,118.652
1532280488.355,32.715,33.691,19.043,39.062,-234.863
1532280488.359,31.738,33.203,19.043,42.480,-118.164
1532280488.363,31.738,34.180,19.043,43.945,258.301
1532280488.367,32.715,32.715,17.578,35.156,218.750
1532280488.370,33.691,31.738,17.090,28.809,-156.250
1532280488.374,31.738,32.715,17.090,33.691,-204.102
1532280488.378,31.250,33.691,18.555,42.480,175.781
1532280488.382,39.062,33.203,23.438,44.922,304.199
1532280488.386,42.480,34.180,23.926,44.922,-66.895
1532280488.390,35.645,35.645,24.902,41.504,-249.023
1532280488.394,29.785,37.109,24.902,32.227,77.148
1532280488.398,23.926,36.621,23.438,31.250,349.121
1532280488.402,20.020,36.621,29.785,27.344,68.359
1532280488.406,17.090,37.598,38.086,19.531,-242.676
1532280488.409,18.555,38.086,38.574,19.043,-9.277
1532280488.413,20.996,39.062,39.062,23.438,321.289
1532280488.417,17.090,41.504,40.039,16.602,158.203
1532280488.421,11.719,43.945,40.039,9.277,-193.848
1532280488.425,10.254,41.016,41.016,10.254,-134.277
1532280488.429,16.602,39.551,44.434,9.277,187.988
1532280488.433,20.508,44.434,42.969,12.207,240.723
1532280488.437,23.438,48.340,41.504,16.602,-107.422
1532280488.441,22.461,46.387,43.457,16.602,-208.984
1532280488.445,16.113,45.410,42.969,12.695,157.227
1532280488.449,10.254,45.410,45.410,12.695,302.246
1532280488.452,8.789,43.945,49.805,14.648,-14.160
1532280488.456,8.789,42.969,50.293,13.184,-231.445
1532280488.460,9.766,41.504,45.898,10.254,35.645
1532280488.464,7.324,39.062,44.922,7.324,304.199
1532280488.468,12.207,41.504,48.340,-0.488,58.594
1532280488.472,10.742,42.969,48.340,-3.418,-235.352
1532280488.476,2.441,42.969,44.922,4.883,-68.848
1532280488.480,3.418,43.457,46.875,11.719,281.250
1532280488.484,9.766,41.992,49.805,13.184,205.078
1532280488.488,13.672,41.504,47.852,6.836,-183.105
1532280488.492,12.207,40.527,43.945,7.324,-167.969
1532280488.495,5.859,40.039,42.969,11.230,218.750
1532280488.499,6.348,43.457,44.434,9.277,283.203
1532280488.503,8.789,43.457,44.434,7.324,-88.867
1532280488.507,3.418,40.039,46.387,8.789,-244.141
1532280488.511,9.277,40.039,50.781,11.719,106.934
1532280488.515,12.207,39.062,49.316,13.184,318.848
1532280488.519,8.301,39.062,45.410,13.184,40.039
1532280488.523,13.672,37.598,47.852,19.531,-220.215
1532280488.527,17.578,36.621,49.316,20.996,11.719
1532280488.531,17.578,38.086,46.387,17.578,302.734
1532280488.534,16.113,38.086,44.922,18.066,108.398
1532280488.538,13.184,38.086,45.410,17.578,-215.332
1532280488.542,18.555,38.086,44.922,24.414,-86.914
1532280488.546,24.902,40.527,43.945,22.949,236.328
1532280488.550,22.949,41.016,46.387,16.602,166.504
1532280488.554,30.762,38.574,44.922,21.484,-171.875
1532280488.558,36.621,37.598,44.434,30.273,-207.031
1532280488.562,31.738,37.109,41.992,32.715,182.129
1532280488.566,30.762,39.551,39.551,27.832,270.508
1532280488.570,30.273,39.551,40.527,21.973,-85.449
1532280488.574,32.227,40.039,37.109,25.391,-230.957
1532280488.577,29.785,39.062,34.180,33.691,76.660
1532280488.581,26.855,35.645,34.668,33.203,305.176
1532280488.585,20.996,38.574,38.086,28.320,34.668
1532280488.589,19.531,38.086,40.527,23.926,-249.023
1532280488.593,27.832,35.156,40.039,26.855,-43.945
1532280488.597,29.785,37.109,42.480,29.297,266.602
1532280488.601,26.855,39.062,44.922,27.832,119.141
1532280488.605,33.691,40.039,42.480,24.414,-241.211
1532280488.609,42.480,38.574,39.062,20.020,-147.949
1532280488.613,42.969,35.645,39.062,26.367,258.789
1532280488.617,43.457,35.156,38.574,29.297,254.395
1532280488.620,49.805,37.109,37.598,30.762,-123.535
1532280488.624,53.711,37.598,37.598,34.668,-201.172
1532280488.628,53.223,36.621,38.574,40.039,152.344
1532280488.632,47.852,36.621,41.016,46.875,304.688
1532280488.636,38.574,35.645,39.551,48.340,-41.504
1532280488.640,41.016,32.715,40.039,49.805,-234.863
1532280488.644,40.527,31.250,42.480,50.293,60.059
1532280488.648,31.250,34.180,41.992,49.316,283.203
1532280488.652,34.180,35.156,40.039,45.410,33.203
1532280488.656,39.551,31.738,39.551,43.457,-269.531
1532280488.659,42.969,31.738,41.992,45.898,-63.965
1532280488.663,47.852,34.668,42.969,47.363,306.641
1532280488.667,51.758,37.598,42.969,43.457,161.133
1532280488.671,48.828,35.156,41.504,41.016,-246.094
1532280488.675,48.828,35.156,36.621,49.316,-164.062
1532280488.679,48.340,38.574,34.668,50.781,229.980
1532280488.683,50.781,39.551,34.668,44.434,272.949
1532280488.687,53.711,37.598,35.645,41.504,-103.027
1532280488.691,49.805,34.180,37.598,42.480,-212.891
1532280488.695,45.898,32.715,34.668,44.922,133.301
1532280488.699,41.016,35.156,34.668,45.410,307.129
1532280488.702,39.062,32.715,37.109,44.922,32.227
1532280488.706,43.945,29.785,36.621,41.992,-216.797
1532280488.710,46.875,29.785,37.598,48.340,42.969
1532280488.714,47.363,28.320,36.621,55.176,327.637
1532280488.718,53.711,28.320,36.621,50.781,101.562
1532280488.722,56.152,29.297,37.109,52.246,-215.332
1532280488.726,56.152,27.344,34.180,53.711,-80.566
1532280488.730,56.152,27.344,33.691,50.781,268.555
1532280488.734,49.316,27.832,31.738,43.457,181.152
1532280488.738,50.293,29.785,31.738,39.062,-207.520
1532280488.741,52.246,31.250,32.715,39.551,-183.105
1532280488.745,48.828,30.273,34.668,47.363,196.777
1532280488.749,48.340,30.273,34.668,44.434,245.117
1532280488.753,50.293,32.715,32.227,37.598,-93.262
1532280488.757,48.828,33.203,33.203,43.945,-220.703
1532280488.761,48.828,28.320,34.668,48.340,103.027
1532280488.765,49.316,27.344,34.180,47.852,292.480
1532280488.769,50.781,28.320,32.715,44.434,-8.301
1532280488.773,54.688,27.344,31.738,44.922,-244.141
1532280488.777,52.246,26.367,29.785,51.270,10.742
1532280488.781,52.734,25.879,31.250,52.734,317.383
1532280488.784,49.316,28.809,35.645,47.363,117.676
1532280488.788,42.969,24.902,36.133,38.086,-246.582
1532280488.792,39.551,20.996,35.645,37.598,-116.211
1532280488.796,42.480,23.438,36.621,45.898,270.508
1532280488.800,44.922,25.879,37.109,45.898,215.820
1532280488.804,47.363,28.320,36.621,41.992,-202.637
1532280488.808,50.781,28.320,37.109,42.480,-245.117
1532280488.812,49.805,29.297,35.645,41.016,180.664
1532280488.816,47.852,30.762,37.109,39.062,294.434
1532280488.820,46.875,29.785,38.574,35.645,-76.660
1532280488.824,47.363,29.785,34.668,32.227,-251.953
1532280488.827,44.922,28.809,33.691,35.645,71.289
1532280488.831,42.969,27.344,33.203,38.574,305.176
1532280488.835,46.875,27.344,35.156,37.598,21.973
1532280488.839,50.293,28.320,38.086,37.598,-301.270
1532280488.843,49.805,28.809,37.109,48.340,-77.637
1532280488.847,54.688,31.250,41.504,46.875,286.133
1532280488.851,54.688,32.227,42.480,33.691,123.047
1532280488.855,51.758,31.250,40.039,37.109,-224.609
1532280488.859,47.852,32.227,39.062,41.504,-153.809
1532280488.863,43.457,30.762,39.551,35.156,229.492
1532280488.866,41.504,30.273,40.527,26.367,243.652
1532280488.870,40.039,31.738,38.574,25.391,-150.391
1532280488.874,36.621,31.738,38.086,29.297,-197.266
1532280488.878,32.715,31.250,37.598,34.668,157.227
1532280488.882,33.691,31.250,39.062,35.645,282.715
1532280488.886,31.250,30.762,41.016,25.879,-77.637
1532280488.890,27.832,29.785,41.016,21.973,-281.250
1532280488.894,26.367,31.738,42.969,29.785,47.852
1532280488.898,27.344,31.250,42.969,31.250,297.363
1532280488.902,27.832,29.297,39.062,26.855,59.570
1532280488.906,22.461,31.250,35.156,21.484,-251.953
1532280488.909,19.043,33.691,35.156,16.602,-103.027
1532280488.913,19.531,34.668,35.156,18.555,262.695
1532280488.917,15.625,32.715,38.086,20.020,173.828
1532280488.921,11.719,33.203,43.945,19.043,-185.547
1532280488.925,12.695,34.180,41.992,19.531,-162.109
1532280488.929,18.066,31.738,39.062,22.461,201.660
1532280488.933,20.996,33.691,39.551,21.484,235.840
1532280488.937,18.555,36.621,41.016,17.578,-121.582
1532280488.941,21.484,37.109,44.922,17.578,-217.285
1532280488.945,20.996,35.645,45.410,20.508,99.609
1532280488.949,16.602,34.668,42.969,14.160,250.488
1532280488.952,17.578,37.109,41.016,3.906,-32.227
1532280488.956,17.578,36.621,40.039,5.371,-252.441
1532280488.960,16.602,34.668,41.992,15.137,0.488
1532280488.964,16.602,34.668,43.945,19.531,325.195
1532280488.968,12.695,35.156,45.898,16.113,118.652
1532280488.972,12.207,34.668,43.457,13.184,-250.488
1532280488.976,17.090,34.668,42.480,14.160,-110.840
1532280488.980,16.113,35.156,41.016,15.137,272.949
1532280488.984,17.578,34.668,38.086,11.230,224.121
1532280488.988,16.602,37.598,39.062,1.465,-179.688
1532280488.991,20.508,39.551,41.016,9.766,-191.406
1532280488.995,28.809,40.527,40.039,22.949,219.727
1532280488.999,22.949,39.551,36.621,17.090,288.086
1532280489.003,22.461,33.691,41.016,17.090,-73.242
1532280489.007,22.461,34.668,43.945,20.508,-233.398
1532280489.011,19.043,36.621,41.992,23.926,98.145
1532280489.015,15.137,34.180,43.945,23.438,313.965
1532280489.019,10.254,34.668,42.969,16.113,0.000
1532280489.023,15.137,34.668,40.039,20.996,-257.324
1532280489.027,22.461,34.668,38.086,22.949,-25.879
1532280489.031,21.484,38.086,37.109,17.090,277.832
1532280489.034,16.602,38.086,40.527,19.531,112.305
1532280489.038,18.066,36.621,40.039,20.996,-229.004
1532280489.042,24.414,39.551,41.992,25.879,-97.168
1532280489.046,28.809,39.551,45.410,32.715,250.977
1532280489.050,26.367,41.016,39.062,26.367,208.496
1532280489.054,26.367,41.016,37.109,22.461,-144.043
1532280489.058,23.438,36.133,40.527,30.762,-200.684
1532280489.062,25.879,32.227,43.457,35.156,175.293
1532280489.066,30.273,32.715,46.387,29.297,292.969
1532280489.070,30.273,38.086,41.992,22.461,-83.984
1532280489.073,35.156,43.945,36.133,22.461,-255.371
1532280489.077,33.691,46.387,37.598,30.762,65.430
1532280489.081,27.832,43.457,38.086,29.785,325.684
1532280489.085,24.902,39.551,37.109,22.949,39.551
1532280489.089,25.879,40.527,36.621,18.066,-285.156
1532280489.093,30.762,44.922,34.180,21.484,-45.898
1532280489.097,33.203,46.875,31.738,30.273,317.383
1532280489.101,32.227,42.969,32.715,33.203,183.105
1532280489.105,31.250,39.062,36.133,29.297,-210.449
1532280489.109,32.227,36.621,38.574,31.738,-141.602
1532280489.113,38.086,35.156,40.039,44.434,247.559
1532280489.116,42.480,38.574,35.156,40.527,240.723
1532280489.120,42.969,44.922,30.762,35.156,-147.949
1532280489.124,47.852,42.969,32.715,41.992,-235.352
1532280489.128,46.387,37.598,35.156,42.480,148.926
1532280489.132,45.410,39.062,34.668,41.504,308.105
1532280489.136,48.340,39.062,34.180,42.480,-21.484
1532280489.140,47.363,35.645,34.180,46.387,-230.469
1532280489.144,45.898,35.156,32.715,44.922,45.898
1532280489.148,40.527,37.598,32.715,35.645,281.250
1532280489.152,39.062,37.109,34.180,30.273,56.641
1532280489.156,35.645,34.668,31.738,29.785,-224.609
1532280489.159,37.598,34.180,27.832,34.180,-60.059
1532280489.163,39.062,35.645,30.273,41.504,270.996
1532280489.167,30.762,34.668,36.133,34.180,152.344
1532280489.171,33.691,35.156,34.668,31.738,-216.309
1532280489.175,36.133,34.180,33.203,42.480,-183.594
1532280489.179,27.832,29.785,35.645,44.922,197.266
1532280489.183,30.273,32.227,41.016,41.992,275.391
1532280489.187,36.133,38.574,40.527,41.992,-114.746
1532280489.191,37.598,38.086,33.203,40.527,-239.746
1532280489.195,40.527,35.645,34.180,41.992,128.906
1532280489.198,38.574,33.691,41.992,41.504,288.086
1532280489.202,37.109,31.738,43.945,40.039,-6.348
1532280489.206,40.039,31.738,40.527,42.969,-228.516
1532280489.210,43.945,32.715,40.039,46.387,12.695
1532280489.214,39.551,34.668,38.086,45.410,303.711
1532280489.218,39.062,38.086,35.645,37.109,104.980
1532280489.222,45.410,38.086,33.691,34.180,-221.191
1532280489.226,42.480,36.621,33.203,37.109,-104.492
1532280489.230,42.969,37.109,36.133,39.062,220.703
1532280489.234,44.434,36.621,33.691,36.621,170.898
1532280489.238,44.922,35.156,33.691,32.715,-182.617
1532280489.241,47.363,36.133,32.715,35.156,-178.223
1532280489.245,48.340,37.598,33.203,43.945,188.477
1532280489.249,44.922,38.086,36.133,43.945,264.160
1532280489.253,41.992,35.645,35.645,36.133,-88.867
1532280489.257,42.969,36.621,37.598,38.086,-227.051
1532280489.261,40.527,39.551,35.645,41.016,108.398
1532280489.265,39.062,37.598,35.156,39.551,299.316
1532280489.269,34.180,39.062,39.551,32.227,-10.742
1532280489.273,29.785,43.945,34.668,28.320,-282.715
1532280489.277,44.922,43.945,33.203,40.527,-45.898
1532280489.281,40.039,41.504,41.992,45.410,306.641
1532280489.284,17.090,36.133,46.387,37.598,136.719
1532280489.288,19.531,33.691,47.852,32.715,-234.375
1532280489.292,26.855,32.227,46.875,33.691,-142.090
1532280489.296,28.320,33.203,43.945,34.668,225.098
1532280489.300,29.785,33.691,40.527,31.738,214.355
1532280489.304,32.227,33.691,41.992,35.156,-150.391
1532280489.308,29.785,35.156,42.969,32.715,-217.773
1532280489.312,34.180,37.109,45.898,39.551,134.277
1532280489.316,38.574,35.645,46.875,47.363,283.691
1532280489.320,40.527,33.203,42.969,39.551,-39.551
1532280489.323,46.387,34.180,39.062,37.598,-235.840
1532280489.327,51.270,30.762,38.574,40.039,66.406
1532280489.331,49.805,28.320,41.992,39.062,325.195
1532280489.335,45.898,30.273,44.434,32.715,79.102
1532280489.339,48.340,32.227,41.992,32.227,-216.309
1532280489.343,60.547,34.668,39.551,40.527,-25.391
1532280489.347,56.152,30.762,41.504,46.875,312.012
1532280489.351,37.109,25.879,45.410,45.410,184.082
1532280489.355,35.156,28.320,47.363,44.922,-202.148
1532280489.359,40.527,33.691,47.363,47.852,-146.484
1532280489.363,37.109,36.621,43.945,49.805,240.723
1532280489.366,30.762,40.039,41.016,43.945,222.168
1532280489.370,32.715,41.504,43.457,36.133,-167.969
1532280489.374,35.156,40.527,44.922,41.016,-236.816
1532280489.378,41.016,41.016,43.457,47.852,147.461
1532280489.382,42.480,42.480,43.457,48.340,318.359
1532280489.386,43.457,45.898,42.969,46.875,-36.133
1532280489.390,45.410,48.828,41.992,45.898,-277.344
1532280489.394,48.340,51.758,41.504,43.945,-0.977
1532280489.398,57.129,52.246,45.410,47.852,277.832
1532280489.402,54.688,48.828,46.875,49.805,64.941
1532280489.406,47.363,48.340,40.527,45.410,-240.234
1532280489.409,50.781,47.852,39.062,45.898,-105.469
1532280489.413,48.340,46.387,38.574,47.852,262.695
1532280489.417,47.363,44.922,38.086,45.898,187.012
1532280489.421,45.898,42.969,42.480,43.945,-167.969
1532280489.425,48.340,43.945,43.945,47.363,-165.527
1532280489.429,54.199,46.387,42.480,49.316,181.152
1532280489.433,55.176,45.410,40.527,52.734,268.066
1532280489.437,46.387,41.016,38.574,51.270,-92.773
1532280489.441,40.527,36.621,41.992,48.340,-215.332
1532280489.445,44.434,38.574,41.992,51.270,139.648
1532280489.448,44.922,41.504,37.598,45.410,315.918
1532280489.452,46.875,44.434,36.621,43.457,0.488
1532280489.456,53.223,44.434,37.598,45.898,-225.098
1532280489.460,50.293,40.527,35.645,42.969,31.250
1532280489.464,45.410,39.062,36.621,44.922,329.590
1532280489.468,50.293,39.551,39.062,43.457,110.352
1532280489.472,54.688,40.527,41.992,44.922,-234.863
1532280489.476,64.453,41.992,43.945,48.828,-99.121
1532280489.480,62.500,42.480,39.062,51.758,244.141
1532280489.484,53.223,41.992,38.574,51.758,191.895
1532280489.488,57.129,40.039,40.039,46.875,-181.641
1532280489.491,62.500,38.086,37.109,50.781,-189.941
1532280489.495,64.453,40.039,35.645,54.199,187.012
1532280489.499,59.570,41.016,34.668,49.805,267.578
1532280489.503,62.500,42.480,35.645,52.246,-86.914
1532280489.507,63.477,41.992,36.133,53.223,-294.434
1532280489.511,57.617,41.992,33.691,52.734,38.574
1532280489.515,51.758,38.574,32.227,54.199,317.383
1532280489.519,51.270,37.598,35.645,45.410,41.992
1532280489.523,46.875,42.480,36.621,42.480,-236.328
1532280489.527,43.457,42.969,34.668,45.410,-30.762
1532280489.530,45.898,41.504,33.203,42.969,264.160
1532280489.534,38.574,39.551,36.133,43.945,144.531
1532280489.538,41.992,39.062,42.480,42.480,-204.102
1532280489.542,49.805,38.086,41.992,43.457,-151.855
1532280489.546,41.504,38.086,37.598,44.922,191.895
1532280489.550,39.062,41.504,37.109,39.062,187.012
1532280489.554,41.504,40.527,38.086,40.039,-138.672
1532280489.558,40.039,35.645,35.645,43.457,-207.031
1532280489.562,39.551,38.574,36.621,44.434,161.621
1532280489.566,37.598,42.480,37.109,37.598,314.941
1532280489.570,37.109,40.039,37.109,29.297,-20.020
1532280489.573,40.527,39.551,38.086,33.691,-216.797
1532280489.577,47.852,40.039,38.086,44.434,45.410
1532280489.581,43.945,37.598,36.133,45.898,284.180
1532280489.585,37.109,39.551,38.086,34.180,56.641
1532280489.589,38.574,39.551,39.062,28.320,-234.863
1532280489.593,43.457,34.180,36.621,39.062,-62.012
1532280489.597,41.016,31.250,39.062,48.828,302.734
1532280489.601,35.645,33.203,40.527,46.387,193.359
1532280489.605,35.156,36.621,36.621,35.156,-204.102
1532280489.609,37.598,35.645,34.180,34.180,-159.668
1532280489.613,34.180,32.715,37.109,35.645,240.234
1532280489.616,26.855,32.227,36.133,28.809,288.086
1532280489.620,27.344,30.762,36.133,29.785,-95.215
1532280489.624,28.809,28.320,39.062,37.598,-203.125
1532280489.628,32.715,31.250,37.598,41.992,127.441
1532280489.632,42.480,35.156,39.551,47.363,274.414
1532280489.636,42.969,34.180,44.434,45.410,-36.621
1532280489.640,40.039,36.621,38.086,41.016,-254.883
1532280489.644,44.922,39.062,34.668,48.828,17.578
1532280489.648,47.363,38.574,41.504,51.758,280.762
1532280489.652,46.387,37.109,44.922,48.828,84.961
1532280489.655,45.410,34.180,43.945,46.387,-208.496
1532280489.659,45.410,36.133,41.504,46.875,-70.801
1532280489.663,41.992,38.574,39.062,45.898,290.039
1532280489.667,40.527,39.551,35.645,34.180,199.707
1532280489.671,39.551,39.062,35.645,34.668,-189.941
1532280489.675,38.086,39.062,41.992,40.527,-181.152
1532280489.679,41.016,41.016,43.457,44.434,182.617
1532280489.683,42.480,39.551,41.992,43.945,256.348
1532280489.687,40.039,41.504,43.945,34.180,-127.441
1532280489.691,37.598,43.945,42.969,33.691,-270.508
1532280489.695,43.457,41.992,41.504,48.828,124.512
1532280489.698,41.504,42.480,47.852,51.758,334.473
1532280489.702,34.668,43.945,50.781,42.969,16.113
1532280489.706,36.133,44.922,47.363,41.992,-262.207
1532280489.710,43.457,45.410,43.457,48.828,-15.137
1532280489.714,44.434,44.922,43.457,49.316,304.688
1532280489.718,42.480,45.898,45.898,42.969,116.211
1532280489.722,41.504,44.434,42.480,36.133,-223.145
1532280489.726,42.480,41.016,42.480,33.203,-145.508
1532280489.730,46.387,40.039,43.945,33.691,200.684
1532280489.734,38.574,37.109,42.480,35.156,223.633
1532280489.738,33.203,39.551,40.527,34.668,-129.395
1532280489.741,41.016,39.551,40.527,36.133,-199.707
1532280489.745,41.016,38.574,40.527,37.109,161.133
1532280489.749,35.156,36.621,36.621,34.180,256.348
1532280489.753,35.156,33.691,37.598,33.203,-71.289
1532280489.757,34.668,34.180,38.086,31.250,-224.609
1532280489.761,34.668,32.227,37.598,34.668,74.219
1532280489.765,36.133,28.320,33.691,39.062,313.965
1532280489.769,39.062,30.273,30.273,37.109,46.875
1532280489.773,41.504,33.691,30.273,32.227,-244.629
1532280489.777,38.086,28.809,28.809,32.227,-32.227
1532280489.780,36.133,22.949,31.738,37.109,311.523
1532280489.784,35.645,22.461,36.133,39.551,174.805
1532280489.788,37.598,22.949,38.574,35.156,-209.961
1532280489.792,41.992,23.926,34.180,29.785,-139.648
1532280489.796,44.434,29.297,27.832,33.203,265.137
1532280489.800,38.574,30.762,28.320,32.227,274.414
1532280489.804,39.551,25.391,31.738,28.320,-119.629
1532280489.808,41.504,22.949,35.156,30.273,-203.125
1532280489.812,38.574,24.414,36.621,32.227,155.273
1532280489.816,43.457,28.320,34.180,37.598,291.016
1532280489.820,46.875,31.250,29.297,34.668,-29.297
1532280489.823,41.504,29.785,27.344,32.227,-243.652
1532280489.827,36.133,30.273,30.273,37.598,22.461
1532280489.831,30.273,29.297,31.738,32.227,299.805
1532280489.835,28.320,26.855,33.691,29.297,70.312
1532280489.839,31.250,23.926,37.598,35.156,-229.492
1532280489.843,35.156,22.949,38.086,40.527,-50.293
1532280489.847,37.109,28.320,32.715,36.621,259.277
1532280489.851,34.180,30.273,29.297,29.297,183.105
1532280489.855,34.180,31.250,29.297,31.250,-190.918
1532280489.859,35.156,34.668,33.203,41.016,-164.551
1532280489.862,39.062,30.762,33.691,46.387,222.168
1532280489.866,40.527,30.762,30.273,42.480,227.539
1532280489.870,35.156,35.645,28.320,38.086,-125.977
1532280489.874,37.109,35.645,28.809,37.109,-238.770
1532280489.878,39.062,33.691,32.227,43.945,101.074
1532280489.882,36.133,32.227,35.645,47.852,291.992
1532280489.886,38.574,33.691,38.086,41.504,-45.898
1532280489.890,40.039,33.203,41.504,40.527,-309.082
1532280489.894,35.645,30.762,40.527,48.828,-29.785
1532280489.898,36.133,33.203,34.180,42.480,268.066
1532280489.902,33.691,35.645,27.344,31.250,87.402
1532280489.905,29.297,37.109,29.785,28.320,-250.000
1532280489.909,29.297,35.156,33.203,30.762,-122.559
1532280489.913,30.762,34.668,34.180,32.227,245.605
1532280489.917,26.855,35.156,36.621,32.227,171.875
1532280489.921,28.809,33.691,38.574,36.133,-190.918
1532280489.925,37.109,32.715,40.527,42.969,-210.449
1532280489.929,39.062,31.738,40.527,45.898,151.855
1532280489.933,41.992,33.691,39.062,49.316,247.559
1532280489.937,43.945,32.227,41.992,48.828,-102.051
1532280489.941,42.480,30.273,45.410,44.922,-237.305
1532280489.945,41.504,30.273,44.922,48.340,66.406
1532280489.948,39.551,32.227,41.992,46.875,278.809
1532280489.952,41.016,34.180,41.992,43.457,39.062
1532280489.956,38.574,32.715,45.898,43.945,-234.863
1532280489.960,32.715,28.809,46.387,47.363,-29.297
1532280489.964,43.457,27.344,44.922,51.270,293.945
1532280489.968,46.875,32.227,49.316,45.898,118.652
1532280489.972,41.504,37.598,45.410,41.016,-258.789
1532280489.976,47.363,38.086,40.527,50.781,-126.465
1532280489.980,44.434,36.133,42.969,53.223,271.973
1532280489.984,37.598,36.133,41.016,43.457,257.812
1532280489.987,41.504,39.062,42.480,45.898,-131.836
1532280489.991,40.039,34.668,45.898,45.410,-190.918
1532280489.995,36.621,30.273,42.480,43.457,174.316
1532280489.999,47.363,35.645,39.062,48.828,294.434
1532280490.003,56.152,36.621,41.016,44.434,-40.527
1532280490.007,52.734,35.645,40.527,40.039,-229.492
1532280490.011,41.504,35.156,40.527,39.551,80.078
1532280490.015,41.016,34.180,43.945,41.016,330.078
1532280490.019,39.062,35.645,40.527,39.551,73.242
1532280490.023,35.645,31.250,34.180,35.156,-223.145
1532280490.027,41.016,27.344,35.645,38.086,-64.453
1532280490.030,43.457,29.785,39.551,40.527,261.719
1532280490.034,40.527,31.250,39.062,39.551,145.996
1532280490.038,37.109,29.785,35.156,39.062,-220.703
1532280490.042,34.668,30.273,37.109,40.527,-157.227
1532280490.046,37.109,32.227,39.551,43.457,217.285
1532280490.050,39.062,33.203,41.504,41.016,222.168
1532280490.054,36.621,27.832,40.527,34.668,-142.090
1532280490.058,38.574,26.855,35.156,37.109,-220.215
1532280490.062,46.387,33.691,36.133,44.922,136.230
1532280490.066,46.387,34.180,36.621,41.992,291.504
1532280490.070,40.039,29.297,35.156,33.691,-63.965
1532280490.073,44.434,28.809,34.668,32.227,-287.109
1532280490.077,50.781,28.320,33.203,31.250,4.883
1532280490.081,47.852,25.879,35.645,34.668,309.082
1532280490.085,41.016,23.926,40.039,30.762,71.777
1532280490.089,39.551,24.902,37.598,29.785,-266.602
1532280490.093,41.504,25.391,33.691,41.016,-66.406
1532280490.097,38.574,24.902,34.668,44.922,271.973
1532280490.101,38.086,24.902,38.574,48.340,163.574
1532280490.105,37.598,23.926,42.969,52.246,-179.199
1532280490.109,28.809,26.855,43.457,48.828,-166.992
1532280490.112,24.414,27.832,42.969,45.410,187.012
1532280490.116,25.391,23.926,44.434,50.781,245.605
1532280490.120,31.250,26.855,42.969,52.246,-115.234
1532280490.124,36.133,31.250,38.086,45.410,-232.422
1532280490.128,41.504,33.203,33.691,46.387,115.723
1532280490.132,45.898,34.180,33.203,42.969,288.086
1532280490.136,29.785,28.809,33.203,35.156,-4.395
1532280490.140,25.879,27.344,35.645,38.086,-219.727
1532280490.144,29.785,31.250,38.086,42.969,40.527
1532280490.148,34.180,31.738,36.133,46.387,310.547
1532280490.152,37.109,30.273,32.227,40.039,97.656
1532280490.155,27.344,30.273,31.738,34.668,-229.004
1532280490.159,25.391,31.738,35.156,36.621,-120.605
1532280490.163,26.367,31.250,37.598,41.504,226.074
1532280490.167,26.855,29.297,32.227,36.133,178.711
1532280490.171,30.273,31.738,26.367,30.762,-176.758
1532280490.175,34.668,32.227,30.762,37.109,-195.312
1532280490.179,35.645,31.738,34.180,38.574,213.867
1532280490.183,34.668,37.598,33.691,40.039,298.340
1532280490.187,41.016,41.016,28.320,35.156,-82.031
1532280490.191,41.504,37.598,27.344,32.715,-221.680
1532280490.194,34.668,36.621,29.785,40.039,89.844
1532280490.198,39.062,39.062,32.715,37.598,299.316
1532280490.202,38.086,37.598,33.203,36.133,7.324
1532280490.206,34.180,37.598,31.738,34.668,-274.414
1532280490.210,39.062,40.039,31.738,31.250,-56.641
1532280490.214,37.598,39.551,30.273,34.668,275.391
1532280490.218,32.715,38.086,35.645,35.645,153.320
1532280490.222,38.086,39.551,38.574,34.180,-193.848
1532280490.226,41.504,39.062,33.203,36.133,-110.352
1532280490.230,39.062,35.645,31.738,44.922,243.164
1532280490.234,31.738,33.203,31.738,42.480,216.797
1532280490.237,26.367,40.039,34.668,34.668,-145.508
1532280490.241,29.785,41.016,38.086,41.016,-208.984
1532280490.245,25.879,33.691,37.109,44.434,147.461
1532280490.249,31.250,33.203,36.621,35.156,275.391
1532280490.253,39.551,36.621,33.691,30.273,-37.109
1532280490.257,37.598,35.645,41.016,41.016,-246.582
1532280490.261,37.109,35.156,42.969,43.457,61.523
1532280490.265,37.598,37.109,37.109,41.992,315.918
1532280490.269,38.574,36.133,45.898,41.992,56.152
1532280490.273,43.945,34.668,47.363,39.551,-244.629
1532280490.277,40.527,33.691,43.457,40.527,-79.102
1532280490.280,36.621,33.203,45.898,40.527,271.973
1532280490.284,36.621,33.203,45.410,37.109,142.090
1532280490.288,34.668,33.691,37.598,31.738,-240.234
1532280490.292,36.133,32.227,36.133,35.645,-163.086
1532280490.296,41.016,29.297,36.621,40.527,210.938
1532280490.300,40.527,29.297,39.062,49.316,233.398
1532280490.304,38.086,33.203,40.527,42.969,-134.766
1532280490.308,39.551,31.738,42.969,29.785,-265.137
1532280490.312,37.109,30.762,43.457,33.691,68.359
1532280490.316,34.180,35.156,36.133,38.086,260.742
1532280490.319,37.598,37.598,35.156,38.086,-39.062
1532280490.323,41.504,35.645,35.645,33.691,-250.000
1532280490.327,35.645,32.715,36.133,29.785,38.086
1532280490.331,34.668,37.598,38.574,33.691,313.477
1532280490.335,39.062,40.527,39.062,36.133,81.543
1532280490.339,35.645,38.574,39.551,37.109,-236.816
1532280490.343,35.645,38.086,39.062,41.992,-83.496
1532280490.347,40.527,37.598,39.062,38.086,247.070
1532280490.351,41.504,35.156,40.039,34.668,179.199
1532280490.355,42.480,38.086,37.109,36.621,-176.270
1532280490.359,37.109,40.039,37.109,37.109,-191.895
1532280490.362,32.715,35.645,42.969,41.504,168.945
1532280490.366,36.621,36.621,41.992,38.574,225.098
1532280490.370,40.039,39.062,40.039,34.668,-124.023
1532280490.374,39.062,34.668,39.062,38.086,-234.863
1532280490.378,41.016,34.668,34.180,46.387,106.934
1532280490.382,35.645,36.133,32.715,44.434,322.266
1532280490.386,38.086,39.551,36.133,38.086,17.578
1532280490.390,43.457,42.480,41.504,36.133,-274.414
1532280490.394,41.016,36.133,41.016,41.992,7.324
1532280490.398,41.504,34.668,38.574,50.781,321.777
1532280490.402,41.016,38.574,40.039,46.387,120.605
1532280490.405,36.133,36.133,42.969,34.180,-206.055
1532280490.409,30.273,32.715,42.969,38.574,-103.516
1532280490.413,35.156,35.645,35.645,40.527,256.836
1532280490.417,43.945,40.039,31.738,34.180,225.098
1532280490.421,46.387,37.109,34.668,32.715,-152.832
1532280490.425,42.480,35.156,37.109,37.598,-189.941
1532280490.429,35.645,36.621,40.039,40.039,184.570
1532280490.433,33.203,37.598,38.574,37.109,280.762
1532280490.437,38.574,39.551,36.621,36.133,-84.961
1532280490.441,41.992,40.039,40.527,38.086,-235.352
1532280490.444,38.574,34.668,46.387,41.992,107.422
1532280490.448,36.621,35.156,45.898,41.504,300.781
1532280490.452,36.621,35.156,39.551,37.109,16.602
1532280490.456,35.156,34.180,41.016,43.945,-236.328
1532280490.460,38.086,33.691,47.363,53.711,-34.180
1532280490.464,39.551,33.691,43.945,53.711,294.434
1532280490.468,38.574,38.086,40.039,47.852,138.184
1532280490.472,39.551,37.598,42.480,47.852,-218.262
1532280490.476,42.969,38.086,44.922,52.734,-125.488
1532280490.480,42.969,35.645,44.434,51.270,244.629
1532280490.484,36.621,32.227,44.922,49.805,236.328
1532280490.487,42.969,39.062,45.410,39.551,-179.199
1532280490.491,47.363,41.504,41.504,30.762,-245.117
1532280490.495,37.598,35.645,39.551,41.016,148.926
1532280490.499,36.621,32.715,44.434,49.316,295.410
1532280490.503,37.598,30.273,49.805,46.387,-37.598
1532280490.507,32.227,31.738,45.898,41.992,-269.531
1532280490.511,35.156,34.668,39.062,43.457,32.227
1532280490.515,43.457,37.109,39.062,50.293,303.223
1532280490.519,38.574,35.156,39.062,48.828,41.016
1532280490.523,35.156,35.156,39.551,39.062,-258.789
1532280490.527,41.504,37.598,41.504,40.527,-71.289
1532280490.530,40.039,37.109,39.551,43.945,254.883
1532280490.534,40.039,40.527,37.109,42.969,138.184
1532280490.538,42.480,41.016,41.992,44.434,-201.660
1532280490.542,41.992,34.668,44.434,44.434,-132.324
1532280490.546,39.551,32.227,41.016,39.551,235.840
1532280490.550,35.645,34.180,38.574,36.621,259.766
1532280490.554,37.109,36.621,36.133,36.621,-119.141
1532280490.558,39.551,36.133,39.062,40.527,-215.332
1532280490.562,34.180,35.645,40.039,42.969,133.301
1532280490.566,28.809,36.133,31.738,31.738,291.504
1532280490.569,33.691,39.062,29.297,22.461,-13.184
1532280490.573,37.109,37.109,30.762,25.391,-246.582
1532280490.577,37.598,39.551,32.227,29.297,32.227
1532280490.581,33.203,42.480,32.227,26.855,325.195
1532280490.585,26.367,37.109,33.203,26.367,101.562
1532280490.589,34.668,36.621,32.715,29.785,-275.391
1532280490.593,41.504,38.574,31.250,39.062,-132.812
1532280490.597,38.574,40.527,34.668,44.922,265.137
1532280490.601,37.598,38.086,37.598,44.434,187.500
1532280490.605,35.645,34.668,39.062,45.898,-208.008
1532280490.609,38.086,34.180,41.016,45.898,-198.242
1532280490.612,43.945,31.250,39.551,49.316,187.500
1532280490.616,46.387,31.250,38.086,47.852,243.164
1532280490.620,45.410,34.180,38.086,43.457,-99.609
1532280490.624,37.598,31.738,37.598,43.945,-241.699
1532280490.628,32.715,33.203,40.527,40.039,41.016
1532280490.632,36.621,34.668,41.504,42.969,259.277
1532280490.636,38.086,30.762,34.668,43.945,8.789
1532280490.640,38.086,33.203,31.738,36.621,-229.004
1532280490.644,32.715,34.180,35.645,38.574,-2.441
1532280490.648,25.879,31.738,39.551,35.645,285.645
1532280490.651,30.762,33.203,40.039,33.203,140.137
1532280490.655,36.621,33.691,38.574,34.668,-198.730
1532280490.659,38.574,30.762,40.527,37.598,-88.379
1532280490.663,41.504,33.203,43.945,44.922,301.270
1532280490.667,46.875,38.086,44.922,51.270,222.168
1532280490.671,48.828,35.645,46.875,51.270,-171.875
1532280490.675,47.852,35.156,44.434,50.293,-173.828
1532280490.679,51.758,38.574,39.062,53.223,183.105
1532280490.683,53.711,38.574,43.457,55.176,308.105
1532280490.687,48.828,41.504,46.875,52.246,-35.156
1532280490.691,50.293,41.016,44.434,59.570,-235.352
1532280490.694,47.363,37.598,43.945,62.500,82.031
1532280490.698,39.062,36.133,46.387,53.223,326.172
1532280490.702,37.598,38.574,45.410,47.852,49.316
1532280490.706,41.504,42.969,40.527,45.898,-245.117
1532280490.710,43.945,44.434,40.527,46.387,-42.480
1532280490.714,42.480,43.945,41.016,43.457,287.109
1532280490.718,39.062,43.457,42.969,42.480,169.922
1532280490.722,41.016,46.387,51.270,52.246,-198.730
1532280490.726,50.781,47.363,52.734,57.617,-177.734
1532280490.730,50.293,45.898,49.805,55.176,200.195
1532280490.734,38.086,46.387,48.340,46.387,249.512
1532280490.737,42.969,48.340,51.270,43.945,-101.074
1532280490.741,55.176,49.316,49.316,48.828,-189.453
1532280490.745,50.781,47.852,45.898,50.293,161.133
1532280490.749,39.551,48.828,44.922,49.805,308.105
1532280490.753,34.668,50.293,45.898,40.527,-8.789
1532280490.757,35.645,49.316,47.852,31.250,-233.398
1532280490.761,32.227,47.852,42.969,30.762,43.457
1532280490.765,35.645,46.387,41.016,29.297,312.500
1532280490.769,41.992,50.293,45.410,36.621,62.500
1532280490.773,37.109,48.340,45.410,41.016,-250.488
1532280490.776,34.668,40.527,41.992,42.480,-66.895
1532280490.780,39.062,39.551,41.992,46.387,277.832
1532280490.784,33.691,43.457,40.527,41.504,187.988
1532280490.788,35.645,48.828,40.039,31.250,-210.938
1532280490.792,36.133,46.875,41.504,31.738,-193.359
1532280490.796,33.203,44.434,42.969,40.527,236.816
1532280490.800,31.738,42.969,42.480,38.086,288.574
1532280490.804,33.691,36.621,41.016,31.738,-64.453
1532280490.808,42.480,37.598,41.504,27.832,-209.473
1532280490.812,45.410,39.062,40.039,25.391,88.867
1532280490.816,40.527,41.016,39.062,26.855,296.875
1532280490.819,34.180,41.504,35.156,26.367,-3.418
1532280490.823,32.227,35.156,29.785,30.762,-267.090
1532280490.827,29.297,31.738,30.273,38.574,0.000
1532280490.831,23.438,31.250,37.598,40.039,302.734
1532280490.835,27.832,31.250,38.086,41.016,94.238
1532280490.839,30.273,28.809,38.086,42.969,-262.695
1532280490.843,24.902,28.809,39.062,48.828,-124.512
1532280490.847,28.320,32.715,38.086,48.340,261.230
1532280490.851,31.738,31.250,38.574,40.039,191.895
1532280490.855,31.738,32.715,35.645,37.598,-187.500
1532280490.859,28.809,33.203,31.738,42.480,-185.059
1532280490.862,33.691,31.738,32.227,44.434,197.266
1532280490.866,35.156,32.227,35.645,43.457,235.840
1532280490.870,34.668,35.156,37.598,39.551,-118.652
1532280490.874,35.156,34.180,35.156,36.133,-231.934
1532280490.878,36.133,33.203,34.180,40.527,102.051
1532280490.882,39.551,35.645,30.273,43.945,323.242
1532280490.886,33.691,34.180,26.855,39.062,29.785
1532280490.890,30.762,35.156,31.250,35.156,-236.328
1532280490.894,36.621,37.109,34.180,44.922,13.672
1532280490.898,39.551,36.133,37.598,50.781,331.055
1532280490.901,35.156,34.180,38.574,39.062,139.160
1532280490.905,31.250,32.715,34.180,31.250,-226.074
1532280490.909,30.273,32.227,32.227,26.855,-146.484
1532280490.913,31.250,31.250,34.668,33.203,238.281
1532280490.917,36.621,35.156,36.133,37.598,226.074
1532280490.921,37.598,39.062,36.133,38.086,-153.320
1532280490.925,31.738,35.645,35.156,44.922,-196.289
1532280490.929,33.691,34.180,31.738,46.875,147.461
1532280490.933,43.945,36.133,28.809,46.875,267.090
1532280490.937,42.969,38.086,30.273,50.781,-64.941
1532280490.941,46.387,39.551,33.691,51.270,-262.207
1532280490.944,50.781,37.109,35.645,55.664,31.250
1532280490.948,49.316,36.133,33.203,56.641,273.438
1532280490.952,48.340,37.598,28.320,53.711,29.785
1532280490.956,51.758,39.062,25.391,52.246,-251.953
1532280490.960,52.246,41.016,24.902,48.828,-50.293
1532280490.964,40.527,35.156,23.926,50.293,283.203
1532280490.968,37.109,30.273,24.414,49.316,128.418
1532280490.972,40.527,32.715,23.926,41.016,-205.566
1532280490.976,39.551,33.691,23.438,35.156,-112.305
1532280490.980,33.691,33.691,22.949,36.621,240.234
1532280490.983,28.809,34.180,24.414,40.527,249.512
1532280490.987,31.250,33.691,23.926,39.062,-123.535
1532280490.991,35.156,32.227,22.949,41.016,-232.422
1532280490.995,35.156,30.273,22.461,41.016,126.465
1532280490.999,41.992,31.738,21.484,42.480,289.551
1532280491.003,48.828,34.668,22.461,41.504,-32.715
1532280491.007,53.223,36.621,20.996,35.645,-254.395
1532280491.011,61.523,40.039,18.555,39.062,28.809
1532280491.015,56.641,43.945,17.578,42.969,324.707
1532280491.019,47.852,45.410,17.090,39.062,83.496
1532280491.023,44.434,45.898,14.648,34.180,-247.070
1532280491.026,46.875,42.969,14.160,34.668,-94.238
1532280491.030,54.688,46.387,17.090,35.156,264.160
1532280491.034,53.223,50.781,18.555,34.668,166.016
1532280491.038,48.828,46.875,16.602,25.391,-212.891
1532280491.042,46.387,45.410,16.602,21.973,-154.785
1532280491.046,37.598,44.922,20.996,25.391,211.426
1532280491.050,32.715,45.898,21.484,15.137,234.863
1532280491.054,30.762,44.922,22.949,15.625,-100.586
1532280491.058,31.250,41.992,26.367,23.926,-207.520
1532280491.062,37.109,39.062,28.809,29.297,127.930
1532280491.066,33.691,37.598,25.879,29.785,306.152
1532280491.069,27.344,40.039,22.949,24.414,-17.090
1532280491.073,30.273,37.598,23.926,23.926,-242.676
1532280491.077,33.691,34.668,28.809,30.762,35.645
1532280491.081,33.203,33.691,34.180,36.621,314.941
1532280491.085,30.273,31.738,32.715,35.156,90.332
1532280491.089,31.738,33.691,29.785,29.297,-263.672
1532280491.093,34.668,34.668,28.809,34.668,-108.887
1532280491.097,40.039,34.180,31.738,40.039,269.531
1532280491.101,37.598,34.180,35.645,38.086,213.379
1532280491.105,29.297,33.203,34.668,37.109,-169.922
1532280491.108,28.809,32.715,32.715,33.691,-191.406
1532280491.112,31.250,35.645,29.785,27.832,199.707
1532280491.116,32.227,37.598,32.227,26.367,296.875
1532280491.120,28.320,33.691,35.156,28.320,-68.848
1532280491.124,24.414,29.297,36.621,34.180,-236.816
1532280491.128,23.438,33.203,34.668,36.133,73.242
1532280491.132,25.391,35.645,34.180,34.668,297.852
1532280491.136,25.391,37.598,38.086,35.645,52.246
1532280491.140,28.320,35.645,36.621,33.203,-236.816
1532280491.144,31.250,33.691,35.156,37.598,-17.578
1532280491.148,34.180,36.621,36.133,39.062,289.062
1532280491.151,31.250,37.109,36.621,31.738,116.211
1532280491.155,28.809,37.109,37.598,35.156,-207.031
1532280491.159,32.715,37.598,38.574,43.945,-99.121
1532280491.163,34.668,38.574,41.504,47.363,255.371
1532280491.167,36.621,39.551,42.480,40.039,221.680
1532280491.171,41.504,41.504,39.062,32.715,-128.906
1532280491.175,37.598,42.969,39.551,37.109,-186.523
1532280491.179,36.621,40.039,38.086,41.016,141.113
1532280491.183,42.969,39.551,36.133,39.062,270.020
1532280491.187,41.504,41.992,35.156,30.273,-83.984
1532280491.191,41.504,47.363,35.156,24.902,-279.785
1532280491.194,40.527,48.828,36.621,41.016,50.781
1532280491.198,35.156,39.062,35.156,47.852,294.434
1532280491.202,33.691,37.109,33.691,41.992,63.965
1532280491.206,36.133,42.969,35.156,37.598,-236.328
1532280491.210,39.062,44.922,38.574,41.992,-46.875
1532280491.214,40.039,42.480,39.551,44.922,300.781
1532280491.218,36.133,41.992,39.062,41.016,169.922
1532280491.222,36.621,41.992,39.062,35.645,-195.312
1532280491.226,41.504,43.945,37.598,31.738,-147.461
1532280491.230,41.992,48.340,33.691,33.203,226.074
1532280491.233,38.086,44.434,33.203,30.273,263.184
1532280491.237,35.645,41.016,37.109,25.879,-121.582
1532280491.241,31.250,38.086,37.598,26.367,-217.285
1532280491.245,30.762,36.621,37.598,26.855,133.789
1532280491.249,32.715,41.016,38.574,21.484,283.691
1532280491.253,34.180,45.410,37.109,23.438,-22.461
1532280491.257,41.504,45.410,40.527,31.250,-243.652
1532280491.261,43.945,42.480,42.480,35.645,29.785
1532280491.265,40.527,41.992,39.062,40.527,309.082
1532280491.269,40.039,41.992,41.992,44.922,79.102
1532280491.273,42.969,42.480,42.969,46.387,-253.418
1532280491.276,44.922,43.457,41.992,49.316,-96.680
1532280491.280,41.016,45.898,44.434,51.270,281.738
1532280491.284,40.527,53.223,46.875,50.781,191.406
1532280491.288,41.016,49.805,45.410,47.363,-208.496
1532280491.292,35.645,41.504,43.945,51.270,-174.805
1532280491.296,32.227,41.992,42.969,56.641,230.957
1532280491.300,37.598,46.875,42.969,53.223,290.527
1532280491.304,39.551,48.828,44.434,47.852,-73.730
1532280491.308,36.133,48.340,48.340,49.316,-214.355
1532280491.312,37.109,47.852,45.898,49.316,117.676
1532280491.316,41.504,45.898,41.016,45.410,296.875
1532280491.319,46.387,46.875,42.480,46.387,-17.090
1532280491.323,51.270,49.805,42.480,44.922,-259.277
1532280491.327,53.711,51.270,42.969,39.551,-33.203
1532280491.331,49.805,46.387,42.969,44.434,255.859
1532280491.335,41.992,42.480,40.039,50.781,104.492
1532280491.339,42.480,42.969,36.621,47.852,-225.098
1532280491.343,45.898,43.457,37.598,53.223,-110.352
1532280491.347,44.434,41.016,42.480,56.152,249.512
1532280491.351,41.992,43.457,40.527,46.387,204.102
1532280491.355,32.715,50.781,36.133,32.715,-141.113
1532280491.358,35.645,53.223,34.180,30.273,-166.016
1532280491.362,37.598,54.199,33.691,34.668,192.383
1532280491.366,30.273,56.152,32.715,34.180,286.621
1532280491.370,38.086,61.035,35.645,34.668,-68.848
1532280491.374,34.668,54.199,40.527,39.062,-243.652
1532280491.378,25.879,45.410,41.992,42.480,65.430
1532280491.382,29.785,46.387,40.527,45.898,318.848
1532280491.386,33.691,48.340,37.598,39.551,38.574
1532280491.390,33.691,51.270,36.621,35.156,-274.414
1532280491.394,34.668,50.781,37.109,43.457,-48.340
1532280491.398,40.039,54.688,37.598,43.457,307.617
1532280491.401,47.852,57.617,34.668,36.133,135.254
1532280491.405,38.086,53.223,36.621,34.180,-221.680
1532280491.409,34.180,55.176,41.992,41.504,-103.027
1532280491.413,40.039,56.152,42.969,46.387,249.512
1532280491.417,36.133,51.758,42.969,41.504,237.305
1532280491.421,32.227,49.805,37.109,38.086,-119.629
1532280491.425,31.250,47.852,35.645,40.527,-216.309
1532280491.429,31.738,44.434,40.527,40.039,117.188
1532280491.433,30.273,48.340,42.480,35.645,263.672
1532280491.437,36.133,48.340,39.551,32.715,-46.387
1532280491.440,36.133,43.945,40.039,40.039,-245.605
1532280491.444,27.344,39.551,40.527,42.969,44.922
1532280491.448,27.832,38.086,35.156,34.180,314.453
1532280491.452,30.762,39.551,35.156,28.809,55.176
1532280491.456,28.809,37.109,38.574,36.133,-241.699
1532280491.460,23.926,33.203,39.062,44.434,-48.340
1532280491.464,21.484,32.227,40.039,48.828,281.250
1532280491.468,20.508,31.738,38.574,41.016,154.297
1532280491.472,20.996,31.250,35.156,32.227,-216.309
1532280491.476,30.273,32.227,32.715,35.156,-153.809
1532280491.480,37.598,34.180,29.297,31.738,237.793
1532280491.483,36.133,34.180,33.691,30.273,273.438
1532280491.487,31.738,34.180,37.598,34.180,-95.703
1532280491.491,33.203,31.250,39.551,37.598,-180.664
1532280491.495,35.156,29.297,40.527,41.016,150.879
1532280491.499,34.180,29.785,36.133,40.527,285.156
1532280491.503,35.645,30.762,34.180,35.645,-17.578
1532280491.507,36.133,31.738,32.227,27.832,-249.023
1532280491.511,37.109,30.762,34.668,28.320,14.648
1532280491.515,42.480,32.715,36.133,34.668,301.758
1532280491.519,34.180,33.203,35.156,31.738,94.238
1532280491.523,28.320,31.250,34.180,30.273,-213.867
1532280491.526,35.645,28.320,31.738,26.855,-71.289
1532280491.530,32.227,29.785,34.668,27.344,259.766
1532280491.534,32.227,34.180,37.598,28.320,191.406
1532280491.538,36.133,33.691,39.062,26.367,-169.922
1532280491.542,32.715,34.180,39.551,26.367,-154.297
1532280491.546,29.297,32.715,33.691,27.832,218.262
1532280491.550,29.297,29.297,32.715,30.273,262.695
1532280491.554,27.344,28.809,39.551,34.668,-111.816
1532280491.558,24.414,28.320,41.016,41.016,-252.930
1532280491.562,26.367,29.785,37.598,42.480,100.586
1532280491.565,26.855,27.344,34.180,38.574,301.758
1532280491.569,28.809,25.391,37.109,40.527,1.953
1532280491.573,39.062,29.785,39.062,46.875,-248.047
1532280491.577,42.969,34.180,36.133,49.805,6.836
1532280491.581,41.504,32.715,37.598,45.898,318.359
1532280491.585,41.016,30.273,41.992,40.039,102.539
1532280491.589,40.527,27.832,40.039,37.598,-256.348
1532280491.593,39.062,33.203,34.180,30.273,-117.188
1532280491.597,38.086,36.621,40.527,39.062,249.512
1532280491.601,34.180,35.156,42.969,41.992,212.402
1532280491.605,24.414,31.738,35.156,28.809,-138.184
1532280491.608,25.879,29.297,37.598,24.414,-209.961
1532280491.612,33.203,34.668,39.551,27.832,149.414
1532280491.616,33.691,41.992,37.109,27.344,287.598
1532280491.620,25.879,41.016,36.133,22.461,-78.613
1532280491.624,16.113,35.156,35.645,22.949,-243.164
1532280491.628,15.625,31.738,38.086,28.809,91.309
1532280491.632,18.066,33.691,39.062,31.738,315.430
1532280491.636,23.926,38.574,38.086,25.391,57.129
1532280491.640,30.762,41.992,35.645,25.391,-199.707
1532280491.644,28.320,40.527,34.180,32.227,11.230
1532280491.648,25.879,36.621,36.133,34.668,311.035
1532280491.651,26.855,36.621,38.086,39.551,192.383
1532280491.655,26.367,37.109,40.039,40.527,-174.805
1532280491.659,38.086,36.621,43.457,45.410,-136.230
1532280491.663,50.781,38.574,41.504,50.293,256.348
1532280491.667,44.922,41.016,40.039,38.574,248.047
1532280491.671,42.480,40.527,41.016,28.320,-130.859
1532280491.675,46.387,36.133,37.598,33.203,-180.176
1532280491.679,44.434,36.133,38.086,35.156,146.484
1532280491.683,41.992,36.621,39.062,39.062,291.504
1532280491.687,33.203,29.785,43.457,40.527,-7.812
1532280491.690,34.180,29.297,41.992,35.156,-227.539
1532280491.694,41.504,33.203,38.574,42.969,46.387
1532280491.698,30.762,30.273,41.016,49.805,311.035
1532280491.702,29.785,34.668,39.551,47.363,72.754
1532280491.706,41.016,38.086,37.598,45.898,-226.562
1532280491.710,42.969,28.320,36.621,48.828,-58.594
1532280491.714,42.969,26.367,34.668,53.711,282.227
1532280491.718,40.527,32.227,36.621,49.316,186.523
1532280491.722,39.062,33.203,37.598,46.387,-205.078
1532280491.726,40.527,34.180,34.180,50.293,-166.016
1532280491.730,45.898,37.109,32.715,48.340,209.473
1532280491.733,51.270,39.551,35.645,46.875,248.535
1532280491.737,51.270,38.086,37.598,45.898,-102.539
1532280491.741,49.316,35.156,38.574,43.945,-227.539
1532280491.745,46.875,37.598,31.738,38.574,111.816
1532280491.749,47.852,39.551,31.250,32.227,250.977
1532280491.753,45.898,38.574,35.645,34.668,-55.176
1532280491.757,39.551,36.621,34.668,38.574,-255.371
1532280491.761,40.527,38.574,36.133,40.039,24.902
1532280491.765,40.527,38.574,41.016,43.457,317.871
1532280491.769,41.992,36.133,41.992,41.992,104.492
1532280491.772,46.387,37.598,37.598,36.621,-235.352
1532280491.776,41.992,36.133,38.086,39.551,-111.328
1532280491.780,45.410,37.109,40.527,47.363,244.629
1532280491.784,43.945,37.598,40.527,48.340,189.453
1532280491.788,41.992,35.645,41.504,45.898,-189.941
1532280491.792,44.922,33.203,41.504,47.363,-203.125
1532280491.796,44.434,36.133,37.109,46.875,165.527
1532280491.800,39.062,40.527,31.738,38.574,229.492
1532280491.804,38.086,41.016,31.250,34.180,-99.609
1532280491.808,38.574,40.527,37.598,33.203,-244.629
1532280491.812,30.762,34.180,39.062,29.785,41.016
1532280491.815,28.320,32.715,38.086,38.086,253.906
1532280491.819,32.227,35.645,36.621,42.480,13.184
1532280491.823,28.809,33.691,36.621,36.133,-226.562
1532280491.827,31.738,34.668,38.574,32.227,7.324
1532280491.831,40.039,36.621,38.086,36.133,312.500
1532280491.835,37.598,36.621,38.086,41.992,141.113
1532280491.839,36.133,35.645,38.574,45.898,-215.332
1532280491.843,37.109,35.645,38.574,44.922,-109.375
1532280491.847,36.621,37.598,36.133,41.504,257.812
1532280491.851,33.691,36.621,37.598,38.574,215.332
1532280491.855,35.156,35.156,39.062,40.039,-139.160
1532280491.858,37.109,35.645,33.691,41.504,-181.152
1532280491.862,35.645,39.062,27.832,39.062,193.848
1532280491.866,37.109,40.527,30.273,38.574,314.453
1532280491.870,35.156,39.551,38.086,38.574,-27.832
1532280491.874,31.738,39.062,39.062,34.668,-228.027
1532280491.878,34.180,37.598,33.203,35.645,38.574
1532280491.882,29.785,36.621,35.645,41.504,296.875
1532280491.886,30.273,38.574,38.086,40.039,36.621
1532280491.890,36.621,42.969,35.645,41.992,-284.668
1532280491.894,40.039,43.457,38.086,53.711,-53.223
1532280491.897,39.551,44.922,38.574,54.688,290.039
1532280491.901,36.621,42.969,34.180,50.781,152.344
1532280491.905,33.203,40.039,35.645,48.828,-228.027
1532280491.909,39.551,39.062,41.016,48.340,-160.645
1532280491.913,43.457,38.574,38.086,45.410,226.074
1532280491.917,40.527,39.551,33.691,40.039,228.027
1532280491.921,38.086,39.551,35.645,41.504,-120.605
1532280491.925,41.992,39.551,40.039,48.828,-216.309
1532280491.929,39.551,37.598,42.969,50.293,120.117
1532280491.933,38.086,36.621,40.039,50.781,281.250
1532280491.937,46.387,37.109,35.645,47.852,-40.527
1532280491.940,47.363,35.645,33.691,42.480,-235.840
1532280491.944,47.363,34.668,33.691,49.805,43.945
1532280491.948,48.340,32.227,35.156,51.758,288.086
1532280491.952,41.992,30.273,36.133,41.992,59.082
1532280491.956,38.086,32.227,34.668,43.457,-248.535
1532280491.960,40.039,33.203,35.645,51.270,-67.871
1532280491.964,40.527,31.250,38.574,47.852,290.527
1532280491.968,43.945,27.832,37.109,36.133,178.223
1532280491.972,49.316,31.738,36.621,34.180,-216.797
1532280491.976,43.457,33.691,36.621,38.086,-178.223
1532280491.980,37.598,29.785,40.527,44.434,203.613
1532280491.983,39.062,28.809,41.992,48.340,270.020
1532280491.987,37.109,29.297,38.574,37.109,-97.168
1532280491.991,38.086,29.297,37.598,32.715,-234.863
1532280491.995,36.621,30.273,41.504,43.457,132.324
1532280491.999,34.180,31.250,41.016,39.062,318.848
1532280492.003,36.621,29.785,46.387,33.691,-16.602
1532280492.007,30.273,28.320,47.852,35.645,-259.766
1532280492.011,24.902,26.367,42.969,38.574,21.973
1532280492.015,31.250,26.855,42.480,41.504,301.758
1532280492.019,27.344,26.855,42.969,37.598,120.605
1532280492.022,22.461,24.414,45.898,36.621,-223.633
1532280492.026,29.785,24.414,41.992,34.180,-128.418
1532280492.030,32.715,26.367,36.133,30.762,253.418
1532280492.034,31.738,28.809,38.086,39.062,230.957
1532280492.038,32.715,28.320,37.598,38.086,-154.297
1532280492.042,29.297,23.438,37.598,40.527,-186.035
1532280492.046,34.668,22.461,39.551,50.293,212.402
1532280492.050,32.715,24.902,38.086,44.434,289.062
1532280492.054,27.344,24.414,37.598,36.621,-90.820
1532280492.058,35.645,23.438,36.621,42.480,-239.258
1532280492.062,36.621,26.855,35.645,46.387,103.516
1532280492.065,36.621,29.785,37.598,40.527,312.988
1532280492.069,39.551,30.273,36.133,41.992,-0.488
1532280492.073,41.504,29.785,34.668,46.875,-253.906
1532280492.077,38.574,27.344,33.691,45.410,-1.465
1532280492.081,36.621,27.832,35.156,44.922,337.891
1532280492.085,33.203,30.273,38.574,46.875,138.672
1532280492.089,42.480,31.738,38.086,41.992,-250.488
1532280492.093,39.551,30.762,32.227,40.527,-125.000
1532280492.097,27.344,32.227,30.273,42.969,250.977
1532280492.101,25.879,32.227,33.203,42.969,226.562
1532280492.105,25.879,28.809,33.203,39.062,-154.785
1532280492.108,35.156,31.738,29.297,31.250,-234.863
1532280492.112,39.062,34.668,29.785,35.156,149.414
1532280492.116,34.668,35.645,37.109,46.875,302.246
1532280492.120,33.203,36.621,40.039,50.781,-38.574
1532280492.124,35.156,36.133,35.156,54.199,-221.680
1532280492.128,43.945,36.621,35.156,53.223,50.293
1532280492.132,53.223,35.645,39.062,51.270,257.812
1532280492.136,53.223,35.645,41.992,54.688,32.715
1532280492.140,53.711,39.551,41.992,57.617,-250.977
1532280492.144,50.293,40.527,41.016,58.105,-56.152
1532280492.147,40.039,38.574,42.969,53.711,285.156
1532280492.151,43.457,40.527,45.410,48.340,165.039
1532280492.155,41.992,36.133,45.410,44.922,-194.336
1532280492.159,37.109,30.762,42.969,45.898,-139.648
1532280492.163,35.156,29.297,40.039,49.805,229.492
1532280492.167,32.227,29.785,39.551,44.922,203.125
1532280492.171,36.133,37.598,41.504,39.551,-174.316
1532280492.175,43.945,38.574,42.480,50.781,-223.145
1532280492.179,46.387,37.109,42.969,53.711,147.461
1532280492.183,42.480,38.574,41.992,49.316,319.824
1532280492.187,39.551,33.203,42.480,45.410,0.977
1532280492.190,39.062,33.691,42.969,48.340,-248.535
1532280492.194,34.668,35.156,44.922,52.246,9.766
1532280492.198,31.738,30.762,42.969,44.434,295.410
1532280492.202,27.832,32.227,42.480,39.551,56.152
1532280492.206,29.785,35.156,39.551,34.668,-268.555
1532280492.210,33.203,33.203,34.668,36.133,-87.891
1532280492.214,31.250,30.762,35.156,42.480,230.469
1532280492.218,33.691,33.691,34.668,35.156,167.969
1532280492.222,30.273,35.645,41.016,43.457,-164.551
1532280492.226,24.902,30.762,43.457,51.270,-199.707
1532280492.229,29.785,29.297,40.527,44.922,142.090
1532280492.233,40.039,31.250,40.527,41.504,224.121
1532280492.237,40.527,29.297,36.133,34.180,-114.746
1532280492.241,40.039,29.785,34.668,33.691,-214.355
1532280492.245,41.016,32.227,37.598,44.434,124.023
1532280492.249,30.762,30.762,36.621,42.480,296.387
1532280492.253,35.156,31.250,33.203,36.133,-1.465
1532280492.257,47.852,37.109,29.785,33.691,-249.512
1532280492.261,51.758,39.062,30.762,28.809,-4.883
1532280492.265,45.410,31.738,35.645,33.203,295.410
1532280492.269,37.109,28.809,35.645,32.227,73.730
1532280492.272,35.645,27.832,37.109,34.668,-269.043
1532280492.276,32.227,26.367,41.992,51.758,-100.098
1532280492.280,26.367,27.832,45.410,65.918,273.926
1532280492.284,25.391,30.273,46.387,63.477,217.773
1532280492.288,30.273,35.645,43.945,55.176,-175.781
1532280492.292,37.598,36.133,41.016,56.641,-212.402
1532280492.296,34.180,33.203,37.109,57.617,148.926
1532280492.300,29.785,32.715,39.062,57.617,254.883
1532280492.304,31.250,30.273,42.480,57.617,-110.352
1532280492.308,38.574,29.785,42.480,58.105,-277.344
1532280492.312,47.363,31.738,47.363,65.430,71.777
1532280492.315,47.363,29.785,49.805,65.430,302.246
1532280492.319,44.434,31.738,46.387,56.641,-0.488
1532280492.323,47.363,29.297,43.457,60.059,-287.109
1532280492.327,47.363,26.855,42.480,62.988,-60.547
1532280492.331,51.270,32.715,43.945,61.523,279.785
1532280492.335,52.734,34.180,42.969,53.711,142.090
1532280492.339,42.480,33.691,42.969,48.828,-209.473
1532280492.343,36.621,30.273,42.969,56.152,-125.488
1532280492.347,38.574,29.785,41.992,59.570,239.746
1532280492.351,33.203,30.762,43.457,55.664,198.242
1532280492.354,28.809,29.785,45.898,50.781,-186.523
1532280492.358,26.367,28.809,45.410,46.875,-222.168
1532280492.362,30.762,31.250,43.457,56.641,148.926
1532280492.366,30.762,30.762,45.898,59.570,271.973
1532280492.370,32.715,30.273,48.828,49.805,-66.895
1532280492.374,38.574,34.668,45.898,43.457,-232.422
1532280492.378,37.598,34.180,42.480,49.316,57.617
1532280492.382,39.062,31.738,43.945,51.758,310.059
1532280492.386,40.039,35.156,42.969,46.875,62.012
1532280492.390,40.527,34.668,42.480,49.805,-265.625
1532280492.394,39.551,33.691,45.410,52.246,-58.594
1532280492.397,34.180,32.227,47.852,51.270,299.316
1532280492.401,34.668,27.832,45.410,50.781,170.410
1532280492.405,34.668,29.297,40.039,42.969,-198.730
1532280492.409,31.250,31.250,38.086,46.875,-177.246
1532280492.413,32.227,29.785,40.527,56.152,198.730
1532280492.417,34.668,28.809,43.457,55.664,233.887
1532280492.421,32.227,29.297,42.480,53.223,-138.672
1532280492.425,31.250,30.762,41.016,50.293,-236.328
1532280492.429,35.645,30.273,40.039,52.734,113.770
1532280492.433,34.180,26.855,40.039,56.641,296.387
1532280492.437,33.691,28.320,38.086,57.129,-18.066
1532280492.440,35.156,32.227,40.527,59.082,-267.090
1532280492.444,40.039,32.715,42.480,68.359,-8.301
1532280492.448,46.387,31.250,41.992,65.430,255.371
1532280492.452,49.316,30.762,44.922,54.199,48.340
1532280492.456,48.340,30.273,46.387,58.105,-251.465
1532280492.460,42.480,26.855,41.504,64.453,-97.168
1532280492.464,43.457,28.809,40.527,64.941,270.508
1532280492.468,42.480,30.762,41.992,59.082,162.598
1532280492.472,43.945,28.809,45.898,53.223,-230.957
1532280492.476,47.363,30.762,41.016,45.410,-211.426
1532280492.479,36.133,27.832,35.156,47.363,189.941
1532280492.483,25.391,24.902,39.062,54.688,270.996
1532280492.487,24.902,26.367,41.504,53.223,-117.188
1532280492.491,26.855,24.414,39.062,54.199,-252.441
1532280492.495,29.785,25.879,40.039,64.941,104.492
1532280492.499,31.738,28.809,40.527,64.453,292.480
1532280492.503,34.180,28.320,34.180,60.547,3.906
1532280492.507,42.480,23.438,33.203,60.059,-268.066
1532280492.511,54.688,23.926,33.691,64.941,-51.758
1532280492.515,59.082,26.367,33.691,68.848,266.113
1532280492.519,60.059,29.297,35.645,65.918,101.562
1532280492.522,58.594,29.785,37.598,67.383,-250.000
1532280492.526,57.129,24.902,33.203,63.965,-151.855
1532280492.530,53.711,23.438,30.273,67.871,242.676
1532280492.534,42.969,23.926,31.738,61.523,228.516
1532280492.538,35.645,20.508,33.203,49.805,-158.203
1532280492.542,39.551,18.066,36.133,49.316,-190.430
1532280492.546,35.156,16.113,33.203,42.480,195.801
1532280492.550,22.949,12.695,27.344,38.086,284.668
1532280492.554,13.672,10.254,25.879,43.945,-61.035
1532280492.558,4.395,4.883,22.461,34.180,-235.840
1532280492.561,0.977,1.465,14.160,30.273,95.215
1532280492.565,6.348,3.906,10.254,32.715,319.336
1532280492.569,5.859,2.930,13.184,20.996,5.371
1532280492.573,4.883,0.977,11.230,16.602,-256.348
1532280492.577,2.930,-2.930,5.859,23.438,-40.527
1532280492.581,-0.977,-6.836,2.930,24.902,285.645
1532280492.585,-2.441,-6.348,1.953,21.484,146.484
1532280492.589,-1.465,-8.301,3.906,13.672,-217.773
1532280492.593,2.930,-11.719,2.930,19.043,-144.043
1532280492.597,3.906,-11.719,-0.488,29.297,262.695
1532280492.601,2.441,-10.254,0.488,31.250,259.766
1532280492.604,4.395,-8.789,0.488,28.320,-143.555
1532280492.608,9.766,-9.277,0.000,25.879,-210.449
1532280492.612,8.789,-10.254,-6.348,18.555,185.547
1532280492.616,4.395,-9.766,-8.789,18.555,329.590
1532280492.620,0.488,-10.742,-3.906,15.137,-34.180
1532280492.624,-5.859,-13.184,-5.371,9.766,-243.164
1532280492.628,-4.883,-14.648,-7.812,11.230,55.664
1532280492.632,2.441,-10.254,-9.277,9.277,336.914
1532280492.636,1.465,-7.324,-7.812,2.930,91.309
1532280492.640,-7.812,-10.254,-6.836,1.953,-232.910
1532280492.644,-13.184,-12.207,-10.742,13.184,-41.016
1532280492.647,-14.160,-9.766,-10.742,11.719,297.363
1532280492.651,-15.137,-11.719,-6.836,4.883,190.430
1532280492.655,-7.812,-16.113,-5.371,14.160,-159.180
1532280492.659,2.930,-13.672,-9.277,24.414,-121.094
1532280492.663,-3.906,-10.742,-11.719,23.438,274.902
1532280492.667,-12.695,-4.395,-8.301,18.555,289.551
1532280492.671,-11.230,-3.906,-7.812,9.766,-79.590
1532280492.675,-10.254,-7.324,-9.277,1.465,-147.461
1532280492.679,-7.324,-5.371,-8.301,2.441,182.617
1532280492.683,-1.465,2.930,-9.277,0.977,345.215
1532280492.686,-2.930,10.742,-11.719,-15.625,9.277
1532280492.690,-7.324,9.766,-9.766,-19.531,-237.793
1532280492.694,-6.348,7.324,-6.348,-6.836,59.082
1532280492.698,-5.371,3.418,-4.395,-1.465,338.379
1532280492.702,-1.465,1.465,-4.883,2.441,118.652
1532280492.706,4.883,6.836,-8.789,1.465,-217.773
1532280492.710,4.883,4.395,-11.230,4.883,-95.703
1532280492.714,4.395,-0.977,-6.836,16.113,291.992
1532280492.718,7.324,2.930,-4.883,19.531,223.633
1532280492.722,12.207,5.859,-6.836,12.695,-151.855
1532280492.726,16.113,1.465,-3.906,17.578,-174.805
1532280492.729,1.953,-3.906,0.977,23.926,188.965
1532280492.733,-2.930,-1.465,0.977,18.066,284.180
1532280492.737,4.395,1.465,-3.906,21.973,-97.168
1532280492.741,6.836,4.395,-8.301,17.578,-243.652
1532280492.745,5.859,4.395,-6.836,10.742,97.168
1532280492.749,5.371,4.883,-6.348,9.766,301.270
1532280492.753,11.719,9.766,-4.883,11.230,7.324
1532280492.757,14.160,9.277,-2.441,19.043,-240.234
1532280492.761,7.812,5.371,-6.836,18.555,-0.977
1532280492.765,10.742,3.906,-8.789,17.578,308.105
1532280492.769,10.254,5.859,-4.883,17.578,144.043
1532280492.772,4.883,7.812,-0.488,20.996,-223.145
1532280492.776,8.301,3.906,2.441,31.250,-150.879
1532280492.780,9.277,1.465,1.465,29.297,239.746
1532280492.784,5.859,3.418,-0.488,23.438,225.586
1532280492.788,6.836,6.836,0.488,18.555,-161.621
1532280492.792,5.859,8.789,3.906,17.090,-215.332
1532280492.796,4.883,10.254,3.418,23.438,177.734
1532280492.800,4.883,11.719,1.465,20.020,311.035
1532280492.804,5.859,13.672,-0.977,17.090,-24.414
1532280492.808,7.324,12.207,0.488,23.926,-242.676
1532280492.811,8.301,8.789,0.977,22.461,57.129
1532280492.815,9.277,8.789,2.441,23.438,328.613
1532280492.819,11.719,11.719,8.301,22.949,47.852
1532280492.823,14.160,11.230,8.789,17.578,-240.234
1532280492.827,15.137,11.230,1.953,11.719,-24.414
1532280492.831,11.230,12.207,0.488,14.648,280.762
1532280492.835,10.254,12.207,5.859,20.020,151.855
1532280492.839,7.324,13.672,9.277,17.090,-194.824
1532280492.843,-3.418,11.230,9.766,14.160,-159.180
1532280492.847,-5.371,7.812,12.695,6.836,200.684
1532280492.851,0.000,10.254,18.555,2.930,243.164
1532280492.854,0.488,14.648,18.555,3.418,-133.301
1532280492.858,0.488,13.184,16.602,12.207,-220.703
1532280492.862,0.977,13.672,18.066,16.602,147.461
1532280492.866,2.441,15.625,18.555,9.277,271.484
1532280492.870,7.812,15.625,20.996,3.906,-68.848
1532280492.874,9.277,15.625,23.438,14.160,-269.531
1532280492.878,7.324,12.695,26.855,22.949,57.129
1532280492.882,3.418,12.207,32.715,19.531,337.891
1532280492.886,-4.883,10.254,28.809,13.184,109.375
1532280492.890,-2.441,14.160,25.879,-0.977,-210.449
1532280492.894,0.000,19.531,29.785,10.254,-50.781
1532280492.897,-2.930,19.043,32.227,27.832,308.594
1532280492.901,-1.465,18.066,33.691,13.184,185.059
1532280492.905,-3.418,17.090,35.645,10.254,-209.961
1532280492.909,-4.395,16.113,35.156,29.297,-160.645
1532280492.913,2.930,19.043,31.738,11.230,239.746
1532280492.917,-7.324,19.043,34.180,-2.930,279.785
1532280492.921,-12.695,17.578,39.062,11.230,-85.938
1532280492.925,-4.883,16.113,37.109,3.418,-202.637
1532280492.929,-2.441,12.695,34.668,0.977,133.301
1532280492.933,-4.883,14.160,32.227,-3.418,311.523
1532280492.936,-5.371,16.113,29.297,-5.371,6.836
1532280492.940,-1.953,14.160,29.785,0.000,-225.586
1532280492.944,-4.883,12.207,29.297,-0.977,35.156
1532280492.948,-0.488,11.230,30.762,6.348,309.082
1532280492.952,4.883,12.207,27.832,-0.488,90.820
1532280492.956,7.324,15.137,24.902,2.930,-230.957
1532280492.960,3.418,9.766,24.414,11.719,-93.750
1532280492.964,2.930,5.859,22.949,13.672,261.719
1532280492.968,8.789,13.184,25.391,16.113,185.059
1532280492.972,16.602,18.555,20.508,3.906,-205.566
1532280492.976,15.625,12.207,17.090,0.000,-194.824
1532280492.979,14.648,6.836,17.090,-13.672,207.031
1532280492.983,21.973,12.207,12.695,-14.648,299.805
1532280492.987,21.484,16.113,10.254,-3.906,-71.289
1532280492.991,11.230,13.672,11.230,6.836,-221.680
1532280492.995,0.000,11.230,15.625,20.508,122.070
1532280492.999,-0.488,12.207,17.578,24.414,332.031
1532280493.003,3.418,10.742,19.043,28.320,35.156
1532280493.007,6.348,7.812,21.484,30.273,-254.395
1532280493.011,6.836,6.836,16.602,30.762,-19.531
1532280493.015,7.324,7.324,14.160,26.855,287.109
1532280493.018,12.207,7.812,17.578,35.645,107.910
1532280493.022,18.555,11.719,20.020,38.574,-215.820
1532280493.026,22.461,16.113,17.090,15.625,-135.254
1532280493.030,25.879,12.695,15.137,19.531,202.148
1532280493.034,25.879,10.742,21.484,40.527,205.078
1532280493.038,12.695,12.695,26.855,44.434,-150.391
1532280493.042,7.812,12.695,16.113,35.156,-207.520
1532280493.046,12.695,8.301,14.160,33.691,155.762
1532280493.050,14.648,11.719,16.113,27.832,271.973
1532280493.054,16.113,15.625,18.066,19.531,-80.566
1532280493.058,18.066,13.184,18.066,21.484,-265.137
1532280493.061,20.996,15.137,13.672,25.879,30.273
1532280493.065,19.531,15.625,14.160,23.438,281.738
1532280493.069,17.578,13.184,14.160,17.090,3.418
1532280493.073,15.625,15.137,16.113,19.043,-301.758
1532280493.077,20.020,13.672,16.113,30.762,-94.727
1532280493.081,24.902,7.812,14.648,30.273,242.676
1532280493.085,25.391,9.277,13.672,24.902,136.719
1532280493.089,24.902,11.230,15.137,35.645,-243.164
1532280493.093,15.625,5.859,18.555,38.574,-189.453
1532280493.097,19.531,5.371,19.531,42.969,182.617
1532280493.101,21.973,6.836,20.020,44.922,190.918
1532280493.104,13.672,6.836,17.578,40.527,-187.500
1532280493.108,15.137,10.742,18.555,45.410,-310.059
1532280493.112,16.113,9.277,18.555,39.062,59.570
1532280493.116,17.090,6.836,16.602,31.738,263.672
1532280493.120,17.578,9.766,19.043,29.785,-52.246
1532280493.124,15.137,12.207,19.043,31.738,-274.902
1532280493.128,16.113,12.695,21.484,37.109,5.371
1532280493.132,23.438,13.672,20.508,14.160,282.715
1532280493.136,26.367,14.160,16.113,10.742,62.988
1532280493.140,20.996,13.184,19.043,44.434,-273.438
1532280493.143,20.996,13.672,22.949,54.688,-99.121
1532280493.147,22.949,12.207,23.926,46.875,278.809
1532280493.151,25.879,14.648,20.996,52.246,172.363
1532280493.155,35.645,20.996,16.113,37.598,-224.121
1532280493.159,41.016,18.066,14.648,35.156,-192.871
1532280493.163,36.133,15.625,19.043,54.199,218.262
1532280493.167,30.273,19.043,20.508,48.828,243.652
1532280493.171,33.203,21.973,19.531,39.062,-166.504
1532280493.175,28.320,22.461,18.555,47.852,-246.094
1532280493.179,21.973,17.090,19.531,50.293,118.164
1532280493.183,27.344,15.137,24.414,46.387,279.785
1532280493.186,23.438,17.090,29.785,41.016,-13.672
1532280493.190,21.484,17.090,27.344,38.086,-250.977
1532280493.194,23.438,17.090,19.531,40.039,-15.625
1532280493.198,21.484,19.043,20.996,43.945,294.434
1532280493.202,17.090,20.996,23.438,45.898,125.000
1532280493.206,22.461,23.438,21.973,57.617,-260.742
1532280493.210,25.879,23.926,25.879,41.016,-149.902
1532280493.214,21.973,20.508,27.344,37.598,263.672
1532280493.218,26.367,20.996,22.949,31.738,229.980
1532280493.222,29.785,21.973,21.973,15.625,-138.672
1532280493.226,28.809,19.531,20.020,31.738,-177.734
1532280493.229,31.738,18.066,18.066,36.621,170.898
1532280493.233,26.855,17.090,21.484,38.086,278.320
1532280493.237,25.879,19.531,24.902,36.621,-61.523
1532280493.241,31.738,23.926,25.391,37.109,-226.562
1532280493.245,25.879,20.508,21.973,39.551,86.426
1532280493.249,25.391,20.508,21.484,42.969,299.316
1532280493.253,17.578,20.508,21.484,37.598,58.105
1532280493.257,10.254,22.461,22.949,44.434,-212.891
1532280493.261,16.113,23.438,24.902,44.434,7.812
1532280493.265,18.066,17.090,22.949,32.227,342.773
1532280493.268,13.184,15.625,23.438,30.762,139.648
1532280493.272,8.789,16.602,26.855,26.367,-225.586
1532280493.276,11.719,20.996,26.855,32.715,-108.398
1532280493.280,9.766,22.949,27.344,38.574,282.227
1532280493.284,1.953,17.578,29.785,38.086,265.625
1532280493.288,3.418,18.555,29.297,33.203,-126.465
1532280493.292,9.766,19.531,27.344,24.414,-183.594
1532280493.296,8.789,18.066,32.227,28.809,205.566
1532280493.300,3.418,19.043,33.203,37.598,324.219
1532280493.304,3.418,17.578,33.203,33.203,-4.883
1532280493.308,5.859,19.043,33.203,25.391,-189.453
1532280493.311,8.301,23.438,32.227,27.832,103.027
1532280493.315,6.836,17.578,32.715,33.691,364.746
1532280493.319,6.836,14.648,28.320,31.738,93.750
1532280493.323,11.230,20.020,25.879,21.973,-224.121
1532280493.327,6.836,19.043,34.180,29.785,-55.664
1532280493.331,-2.930,14.160,37.598,26.855,297.852
1532280493.335,-4.883,15.137,34.668,17.090,211.914
1532280493.339,1.465,15.137,35.156,17.578,-182.129
1532280493.343,2.930,17.090,33.203,14.648,-118.652
1532280493.347,4.395,23.438,30.273,14.648,273.438
1532280493.350,-4.395,21.484,25.879,9.766,251.465
1532280493.354,-9.277,18.066,26.367,-2.441,-114.258
1532280493.358,1.465,20.020,26.855,-13.672,-203.613
1532280493.362,3.906,22.461,31.738,12.207,145.020
1532280493.366,-5.859,20.020,33.203,24.414,299.805
1532280493.370,-11.230,20.020,28.320,21.484,-24.414
1532280493.374,-4.883,22.949,27.344,17.578,-250.977
1532280493.378,0.000,20.508,25.879,20.508,50.781
1532280493.382,1.953,19.043,22.461,25.879,346.191
1532280493.386,1.465,20.020,23.926,12.207,98.145
1532280493.390,2.441,20.020,28.320,4.395,-234.863
1532280493.393,8.789,20.020,22.461,13.672,-73.242
1532280493.397,6.836,21.973,18.555,21.973,287.109
1532280493.401,-1.953,20.020,20.508,18.066,194.824
1532280493.405,1.953,18.066,19.043,10.254,-180.664
1532280493.409,9.766,16.113,22.949,18.555,-192.383
1532280493.413,10.742,15.625,24.414,26.855,195.801
1532280493.417,3.906,15.137,21.973,30.273,267.578
1532280493.421,6.348,15.625,19.043,27.832,-105.469
1532280493.425,19.043,19.531,17.090,17.578,-234.375
1532280493.429,23.926,20.508,15.625,13.672,105.957
1532280493.433,18.066,19.043,16.602,22.949,301.758
1532280493.436,19.043,19.043,19.531,30.273,-6.836
1532280493.440,24.414,19.043,13.672,18.555,-261.230
1532280493.444,14.160,15.625,13.672,9.277,-13.184
1532280493.448,7.812,14.648,17.578,20.020,275.391
1532280493.452,16.602,15.137,17.578,32.227,78.613
1532280493.456,25.391,15.625,17.578,41.504,-253.418
1532280493.460,26.367,15.137,17.578,49.316,-105.957
1532280493.464,24.414,14.160,16.113,51.758,255.371
1532280493.468,28.320,12.695,15.625,48.828,195.312
1532280493.472,28.809,15.625,15.625,38.086,-175.781
1532280493.475,29.785,17.090,14.648,47.363,-208.008
1532280493.479,34.668,17.578,11.719,54.688,175.293
1532280493.483,35.645,19.531,15.137,41.016,268.066
1532280493.487,30.273,16.113,16.113,37.109,-110.352
1532280493.491,31.250,15.625,16.113,44.434,-266.602
1532280493.495,35.156,15.137,16.602,50.781,65.918
1532280493.499,31.250,16.113,17.090,54.688,291.504
1532280493.503,31.738,18.066,18.066,46.875,16.113
1532280493.507,34.668,18.555,14.648,36.133,-297.363
1532280493.511,33.691,22.949,15.137,40.527,-97.168
1532280493.515,31.738,22.461,17.578,47.852,272.461
1532280493.518,31.738,16.113,17.090,55.176,122.070
1532280493.522,33.203,14.160,13.184,55.664,-241.211
1532280493.526,31.738,16.113,18.555,51.270,-161.621
1532280493.530,26.367,20.996,20.508,53.711,184.082
1532280493.534,29.785,24.902,16.113,59.082,180.176
1532280493.538,32.715,25.391,13.184,52.734,-179.688
1532280493.542,35.156,24.902,7.324,50.293,-246.094
1532280493.546,32.715,25.879,5.371,49.316,115.723
1532280493.550,25.391,20.508,7.812,47.363,225.586
1532280493.554,28.809,19.043,13.672,55.176,-104.980
1532280493.558,27.832,24.414,10.254,55.176,-252.441
1532280493.561,18.066,20.996,0.977,43.457,30.273
1532280493.565,14.648,19.531,-0.488,20.020,255.859
1532280493.569,18.555,22.949,0.000,20.020,8.301
1532280493.573,23.926,26.855,-1.465,39.551,-290.527
1532280493.577,36.133,32.227,-1.465,54.199,-68.848
1532280493.581,36.133,32.715,-1.953,60.547,298.828
1532280493.585,26.367,31.738,-0.977,52.734,190.430
1532280493.589,26.367,31.250,5.371,48.828,-225.586
1532280493.593,33.691,29.785,6.348,56.641,-221.191
1532280493.597,35.645,27.832,0.000,58.105,187.988
1532280493.600,31.738,27.832,0.977,67.871,218.750
1532280493.604,24.414,27.344,6.836,65.918,-175.781
1532280493.608,23.926,27.832,7.324,54.688,-254.395
1532280493.612,34.180,27.832,7.812,62.500,112.305
1532280493.616,34.668,26.855,6.836,59.570,272.461
1532280493.620,34.180,25.879,2.441,54.199,-49.316
1532280493.624,34.180,25.879,2.441,50.781,-288.086
1532280493.628,32.715,29.785,6.836,53.223,-26.855
1532280493.632,37.109,26.855,7.324,52.246,244.629
1532280493.636,35.645,23.926,2.930,53.223,54.688
1532280493.640,32.715,29.297,-0.488,55.664,-250.000
1532280493.643,33.203,27.344,7.324,61.523,-106.934
1532280493.647,37.598,24.902,10.742,59.082,240.234
1532280493.651,37.109,23.926,9.277,62.012,152.832
1532280493.655,36.621,24.414,10.742,70.312,-203.125
1532280493.659,36.621,25.391,11.230,70.312,-185.059
1532280493.663,33.691,23.926,10.254,68.848,198.730
1532280493.667,29.785,24.414,10.742,60.547,265.625
1532280493.671,32.227,24.902,14.648,51.270,-125.488
1532280493.675,41.992,27.344,15.137,54.199,-222.656
1532280493.679,50.293,31.738,9.766,42.480,132.812
1532280493.682,50.293,28.809,8.301,37.109,329.590
1532280493.686,40.039,23.438,10.742,49.805,17.090
1532280493.690,34.180,24.902,10.742,50.293,-266.113
1532280493.694,29.785,24.414,12.207,52.246,-7.324
1532280493.698,23.438,22.461,15.625,56.152,312.988
1532280493.702,19.043,21.973,15.137,54.199,147.949
1532280493.706,13.672,24.414,15.625,54.199,-200.684
1532280493.710,11.719,24.902,14.648,50.293,-104.980
1532280493.714,20.020,24.902,17.090,47.852,271.973
1532280493.718,12.695,22.461,19.043,53.711,229.492
1532280493.722,7.812,20.996,18.066,50.781,-148.926
1532280493.725,15.137,22.461,19.531,47.852,-183.594
1532280493.729,16.602,22.461,21.484,49.316,173.828
1532280493.733,15.625,24.414,20.020,44.922,273.926
1532280493.737,18.555,25.391,17.578,41.992,-50.293
1532280493.741,20.020,22.949,20.508,37.109,-237.305
1532280493.745,17.090,19.531,21.484,43.457,75.684
1532280493.749,17.578,22.461,22.461,44.922,318.848
1532280493.753,16.113,24.414,24.414,31.250,40.039
1532280493.757,12.695,23.438,21.484,27.832,-229.980
1532280493.761,12.207,23.926,18.066,34.668,-23.926
1532280493.765,12.207,22.461,20.020,38.574,281.738
1532280493.768,8.301,23.926,25.879,34.180,127.930
1532280493.772,10.254,25.879,25.391,26.367,-223.633
1532280493.776,14.648,23.438,22.461,38.574,-136.230
1532280493.780,12.207,21.484,24.414,44.922,266.602
1532280493.784,16.113,21.973,26.855,33.203,251.465
1532280493.788,22.461,21.484,28.809,37.598,-149.902
1532280493.792,18.555,21.973,28.809,39.062,-216.797
1532280493.796,17.578,20.508,26.855,46.387,151.367
1532280493.800,18.066,19.531,29.785,53.711,294.922
1532280493.804,20.020,22.461,30.273,48.340,-45.898
1532280493.807,28.809,20.996,27.344,47.363,-251.465
1532280493.811,14.160,21.973,27.344,43.457,26.855
1532280493.815,8.301,17.090,31.250,50.293,327.637
1532280493.819,20.508,18.555,31.738,43.945,102.051
1532280493.823,16.113,24.902,28.809,32.227,-229.004
1532280493.827,26.855,27.344,27.832,34.668,-49.805
1532280493.831,29.297,27.832,27.832,35.645,303.223
1532280493.835,24.902,25.879,31.250,32.227,209.473
1532280493.839,23.438,24.414,31.738,27.344,-168.945
1532280493.843,26.367,25.391,32.227,30.762,-137.695
1532280493.847,28.320,26.367,32.715,32.227,230.469
1532280493.850,24.414,25.879,34.180,33.203,250.000
1532280493.854,20.020,25.879,35.645,41.016,-107.910
1532280493.858,19.531,22.461,35.156,39.551,-214.355
1532280493.862,21.973,19.531,35.645,48.340,139.648
1532280493.866,20.996,22.461,34.668,40.527,294.922
1532280493.870,35.156,26.855,34.180,17.090,-28.320
1532280493.874,30.273,25.391,33.203,23.926,-244.141
1532280493.878,20.020,22.949,29.785,24.414,37.109
1532280493.882,18.555,22.461,30.762,23.926,354.980
1532280493.886,20.020,22.949,33.691,24.414,129.883
1532280493.890,28.320,23.438,35.645,26.367,-234.863
1532280493.893,23.438,21.484,37.598,27.832,-88.867
1532280493.897,24.902,21.973,38.574,27.832,269.531
1532280493.901,33.691,23.926,35.645,29.785,204.102
1532280493.905,30.273,22.949,36.621,24.902,-163.574
1532280493.909,27.344,19.043,41.016,18.066,-198.242
1532280493.913,31.250,19.043,39.062,25.391,182.617
1532280493.917,32.227,22.461,39.062,31.250,273.438
1532280493.921,23.926,20.020,40.527,24.414,-110.352
1532280493.925,28.809,21.484,37.598,26.367,-265.137
1532280493.929,32.715,23.926,35.645,31.250,59.570
1532280493.932,18.555,20.508,39.062,37.598,282.227
1532280493.936,24.414,18.555,40.039,32.715,7.324
1532280493.940,17.578,21.484,40.039,27.344,-256.348
1532280493.944,15.625,22.461,39.062,34.668,-0.488
1532280493.948,15.137,24.414,38.086,29.785,302.246
1532280493.952,14.160,23.438,44.434,25.879,119.141
1532280493.956,16.602,21.973,48.340,27.344,-203.613
1532280493.960,8.789,19.531,45.410,26.367,-75.684
1532280493.964,12.695,22.461,43.945,28.809,288.086
1532280493.968,12.695,27.344,46.387,32.227,246.094
1532280493.972,0.977,23.926,51.758,21.973,-133.301
1532280493.975,6.836,23.438,52.734,16.602,-199.707
1532280493.979,13.184,25.391,50.781,19.043,186.523
1532280493.983,8.301,25.879,51.270,23.926,320.801
1532280493.987,2.441,25.879,51.270,20.020,-49.316
1532280493.991,-1.465,25.879,53.223,7.812,-265.137
1532280493.995,-3.418,28.809,53.223,16.113,64.453
1532280493.999,5.859,30.762,49.805,32.227,332.031
1532280494.003,5.859,28.809,50.781,27.832,83.008
1532280494.007,7.812,29.297,52.246,20.508,-234.375
1532280494.011,16.602,28.809,52.734,23.438,-78.613
1532280494.015,11.719,25.879,53.223,37.109,280.273
1532280494.018,11.230,24.414,53.223,35.645,172.852
1532280494.022,5.859,24.414,48.828,28.809,-212.402
1532280494.026,12.207,25.879,45.898,25.879,-166.016
1532280494.030,15.137,27.344,44.922,24.414,214.844
1532280494.034,13.184,28.809,42.969,25.879,250.000
1532280494.038,8.789,28.809,43.945,27.344,-101.562
1532280494.042,3.906,26.367,44.434,30.273,-207.031
1532280494.046,9.766,27.344,41.016,25.391,140.625
1532280494.050,11.230,29.785,40.039,22.949,282.715
1532280494.054,15.137,28.320,39.062,37.598,-55.664
1532280494.057,7.812,25.391,38.574,36.133,-238.770
1532280494.061,11.230,22.949,37.598,37.109,43.457
1532280494.065,17.090,20.020,41.992,44.434,311.523
1532280494.069,15.137,21.484,42.480,45.898,82.031
1532280494.073,24.902,22.949,40.039,48.828,-217.285
1532280494.077,23.926,21.484,38.574,48.828,-50.781
1532280494.081,22.461,22.949,37.109,47.363,256.836
1532280494.085,21.973,26.367,39.551,42.480,153.809
1532280494.089,12.207,24.902,42.969,31.250,-231.934
1532280494.093,7.812,19.531,42.480,31.738,-197.266
1532280494.097,20.020,23.926,36.621,45.410,224.609
1532280494.100,27.832,28.809,34.668,40.527,281.738
1532280494.104,25.879,25.879,38.574,39.551,-105.957
1532280494.108,28.809,26.367,39.551,44.922,-233.398
1532280494.112,34.180,27.832,35.645,48.828,127.441
1532280494.116,28.320,25.391,38.574,44.922,290.527
1532280494.120,26.367,21.484,43.457,43.457,-14.648
1532280494.124,37.598,21.973,41.504,50.293,-229.004
1532280494.128,43.945,25.391,40.039,60.059,38.574
1532280494.132,37.598,21.484,42.969,64.941,314.453
1532280494.136,19.043,21.973,41.504,50.293,116.699
1532280494.139,14.648,23.438,40.039,45.898,-214.844
1532280494.143,20.020,20.996,41.016,46.875,-100.586
1532280494.147,23.926,22.949,38.086,41.504,237.793
1532280494.151,23.438,22.949,39.551,42.480,182.129
1532280494.155,22.461,20.996,41.504,49.805,-185.059
1532280494.159,24.414,21.973,38.086,46.875,-210.449
1532280494.163,30.762,25.391,39.062,53.223,190.430
1532280494.167,36.133,28.320,39.551,52.246,272.461
1532280494.171,32.715,26.855,37.109,44.922,-88.867
1532280494.175,25.879,25.391,38.086,51.758,-251.465
1532280494.179,32.227,25.879,38.086,50.293,47.852
1532280494.182,24.902,24.902,38.574,50.293,265.137
1532280494.186,16.113,26.367,39.551,42.969,-15.137
1532280494.190,21.973,27.832,40.527,39.551,-309.570
1532280494.194,31.250,29.785,37.109,43.457,-63.477
1532280494.198,29.785,28.809,36.133,47.852,278.809
1532280494.202,30.273,26.855,36.621,49.316,128.906
1532280494.206,38.086,28.320,37.109,49.316,-243.164
1532280494.210,32.227,26.367,35.156,51.270,-163.086
1532280494.214,31.250,26.367,30.762,55.176,207.031
1532280494.218,22.949,26.367,32.715,48.340,208.496
1532280494.222,32.227,27.832,30.762,40.039,-166.992
1532280494.225,40.527,29.297,26.855,44.922,-249.512
1532280494.229,32.715,27.832,24.902,40.039,105.469
1532280494.233,28.320,26.855,24.902,36.621,229.004
1532280494.237,22.949,28.320,25.879,38.574,-79.590
1532280494.241,23.438,28.809,28.320,41.504,-259.277
1532280494.245,26.367,25.879,29.297,55.176,40.039
1532280494.249,20.508,23.926,27.344,52.734,312.012
1532280494.253,23.926,24.414,24.902,41.504,52.246
1532280494.257,42.480,25.879,22.949,51.758,-279.785
1532280494.261,40.039,28.809,27.344,63.965,-70.801
1532280494.264,38.574,29.785,27.344,60.059,264.648
1532280494.268,29.785,26.855,24.902,57.129,144.531
1532280494.272,21.973,27.832,22.461,55.664,-206.055
1532280494.276,25.391,25.879,19.531,46.387,-140.137
1532280494.280,18.066,20.996,15.625,43.457,239.258
1532280494.284,32.227,21.973,14.160,61.035,262.695
1532280494.288,41.016,20.508,16.113,59.082,-143.555
1532280494.292,24.414,23.438,13.672,42.969,-253.418
1532280494.296,18.555,25.879,13.184,50.293,137.695
1532280494.300,15.137,24.902,12.695,54.688,333.984
1532280494.304,23.438,25.879,14.160,41.992,13.672
1532280494.307,21.484,27.832,13.672,29.785,-236.328
1532280494.311,33.203,27.832,11.719,38.574,59.570
1532280494.315,20.996,23.438,14.160,38.574,330.566
1532280494.319,17.090,18.555,14.160,39.062,100.586
1532280494.323,41.016,18.066,17.578,55.176,-222.656
1532280494.327,37.109,19.531,17.578,44.922,-84.473
1532280494.331,43.945,20.508,12.207,33.691,261.719
1532280494.335,41.504,20.996,16.113,55.664,185.547
1532280494.339,35.156,19.531,18.555,58.594,-168.945
1532280494.343,48.828,19.043,13.672,52.246,-160.645
1532280494.347,37.598,18.555,14.160,52.246,189.453
1532280494.350,13.184,18.555,15.137,52.734,242.188
1532280494.354,5.371,19.531,12.695,41.992,-104.492
1532280494.358,-16.113,20.508,10.742,26.855,-229.980
1532280494.362,-40.039,14.648,7.324,11.719,126.465
1532280494.366,-20.020,12.695,12.207,18.555,301.758
1532280494.370,29.297,24.902,13.672,28.809,-32.227
1532280494.374,9.277,20.020,13.184,15.625,-264.648
1532280494.378,27.832,16.113,18.066,58.594,-3.906
1532280494.382,64.941,22.949,16.602,88.867,305.664
1532280494.386,53.711,21.484,18.555,78.125,109.863
1532280494.389,31.250,20.508,18.066,79.590,-251.953
1532280494.393,4.395,17.090,16.602,65.430,-116.211
1532280494.397,-2.441,15.137,15.137,52.246,262.207
1532280494.401,-9.277,16.113,12.695,56.641,226.074
1532280494.405,-27.344,14.160,10.254,44.434,-167.969
1532280494.409,-10.742,15.137,10.742,40.527,-206.543
1532280494.413,22.461,18.555,14.648,64.453,184.570
1532280494.417,1.465,18.555,14.648,61.523,278.320
1532280494.421,-4.883,17.090,11.230,47.363,-69.336
1532280494.425,15.137,17.090,8.789,54.688,-225.098
1532280494.429,7.812,12.207,10.742,48.340,80.566
1532280494.432,9.277,14.160,7.324,34.180,319.824
1532280494.436,22.949,16.113,7.324,55.176,45.410
1532280494.440,16.602,14.648,10.254,44.434,-246.094
1532280494.444,26.855,21.484,4.883,28.809,8.789
1532280494.448,16.113,20.508,5.859,54.199,326.660
1532280494.452,20.020,20.020,8.301,61.523,151.855
1532280494.456,44.434,15.625,11.230,63.477,-205.566
1532280494.460,41.016,18.066,10.254,72.754,-107.422
1532280494.464,41.504,21.484,9.277,79.590,305.664
1532280494.468,26.855,23.926,8.789,62.988,255.371
1532280494.471,14.648,22.949,9.766,48.340,-160.645
1532280494.475,-0.977,19.043,9.766,46.387,-203.125
1532280494.479,-3.418,22.461,5.859,41.992,178.711
1532280494.483,11.719,20.020,11.719,54.199,315.430
1532280494.487,13.184,20.508,17.578,56.152,-53.223
1532280494.491,10.742,23.438,14.160,56.152,-252.930
1532280494.495,48.828,28.809,9.766,60.547,62.012
1532280494.499,51.270,32.227,12.207,53.711,322.266
1532280494.503,28.320,27.344,18.066,56.641,63.477
1532280494.507,24.414,29.297,13.672,64.453,-248.047
1532280494.511,-11.230,16.602,15.137,52.246,-71.289
1532280494.514,5.371,17.090,16.602,44.434,280.273
1532280494.518,42.969,32.715,16.113,62.500,174.805
1532280494.522,23.438,27.344,20.020,72.754,-207.031
1532280494.526,21.973,27.832,18.066,61.523,-156.738
1532280494.530,32.715,32.715,16.113,59.082,227.539
1532280494.534,34.668,26.367,20.996,54.688,240.723
1532280494.538,18.066,23.438,20.996,37.109,-118.164
1532280494.542,12.695,23.926,17.090,43.457,-192.383
1532280494.546,24.414,21.484,25.391,64.941,155.762
1532280494.550,7.324,18.066,26.367,46.387,312.988
1532280494.554,16.602,20.020,20.020,41.992,-23.438
1532280494.557,21.484,22.949,22.949,48.340,-253.906
1532280494.561,29.785,19.531,23.926,62.012,25.391
1532280494.565,42.969,21.973,20.996,84.473,306.152
1532280494.569,43.457,22.949,23.438,68.848,57.617
1532280494.573,39.551,23.926,23.926,54.199,-265.625
1532280494.577,40.527,21.973,24.414,69.824,-70.801
1532280494.581,34.668,22.461,24.414,66.406,308.594
1532280494.585,30.273,24.902,20.996,58.105,191.895
1532280494.589,20.020,24.902,20.508,43.945,-183.105
1532280494.593,14.160,22.461,23.438,36.621,-137.207
1532280494.596,18.066,23.438,20.508,44.922,233.887
1532280494.600,23.438,24.414,20.996,59.570,296.875
1532280494.604,25.391,23.926,23.926,65.430,-61.035
1532280494.608,19.531,25.391,22.949,42.969,-245.117
1532280494.612,38.086,24.414,23.926,53.711,93.262
1532280494.616,51.270,25.391,24.902,71.777,313.965
1532280494.620,33.203,25.391,20.996,44.922,-6.836
1532280494.624,26.367,22.461,19.043,44.922,-266.602
1532280494.628,8.789,20.996,19.531,47.852,-12.695
1532280494.632,9.277,20.508,18.555,21.484,304.199
1532280494.636,38.574,26.855,20.508,41.992,112.305
1532280494.639,28.320,26.855,23.926,67.383,-233.398
1532280494.643,25.391,21.973,27.344,63.477,-78.613
1532280494.647,30.273,23.438,26.855,58.105,279.785
1532280494.651,29.785,23.438,24.414,52.734,213.379
1532280494.655,31.738,21.484,25.879,57.617,-160.156
1532280494.659,28.809,21.484,26.367,61.523,-214.355
1532280494.663,25.391,21.484,20.020,51.758,181.152
1532280494.667,30.273,21.973,20.020,50.781,296.387
1532280494.671,36.621,20.996,20.508,49.805,-49.805
1532280494.675,37.598,19.531,20.996,44.922,-227.539
1532280494.679,36.133,20.020,24.902,63.965,65.430
1532280494.682,31.250,20.508,23.438,70.312,318.848
1532280494.686,26.855,19.043,28.809,49.805,30.762
1532280494.690,27.832,22.461,30.273,42.969,-283.203
1532280494.694,18.555,25.391,25.879,47.363,-38.086
1532280494.698,24.414,22.949,26.367,52.246,312.012
1532280494.702,40.527,23.926,30.762,59.570,155.762
1532280494.706,32.715,23.438,39.062,62.988,-219.727
1532280494.710,26.855,21.973,36.621,51.758,-154.785
1532280494.714,29.785,22.949,39.062,54.199,257.812
1532280494.718,33.203,23.926,39.062,46.387,283.691
1532280494.721,22.461,26.367,35.645,48.828,-121.094
1532280494.725,35.645,26.367,38.574,64.453,-212.891
1532280494.729,33.203,24.414,39.551,53.711,169.922
1532280494.733,25.391,24.414,38.086,47.852,321.289
1532280494.737,49.316,27.344,32.227,54.199,-37.109
1532280494.741,29.785,24.902,35.156,48.828,-279.297
1532280494.745,32.227,26.367,30.762,64.453,49.316
1532280494.749,37.109,24.902,37.109,56.152,312.012
1532280494.753,39.062,25.391,40.039,49.316,45.410
1532280494.757,33.691,28.320,34.180,53.223,-223.145
1532280494.761,23.926,30.273,30.273,53.223,-24.414
1532280494.764,21.484,23.438,35.156,58.105,322.266
1532280494.768,22.949,20.020,40.527,54.688,178.711
1532280494.772,41.992,29.297,28.320,55.664,-213.867
1532280494.776,50.781,27.832,28.809,61.035,-163.574
1532280494.780,43.945,24.902,32.715,71.777,250.977
1532280494.784,23.438,24.414,32.227,50.781,281.250
1532280494.788,29.785,26.855,31.738,36.133,-115.234
1532280494.792,46.875,23.926,34.180,66.406,-246.094
1532280494.796,48.828,22.461,32.227,80.566,102.539
1532280494.800,35.645,23.438,29.785,65.430,316.406
1532280494.804,27.344,18.555,33.691,52.734,-14.160
1532280494.807,34.180,20.996,33.691,47.363,-298.828
1532280494.811,43.457,26.367,31.738,57.617,-13.672
1532280494.815,38.086,23.926,31.738,62.988,325.195
1532280494.819,23.926,21.484,33.691,58.105,88.867
1532280494.823,23.438,22.949,36.133,51.758,-272.949
1532280494.827,29.785,25.879,26.367,55.176,-89.844
1532280494.831,28.809,20.508,21.973,49.316,297.363
1532280494.835,23.438,18.066,35.156,52.246,172.852
1532280494.839,36.621,22.949,33.691,69.336,-207.031
1532280494.843,36.133,22.461,28.809,61.035,-174.316
1532280494.846,15.625,19.043,32.227,66.895,165.039
1532280494.850,32.715,23.438,29.785,64.453,229.004
1532280494.854,37.109,30.762,31.738,45.410,-95.703
1532280494.858,20.508,27.344,25.391,45.410,-241.699
1532280494.862,34.180,28.809,23.438,71.777,124.023
1532280494.866,19.531,20.996,35.156,58.105,314.941
1532280494.870,10.742,23.926,31.738,44.922,-2.930
1532280494.874,31.250,39.062,13.672,53.223,-270.020
1532280494.878,31.738,29.785,14.160,43.457,-20.020
1532280494.882,28.320,23.926,29.785,49.805,302.246
1532280494.886,32.227,27.344,32.227,70.312,104.980
1532280494.889,31.738,26.367,27.344,53.711,-265.137
1532280494.893,26.855,28.320,22.461,47.852,-144.531
1532280494.897,30.273,30.273,26.367,68.848,255.371
1532280494.901,28.320,30.273,29.297,60.059,218.262
1532280494.905,36.133,32.715,28.320,46.875,-197.754
1532280494.909,23.438,39.062,20.996,40.039,-233.398
1532280494.913,21.484,36.621,27.832,57.617,139.648
1532280494.917,30.273,28.809,50.293,63.965,248.535
1532280494.921,24.902,28.320,43.457,47.363,-55.176
1532280494.925,35.156,37.109,29.297,54.199,-220.703
1532280494.928,28.320,28.809,39.551,63.477,46.875
1532280494.932,56.641,31.738,32.227,61.523,273.926
1532280494.936,53.223,46.387,29.297,51.270,43.945
1532280494.940,20.020,44.922,30.762,64.453,-276.855
1532280494.944,45.410,40.527,32.227,71.777,-82.520
1532280494.948,57.129,34.668,34.668,61.523,275.879
1532280494.952,24.414,36.621,38.086,53.223,135.254
1532280494.956,30.762,41.504,30.762,69.336,-238.770
1532280494.960,53.711,38.574,25.879,65.918,-146.484
1532280494.964,42.969,32.227,39.062,68.359,243.164
1532280494.968,24.902,38.574,30.762,52.246,230.957
1532280494.971,21.973,34.668,27.344,42.480,-141.602
1532280494.975,36.133,30.273,37.109,73.242,-234.375
1532280494.979,35.645,35.645,35.156,57.129,135.254
1532280494.983,-1.953,31.738,38.086,41.504,291.992
1532280494.987,9.766,29.297,43.945,51.758,-63.965
1532280494.991,62.012,35.156,39.551,58.594,-294.922
1532280494.995,52.246,38.574,40.527,62.988,23.926
1532280494.999,36.621,34.180,44.434,64.453,321.777
1532280495.003,41.992,30.762,39.062,65.430,75.195
1532280495.007,45.898,33.691,41.992,49.805,-253.418
1532280495.011,32.227,36.621,35.645,43.945,-66.406
1532280495.014,41.016,34.180,30.273,59.082,295.410
1532280495.018,61.523,27.344,41.504,76.172,180.176
1532280495.022,37.598,24.414,39.062,63.477,-207.031
1532280495.026,33.203,23.926,37.109,52.246,-188.965
1532280495.030,38.086,25.879,34.668,62.012,207.031
1532280495.034,37.598,25.391,32.227,65.430,269.043
1532280495.038,33.691,21.484,38.574,59.082,-105.957
1532280495.042,30.273,25.879,37.598,58.105,-215.820
1532280495.046,36.621,26.367,34.668,54.688,128.418
1532280495.050,38.574,23.926,33.203,42.969,295.898
1532280495.053,38.574,23.926,34.668,51.758,5.371
1532280495.057,34.668,25.879,33.691,51.758,-212.402
1532280495.061,34.668,28.320,34.180,60.059,38.086
1532280495.065,40.527,23.438,37.109,66.895,334.473
1532280495.069,34.668,21.973,37.598,49.805,113.281
1532280495.073,26.367,26.367,33.203,39.551,-266.602
1532280495.077,17.578,23.926,30.762,37.598,-111.816
1532280495.081,29.297,23.926,29.297,32.715,274.902
1532280495.085,35.156,25.391,28.809,24.414,186.523
1532280495.089,29.785,21.484,28.809,30.762,-204.590
1532280495.093,46.875,23.438,30.762,60.059,-190.430
1532280495.096,52.734,21.484,32.715,76.172,213.379
1532280495.100,54.688,20.020,31.738,61.035,283.203
1532280495.104,53.223,22.949,28.809,41.016,-82.520
1532280495.108,25.391,13.672,31.738,55.664,-264.160
1532280495.112,23.926,10.742,36.621,70.801,66.406
1532280495.116,41.992,21.973,35.645,61.035,310.059
1532280495.120,26.855,20.996,30.762,42.480,12.207
1532280495.124,32.227,20.020,25.391,56.152,-255.371
1532280495.128,49.316,20.020,33.691,96.191,-14.648
1532280495.132,38.086,19.043,35.645,76.660,308.594
1532280495.136,32.227,20.020,37.598,67.871,144.043
1532280495.139,34.668,19.043,38.086,71.289,-194.336
1532280495.143,44.434,20.508,35.156,75.684,-101.562
1532280495.147,46.875,21.484,36.621,84.961,273.926
1532280495.151,45.898,18.066,36.621,75.195,272.949
1532280495.155,44.434,17.090,36.133,71.289,-137.695
1532280495.159,51.270,19.043,36.133,76.660,-218.750
1532280495.163,44.922,19.531,36.133,77.148,152.832
1532280495.167,43.457,18.066,36.133,77.637,285.645
1532280495.171,58.105,21.484,36.133,71.777,-84.961
1532280495.175,51.270,21.973,38.086,68.359,-264.648
1532280495.178,44.922,19.043,38.574,72.754,75.684
1532280495.182,50.781,20.996,38.574,69.824,334.473
1532280495.186,43.945,23.438,39.062,75.684,56.152
1532280495.190,41.504,22.949,40.039,79.590,-266.602
1532280495.194,52.734,24.414,38.574,80.078,-32.715
1532280495.198,36.621,26.855,38.086,73.242,318.359
1532280495.202,29.785,26.367,35.156,58.105,163.574
1532280495.206,43.945,23.438,34.668,59.082,-231.445
1532280495.210,53.711,24.414,36.133,67.383,-175.293
1532280495.214,49.805,20.020,37.598,70.801,227.539
1532280495.218,41.992,20.996,35.645,80.078,250.488
1532280495.221,47.852,25.391,34.668,80.078,-127.930
1532280495.225,50.293,20.508,36.621,77.637,-226.074
1532280495.229,56.641,21.484,34.668,66.406,106.445
1532280495.233,47.852,25.391,36.133,73.730,275.391
1532280495.237,38.574,26.855,36.621,64.941,-14.648
1532280495.241,46.387,28.320,29.297,46.387,-226.074
1532280495.245,54.199,27.344,31.250,76.660,52.734
1532280495.249,53.223,26.855,37.598,87.891,343.262
1532280495.253,58.594,26.855,35.645,80.566,107.910
1532280495.257,46.875,27.344,32.227,64.941,-229.980
1532280495.260,34.668,24.902,33.203,51.758,-63.477
1532280495.264,44.434,25.391,29.297,62.012,323.242
1532280495.268,41.992,25.879,25.391,56.152,210.449
1532280495.272,49.316,24.414,29.785,63.477,-199.219
1532280495.276,46.387,26.855,33.691,86.426,-178.711
1532280495.280,47.363,26.367,30.273,80.078,183.105
1532280495.284,61.523,26.367,30.273,70.312,246.094
1532280495.288,44.434,24.414,35.156,67.871,-100.586
1532280495.292,43.945,24.414,30.273,64.941,-235.840
1532280495.296,43.457,24.902,27.832,67.871,127.930
1532280495.300,40.527,27.344,30.762,66.895,332.520
1532280495.303,43.457,28.320,29.297,55.176,0.000
1532280495.307,43.457,27.832,29.297,43.457,-282.227
1532280495.311,41.016,28.320,26.855,51.270,-43.945
1532280495.315,27.344,25.879,25.879,53.711,302.734
1532280495.319,12.207,24.902,28.320,48.828,116.211
1532280495.323,22.461,29.297,29.297,54.688,-231.445
1532280495.327,49.316,30.762,29.785,53.711,-108.398
1532280495.331,33.203,26.367,29.297,45.410,263.184
1532280495.335,14.160,21.973,28.809,48.340,220.215
1532280495.339,27.832,22.461,29.785,53.711,-184.082
1532280495.343,41.504,29.785,30.762,44.922,-212.402
1532280495.346,38.574,28.320,33.691,46.387,175.781
1532280495.350,36.133,25.879,33.203,61.523,264.648
1532280495.354,33.691,30.273,31.738,58.594,-73.730
1532280495.358,26.367,30.273,31.250,58.105,-230.957
1532280495.362,25.879,28.320,32.227,60.059,111.328
1532280495.366,39.062,32.227,35.645,49.805,331.543
1532280495.370,43.457,34.180,37.598,47.852,10.254
1532280495.374,35.156,35.156,36.621,46.387,-250.977
1532280495.378,29.785,32.715,38.086,44.434,-18.066
1532280495.382,28.809,29.785,39.551,47.852,312.012
1532280495.385,35.156,33.203,37.109,53.711,139.648
1532280495.389,42.969,34.668,38.086,50.293,-231.445
1532280495.393,26.367,29.785,38.574,54.199,-131.836
1532280495.397,27.832,28.809,37.598,49.805,242.676
1532280495.401,37.598,30.273,37.598,47.852,226.074
1532280495.405,28.320,27.344,40.039,53.711,-145.508
1532280495.409,34.668,29.297,42.480,43.457,-221.680
1532280495.413,30.273,30.273,40.039,45.410,129.883
1532280495.417,30.762,28.809,37.598,51.270,293.457
1532280495.421,32.715,31.250,37.109,46.875,-10.742
1532280495.425,34.180,32.227,40.039,54.199,-233.398
1532280495.428,38.086,31.738,41.992,66.895,43.945
1532280495.432,29.297,34.180,39.551,56.152,317.383
1532280495.436,20.020,33.203,38.086,41.992,54.688
1532280495.440,30.762,33.691,38.086,53.711,-251.465
1532280495.444,43.945,39.062,37.109,48.828,-53.223
1532280495.448,40.039,40.039,39.551,38.086,294.922
1532280495.452,33.203,41.016,41.504,50.293,183.105
1532280495.456,34.180,41.016,41.504,48.828,-186.035
1532280495.460,38.086,40.527,40.527,48.340,-142.578
1532280495.464,40.039,40.039,40.039,53.223,237.305
1532280495.468,34.668,40.527,41.504,44.434,247.070
1532280495.471,28.809,40.039,41.992,42.969,-129.395
1532280495.475,33.691,38.574,41.016,57.129,-219.727
1532280495.479,38.086,38.086,41.016,61.523,142.578
1532280495.483,41.992,37.598,42.480,55.176,313.477
1532280495.487,37.598,38.574,42.969,51.758,-9.277
1532280495.491,27.344,34.180,41.016,49.316,-234.863
1532280495.495,29.785,32.715,39.551,47.363,28.809
1532280495.499,36.621,36.621,38.086,43.457,311.035
1532280495.503,32.227,35.156,39.551,42.969,123.047
1532280495.507,31.738,31.738,41.504,45.898,-224.609
1532280495.510,35.645,32.715,36.621,42.969,-78.125
1532280495.514,36.621,38.574,32.715,40.039,287.598
1532280495.518,26.367,40.039,35.156,36.621,194.336
1532280495.522,19.043,41.504,31.738,27.344,-175.293
1532280495.526,19.531,44.922,27.832,14.648,-187.988
1532280495.530,26.367,47.363,26.855,13.184,202.637
1532280495.534,32.715,48.828,29.785,24.902,263.672
1532280495.538,24.414,52.734,31.250,21.484,-117.676
1532280495.542,22.949,54.199,24.414,11.719,-227.539
1532280495.546,13.672,52.246,21.973,12.207,116.211
1532280495.550,3.418,51.758,20.996,3.418,299.805
1532280495.553,11.719,56.152,18.555,-1.465,2.441
1532280495.557,10.254,59.082,16.602,-1.465,-227.539
1532280495.561,4.883,56.641,15.137,-0.977,30.273
1532280495.565,5.371,53.223,15.625,3.906,321.777
1532280495.569,9.277,52.734,16.113,5.859,99.609
1532280495.573,18.066,50.781,16.113,4.883,-250.000
1532280495.577,22.461,47.363,15.625,0.977,-103.516
1532280495.581,12.207,43.945,15.137,2.930,250.977
1532280495.585,16.113,47.852,11.230,5.371,202.637
1532280495.589,23.926,49.316,11.230,2.441,-196.777
1532280495.593,23.926,46.875,13.184,3.418,-231.445
1532280495.596,27.344,48.340,8.789,1.465,171.875
1532280495.600,28.809,51.270,8.301,2.930,272.461
1532280495.604,27.832,49.316,8.789,9.277,-100.586
1532280495.608,21.973,41.504,10.254,7.324,-277.344
1532280495.612,24.414,40.039,14.160,9.277,67.383
1532280495.616,30.762,40.039,13.672,17.090,297.363
1532280495.620,27.344,37.109,16.113,21.973,36.133
1532280495.624,29.297,35.645,17.578,25.879,-256.348
1532280495.628,37.109,35.645,14.648,34.180,-68.359
1532280495.632,38.086,37.598,14.648,41.016,264.648
1532280495.635,32.715,37.109,17.090,39.551,117.188
1532280495.639,39.551,37.109,14.160,36.621,-228.027
1532280495.643,38.086,35.156,12.695,42.480,-125.488
1532280495.647,35.645,33.203,14.160,40.039,228.027
1532280495.651,38.574,35.645,14.648,31.250,219.727
1532280495.655,38.086,36.133,17.090,36.621,-130.859
1532280495.659,47.852,35.156,17.578,42.480,-215.820
1532280495.663,51.758,34.180,19.043,41.504,142.090
1532280495.667,41.504,32.227,16.113,31.250,297.852
1532280495.671,37.109,34.668,14.160,22.949,-38.086
1532280495.675,35.156,36.133,18.066,21.484,-249.512
1532280495.678,35.156,35.156,16.113,16.602,42.480
1532280495.682,26.367,33.203,15.137,16.113,307.129
1532280495.686,24.902,33.691,17.090,10.742,69.824
1532280495.690,30.762,32.715,17.578,4.395,-251.953
1532280495.694,27.344,30.273,16.602,9.766,-38.574
1532280495.698,25.879,29.785,19.043,14.648,317.383
1532280495.702,27.832,28.809,24.414,24.414,177.734
1532280495.706,29.297,29.297,23.926,26.367,-203.613
1532280495.710,30.273,31.250,23.926,29.785,-148.438
1532280495.714,34.180,29.785,24.414,41.016,231.445
1532280495.717,31.738,25.879,22.461,41.992,244.141
1532280495.721,29.785,25.391,20.020,41.016,-128.906
1532280495.725,31.250,25.879,20.508,42.969,-249.512
1532280495.729,35.156,28.809,23.438,48.828,78.125
1532280495.733,36.133,29.297,22.949,44.434,289.062
1532280495.737,28.320,27.344,22.949,33.691,30.273
1532280495.741,28.320,26.855,26.367,36.133,-214.844
1532280495.745,36.621,25.879,24.902,39.551,52.246
1532280495.749,41.504,27.344,24.902,36.133,342.773
1532280495.753,34.180,28.320,25.391,33.691,95.215
1532280495.757,30.273,28.809,24.902,27.344,-239.746
1532280495.760,35.156,27.344,27.832,30.273,-63.477
1532280495.764,32.715,25.391,25.879,33.203,294.434
1532280495.768,29.785,25.879,24.414,22.949,214.844
1532280495.772,31.738,24.414,25.391,23.926,-179.688
1532280495.776,31.738,25.391,23.926,31.250,-200.195
1532280495.780,35.645,28.320,23.438,35.645,199.707
1532280495.784,41.016,26.855,23.438,39.551,289.551
1532280495.788,40.527,28.320,22.461,34.668,-83.984
1532280495.792,34.668,28.320,22.949,34.180,-235.840
1532280495.796,36.621,23.926,20.996,42.969,117.188
1532280495.800,41.992,23.438,22.461,43.945,315.430
1532280495.803,41.504,25.879,26.367,40.039,11.719
1532280495.807,45.898,26.855,27.344,37.109,-234.375
1532280495.811,53.223,26.367,28.320,42.480,-5.859
1532280495.815,50.781,27.832,26.855,44.434,301.758
1532280495.819,48.340,29.297,26.855,43.945,130.859
1532280495.823,47.852,30.762,28.809,44.434,-202.148
1532280495.827,41.016,31.250,29.297,44.922,-97.656
1532280495.831,36.133,28.320,31.738,44.434,215.332
1532280495.835,36.621,27.344,35.645,50.781,199.707
1532280495.839,34.180,27.832,35.156,53.223,-123.535
1532280495.842,34.668,28.809,32.715,48.828,-179.688
1532280495.846,40.039,29.785,31.738,52.246,175.293
1532280495.850,39.062,29.785,35.156,56.641,295.898
1532280495.854,36.133,29.297,38.086,55.664,-32.715
1532280495.858,37.109,29.785,37.598,53.711,-206.543
1532280495.862,42.480,29.297,37.109,57.129,110.840
1532280495.866,46.387,26.855,37.109,56.152,336.426
1532280495.870,44.434,26.855,37.598,44.922,30.762
1532280495.874,41.504,29.785,35.645,47.363,-266.602
1532280495.878,45.410,30.273,34.180,56.641,-37.598
1532280495.882,52.246,26.855,36.133,55.664,277.832
1532280495.885,49.316,27.344,37.109,55.176,143.555
1532280495.889,43.945,28.320,35.645,53.223,-194.824
1532280495.893,44.922,29.297,35.645,53.223,-119.629
1532280495.897,46.387,29.785,35.645,54.199,264.648
1532280495.901,42.480,28.809,36.133,52.246,249.023
1532280495.905,40.039,29.297,38.086,47.363,-131.348
1532280495.909,43.457,27.832,39.551,51.270,-214.355
1532280495.913,44.434,27.344,41.016,61.035,136.719
1532280495.917,45.898,29.785,41.992,61.035,289.062
1532280495.921,43.945,30.273,40.039,55.664,-50.293
1532280495.925,46.387,28.320,36.621,56.641,-250.000
1532280495.928,48.340,27.344,38.086,62.988,34.668
1532280495.932,46.875,27.832,40.039,64.453,312.012
1532280495.936,49.316,27.832,40.039,67.871,98.145
1532280495.940,50.781,28.320,38.086,66.895,-231.934
1532280495.944,52.734,29.785,35.156,67.383,-62.500
1532280495.948,52.734,30.273,34.180,66.895,278.320
1532280495.952,54.688,30.273,32.227,57.129,178.223
1532280495.956,54.688,29.785,28.809,51.758,-184.082
1532280495.960,51.270,29.297,27.832,54.688,-156.738
1532280495.964,50.293,28.809,28.809,57.617,195.801
1532280495.967,51.758,27.344,30.273,54.688,196.777
1532280495.971,52.246,26.367,32.227,51.270,-163.574
1532280495.975,50.293,24.902,32.227,55.664,-231.445
1532280495.979,44.434,22.949,31.250,60.059,136.719
1532280495.983,41.992,22.461,32.227,60.059,318.359
1532280495.987,41.992,24.902,32.227,57.129,-15.137
1532280495.991,41.992,25.391,31.250,60.059,-250.000
1532280495.995,45.410,25.391,32.227,62.500,32.227
1532280495.999,42.969,28.320,32.715,58.105,330.078
1532280496.003,43.457,27.832,33.691,56.641,95.215
1532280496.007,43.457,29.785,33.691,56.641,-252.930
1532280496.010,48.828,32.227,33.203,50.293,-102.539
1532280496.014,50.781,30.762,33.691,52.734,271.484
1532280496.018,44.922,31.250,33.203,53.223,214.844
1532280496.022,46.875,31.250,33.203,45.410,-160.156
1532280496.026,44.922,28.320,33.691,45.410,-177.246
1532280496.030,41.504,28.320,33.203,48.828,161.133
1532280496.034,41.504,28.320,33.691,50.293,241.699
1532280496.038,42.480,27.832,32.227,45.898,-98.145
1532280496.042,44.922,27.832,31.250,44.922,-221.680
1532280496.046,44.434,27.832,31.738,52.734,92.285
1532280496.049,44.922,29.297,31.738,57.617,286.621
1532280496.053,47.852,31.250,33.691,58.105,16.602
1532280496.057,47.852,28.809,34.180,55.664,-267.578
1532280496.061,47.852,26.855,33.203,52.246,-45.410
1532280496.065,50.781,28.320,31.250,51.758,296.387
1532280496.069,45.410,29.297,29.297,44.434,100.586
1532280496.073,39.062,28.809,29.785,41.016,-247.070
1532280496.077,41.016,27.832,32.227,45.410,-97.168
1532280496.081,44.434,28.320,31.250,51.270,257.812
1532280496.085,45.410,30.273,29.785,49.805,208.008
1532280496.089,44.434,28.320,30.762,45.410,-156.738
1532280496.092,44.922,27.832,29.785,50.781,-177.734
1532280496.096,45.410,26.855,29.297,55.176,181.641
1532280496.100,47.852,26.367,30.273,59.570,287.598
1532280496.104,50.781,28.320,27.832,59.570,-42.969
1532280496.108,50.781,28.320,28.809,51.270,-249.023
1532280496.112,46.387,27.832,31.738,54.688,52.734
1532280496.116,43.457,26.855,30.273,63.965,302.734
1532280496.120,46.387,28.809,28.809,60.547,31.738
1532280496.124,46.875,30.762,29.785,57.617,-243.652
1532280496.128,45.410,31.738,30.273,58.105,-47.852
1532280496.132,43.457,27.344,29.785,59.082,271.973
1532280496.135,40.039,24.902,30.762,53.223,153.320
1532280496.139,35.645,27.344,33.691,44.922,-197.266
1532280496.143,34.180,27.344,34.180,45.410,-113.770
1532280496.147,31.738,24.902,35.156,46.387,229.004
1532280496.151,31.250,23.438,36.621,43.457,223.145
1532280496.155,35.645,22.949,38.574,45.410,-116.699
1532280496.159,37.109,24.902,41.016,51.758,-221.680
1532280496.163,41.016,23.438,40.527,57.617,134.766
1532280496.167,44.922,23.926,40.039,54.199,279.297
1532280496.171,49.805,29.785,38.574,48.828,-74.707
1532280496.174,56.152,31.738,36.621,52.734,-264.160
1532280496.178,52.734,32.715,34.668,58.594,50.293
1532280496.182,48.828,34.668,35.645,62.012,316.406
1532280496.186,53.711,34.668,34.180,62.500,71.777
1532280496.190,55.176,34.180,34.668,63.965,-235.352
1532280496.194,55.664,34.180,35.645,63.477,-69.824
1532280496.198,55.176,35.156,34.668,62.012,267.578
1532280496.202,51.758,37.598,33.203,58.594,163.086
1532280496.206,50.293,37.598,34.668,54.199,-225.586
1532280496.210,49.316,34.668,36.133,56.152,-190.918
1532280496.214,48.340,31.738,36.621,56.641,200.684
1532280496.217,50.781,31.738,39.551,55.176,265.625
1532280496.221,46.387,32.715,41.016,52.734,-99.609
1532280496.225,45.410,29.785,39.551,51.758,-246.582
1532280496.229,45.410,28.320,38.574,47.363,56.152
1532280496.233,45.898,28.809,38.574,48.340,241.699
1532280496.237,43.457,28.809,37.598,56.152,-14.160
1532280496.241,44.922,32.227,35.645,58.105,-243.164
1532280496.245,48.340,33.203,33.691,63.965,22.461
1532280496.249,45.410,33.691,31.738,63.477,284.668
1532280496.253,45.410,37.109,27.832,60.059,76.660
1532280496.257,46.875,36.621,25.391,61.523,-250.488
1532280496.260,49.316,35.156,24.414,59.570,-114.746
1532280496.264,47.852,35.156,22.949,60.059,265.137
1532280496.268,47.852,33.203,20.508,57.129,208.008
1532280496.272,43.945,33.691,18.555,47.852,-145.508
1532280496.276,37.598,35.645,19.043,44.434,-145.020
1532280496.280,41.016,35.156,18.555,48.828,232.422
1532280496.284,43.945,36.133,18.555,50.781,291.016
1532280496.288,44.434,36.133,19.531,41.992,-91.797
1532280496.292,42.969,36.621,20.508,40.039,-229.980
1532280496.296,41.504,37.109,21.973,53.711,122.559
1532280496.299,45.410,35.156,22.461,57.617,320.801
1532280496.303,43.945,32.715,22.949,54.688,31.250
1532280496.307,44.434,33.691,25.391,55.664,-243.652
1532280496.311,46.875,33.691,27.344,61.523,-3.418
1532280496.315,45.410,31.738,25.879,62.500,322.754
1532280496.319,44.434,32.715,27.832,61.035,151.855
1532280496.323,46.387,33.203,30.762,62.500,-208.496
1532280496.327,45.898,30.273,27.344,60.059,-129.883
1532280496.331,49.805,29.297,27.344,58.105,250.977
1532280496.335,50.293,32.227,30.273,54.199,215.820
1532280496.339,41.504,32.715,31.250,49.316,-154.297
1532280496.342,43.457,31.250,30.273,53.223,-165.039
1532280496.346,45.410,28.809,28.809,51.270,154.785
1532280496.350,45.410,28.809,29.297,44.922,241.699
1532280496.354,45.898,30.762,31.250,48.340,-82.031
1532280496.358,46.387,30.762,31.250,48.828,-261.230
1532280496.362,44.434,30.273,30.762,52.734,66.406
1532280496.366,44.434,30.273,29.785,57.129,302.246
1532280496.370,44.922,33.203,29.785,53.223,45.898
1532280496.374,42.969,32.227,29.785,54.688,-221.191
1532280496.378,41.504,30.762,27.832,55.664,-34.668
1532280496.382,43.457,30.273,30.273,55.664,275.391
1532280496.385,41.992,29.785,33.691,58.105,143.066
1532280496.389,41.016,32.715,32.227,51.270,-221.191
1532280496.393,44.434,33.691,30.762,54.199,-170.898
1532280496.397,45.898,29.785,30.762,57.129,220.703
1532280496.401,43.457,28.809,31.250,53.223,264.648
1532280496.405,40.527,29.297,33.203,53.223,-128.418
1532280496.409,43.945,29.785,33.691,48.828,-226.562
1532280496.413,44.434,27.344,35.156,51.758,152.344
1532280496.417,41.016,24.902,33.691,52.734,320.801
1532280496.421,35.645,22.461,34.668,46.875,-3.906
1532280496.424,36.621,21.484,39.062,49.316,-228.516
1532280496.428,44.434,23.438,38.086,53.223,61.035
1532280496.432,42.969,23.438,34.180,51.758,339.844
1532280496.436,41.016,24.414,32.227,47.852,94.238
1532280496.440,44.434,26.367,31.738,48.340,-256.348
1532280496.444,43.945,25.879,30.273,53.711,-90.332
1532280496.448,41.016,25.391,28.809,51.270,258.301
1532280496.452,41.992,26.855,28.809,45.898,162.598
1532280496.456,43.457,27.832,26.855,49.316,-173.340
1532280496.460,43.945,28.809,30.273,52.734,-160.645
1532280496.464,40.527,29.785,31.250,50.293,207.031
1532280496.467,36.133,28.320,28.320,45.410,281.250
1532280496.471,38.574,27.832,29.785,43.457,-95.215
1532280496.475,39.062,29.785,28.809,44.434,-208.496
1532280496.479,40.527,31.250,28.809,45.898,143.066
1532280496.483,42.969,28.809,30.762,45.410,314.453
1532280496.487,39.551,28.320,30.762,41.504,25.391
1532280496.491,39.062,28.809,28.809,39.062,-248.047
1532280496.495,39.551,28.320,29.785,46.387,-6.348
1532280496.499,40.039,29.297,28.809,46.387,317.871
1532280496.503,45.410,29.785,29.785,41.992,142.578
1532280496.506,46.875,28.809,31.250,38.574,-233.398
1532280496.510,48.828,28.320,28.809,37.109,-132.812
1532280496.514,56.152,28.320,27.832,41.992,258.789
1532280496.518,53.711,29.785,26.367,43.457,243.652
1532280496.522,50.781,31.738,25.391,42.480,-154.297
1532280496.526,47.363,30.273,27.344,43.945,-191.895
1532280496.530,42.480,30.762,30.273,45.410,180.664
1532280496.534,39.062,31.250,30.762,49.316,260.254
1532280496.538,38.086,30.762,31.738,53.711,-70.801
1532280496.542,38.574,31.738,32.227,54.688,-227.539
1532280496.546,37.598,32.715,28.809,57.617,94.727
1532280496.549,38.574,32.227,27.832,59.570,320.312
1532280496.553,39.062,34.180,30.273,59.082,39.062
1532280496.557,36.621,34.180,33.203,57.129,-219.727
1532280496.561,37.598,33.203,34.180,55.664,-0.977
1532280496.565,39.062,33.203,33.203,54.199,306.152
1532280496.569,36.621,31.738,34.180,52.734,138.672
1532280496.573,39.062,32.227,37.109,52.734,-231.934
1532280496.577,40.527,32.227,37.109,56.152,-124.512
1532280496.581,41.016,32.715,34.668,55.176,270.996
1532280496.585,36.621,33.203,35.156,49.805,241.699
1532280496.589,36.621,32.715,38.086,46.387,-140.137
1532280496.592,39.551,33.203,36.133,46.875,-194.336
1532280496.596,41.992,34.668,34.180,53.711,175.293
1532280496.600,48.828,34.180,35.156,56.641,306.641
1532280496.604,45.898,35.156,34.668,54.199,-52.246
1532280496.608,43.457,35.156,33.691,49.805,-278.809
1532280496.612,47.363,32.715,32.227,49.316,25.391
1532280496.616,45.410,30.762,33.203,53.711,303.223
1532280496.620,40.039,29.297,34.668,50.781,58.105
1532280496.624,37.109,30.273,35.156,47.363,-251.953
1532280496.628,35.645,29.785,35.645,48.828,-84.961
1532280496.631,36.133,27.832,34.180,51.270,277.832
1532280496.635,35.645,26.855,35.645,53.711,180.176
1532280496.639,38.086,28.320,37.109,57.129,-195.801
1532280496.643,40.039,30.762,35.156,55.664,-152.344
1532280496.647,43.945,28.320,35.156,52.734,195.801
1532280496.651,41.016,28.809,36.133,49.316,234.375
1532280496.655,37.598,31.738,34.180,48.340,-112.793
1532280496.659,40.527,30.762,33.691,51.758,-204.102
1532280496.663,42.480,30.273,32.715,53.711,128.906
1532280496.667,43.945,30.762,32.227,47.852,282.715
1532280496.671,44.434,32.715,32.715,42.480,-20.020
1532280496.674,43.945,32.227,33.203,42.969,-235.840
1532280496.678,43.945,29.785,33.691,44.922,32.715
1532280496.682,38.086,29.785,31.738,40.527,330.078
1532280496.686,33.691,32.715,31.250,34.180,113.770
1532280496.690,36.133,29.785,30.762,32.715,-228.516
1532280496.694,31.250,24.902,30.762,34.180,-68.848
1532280496.698,27.832,25.879,29.785,37.598,244.629
1532280496.702,33.203,29.785,28.809,40.039,160.645
1532280496.706,34.180,29.785,32.227,39.551,-201.172
1532280496.710,35.645,28.320,32.715,41.504,-199.219
1532280496.714,37.109,29.297,30.273,46.387,190.430
1532280496.717,38.574,30.762,31.738,47.363,253.906
1532280496.721,37.598,29.785,32.227,47.852,-96.680
1532280496.725,38.086,27.344,31.250,47.363,-224.609
1532280496.729,41.992,28.809,31.250,47.363,111.816
1532280496.733,42.480,29.785,31.738,50.781,311.035
1532280496.737,38.574,29.297,32.227,50.293,10.254
1532280496.741,39.551,29.785,32.227,45.410,-244.629
1532280496.745,41.992,28.320,32.227,45.410,6.348
1532280496.749,41.016,28.320,33.691,44.922,303.223
1532280496.753,36.133,29.785,33.203,37.598,126.953
1532280496.756,33.203,31.250,31.738,31.250,-206.055
1532280496.760,44.434,31.250,33.203,33.691,-94.727
1532280496.764,44.434,28.809,34.180,36.621,277.344
1532280496.768,37.109,28.809,34.668,34.180,216.797
1532280496.772,39.062,31.250,36.133,35.156,-176.270
1532280496.776,43.945,30.762,34.668,43.945,-181.152
1532280496.780,48.340,29.297,34.180,51.758,182.129
1532280496.784,45.410,28.809,33.691,52.246,278.320
1532280496.788,41.016,28.809,32.715,46.875,-65.918
1532280496.792,41.992,26.855,32.715,49.316,-222.656
1532280496.796,43.945,26.855,35.156,54.199,85.938
1532280496.799,42.969,27.344,36.133,54.688,293.945
1532280496.803,39.551,24.902,34.180,56.641,28.320
1532280496.807,34.668,23.438,35.156,52.246,-246.582
1532280496.811,33.203,24.902,38.086,49.805,-39.551
1532280496.815,39.551,24.902,39.062,59.082,298.340
1532280496.819,39.062,25.391,39.551,59.082,151.367
1532280496.823,34.668,25.879,38.086,52.734,-196.777
1532280496.827,38.086,25.879,36.621,50.293,-145.508
1532280496.831,40.527,24.414,38.086,46.875,229.004
1532280496.835,40.039,24.902,36.621,42.969,246.094
1532280496.838,36.133,24.414,32.715,39.062,-141.113
1532280496.842,35.645,23.926,29.297,38.574,-198.730
1532280496.846,36.133,25.391,27.832,41.992,142.578
1532280496.850,36.133,27.344,27.344,42.480,276.855
1532280496.854,35.645,26.855,30.273,41.016,-48.340
1532280496.858,36.133,25.879,31.250,42.969,-270.508
1532280496.862,39.062,26.367,31.738,47.852,48.828
1532280496.866,41.992,27.832,33.203,51.270,299.316
