timestamps,TP9,AF7,AF8,TP10,Right AUX
1532281143.188,-0.488,23.438,32.227,75.684,300.781
1532281143.192,-4.883,22.461,36.621,65.918,-34.180
1532281143.195,20.020,26.367,35.645,68.359,-239.258
1532281143.199,21.973,25.391,34.668,78.125,55.664
1532281143.203,14.648,28.320,34.180,75.684,336.426
1532281143.207,25.879,26.855,34.180,74.219,85.449
1532281143.211,23.926,22.949,37.598,73.242,-238.770
1532281143.215,19.043,23.926,35.645,77.637,-40.527
1532281143.219,39.062,26.855,30.762,85.449,318.359
1532281143.223,48.340,26.855,32.715,86.914,200.684
1532281143.227,44.922,27.344,33.691,77.637,-208.496
1532281143.231,45.898,28.809,33.203,71.289,-172.363
1532281143.234,37.598,26.855,35.645,80.078,223.145
1532281143.238,37.598,25.879,36.133,83.008,264.648
1532281143.242,36.133,24.902,34.668,67.383,-91.309
1532281143.246,39.062,27.344,32.227,69.824,-186.523
1532281143.250,45.410,27.832,33.203,81.543,170.410
1532281143.254,33.691,22.949,37.598,77.637,335.449
1532281143.258,28.809,23.438,35.645,68.359,3.906
1532281143.262,37.598,26.855,33.691,67.871,-240.723
1532281143.266,37.109,29.297,33.203,58.594,18.555
1532281143.270,32.227,32.227,30.762,49.805,315.430
1532281143.274,30.273,34.180,30.762,61.035,110.840
1532281143.277,26.855,33.691,33.691,72.754,-225.586
1532281143.281,26.855,32.715,39.062,72.754,-84.961
1532281143.285,27.832,31.250,39.551,71.289,267.090
1532281143.289,30.273,33.203,36.621,65.430,192.871
1532281143.293,36.621,35.645,36.621,56.641,-154.297
1532281143.297,40.039,29.785,38.086,59.570,-149.902
1532281143.301,35.645,27.832,38.574,66.406,230.469
1532281143.305,25.879,27.344,41.504,66.895,291.504
1532281143.309,26.855,28.809,41.992,61.523,-91.797
1532281143.313,35.156,29.297,38.574,65.918,-199.219
1532281143.317,31.738,31.250,38.086,62.012,173.828
1532281143.320,31.738,32.715,38.086,48.828,359.863
1532281143.324,28.320,32.715,37.598,48.340,29.785
1532281143.328,22.461,32.227,39.551,56.641,-228.516
1532281143.332,31.738,32.715,36.621,50.293,34.668
1532281143.336,32.227,32.715,36.133,47.363,345.703
1532281143.340,27.344,32.715,38.086,46.875,177.734
1532281143.344,27.832,33.203,35.645,40.039,-199.707
1532281143.348,35.645,33.691,31.738,47.852,-138.672
1532281143.352,28.809,30.273,35.156,53.711,287.598
1532281143.356,21.484,26.855,35.645,48.340,274.902
1532281143.359,26.855,31.250,32.227,50.293,-129.395
1532281143.363,33.203,32.715,32.227,56.152,-171.875
1532281143.367,32.227,30.762,35.156,56.641,171.387
1532281143.371,25.879,29.297,36.133,55.176,299.316
1532281143.375,28.320,31.738,36.133,55.664,-31.250
1532281143.379,28.320,33.691,33.203,56.152,-223.633
1532281143.383,28.809,33.203,31.250,61.523,86.426
1532281143.387,30.273,35.645,35.156,60.547,325.684
1532281143.391,27.344,34.180,36.621,55.664,57.617
1532281143.395,22.949,32.227,36.133,54.199,-215.820
1532281143.399,21.973,31.250,37.598,51.270,-17.578
1532281143.402,18.066,28.320,38.086,59.570,292.969
1532281143.406,20.020,32.715,38.574,50.293,133.301
1532281143.410,32.227,34.180,38.086,46.387,-217.773
1532281143.414,31.738,32.227,37.109,60.547,-116.699
1532281143.418,33.203,33.203,38.574,59.570,254.395
1532281143.422,26.855,34.180,37.109,54.199,239.258
1532281143.426,20.996,36.621,35.156,53.711,-160.156
1532281143.430,25.391,35.645,35.156,60.059,-221.191
1532281143.434,20.508,33.203,33.203,60.547,189.453
1532281143.438,20.020,36.133,32.715,55.664,350.098
1532281143.441,20.020,36.133,33.691,58.105,-12.207
1532281143.445,16.113,32.227,33.691,54.199,-259.766
1532281143.449,14.160,30.273,36.133,51.270,16.602
1532281143.453,13.672,28.809,39.062,54.688,301.270
1532281143.457,7.812,28.320,40.527,54.688,59.082
1532281143.461,9.277,28.320,39.062,57.617,-259.277
1532281143.465,14.648,29.297,38.086,57.617,-96.680
1532281143.469,7.812,29.785,39.062,50.781,245.117
1532281143.473,7.812,29.297,39.551,44.434,147.461
1532281143.477,12.695,30.762,35.645,42.969,-236.816
1532281143.481,12.695,29.785,33.691,45.898,-186.035
1532281143.484,20.020,31.250,35.156,53.223,208.008
1532281143.488,16.113,30.273,39.551,51.270,230.469
1532281143.492,12.695,29.297,38.086,45.410,-156.738
1532281143.496,19.043,30.762,35.156,46.387,-254.395
1532281143.500,16.113,30.273,33.691,49.316,126.953
1532281143.504,7.324,30.273,31.738,40.039,302.246
1532281143.508,7.812,29.785,30.762,37.109,-20.508
1532281143.512,15.625,29.297,31.250,37.109,-256.836
1532281143.516,18.066,27.832,34.180,46.387,-2.441
1532281143.520,21.973,26.855,36.621,56.152,304.199
1532281143.524,25.879,28.320,35.156,51.270,80.566
1532281143.527,30.762,27.832,33.691,48.828,-276.367
1532281143.531,26.855,25.391,32.715,47.852,-96.680
1532281143.535,25.879,24.902,34.180,47.852,268.066
1532281143.539,24.414,23.926,35.156,48.828,188.965
1532281143.543,18.066,23.926,34.180,48.340,-172.852
1532281143.547,27.832,25.391,33.691,43.457,-185.059
1532281143.551,31.250,29.297,30.762,42.969,205.078
1532281143.555,24.902,32.227,27.344,41.016,291.504
1532281143.559,21.973,31.738,30.762,45.410,-60.059
1532281143.563,24.902,31.250,33.691,46.875,-218.262
1532281143.566,26.855,31.738,35.156,48.828,100.098
1532281143.570,27.344,32.227,38.574,52.734,339.355
1532281143.574,30.273,34.180,40.527,47.363,67.871
1532281143.578,25.391,35.645,42.480,43.945,-222.656
1532281143.582,26.855,37.109,42.480,44.434,-20.996
1532281143.586,31.738,39.062,40.527,41.016,306.152
1532281143.590,32.227,37.109,41.992,38.574,140.625
1532281143.594,28.809,35.645,43.457,30.273,-231.934
1532281143.598,28.320,37.598,42.969,29.785,-102.539
1532281143.602,36.133,40.039,39.551,30.273,297.363
1532281143.606,41.992,43.457,35.156,30.762,233.887
1532281143.609,36.621,45.898,38.574,30.273,-166.016
1532281143.613,37.109,44.922,38.574,27.344,-188.477
1532281143.617,38.086,40.527,39.551,33.203,216.797
1532281143.621,32.227,39.551,41.504,34.668,322.266
1532281143.625,41.016,42.480,37.598,29.785,-62.012
1532281143.629,41.504,44.434,34.668,30.273,-238.770
1532281143.633,40.039,41.992,37.109,40.039,79.590
1532281143.637,39.551,42.480,38.574,36.133,307.617
1532281143.641,33.691,42.969,35.645,31.250,63.965
1532281143.645,40.527,39.551,36.133,32.227,-268.066
1532281143.649,43.457,40.039,40.527,34.668,-67.871
1532281143.652,37.598,40.527,40.039,43.945,310.059
1532281143.656,34.668,40.039,40.527,43.945,171.875
1532281143.660,35.156,38.574,41.016,38.086,-196.289
1532281143.664,40.527,37.109,40.039,42.480,-170.410
1532281143.668,35.156,36.621,42.969,50.781,222.168
1532281143.672,31.250,36.621,41.992,47.852,270.508
1532281143.676,40.039,36.621,41.016,47.852,-118.652
1532281143.680,45.410,37.109,38.574,50.293,-215.820
1532281143.684,40.039,37.598,34.668,47.363,134.277
1532281143.688,30.273,39.551,36.621,41.016,264.648
1532281143.691,31.738,41.016,36.621,37.598,-55.176
1532281143.695,36.621,40.527,34.668,44.922,-250.000
1532281143.699,42.969,39.062,35.156,52.734,51.758
1532281143.703,44.434,40.527,36.621,53.711,317.871
1532281143.707,49.805,42.969,39.551,54.199,82.031
1532281143.711,49.805,42.969,38.086,51.270,-243.652
1532281143.715,46.387,44.922,36.133,56.152,-60.059
1532281143.719,46.875,48.340,38.086,57.129,312.500
1532281143.723,41.992,45.410,40.527,49.805,177.734
1532281143.727,40.039,41.992,41.992,46.387,-219.727
1532281143.731,43.945,42.969,39.551,48.828,-176.758
1532281143.734,42.969,43.945,38.574,49.316,221.191
1532281143.738,44.434,44.434,41.992,52.246,288.086
1532281143.742,46.387,41.992,45.898,52.734,-99.121
1532281143.746,40.527,40.527,45.898,47.852,-246.094
1532281143.750,39.062,41.992,42.969,49.805,118.164
1532281143.754,41.016,41.992,41.992,53.223,309.570
1532281143.758,43.945,45.410,43.945,55.176,7.812
1532281143.762,46.387,47.363,42.969,58.105,-266.113
1532281143.766,41.504,44.434,41.016,55.176,-27.832
1532281143.770,37.598,41.992,44.434,52.734,288.574
1532281143.774,40.039,41.016,46.387,54.688,98.633
1532281143.777,40.527,41.504,44.922,55.176,-242.676
1532281143.781,39.062,41.016,43.457,56.641,-84.473
1532281143.785,40.039,39.551,46.387,54.199,277.832
1532281143.789,42.969,38.574,48.340,49.316,196.777
1532281143.793,52.246,38.574,46.875,50.293,-155.273
1532281143.797,53.223,41.504,42.969,54.688,-180.664
1532281143.801,46.875,45.410,39.551,53.711,187.012
1532281143.805,41.016,43.457,41.992,50.781,296.387
1532281143.809,40.039,41.504,48.340,48.340,-48.828
1532281143.813,41.992,37.598,48.340,47.852,-257.812
1532281143.816,37.598,35.645,45.898,53.711,47.852
1532281143.820,38.574,36.133,47.363,58.594,320.801
1532281143.824,41.016,37.598,46.387,52.246,16.113
1532281143.828,41.504,40.527,47.363,44.434,-296.875
1532281143.832,46.875,39.062,47.852,50.293,-20.996
1532281143.836,54.688,38.086,46.387,53.223,309.570
1532281143.840,53.711,40.039,46.875,46.875,144.043
1532281143.844,50.781,40.527,45.410,42.969,-188.965
1532281143.848,59.570,37.109,46.875,47.852,-125.000
1532281143.852,64.941,34.668,46.875,56.152,248.047
1532281143.856,49.805,34.180,44.922,57.129,248.535
1532281143.859,36.133,30.762,44.922,59.082,-134.766
1532281143.863,39.062,27.832,47.363,69.336,-213.379
1532281143.867,38.574,28.320,49.316,66.895,152.344
1532281143.871,40.527,27.832,47.363,64.453,308.105
1532281143.875,36.133,28.320,46.875,57.617,-42.969
1532281143.879,26.367,27.344,46.875,53.711,-240.723
1532281143.883,35.645,27.832,45.898,60.547,86.426
1532281143.887,36.133,33.203,42.480,51.270,318.848
1532281143.891,37.109,38.086,37.598,42.969,43.457
1532281143.895,44.922,38.086,36.621,52.246,-271.973
1532281143.899,41.016,34.180,40.039,56.641,-76.172
1532281143.902,40.527,32.227,41.504,56.152,289.062
1532281143.906,41.992,33.203,44.434,59.082,171.875
1532281143.910,44.922,32.227,43.945,59.570,-199.219
1532281143.914,48.340,31.738,40.527,59.570,-185.059
1532281143.918,51.270,32.227,40.039,62.012,211.914
1532281143.922,49.805,30.762,41.504,59.082,265.137
1532281143.926,41.016,32.227,41.016,51.270,-118.164
1532281143.930,44.434,35.645,39.551,51.758,-237.793
1532281143.934,49.316,34.668,38.086,61.523,119.629
1532281143.938,48.828,34.180,37.598,65.918,295.898
1532281143.941,53.711,36.621,37.598,64.453,-32.715
1532281143.945,53.711,38.574,35.156,60.547,-259.277
1532281143.949,56.152,37.109,36.133,64.453,19.531
1532281143.953,64.453,36.133,38.086,68.359,318.359
1532281143.957,63.477,37.109,38.086,66.406,83.984
1532281143.961,60.547,37.109,38.574,66.895,-272.949
1532281143.965,66.406,37.109,38.574,70.801,-113.770
1532281143.969,64.941,37.109,39.551,70.801,253.906
1532281143.973,57.617,38.086,40.039,70.801,194.336
1532281143.977,59.082,38.086,40.039,68.848,-184.570
1532281143.981,61.035,40.527,37.598,63.477,-183.105
1532281143.984,66.895,40.039,37.109,66.406,220.703
1532281143.988,69.336,36.621,35.156,65.918,286.133
1532281143.992,63.477,35.645,38.086,62.500,-86.914
1532281143.996,58.105,35.645,41.504,63.965,-240.234
1532281144.000,54.688,34.180,40.039,67.871,123.047
1532281144.004,51.758,32.227,42.480,62.012,323.730
1532281144.008,48.828,34.668,41.016,50.781,-10.254
1532281144.012,53.711,34.668,39.551,57.129,-245.117
1532281144.016,52.246,33.691,38.086,59.082,5.371
1532281144.020,49.316,32.715,34.668,56.641,318.359
1532281144.023,55.664,31.738,33.691,54.199,132.324
1532281144.027,55.664,32.715,32.227,55.664,-235.352
1532281144.031,50.293,32.227,31.738,61.523,-107.422
1532281144.035,49.805,26.855,32.227,58.105,275.879
1532281144.039,54.688,24.414,34.180,60.059,262.207
1532281144.043,51.270,27.832,32.715,59.082,-141.113
1532281144.047,51.758,28.809,28.320,56.152,-204.102
1532281144.051,49.805,28.320,26.367,60.547,183.105
1532281144.055,46.387,26.855,26.367,59.082,294.434
1532281144.059,47.852,30.762,28.320,59.082,-47.363
1532281144.063,47.363,33.691,27.344,59.570,-218.262
1532281144.066,50.781,33.691,26.367,60.059,73.730
1532281144.070,48.828,32.227,28.809,62.988,291.016
1532281144.074,47.852,32.227,25.391,60.547,27.344
1532281144.078,52.734,33.203,24.414,59.570,-274.414
1532281144.082,53.223,32.715,25.879,60.547,-46.387
1532281144.086,53.223,32.715,23.926,58.594,317.383
1532281144.090,49.805,33.203,20.996,52.246,155.273
1532281144.094,49.805,33.691,20.508,47.852,-216.309
1532281144.098,45.410,32.715,20.020,48.828,-143.555
1532281144.102,40.039,32.715,18.066,48.828,241.699
1532281144.106,43.945,34.668,17.090,40.527,232.422
1532281144.109,43.457,34.668,21.484,39.062,-165.527
1532281144.113,40.527,33.203,22.949,50.293,-228.516
1532281144.117,41.504,33.691,20.020,54.199,143.555
1532281144.121,42.480,37.109,21.973,57.617,325.195
1532281144.125,44.922,40.039,22.949,53.223,-37.598
1532281144.129,52.246,39.062,22.461,51.270,-271.973
1532281144.133,55.176,35.156,24.414,60.547,64.453
1532281144.137,47.363,35.645,21.973,59.570,356.445
1532281144.141,38.574,41.016,20.508,54.199,102.051
1532281144.145,41.504,42.969,23.926,48.828,-258.789
1532281144.148,41.504,43.945,23.438,49.316,-75.195
1532281144.152,34.668,47.852,22.949,52.734,292.480
1532281144.156,35.156,53.223,26.855,50.293,185.547
1532281144.160,36.133,52.246,26.855,50.293,-187.500
1532281144.164,32.715,52.246,24.902,52.734,-164.551
1532281144.168,33.203,57.129,27.832,56.641,223.145
1532281144.172,34.668,57.617,29.297,58.105,279.297
1532281144.176,35.156,54.199,29.785,56.641,-88.867
1532281144.180,35.156,51.270,27.832,60.547,-172.852
1532281144.184,34.668,50.781,26.855,64.453,141.602
1532281144.188,34.668,48.340,28.809,62.500,282.715
1532281144.191,33.691,44.922,29.785,55.664,-26.367
1532281144.195,26.855,41.992,29.785,48.828,-255.371
1532281144.199,26.855,40.039,27.832,53.223,50.293
1532281144.203,34.180,39.551,27.832,54.688,325.195
1532281144.207,33.203,39.062,26.855,46.387,83.008
1532281144.211,30.273,36.133,26.367,43.945,-234.863
1532281144.215,40.527,34.668,27.344,45.410,-92.285
1532281144.219,42.969,33.203,25.391,45.898,292.969
1532281144.223,33.691,30.762,26.855,44.434,213.867
1532281144.227,35.156,32.715,25.879,41.992,-187.988
1532281144.231,35.156,32.715,24.902,44.434,-145.996
1532281144.234,38.574,31.738,24.902,45.410,229.004
1532281144.238,32.227,30.762,26.855,41.504,268.555
1532281144.242,19.531,30.273,26.855,36.621,-76.660
1532281144.246,20.020,29.297,25.391,35.156,-229.980
1532281144.250,23.438,28.809,24.902,39.062,82.031
1532281144.254,27.344,31.250,23.926,37.598,318.848
1532281144.258,23.926,31.738,25.391,33.203,32.227
1532281144.262,23.926,32.715,24.902,31.250,-262.207
1532281144.266,25.879,33.203,24.902,31.738,-45.898
1532281144.270,20.996,31.738,25.391,33.691,311.523
1532281144.273,17.578,29.297,24.902,29.297,128.418
1532281144.277,18.066,27.832,24.902,28.320,-241.699
1532281144.281,22.949,30.762,24.902,35.156,-121.094
1532281144.285,23.438,32.227,21.973,35.156,240.234
1532281144.289,21.484,31.738,22.949,31.250,247.070
1532281144.293,29.297,33.691,23.926,33.203,-147.461
1532281144.297,30.273,32.227,23.438,34.668,-215.332
1532281144.301,23.926,30.273,23.926,36.133,172.363
1532281144.305,28.320,32.227,25.879,35.645,270.508
1532281144.309,28.809,33.203,25.391,29.785,-77.637
1532281144.313,28.320,37.598,18.555,31.250,-260.254
1532281144.316,29.785,39.062,17.578,40.039,51.758
1532281144.320,22.949,32.227,22.949,36.621,324.707
1532281144.324,15.625,30.273,25.879,26.367,35.156
1532281144.328,18.555,30.762,27.832,29.785,-276.367
1532281144.332,23.438,30.273,26.367,35.645,-51.270
1532281144.336,29.297,33.203,21.973,31.250,280.273
1532281144.340,22.461,34.668,23.438,23.438,152.832
1532281144.344,16.602,35.156,24.414,20.996,-231.445
1532281144.348,16.113,37.598,25.391,23.438,-170.898
1532281144.352,19.531,36.133,28.320,36.133,231.445
1532281144.356,26.855,35.645,28.320,38.574,243.164
1532281144.359,27.832,38.086,26.367,34.668,-126.953
1532281144.363,23.926,41.016,23.926,35.156,-231.445
1532281144.367,18.066,37.598,24.902,33.691,102.051
1532281144.371,20.020,33.203,26.367,37.598,297.852
1532281144.375,23.438,32.227,27.832,40.039,-20.508
1532281144.379,20.508,34.668,24.902,36.621,-260.254
1532281144.383,22.949,37.598,22.461,40.527,29.297
1532281144.387,27.832,40.039,21.973,35.645,283.203
1532281144.391,27.832,40.527,19.531,31.738,67.383
1532281144.395,30.762,38.086,19.043,37.598,-249.512
1532281144.398,32.715,38.574,20.996,38.086,-82.520
1532281144.402,33.203,40.039,19.531,38.086,299.805
1532281144.406,29.785,36.621,20.020,36.621,192.871
1532281144.410,21.484,31.738,20.020,34.180,-207.520
1532281144.414,19.043,30.762,20.020,37.109,-179.688
1532281144.418,21.484,30.762,21.973,40.039,228.027
1532281144.422,23.438,29.297,21.484,38.086,285.156
1532281144.426,22.949,32.227,20.020,28.809,-131.836
1532281144.430,33.691,37.109,19.043,33.203,-265.625
1532281144.434,27.832,33.203,20.020,42.480,104.004
1532281144.438,17.578,30.273,22.461,39.551,301.758
1532281144.441,23.438,29.785,24.414,41.504,11.230
1532281144.445,26.367,30.273,26.367,42.969,-259.277
1532281144.449,27.344,29.297,25.391,44.434,-0.977
1532281144.453,20.020,27.344,22.461,41.016,315.918
1532281144.457,17.090,30.762,21.973,33.203,114.746
1532281144.461,26.855,33.203,23.926,34.668,-234.375
1532281144.465,30.762,35.156,20.996,41.016,-98.633
1532281144.469,29.297,35.156,18.066,40.039,263.184
1532281144.473,24.414,34.668,19.531,34.180,192.871
1532281144.477,21.484,38.086,21.484,30.273,-181.152
1532281144.481,26.367,36.133,21.973,33.203,-178.223
1532281144.484,28.320,31.738,22.461,35.645,198.730
1532281144.488,30.273,30.762,25.391,30.762,281.738
1532281144.492,33.203,31.738,29.297,37.109,-74.219
1532281144.496,36.133,32.715,30.762,45.410,-236.328
1532281144.500,32.715,33.691,27.344,44.434,108.398
1532281144.504,24.902,34.668,22.949,41.992,321.777
1532281144.508,20.508,32.227,24.414,38.086,39.551
1532281144.512,23.926,31.250,27.832,39.062,-250.000
1532281144.516,22.949,29.785,29.297,36.133,-49.805
1532281144.520,20.508,29.297,27.832,33.203,306.641
1532281144.523,30.273,29.297,28.320,37.598,141.602
1532281144.527,40.527,31.738,27.832,33.203,-275.879
1532281144.531,42.969,34.668,25.879,31.250,-168.945
1532281144.535,39.551,34.668,28.320,35.645,240.234
1532281144.539,34.668,31.738,30.273,32.715,238.770
1532281144.543,37.109,30.273,32.227,29.785,-130.859
1532281144.547,39.551,30.273,32.715,33.691,-210.449
1532281144.551,38.086,28.320,31.738,40.527,145.996
1532281144.555,35.156,29.297,32.227,43.457,273.926
1532281144.559,35.645,32.715,30.273,44.434,-65.430
1532281144.563,32.715,33.203,28.809,42.969,-266.113
1532281144.566,25.391,30.762,29.785,43.945,47.852
1532281144.570,15.137,29.785,28.320,37.109,300.293
1532281144.574,14.160,30.273,30.273,34.180,43.457
1532281144.578,17.090,29.297,36.621,40.039,-253.906
1532281144.582,20.508,28.320,35.645,39.551,-62.988
1532281144.586,20.508,27.832,32.227,32.227,281.250
1532281144.590,17.578,29.785,33.203,24.414,136.719
1532281144.594,19.043,28.809,34.668,27.832,-223.145
1532281144.598,14.160,26.367,32.227,27.832,-149.414
1532281144.602,15.625,25.879,29.297,27.832,230.469
1532281144.605,20.996,25.391,33.691,30.273,254.883
1532281144.609,20.508,28.320,35.156,31.250,-103.027
1532281144.613,19.043,29.297,30.273,29.297,-210.938
1532281144.617,28.320,30.762,27.832,30.762,142.578
1532281144.621,32.715,33.691,27.344,31.250,326.172
1532281144.625,23.926,32.227,27.832,19.531,-15.137
1532281144.629,16.602,32.227,25.879,13.672,-273.926
1532281144.633,17.578,30.762,25.391,23.438,22.949
1532281144.637,21.973,31.250,24.414,24.902,313.477
1532281144.641,22.461,31.250,24.902,23.926,103.027
1532281144.645,25.879,31.250,23.926,27.344,-258.789
1532281144.648,23.926,30.762,25.391,29.785,-115.234
1532281144.652,20.508,28.320,30.273,32.227,286.133
1532281144.656,20.508,26.855,29.297,29.785,207.031
1532281144.660,24.414,26.855,27.344,31.250,-185.547
1532281144.664,25.879,27.832,28.320,33.691,-190.918
1532281144.668,22.461,27.344,30.273,31.738,170.898
1532281144.672,24.902,26.855,29.297,32.715,270.996
1532281144.676,29.785,28.809,29.785,30.273,-70.312
1532281144.680,32.227,29.297,30.273,32.227,-230.469
1532281144.684,30.273,26.855,29.785,37.598,94.727
1532281144.688,27.832,23.438,29.297,34.180,298.828
1532281144.691,28.320,20.020,30.273,30.273,13.672
1532281144.695,29.785,16.602,30.762,26.855,-241.211
1532281144.699,29.297,16.602,28.320,29.297,-7.812
1532281144.703,28.809,17.090,29.785,33.691,292.969
1532281144.707,29.785,17.578,29.785,30.273,88.867
1532281144.711,25.391,16.113,27.832,28.320,-259.766
1532281144.715,25.879,14.160,27.344,33.203,-121.582
1532281144.719,30.762,17.090,27.344,37.109,241.211
1532281144.723,27.832,15.625,29.785,36.133,184.082
1532281144.727,28.320,15.137,30.273,33.203,-196.777
1532281144.730,29.297,16.113,27.344,33.203,-208.496
1532281144.734,27.832,13.672,25.879,37.598,175.293
1532281144.738,27.832,12.695,27.344,39.062,285.645
1532281144.742,22.949,10.742,27.344,34.668,-55.664
1532281144.746,26.367,11.230,27.344,35.156,-235.352
1532281144.750,32.715,13.672,26.367,40.527,77.637
1532281144.754,28.809,15.625,25.391,39.062,328.125
1532281144.758,28.320,18.555,26.855,36.621,54.199
1532281144.762,30.273,19.043,24.902,38.574,-251.953
1532281144.766,27.832,20.020,21.484,31.738,-51.758
1532281144.770,22.949,19.531,22.461,27.832,279.785
1532281144.773,24.414,17.578,28.320,35.645,161.133
1532281144.777,28.809,19.531,27.344,36.133,-197.754
1532281144.781,29.785,21.973,23.926,34.668,-136.719
1532281144.785,27.832,19.531,25.879,36.621,255.859
1532281144.789,26.367,17.090,29.297,33.203,269.531
1532281144.793,32.715,20.996,29.785,36.133,-124.512
1532281144.797,31.738,20.508,27.832,39.551,-202.148
1532281144.801,28.320,18.066,30.762,43.945,154.785
1532281144.805,27.832,17.578,33.203,44.922,281.250
1532281144.809,24.414,17.578,33.691,37.598,-70.801
1532281144.813,29.785,18.555,35.156,43.945,-272.461
1532281144.816,35.156,19.043,32.715,46.387,48.828
1532281144.820,31.738,19.531,30.762,44.922,336.914
1532281144.824,31.250,23.926,31.250,40.527,80.078
1532281144.828,30.273,24.902,30.273,33.203,-249.512
1532281144.832,27.832,21.484,29.297,36.133,-64.941
1532281144.836,28.320,20.508,30.762,39.062,302.246
1532281144.840,27.832,21.973,32.227,39.551,195.801
1532281144.844,28.320,23.438,33.203,42.480,-199.219
1532281144.848,37.109,23.438,35.156,49.805,-189.941
1532281144.852,37.598,22.461,31.250,49.805,219.238
1532281144.855,30.762,21.973,28.809,46.387,286.133
1532281144.859,32.715,20.508,31.738,48.828,-125.488
1532281144.863,34.180,19.043,33.203,49.316,-242.188
1532281144.867,34.180,20.508,34.668,50.293,85.449
1532281144.871,34.180,21.973,35.156,53.223,270.996
1532281144.875,33.691,23.438,35.156,43.945,-9.766
1532281144.879,35.156,25.879,33.691,40.527,-263.672
1532281144.883,34.668,24.414,29.785,43.945,0.000
1532281144.887,39.551,25.391,30.762,42.480,295.410
1532281144.891,40.527,25.391,31.738,47.852,112.793
1532281144.895,33.203,25.391,31.250,46.875,-243.652
1532281144.898,31.738,23.438,31.250,46.387,-114.258
1532281144.902,28.320,23.438,28.809,47.363,286.133
1532281144.906,25.879,26.367,30.273,37.109,184.570
1532281144.910,27.344,23.438,30.273,32.715,-220.703
1532281144.914,30.762,20.996,27.832,40.527,-189.453
1532281144.918,32.227,21.973,27.832,44.922,211.426
1532281144.922,31.250,22.461,28.809,45.410,304.688
1532281144.926,36.621,23.438,31.738,47.363,-59.082
1532281144.930,37.598,24.902,29.785,49.805,-227.051
1532281144.934,30.273,21.484,27.832,51.270,95.703
1532281144.938,30.273,20.508,31.738,48.828,301.270
1532281144.941,30.762,23.926,29.297,42.969,-3.418
1532281144.945,30.762,22.949,27.344,38.086,-276.367
1532281144.949,24.902,20.996,28.809,32.715,-47.363
1532281144.953,22.949,21.973,32.227,34.668,312.988
1532281144.957,22.461,22.461,32.715,36.133,154.297
1532281144.961,20.996,20.996,28.320,36.133,-235.352
1532281144.965,23.438,20.996,30.762,39.062,-125.000
1532281144.969,25.879,20.020,31.738,39.551,259.766
1532281144.973,23.926,19.531,30.273,41.016,245.117
1532281144.977,22.461,20.996,31.250,42.480,-161.133
1532281144.980,29.297,22.949,27.344,41.992,-243.652
1532281144.984,34.668,22.949,25.879,46.875,161.133
1532281144.988,36.621,21.973,28.809,46.875,299.316
1532281144.992,32.715,21.973,29.297,41.992,-56.641
1532281144.996,30.273,22.949,27.344,39.062,-266.113
1532281145.000,30.273,22.461,26.855,42.480,48.828
1532281145.004,31.738,20.020,30.273,45.410,298.340
1532281145.008,28.320,20.508,31.738,36.621,11.230
1532281145.012,25.391,20.508,28.809,37.598,-281.250
1532281145.016,28.809,22.461,29.297,42.969,-63.477
1532281145.020,29.297,25.391,28.809,39.062,317.871
1532281145.023,29.297,25.879,28.809,35.645,168.457
1532281145.027,27.344,25.879,31.250,29.297,-241.211
1532281145.031,31.738,26.855,32.227,35.645,-181.152
1532281145.035,34.668,28.320,30.273,44.922,230.469
1532281145.039,34.668,27.344,29.785,41.016,263.672
1532281145.043,37.109,28.809,30.762,34.668,-157.715
1532281145.047,33.691,29.297,28.320,38.574,-268.555
1532281145.051,33.203,28.320,24.902,47.363,153.809
1532281145.055,35.645,29.297,27.832,47.852,326.660
1532281145.059,29.785,27.344,31.250,43.945,-26.367
1532281145.063,27.344,27.832,29.297,41.504,-254.883
1532281145.066,29.785,30.273,24.902,39.062,26.855
1532281145.070,24.902,30.273,23.926,34.668,327.637
1532281145.074,23.438,31.250,28.320,34.668,86.914
1532281145.078,29.785,33.691,29.297,36.621,-234.863
1532281145.082,29.785,34.668,26.855,35.645,-68.848
1532281145.086,29.785,37.598,25.879,34.180,257.324
1532281145.090,28.320,38.086,23.926,27.832,180.664
1532281145.094,28.809,37.109,23.926,30.273,-180.176
1532281145.098,33.203,38.574,24.902,36.621,-167.969
1532281145.102,32.227,42.480,23.438,36.133,214.844
1532281145.105,29.297,43.457,25.879,35.645,259.277
1532281145.109,26.855,41.016,25.391,37.598,-100.586
1532281145.113,32.227,39.551,22.949,38.574,-242.188
1532281145.117,35.156,38.574,20.996,40.039,86.914
1532281145.121,28.320,41.504,20.508,41.504,304.688
1532281145.125,24.414,43.945,22.461,36.133,-29.297
1532281145.129,29.785,43.945,24.902,37.598,-286.133
1532281145.133,33.691,42.969,26.367,44.922,-7.812
1532281145.137,32.227,43.945,23.926,41.504,311.035
1532281145.141,34.180,46.387,21.973,36.133,138.672
1532281145.145,29.785,45.410,22.949,33.691,-240.234
1532281145.148,28.320,45.898,21.973,38.086,-125.977
1532281145.152,31.738,45.898,20.020,42.969,269.043
1532281145.156,30.273,45.410,20.996,38.574,204.102
1532281145.160,30.273,46.387,22.949,33.691,-176.758
1532281145.164,32.227,44.922,20.020,37.109,-217.773
1532281145.168,29.785,44.434,20.996,43.457,171.387
1532281145.172,23.926,46.387,23.438,42.480,318.359
1532281145.176,23.926,46.387,25.879,34.668,-64.941
1532281145.180,25.879,46.875,27.832,36.621,-263.184
1532281145.184,27.832,46.387,25.879,38.574,71.289
1532281145.187,29.785,51.270,24.414,29.297,291.992
1532281145.191,26.855,53.711,24.902,29.297,32.227
1532281145.195,23.926,47.363,27.344,34.180,-251.953
1532281145.199,28.320,43.457,29.785,37.109,-21.484
1532281145.203,27.832,44.922,28.320,37.598,315.918
1532281145.207,25.391,47.852,26.367,25.879,146.484
1532281145.211,23.926,47.852,27.832,20.508,-215.820
1532281145.215,23.926,46.875,28.809,26.367,-141.113
1532281145.219,23.438,46.387,26.855,23.926,239.258
1532281145.223,17.578,46.875,26.367,21.484,223.633
1532281145.227,18.066,45.410,28.320,19.043,-163.086
1532281145.230,23.926,43.457,27.832,22.461,-210.938
1532281145.234,26.367,42.969,30.762,32.227,167.480
1532281145.238,28.320,44.434,30.762,28.809,317.871
1532281145.242,33.691,48.340,26.367,26.367,-41.504
1532281145.246,40.527,51.270,25.391,25.879,-274.902
1532281145.250,40.039,50.781,23.438,25.391,37.598
1532281145.254,35.156,48.828,22.461,30.273,342.773
1532281145.258,32.715,47.852,24.902,31.738,81.055
1532281145.262,24.414,47.363,25.879,30.273,-269.043
1532281145.266,23.926,45.898,26.855,33.691,-69.824
1532281145.270,25.391,46.387,27.832,37.109,284.180
1532281145.273,17.090,49.316,29.297,32.715,174.316
1532281145.277,16.113,48.828,29.297,28.320,-216.797
1532281145.281,17.578,47.363,28.320,33.203,-187.500
1532281145.285,20.020,49.316,27.832,36.133,207.520
1532281145.289,20.996,52.734,27.344,29.297,233.398
1532281145.293,23.926,50.781,28.809,27.344,-121.582
1532281145.297,22.461,47.363,29.297,28.809,-224.121
1532281145.301,22.461,47.363,29.297,32.227,139.648
1532281145.305,27.344,46.875,30.273,29.297,314.453
1532281145.309,24.902,49.316,28.809,24.414,-5.859
1532281145.312,23.438,47.852,31.250,27.344,-239.746
1532281145.316,26.367,43.945,33.203,34.180,-7.812
1532281145.320,28.320,45.898,29.785,33.203,294.434
1532281145.324,26.855,47.852,27.832,26.367,79.590
1532281145.328,24.414,48.828,26.367,24.902,-275.879
1532281145.332,24.414,47.363,27.344,35.156,-86.914
1532281145.336,26.367,47.852,27.344,38.086,293.945
1532281145.340,25.879,49.316,25.391,35.156,203.613
1532281145.344,22.949,46.875,26.855,34.668,-172.363
1532281145.348,23.438,41.504,30.762,37.109,-171.875
1532281145.352,27.344,41.016,30.273,36.621,196.777
1532281145.355,27.344,43.945,28.320,31.738,275.391
1532281145.359,22.461,43.457,29.785,31.738,-76.172
1532281145.363,24.902,41.992,29.297,35.645,-225.098
1532281145.367,25.391,41.504,25.879,28.320,102.539
1532281145.371,22.949,41.016,26.367,24.902,333.008
1532281145.375,25.879,42.480,27.832,27.832,26.855
1532281145.379,32.227,41.992,27.344,33.691,-265.137
1532281145.383,37.109,41.504,25.879,40.527,-16.113
1532281145.387,33.203,39.551,26.367,39.551,317.383
1532281145.391,31.250,38.086,29.297,34.668,116.699
1532281145.395,37.598,39.551,28.809,33.691,-236.816
1532281145.398,38.086,39.551,28.320,40.039,-125.000
1532281145.402,33.691,37.598,31.250,41.016,230.469
1532281145.406,33.691,35.645,34.668,36.621,212.891
1532281145.410,30.762,36.621,35.156,36.621,-176.270
1532281145.414,33.691,40.039,33.691,37.109,-225.098
1532281145.418,33.691,41.504,32.715,36.133,171.387
1532281145.422,29.785,40.527,31.738,33.691,287.109
1532281145.426,28.320,39.551,33.203,28.809,-78.613
1532281145.430,27.832,38.574,31.738,29.785,-278.809
1532281145.434,33.203,37.109,29.297,39.062,60.547
1532281145.437,37.109,36.621,29.785,40.039,332.520
1532281145.441,41.504,38.574,27.832,40.039,50.781
1532281145.445,42.969,39.551,24.902,39.551,-250.000
1532281145.449,40.039,40.039,23.926,41.016,-23.926
1532281145.453,34.668,40.039,26.367,41.504,304.688
1532281145.457,30.273,37.598,28.809,40.039,148.438
1532281145.461,31.250,35.156,32.715,40.039,-215.820
1532281145.465,33.691,36.621,33.691,35.645,-172.852
1532281145.469,31.738,37.109,33.691,35.156,199.707
1532281145.473,34.180,36.133,33.203,36.621,244.629
1532281145.477,33.203,38.574,31.250,27.832,-162.598
1532281145.480,31.738,39.062,30.762,26.855,-223.145
1532281145.484,36.621,37.598,30.273,31.738,164.551
1532281145.488,37.109,37.109,30.762,33.691,302.246
1532281145.492,33.203,36.621,29.785,38.574,-3.906
1532281145.496,35.156,36.133,28.320,39.551,-239.746
1532281145.500,38.086,33.691,27.344,44.434,41.016
1532281145.504,37.598,35.156,29.297,48.828,296.875
1532281145.508,36.133,36.621,30.762,38.574,35.645
1532281145.512,33.691,37.598,26.367,33.691,-254.395
1532281145.516,34.180,37.598,26.367,33.691,-48.340
1532281145.520,36.621,36.621,26.855,37.598,289.551
1532281145.523,37.109,38.574,28.320,37.598,169.922
1532281145.527,36.133,39.062,30.762,36.133,-199.219
1532281145.531,34.180,37.109,28.809,40.527,-170.898
1532281145.535,31.250,38.574,26.367,36.133,208.496
1532281145.539,30.273,40.527,27.832,33.203,263.184
1532281145.543,28.809,41.016,28.320,31.250,-125.977
1532281145.547,26.855,39.551,27.344,27.832,-248.535
1532281145.551,35.156,39.062,29.297,37.598,126.465
1532281145.555,40.527,41.504,28.809,40.039,304.688
1532281145.559,35.645,42.969,26.855,36.621,-4.395
1532281145.562,32.227,40.527,25.391,36.133,-237.793
1532281145.566,28.320,38.574,24.902,34.180,-2.930
1532281145.570,26.367,40.039,24.902,34.668,277.344
1532281145.574,25.391,40.039,25.879,36.621,91.797
1532281145.578,26.855,39.551,26.367,37.109,-244.629
1532281145.582,26.367,36.621,26.855,41.016,-75.195
1532281145.586,22.949,34.180,26.367,40.039,292.969
1532281145.590,21.484,32.715,25.879,34.668,206.543
1532281145.594,24.902,34.668,27.344,33.203,-164.062
1532281145.598,31.738,37.598,29.785,38.574,-173.340
1532281145.602,32.227,37.109,28.320,44.922,220.703
1532281145.605,31.250,39.062,27.344,36.133,284.180
1532281145.609,31.738,40.039,27.344,25.879,-132.324
1532281145.613,31.738,37.598,27.344,30.762,-274.414
1532281145.617,32.715,33.691,29.297,38.574,86.914
1532281145.621,33.203,33.691,29.297,41.016,329.102
1532281145.625,39.062,35.645,29.297,41.504,41.016
1532281145.629,41.992,35.156,29.785,41.992,-242.188
1532281145.633,40.039,36.621,28.809,43.457,-13.184
1532281145.637,39.062,38.574,29.297,44.434,301.270
1532281145.641,36.133,39.551,30.273,41.016,140.625
1532281145.645,35.156,40.039,31.738,37.109,-221.191
1532281145.648,35.645,38.574,36.133,42.480,-124.023
1532281145.652,40.039,37.598,37.109,49.805,259.766
1532281145.656,39.551,35.156,38.086,50.293,234.863
1532281145.660,38.086,34.180,39.062,51.758,-142.090
1532281145.664,41.504,36.621,37.109,50.293,-205.078
1532281145.668,41.016,35.645,38.086,46.875,154.785
1532281145.672,39.062,33.691,37.598,46.875,283.691
1532281145.676,41.992,34.180,36.621,42.969,-54.688
1532281145.680,39.551,33.691,35.645,39.062,-237.793
1532281145.684,29.297,32.715,32.227,37.598,70.312
1532281145.687,26.367,32.227,32.715,33.691,314.453
1532281145.691,29.297,31.250,33.691,31.250,41.992
1532281145.695,33.691,34.180,31.738,35.645,-282.715
1532281145.699,34.668,35.645,30.762,39.062,-61.035
1532281145.703,36.621,35.645,29.785,40.527,304.199
1532281145.707,41.504,37.109,28.320,40.039,135.254
1532281145.711,39.551,35.645,28.320,34.668,-220.215
1532281145.715,35.645,34.180,26.855,31.738,-156.738
1532281145.719,34.180,35.156,25.391,34.668,219.238
1532281145.723,31.738,33.691,31.250,35.156,260.254
1532281145.727,34.180,33.691,34.180,37.109,-124.512
1532281145.730,40.039,37.598,33.203,41.992,-228.516
1532281145.734,38.574,35.645,30.762,41.016,121.582
1532281145.738,32.715,34.180,29.297,38.574,297.852
1532281145.742,33.691,35.156,31.250,37.598,-26.855
1532281145.746,35.156,33.203,30.762,31.250,-287.109
1532281145.750,34.180,32.715,29.785,30.762,-8.301
1532281145.754,31.738,32.715,29.785,33.203,326.660
1532281145.758,30.762,32.227,30.273,29.297,110.352
1532281145.762,34.668,32.227,31.250,34.180,-248.535
1532281145.766,37.109,31.250,31.250,41.016,-104.004
1532281145.769,38.574,31.738,31.250,41.992,300.293
1532281145.773,38.086,33.203,31.738,38.086,226.562
1532281145.777,38.086,34.668,32.227,37.109,-201.660
1532281145.781,42.969,35.156,31.738,41.992,-184.082
1532281145.785,40.527,35.645,31.250,40.039,195.801
1532281145.789,34.668,35.156,32.715,29.297,241.211
1532281145.793,35.156,37.109,33.691,27.344,-120.117
1532281145.797,35.156,39.062,32.715,34.668,-232.910
1532281145.801,31.738,35.156,35.156,41.016,135.742
1532281145.805,33.203,34.668,35.645,40.039,311.523
1532281145.809,36.133,38.086,34.668,37.109,-5.371
1532281145.812,34.668,37.598,34.180,36.621,-252.930
1532281145.816,27.344,35.645,34.668,38.086,7.812
1532281145.820,28.809,36.133,36.621,41.016,323.242
1532281145.824,35.156,36.133,38.086,41.504,102.051
1532281145.828,37.598,35.645,37.109,36.621,-277.344
1532281145.832,40.039,36.133,35.645,40.039,-118.652
1532281145.836,33.691,34.180,33.691,45.410,269.043
1532281145.840,32.227,33.203,34.668,42.969,205.566
1532281145.844,34.668,34.180,37.598,41.016,-157.715
1532281145.848,32.227,37.109,37.109,36.133,-206.543
1532281145.852,36.133,43.945,32.227,38.574,180.176
1532281145.855,38.086,46.875,30.273,40.527,308.594
1532281145.859,31.250,45.410,33.691,33.691,-48.340
1532281145.863,22.461,42.969,34.180,31.250,-253.906
1532281145.867,28.320,41.504,34.668,37.598,60.547
1532281145.871,35.645,41.504,36.133,44.434,339.844
1532281145.875,33.203,42.480,38.086,40.527,75.684
1532281145.879,31.250,43.945,35.156,30.762,-240.234
1532281145.883,33.203,45.898,32.227,33.691,-52.246
1532281145.887,35.156,43.457,32.715,37.109,270.508
1532281145.891,29.297,41.504,33.203,33.691,125.977
1532281145.894,26.367,42.480,34.668,30.273,-246.582
1532281145.898,29.297,41.992,35.156,28.809,-148.438
1532281145.902,31.738,40.039,36.133,31.738,258.789
1532281145.906,32.227,39.551,37.598,28.320,219.727
1532281145.910,29.297,41.504,37.598,31.738,-165.039
1532281145.914,33.203,42.480,37.109,37.109,-200.684
1532281145.918,43.457,40.039,37.109,41.016,170.410
1532281145.922,48.340,40.527,35.156,44.922,311.523
1532281145.926,44.922,44.434,33.691,43.457,-42.480
1532281145.930,43.945,45.410,32.715,41.504,-265.625
1532281145.934,41.504,44.434,30.762,41.504,49.805
1532281145.937,38.574,44.922,30.762,40.527,330.078
1532281145.941,41.016,43.457,34.668,37.598,75.195
1532281145.945,37.109,40.527,36.133,27.344,-283.203
1532281145.949,33.691,40.039,35.645,23.438,-105.957
1532281145.953,35.645,41.504,36.621,31.250,276.367
1532281145.957,34.668,39.551,36.133,28.320,162.109
1532281145.961,38.574,41.504,34.668,25.391,-219.238
1532281145.965,43.457,43.945,36.133,27.832,-165.039
1532281145.969,43.457,42.969,35.156,34.180,216.797
1532281145.973,37.598,42.480,32.715,37.109,242.676
1532281145.977,29.297,40.039,32.227,35.645,-117.676
1532281145.980,24.414,37.598,31.250,42.480,-219.238
1532281145.984,26.367,37.109,32.715,51.270,120.117
1532281145.988,30.762,36.621,31.738,43.945,294.434
1532281145.992,31.738,35.645,28.809,41.016,-20.996
1532281145.996,30.273,36.621,30.273,38.086,-261.230
1532281146.000,34.180,40.527,31.250,39.062,24.414
1532281146.004,31.250,38.574,32.715,41.016,290.527
1532281146.008,24.902,38.086,32.227,28.320,60.547
1532281146.012,31.738,40.527,30.762,27.832,-250.977
1532281146.016,36.621,37.598,27.832,32.227,-93.750
1532281146.019,37.598,38.086,26.855,31.250,270.996
1532281146.023,32.715,39.551,28.809,29.297,184.082
1532281146.027,26.367,41.016,27.344,24.902,-217.285
1532281146.031,30.273,40.039,26.367,29.297,-213.867
1532281146.035,36.621,38.574,26.855,38.086,185.059
1532281146.039,36.133,38.086,31.250,37.598,304.199
1532281146.043,27.832,37.598,33.691,32.715,-89.355
1532281146.047,31.250,35.156,32.227,35.645,-261.719
1532281146.051,35.156,33.691,31.250,46.387,107.422
1532281146.055,32.715,36.621,29.297,48.340,325.684
1532281146.059,41.504,41.504,28.320,44.434,40.039
1532281146.062,48.828,42.969,26.855,46.875,-256.836
1532281146.066,49.316,42.969,26.855,41.992,-48.340
1532281146.070,46.387,40.039,28.809,39.551,283.691
1532281146.074,41.504,36.621,28.809,44.434,127.441
1532281146.078,41.504,37.598,31.738,45.410,-239.746
1532281146.082,40.527,39.062,33.691,52.734,-130.371
1532281146.086,41.016,37.598,33.203,51.758,255.371
1532281146.090,41.016,35.645,33.203,51.270,232.422
1532281146.094,37.109,34.668,32.715,51.270,-145.020
1532281146.098,38.086,36.621,29.785,45.410,-194.824
1532281146.102,39.062,36.133,27.344,42.480,182.617
1532281146.105,34.180,38.086,26.855,39.062,306.152
1532281146.109,32.227,40.527,28.809,36.133,-50.293
1532281146.113,34.668,37.598,29.297,36.133,-277.344
1532281146.117,36.621,35.156,26.855,41.504,38.574
1532281146.121,34.180,33.203,24.414,41.992,319.336
1532281146.125,29.785,32.715,25.391,30.762,24.902
1532281146.129,31.250,31.250,28.320,28.320,-298.828
1532281146.133,39.551,30.762,28.809,42.480,-68.848
1532281146.137,37.109,30.762,27.832,45.898,299.805
1532281146.141,27.832,32.715,26.367,36.133,159.180
1532281146.144,27.832,33.691,26.855,32.227,-230.957
1532281146.148,30.762,33.203,27.832,37.109,-155.762
1532281146.152,33.203,33.203,28.320,34.668,231.934
1532281146.156,35.156,33.691,28.320,32.715,254.883
1532281146.160,33.691,31.738,26.367,33.203,-114.746
1532281146.164,31.250,29.785,26.855,28.809,-217.285
1532281146.168,32.715,27.344,25.879,29.297,134.277
1532281146.172,39.062,27.832,24.902,33.203,295.898
1532281146.176,40.039,30.762,23.926,28.809,-29.785
1532281146.180,38.574,30.762,20.996,26.367,-239.258
1532281146.184,39.551,30.762,20.996,26.855,45.898
1532281146.187,35.156,32.227,22.949,29.297,303.223
1532281146.191,35.645,32.715,23.438,29.785,45.898
1532281146.195,37.109,32.715,24.414,24.902,-260.254
1532281146.199,39.551,32.715,25.391,29.297,-48.340
1532281146.203,44.434,33.691,26.367,41.016,288.574
1532281146.207,39.062,34.180,30.762,41.504,155.762
1532281146.211,30.762,32.227,31.250,31.250,-210.449
1532281146.215,35.156,29.297,28.809,37.598,-173.340
1532281146.219,44.434,30.762,30.273,49.805,217.773
1532281146.223,45.898,34.668,31.738,49.316,236.816
1532281146.227,38.086,38.086,31.738,38.086,-141.113
1532281146.230,32.227,37.598,29.297,36.621,-227.051
1532281146.234,35.156,35.645,29.785,44.922,123.047
1532281146.238,37.598,37.109,32.715,43.945,307.617
1532281146.242,38.574,38.574,31.738,43.945,-2.930
1532281146.246,43.457,39.062,28.809,43.945,-254.395
1532281146.250,44.922,37.598,28.320,44.434,18.555
1532281146.254,40.527,35.645,30.762,46.875,323.730
1532281146.258,39.062,36.133,34.668,41.992,117.188
1532281146.262,37.598,36.621,31.738,40.527,-237.305
1532281146.266,33.203,37.598,32.715,43.457,-135.742
1532281146.269,32.715,37.598,35.645,45.410,256.348
1532281146.273,37.109,35.645,34.180,45.410,227.539
1532281146.277,36.133,36.133,35.645,43.457,-161.621
1532281146.281,37.598,37.598,35.156,46.387,-193.359
1532281146.285,34.668,37.598,35.156,45.410,177.246
1532281146.289,27.344,39.551,39.062,40.039,290.527
1532281146.293,29.785,39.062,39.551,41.504,-51.270
1532281146.297,29.785,37.598,40.039,44.922,-247.559
1532281146.301,28.809,39.062,38.574,42.969,91.309
1532281146.305,29.785,39.551,35.645,40.039,327.637
1532281146.309,23.438,40.039,40.039,35.645,1.953
1532281146.312,20.996,38.574,40.527,41.504,-256.836
1532281146.316,26.367,37.598,39.062,47.852,-5.859
1532281146.320,25.391,39.551,35.645,44.434,328.613
1532281146.324,23.926,39.551,35.156,39.551,133.789
1532281146.328,27.832,38.574,37.109,40.039,-250.488
1532281146.332,28.320,38.086,37.598,43.945,-125.977
1532281146.336,28.320,38.574,35.156,41.992,262.207
1532281146.340,34.668,41.504,29.785,32.715,242.676
1532281146.344,33.203,40.527,31.738,32.715,-160.645
1532281146.348,32.227,40.527,35.156,42.480,-243.652
1532281146.351,33.691,38.574,36.133,47.363,145.508
1532281146.355,32.715,39.062,36.133,43.457,270.020
1532281146.359,35.156,40.039,37.109,36.133,-70.801
1532281146.363,34.180,38.086,34.180,37.598,-266.602
1532281146.367,34.668,40.039,30.273,34.180,9.277
1532281146.371,33.203,40.039,29.785,32.227,280.762
1532281146.375,27.344,39.062,27.344,29.785,80.566
1532281146.379,28.809,39.551,23.926,28.809,-226.562
1532281146.383,31.250,40.039,22.949,34.668,-69.336
1532281146.387,30.762,38.086,20.996,33.691,276.855
1532281146.391,26.367,37.598,16.602,31.738,179.199
1532281146.394,26.855,39.062,17.578,31.250,-204.590
1532281146.398,30.762,37.109,18.066,31.250,-179.199
1532281146.402,30.273,37.109,19.043,33.203,229.004
1532281146.406,29.297,37.109,19.043,28.320,245.117
1532281146.410,28.320,36.133,17.090,23.926,-155.762
1532281146.414,28.320,34.668,15.625,28.320,-249.023
1532281146.418,29.297,32.227,17.090,35.156,117.188
1532281146.422,22.461,33.203,19.531,34.180,332.520
1532281146.426,16.602,36.621,19.043,30.273,-17.578
1532281146.430,20.020,36.133,17.090,28.320,-286.133
1532281146.434,21.484,34.668,15.137,30.273,10.254
1532281146.437,25.391,34.668,16.113,34.668,302.246
1532281146.441,24.414,34.668,18.555,31.250,92.773
1532281146.445,25.879,35.645,19.531,30.273,-260.742
1532281146.449,28.809,36.621,21.484,34.668,-114.258
1532281146.453,28.320,36.621,24.414,39.062,283.691
1532281146.457,31.738,38.574,22.461,36.133,211.914
1532281146.461,29.297,39.062,23.926,38.086,-149.902
1532281146.465,29.297,37.109,29.785,43.457,-156.250
1532281146.469,28.809,36.621,29.785,41.016,216.309
1532281146.473,25.879,36.133,31.250,34.668,308.594
1532281146.476,28.809,38.574,35.156,36.621,-84.961
1532281146.480,28.809,37.598,35.156,39.551,-238.281
1532281146.484,32.227,37.598,35.645,40.527,106.934
1532281146.488,31.250,38.086,35.156,39.062,305.176
1532281146.492,26.367,34.668,39.062,36.621,37.598
1532281146.496,30.762,33.691,40.527,35.156,-237.793
1532281146.500,36.133,34.668,39.062,39.062,-8.789
1532281146.504,45.898,36.133,38.574,40.527,303.223
1532281146.508,44.922,40.039,39.062,30.273,94.727
1532281146.512,35.645,41.992,43.945,29.785,-237.793
1532281146.516,40.527,40.527,42.969,37.598,-97.168
1532281146.519,47.363,39.062,38.574,43.457,283.691
1532281146.523,45.410,39.062,38.574,41.992,255.371
1532281146.527,41.016,37.109,41.016,40.527,-158.691
1532281146.531,36.133,35.645,38.574,40.039,-194.824
1532281146.535,32.715,36.621,35.156,43.945,192.383
1532281146.539,32.227,37.109,35.645,43.945,304.688
1532281146.543,30.762,38.574,34.180,38.574,-64.453
1532281146.547,26.367,39.062,36.133,33.203,-281.738
1532281146.551,19.531,36.621,35.156,30.762,57.129
1532281146.555,19.531,36.133,31.738,33.203,343.750
1532281146.559,22.949,36.621,32.227,34.180,71.777
1532281146.562,31.250,35.156,30.762,35.645,-244.141
1532281146.566,34.668,35.156,26.855,36.621,-62.012
1532281146.570,30.273,33.203,28.809,38.086,281.250
1532281146.574,28.320,30.273,35.156,35.156,141.113
1532281146.578,29.785,34.668,32.227,30.762,-208.496
1532281146.582,33.203,38.086,25.879,35.156,-142.578
1532281146.586,35.156,37.598,26.855,33.691,233.398
1532281146.590,34.668,37.598,27.832,27.344,255.859
1532281146.594,31.250,36.133,28.809,30.273,-130.859
1532281146.598,30.762,34.668,31.738,31.738,-222.656
1532281146.601,34.180,36.133,28.320,36.133,156.738
1532281146.605,34.668,36.621,29.297,32.227,292.969
1532281146.609,35.156,35.156,30.762,27.344,-51.270
1532281146.613,36.621,33.691,29.785,37.598,-234.375
1532281146.617,41.016,33.203,29.297,47.852,33.203
1532281146.621,43.945,34.180,30.273,46.387,280.762
1532281146.625,42.480,34.668,31.738,41.016,78.125
1532281146.629,44.922,33.691,32.715,41.504,-248.047
1532281146.633,44.922,35.645,33.203,48.828,-79.102
1532281146.637,41.992,35.645,36.621,50.781,279.785
1532281146.641,41.504,35.645,36.621,43.945,176.758
1532281146.644,40.039,38.574,36.133,37.109,-211.426
1532281146.648,41.504,38.574,37.598,39.551,-192.871
1532281146.652,41.016,35.645,40.527,46.875,215.332
1532281146.656,38.086,33.691,41.992,37.598,239.746
1532281146.660,41.504,34.180,38.086,35.156,-119.141
1532281146.664,47.852,36.133,34.668,34.180,-231.934
1532281146.668,52.734,37.598,34.668,34.180,119.629
1532281146.672,58.594,37.109,36.133,41.992,320.312
1532281146.676,52.246,35.156,38.086,42.969,-38.574
1532281146.680,44.922,34.180,39.551,41.992,-276.855
1532281146.684,42.969,33.691,37.598,44.922,9.277
1532281146.687,39.551,33.691,38.574,52.734,310.059
1532281146.691,35.645,34.180,39.062,59.082,115.234
1532281146.695,29.785,34.668,38.574,54.688,-240.723
1532281146.699,31.738,34.180,36.133,53.711,-96.680
1532281146.703,32.715,33.203,35.156,52.246,266.113
1532281146.707,26.855,33.691,36.133,38.574,189.941
1532281146.711,28.809,38.086,36.133,37.598,-185.547
1532281146.715,34.180,38.574,38.086,41.016,-192.871
1532281146.719,41.992,35.645,37.109,44.434,193.848
1532281146.723,42.969,37.109,35.156,51.270,280.273
1532281146.726,41.504,41.016,34.180,40.039,-90.332
1532281146.730,37.109,41.504,34.668,32.227,-254.395
1532281146.734,29.297,37.109,35.645,39.551,90.820
1532281146.738,29.297,35.156,37.109,36.621,322.266
1532281146.742,28.809,36.133,37.109,26.367,33.691
1532281146.746,31.738,35.645,34.668,23.926,-259.766
1532281146.750,32.227,36.621,32.227,34.180,-20.508
1532281146.754,21.484,37.109,32.715,35.156,324.707
1532281146.758,18.066,34.668,35.156,29.297,154.785
1532281146.762,22.949,34.180,35.156,28.809,-211.426
1532281146.766,25.879,36.621,33.691,31.738,-93.262
1532281146.769,29.785,36.621,30.273,36.621,260.254
1532281146.773,32.715,34.668,28.320,34.668,242.676
1532281146.777,28.320,34.180,29.785,30.273,-131.348
1532281146.781,26.367,34.180,30.273,32.715,-187.500
1532281146.785,27.832,34.668,28.809,30.273,186.035
1532281146.789,25.391,33.691,28.809,24.414,270.996
1532281146.793,30.762,31.250,31.738,30.762,-85.938
1532281146.797,37.598,32.227,31.738,32.715,-263.672
1532281146.801,32.715,30.762,30.273,35.156,55.176
1532281146.805,27.344,30.273,30.273,34.668,322.754
1532281146.809,28.320,31.738,31.250,29.785,62.500
1532281146.812,29.785,28.809,32.227,29.297,-256.348
1532281146.816,33.203,26.855,31.738,33.691,-44.434
1532281146.820,28.320,24.902,28.809,32.715,309.570
1532281146.824,25.391,25.391,28.809,19.531,147.461
1532281146.828,28.320,26.367,28.320,14.648,-236.816
1532281146.832,22.949,22.949,26.367,22.949,-159.668
1532281146.836,17.090,19.531,26.855,23.438,206.543
1532281146.840,17.578,21.973,27.344,20.996,240.234
1532281146.844,22.461,23.926,24.902,20.996,-131.836
1532281146.848,23.438,22.949,23.926,18.066,-227.051
1532281146.851,23.438,20.996,25.391,21.973,153.809
1532281146.855,24.902,22.461,25.391,22.949,308.105
1532281146.859,22.461,22.949,23.926,20.020,-38.086
1532281146.863,20.508,19.531,23.926,24.414,-281.250
1532281146.867,20.020,19.043,25.391,24.902,-9.766
1532281146.871,16.602,20.508,27.832,21.973,306.641
1532281146.875,12.207,20.996,26.855,20.996,84.961
1532281146.879,14.160,20.508,29.785,20.508,-251.953
1532281146.883,21.484,20.996,30.273,24.414,-78.125
1532281146.887,23.438,21.973,26.367,23.926,309.082
1532281146.891,22.461,23.926,25.879,18.066,191.895
1532281146.894,20.996,25.391,25.879,15.625,-231.445
1532281146.898,20.996,24.414,22.949,18.555,-205.078
1532281146.902,24.414,24.414,20.996,21.973,208.984
1532281146.906,25.391,25.879,23.926,20.020,263.184
1532281146.910,24.414,26.367,25.879,18.555,-113.281
1532281146.914,25.879,25.879,24.902,22.949,-258.789
1532281146.918,27.832,23.926,25.391,27.832,109.375
1532281146.922,27.832,23.926,26.367,29.297,329.590
1532281146.926,28.320,26.855,26.367,23.926,-0.977
1532281146.930,27.344,28.320,26.855,19.531,-252.930
1532281146.933,22.461,25.879,25.879,27.344,3.906
1532281146.937,17.090,21.973,26.855,27.832,319.824
1532281146.941,14.160,22.949,28.809,23.926,136.719
1532281146.945,18.066,25.879,26.855,23.926,-235.352
1532281146.949,20.508,26.855,25.879,25.391,-120.117
1532281146.953,15.137,26.367,24.414,25.879,275.391
1532281146.957,13.184,26.367,24.902,20.996,232.910
1532281146.961,15.137,24.902,25.879,26.367,-172.852
1532281146.965,20.020,26.367,23.926,29.297,-207.520
1532281146.969,21.484,26.855,24.902,21.484,181.152
1532281146.973,23.438,24.414,29.297,25.879,239.258
1532281146.976,21.973,21.973,29.785,31.250,-121.094
1532281146.980,18.555,22.461,29.785,32.227,-261.719
1532281146.984,20.020,22.949,32.715,30.762,70.312
1532281146.988,16.113,22.461,35.645,26.855,331.543
1532281146.992,10.254,24.414,32.715,23.438,62.012
1532281146.996,8.789,24.414,27.832,18.066,-259.277
1532281147.000,15.625,22.949,28.320,23.438,-33.203
1532281147.004,24.414,24.414,29.785,28.320,333.984
1532281147.008,26.855,25.391,31.250,23.438,143.555
1532281147.012,29.785,27.344,28.320,23.926,-211.914
1532281147.016,32.715,29.297,27.344,28.320,-106.934
1532281147.019,30.762,29.785,31.738,34.668,254.395
1532281147.023,26.367,29.785,32.227,28.320,238.770
1532281147.027,23.438,28.809,32.227,23.438,-151.855
1532281147.031,24.902,26.367,32.715,31.250,-191.406
1532281147.035,24.902,25.391,32.227,35.645,180.176
1532281147.039,26.367,26.855,30.762,32.715,309.570
1532281147.043,22.949,26.367,29.297,23.926,-37.109
1532281147.047,21.973,24.414,27.344,20.508,-259.766
1532281147.051,19.531,22.461,28.320,25.391,42.480
1532281147.055,16.602,23.926,30.273,28.809,320.801
1532281147.058,20.996,25.879,30.762,25.879,74.707
1532281147.062,20.996,23.926,30.762,24.902,-248.047
1532281147.066,24.902,24.414,28.320,29.785,-77.637
1532281147.070,33.691,25.879,26.855,34.180,291.016
1532281147.074,36.133,26.855,28.809,35.156,187.988
1532281147.078,41.504,32.715,29.785,33.203,-229.980
1532281147.082,45.898,32.227,28.809,32.227,-190.918
1532281147.086,41.504,26.855,29.785,31.738,213.867
1532281147.090,32.227,27.344,29.785,30.762,230.957
1532281147.094,31.738,27.832,29.785,28.320,-120.117
1532281147.098,35.645,25.391,26.855,26.367,-217.773
1532281147.101,33.691,23.438,26.367,29.785,138.672
1532281147.105,31.738,24.414,28.320,22.949,312.988
1532281147.109,30.273,24.414,25.391,17.090,-34.180
1532281147.113,34.180,23.926,24.414,29.297,-267.090
1532281147.117,33.203,24.414,29.297,36.621,25.391
1532281147.121,32.715,23.926,27.832,34.668,322.266
1532281147.125,33.203,25.391,25.879,31.250,97.656
1532281147.129,28.320,26.367,29.297,33.203,-248.047
1532281147.133,26.367,25.879,28.320,38.574,-71.289
1532281147.137,25.879,23.438,26.855,39.062,300.781
1532281147.141,23.926,22.949,28.320,38.086,207.520
1532281147.144,22.949,23.926,27.344,31.738,-207.520
1532281147.148,22.949,24.902,26.855,28.809,-248.047
1532281147.152,21.973,25.391,27.832,33.203,172.363
1532281147.156,23.438,25.879,28.320,35.156,270.996
1532281147.160,26.367,27.344,26.367,35.156,-121.094
1532281147.164,27.832,28.320,24.902,36.621,-276.367
1532281147.168,31.738,28.809,27.344,39.062,80.566
1532281147.172,33.203,28.809,30.273,34.180,291.992
1532281147.176,32.715,32.227,30.273,26.855,19.531
1532281147.180,37.598,37.598,26.855,28.320,-228.516
1532281147.183,39.551,37.109,24.902,30.273,0.000
1532281147.187,34.180,31.738,23.926,24.902,325.684
1532281147.191,31.738,34.180,23.438,20.508,122.070
1532281147.195,33.203,35.156,25.391,20.996,-252.441
1532281147.199,32.227,32.715,24.414,23.926,-133.789
1532281147.203,32.227,31.738,25.879,29.297,271.973
1532281147.207,28.809,29.785,29.297,24.414,221.191
1532281147.211,28.809,29.785,25.391,20.020,-195.801
1532281147.215,30.762,29.785,22.461,27.832,-196.289
1532281147.219,27.832,28.320,22.949,28.809,205.566
1532281147.223,25.879,27.832,23.926,25.879,298.340
1532281147.226,24.414,29.785,26.367,24.902,-71.777
1532281147.230,21.484,29.297,25.391,25.391,-240.723
1532281147.234,21.484,30.273,26.367,31.738,69.336
1532281147.238,21.484,32.715,27.832,32.227,299.316
1532281147.242,19.531,34.180,30.273,31.738,37.109
1532281147.246,22.949,36.133,32.715,28.320,-285.645
1532281147.250,28.809,37.598,32.227,29.785,-87.891
1532281147.254,27.832,35.156,32.227,38.086,299.316
1532281147.258,29.297,37.109,34.668,38.086,175.293
1532281147.262,34.668,41.016,35.645,37.109,-221.191
1532281147.266,35.156,41.992,33.691,36.621,-185.547
1532281147.269,33.691,40.527,32.715,37.109,245.605
1532281147.273,35.156,42.969,33.203,34.180,284.180
1532281147.277,32.227,43.457,30.762,27.832,-137.695
1532281147.281,33.203,41.992,31.738,31.250,-215.332
1532281147.285,37.598,40.527,33.203,34.668,168.457
1532281147.289,38.574,38.574,35.156,33.203,303.223
1532281147.293,37.109,39.551,36.133,32.227,-62.500
1532281147.297,37.109,40.527,35.156,30.273,-268.555
1532281147.301,39.062,38.574,37.598,36.133,45.898
1532281147.305,38.574,36.621,39.062,37.109,313.965
1532281147.308,35.156,39.551,38.086,31.250,42.480
1532281147.312,35.645,42.969,38.086,33.691,-278.809
1532281147.316,38.574,43.457,36.133,35.156,-81.055
1532281147.320,43.457,43.945,35.645,38.086,286.133
1532281147.324,41.504,42.480,39.551,38.574,188.477
1532281147.328,34.180,40.527,41.992,38.574,-206.543
1532281147.332,36.621,41.504,40.527,41.992,-210.938
1532281147.336,38.574,43.457,37.598,41.992,181.152
1532281147.340,38.086,42.969,38.574,43.457,269.043
1532281147.344,36.621,39.062,41.504,41.016,-111.328
1532281147.348,40.039,40.527,40.039,41.016,-289.062
1532281147.351,42.480,43.945,38.574,46.875,96.680
1532281147.355,37.109,42.969,36.621,40.527,335.449
1532281147.359,36.133,41.992,34.180,37.109,-17.090
1532281147.363,39.062,40.527,36.133,41.504,-283.691
1532281147.367,41.504,41.992,36.621,38.574,-8.789
1532281147.371,48.340,47.363,38.086,35.645,300.293
1532281147.375,47.852,49.805,38.574,29.297,97.168
1532281147.379,46.875,51.758,32.715,25.391,-252.441
1532281147.383,50.293,54.688,28.809,28.320,-115.234
1532281147.387,46.875,52.734,32.715,25.391,255.371
1532281147.390,40.039,51.270,38.574,25.879,212.891
1532281147.394,37.109,48.828,39.551,35.156,-177.734
1532281147.398,34.668,41.992,40.527,41.992,-198.242
1532281147.402,33.203,39.062,42.480,45.898,219.727
1532281147.406,32.227,41.016,41.504,42.969,308.594
1532281147.410,30.273,42.969,41.016,38.574,-77.148
1532281147.414,28.809,44.434,38.086,39.062,-246.094
1532281147.418,26.367,44.434,35.645,34.180,93.750
1532281147.422,26.367,46.387,36.621,31.250,338.379
1532281147.426,27.832,48.340,37.598,26.855,25.879
1532281147.430,27.344,48.828,35.645,22.949,-276.855
1532281147.433,26.855,48.340,33.691,32.227,-0.977
1532281147.437,25.879,47.852,40.039,34.180,340.820
1532281147.441,27.832,45.898,45.410,33.203,149.414
1532281147.445,29.297,46.875,43.945,36.133,-213.867
1532281147.449,37.109,46.875,42.969,43.457,-106.934
1532281147.453,39.551,45.410,41.016,42.969,283.203
1532281147.457,40.527,46.875,38.574,37.109,277.832
1532281147.461,44.434,49.316,41.992,34.180,-132.324
1532281147.465,39.551,48.340,42.480,33.691,-220.703
1532281147.469,34.668,47.363,40.527,38.086,178.711
1532281147.473,31.250,44.922,42.969,41.016,302.246
1532281147.476,27.832,43.457,43.945,35.156,-61.035
1532281147.480,33.691,41.016,44.434,37.598,-242.676
1532281147.484,38.574,40.039,43.457,47.852,34.668
1532281147.488,38.574,45.410,37.109,40.527,275.879
1532281147.492,32.227,47.852,33.203,33.691,58.594
1532281147.496,29.297,46.387,37.598,34.668,-229.492
1532281147.500,33.203,45.410,40.039,36.133,-35.645
1532281147.504,35.156,45.410,39.551,36.133,300.781
1532281147.508,34.180,41.504,42.480,37.598,149.414
1532281147.512,34.180,40.527,42.480,37.109,-223.633
1532281147.515,40.039,42.480,41.992,37.598,-148.926
1532281147.519,49.316,41.992,39.062,44.434,254.395
1532281147.523,47.852,43.457,38.086,45.898,269.531
1532281147.527,41.016,43.945,43.945,31.738,-171.387
1532281147.531,39.551,43.457,41.016,31.250,-271.973
1532281147.535,36.621,42.480,36.133,41.504,155.273
1532281147.539,34.180,41.016,38.574,42.480,329.102
1532281147.543,38.574,41.504,40.039,40.527,-30.273
1532281147.547,38.574,41.992,40.039,34.180,-261.719
1532281147.551,41.992,44.434,34.668,34.180,26.367
1532281147.555,50.293,45.898,32.227,37.109,341.309
1532281147.558,43.457,43.945,36.621,32.227,115.234
1532281147.562,27.344,41.504,39.062,32.715,-254.883
1532281147.566,22.461,38.086,36.133,33.691,-91.309
1532281147.570,26.855,35.645,36.621,33.691,303.711
1532281147.574,29.785,35.645,40.039,36.133,213.379
1532281147.578,34.180,36.621,38.086,36.133,-183.594
1532281147.582,36.621,36.621,38.086,36.621,-180.176
1532281147.586,36.621,37.598,38.574,38.086,220.215
1532281147.590,39.551,38.086,39.062,38.574,284.180
1532281147.594,44.434,38.574,40.039,37.598,-93.262
1532281147.598,43.457,39.062,40.039,38.086,-209.473
1532281147.601,39.062,40.039,39.062,43.457,153.320
1532281147.605,41.504,41.016,36.621,41.504,327.637
1532281147.609,41.992,41.016,37.109,39.062,-4.395
1532281147.613,41.016,43.457,38.574,39.551,-259.766
1532281147.617,41.016,44.434,36.621,42.480,-5.371
1532281147.621,40.039,41.016,35.645,40.039,323.242
1532281147.625,39.551,41.504,37.109,34.180,112.305
1532281147.629,41.992,42.480,37.598,36.133,-282.715
1532281147.633,40.039,40.039,38.574,40.527,-120.117
1532281147.637,40.039,39.062,37.598,41.992,296.387
1532281147.640,41.504,37.109,39.551,41.016,227.539
1532281147.644,38.574,37.598,43.457,36.133,-186.035
1532281147.648,39.062,39.062,39.551,41.504,-204.102
1532281147.652,36.621,38.086,35.645,48.828,180.176
1532281147.656,37.109,37.598,40.527,46.387,302.734
1532281147.660,40.039,34.180,42.969,43.945,-62.012
1532281147.664,32.715,30.273,40.527,41.992,-268.066
1532281147.668,31.738,27.344,39.551,40.527,45.898
1532281147.672,31.738,23.926,38.574,39.551,302.246
1532281147.676,30.273,20.996,38.574,37.598,63.965
1532281147.680,30.762,18.066,39.062,42.969,-233.398
1532281147.683,29.297,17.090,40.527,41.504,-10.742
1532281147.687,34.668,18.066,40.039,40.527,340.820
1532281147.691,34.668,16.602,38.574,44.434,144.531
1532281147.695,30.273,15.137,38.086,38.574,-263.672
1532281147.699,33.691,17.090,38.086,38.086,-150.879
1532281147.703,40.527,15.625,38.574,43.945,270.996
1532281147.707,36.133,11.719,41.504,45.898,253.906
1532281147.711,30.273,12.207,43.457,43.945,-145.508
1532281147.715,36.621,15.625,41.504,43.457,-215.820
1532281147.719,43.457,18.066,39.062,47.363,178.223
1532281147.723,43.945,21.484,35.156,46.387,336.914
1532281147.726,34.180,23.438,36.133,33.203,-41.016
1532281147.730,29.785,20.996,38.574,33.203,-270.996
1532281147.734,34.668,20.508,36.133,42.480,63.477
1532281147.738,33.203,20.020,38.574,39.062,344.238
1532281147.742,29.785,18.555,40.527,39.062,68.359
1532281147.746,34.180,18.555,40.039,41.016,-270.020
1532281147.750,35.645,19.043,40.527,44.434,-67.871
1532281147.754,37.598,20.508,38.574,51.758,314.941
1532281147.758,38.574,23.438,39.551,47.852,202.637
1532281147.762,32.715,23.438,38.086,36.133,-211.914
1532281147.765,30.762,22.461,36.133,38.086,-186.035
1532281147.769,32.227,22.949,36.621,46.387,231.445
1532281147.773,33.203,23.926,37.109,49.316,293.457
1532281147.777,36.621,23.438,38.574,48.340,-102.051
1532281147.781,38.574,22.949,36.621,47.363,-205.078
1532281147.785,33.691,23.926,33.691,45.410,146.973
1532281147.789,32.227,24.902,33.203,39.551,282.715
1532281147.793,31.738,23.926,35.156,41.016,-20.508
1532281147.797,39.062,23.926,35.645,43.457,-249.512
1532281147.801,40.527,24.414,36.621,47.852,25.391
1532281147.805,32.227,23.438,37.109,45.898,309.570
1532281147.808,28.320,25.879,36.133,37.109,87.891
1532281147.812,28.320,26.855,35.645,44.434,-235.840
1532281147.816,32.227,24.414,37.109,48.828,-76.660
1532281147.820,31.738,23.438,36.133,48.828,318.359
1532281147.824,34.180,23.926,36.621,45.410,237.305
1532281147.828,36.621,23.926,35.156,41.504,-173.828
1532281147.832,39.062,22.949,35.156,41.992,-177.246
1532281147.836,39.062,24.414,37.109,47.852,211.914
1532281147.840,38.086,23.926,33.691,45.898,289.062
1532281147.844,36.133,23.926,31.250,39.062,-81.055
1532281147.848,33.691,25.391,30.762,38.574,-259.277
1532281147.851,36.133,24.902,30.273,41.992,99.121
1532281147.855,36.621,24.902,31.250,44.434,362.793
1532281147.859,36.133,24.414,32.715,44.922,54.688
1532281147.863,36.133,22.949,33.203,46.387,-257.324
1532281147.867,34.668,22.949,33.203,43.945,-11.719
1532281147.871,36.133,23.926,30.762,45.898,328.125
1532281147.875,41.016,23.438,31.738,47.852,143.066
1532281147.879,40.527,22.949,30.762,46.875,-225.586
1532281147.883,41.016,22.949,29.297,54.199,-135.742
1532281147.887,39.551,24.414,31.738,54.199,269.043
1532281147.890,37.109,25.391,33.691,49.316,248.535
1532281147.894,37.109,24.902,32.227,49.805,-165.527
1532281147.898,36.621,24.902,27.832,45.410,-218.750
1532281147.902,42.480,24.902,26.855,49.805,175.781
1532281147.906,45.410,26.855,26.855,49.805,274.902
1532281147.910,43.457,26.367,27.832,38.574,-109.863
1532281147.914,43.945,26.855,27.832,43.945,-278.809
1532281147.918,48.340,28.320,26.855,54.199,83.496
1532281147.922,49.316,27.344,30.273,57.129,361.816
1532281147.926,43.945,28.809,34.180,50.781,60.547
1532281147.930,37.109,27.344,30.273,42.480,-274.902
1532281147.933,40.039,24.414,24.902,43.945,-57.129
1532281147.937,42.480,25.879,23.926,41.992,314.453
1532281147.941,40.039,25.879,26.367,36.133,170.898
1532281147.945,40.527,28.320,25.391,36.133,-240.234
1532281147.949,40.527,31.738,21.484,37.598,-177.734
1532281147.953,42.480,34.180,23.926,49.805,233.398
1532281147.957,42.969,35.156,26.855,53.223,249.023
1532281147.961,39.551,34.180,28.320,47.363,-157.227
1532281147.965,41.504,36.133,26.367,45.898,-259.766
1532281147.969,46.387,38.574,23.926,16.602,145.996
1532281147.972,46.387,38.086,24.902,-19.043,324.707
1532281147.976,43.945,37.109,25.391,-33.203,-22.461
1532281147.980,42.480,38.086,22.949,-48.340,-240.723
1532281147.984,44.434,40.039,19.043,-57.617,41.016
1532281147.988,40.039,40.527,21.484,-61.523,294.922
1532281147.992,34.180,39.551,23.926,-68.848,70.312
1532281147.996,37.598,40.527,24.414,-66.406,-239.746
1532281148.000,36.621,39.062,24.902,-59.570,-70.801
1532281148.004,35.156,38.086,25.879,-60.547,280.273
1532281148.008,38.574,42.480,26.855,-68.848,148.926
1532281148.012,41.504,42.480,26.855,-68.359,-225.586
1532281148.015,41.504,42.480,27.344,-58.594,-184.082
1532281148.019,41.992,41.992,25.879,-52.246,235.840
1532281148.023,44.434,41.992,26.855,-51.758,291.992
1532281148.027,40.039,42.480,29.297,-53.711,-125.977
1532281148.031,36.133,43.457,27.344,-48.340,-230.957
1532281148.035,38.574,43.457,23.926,-47.852,158.691
1532281148.039,40.039,42.969,25.391,-52.734,334.473
1532281148.043,36.133,42.480,26.367,-57.129,-19.043
1532281148.047,33.691,41.992,24.414,-62.988,-295.410
1532281148.051,35.156,42.480,23.438,-60.547,-17.090
1532281148.055,38.086,41.504,24.414,-55.664,325.195
1532281148.058,39.062,41.016,23.926,-61.035,105.957
1532281148.062,37.598,41.504,22.461,-63.477,-256.836
1532281148.066,43.457,42.480,21.973,-56.152,-117.188
1532281148.070,40.039,41.504,21.973,-53.223,275.391
1532281148.074,36.621,40.039,22.461,-55.664,213.379
1532281148.078,41.016,40.039,21.484,-58.105,-200.684
1532281148.082,42.969,39.062,22.949,-50.781,-207.031
1532281148.086,46.387,39.551,22.461,-48.828,154.785
1532281148.090,43.945,41.016,20.996,-61.523,249.512
1532281148.094,45.898,39.062,22.461,-52.734,-94.238
1532281148.097,45.898,37.109,22.949,-40.039,-245.605
1532281148.101,38.086,36.621,22.461,-33.691,89.355
1532281148.105,32.715,33.203,22.949,-26.855,306.641
1532281148.109,33.203,32.227,23.926,-28.320,26.367
1532281148.113,34.180,31.250,25.391,-26.367,-265.625
1532281148.117,32.715,29.785,24.902,-17.578,-36.133
1532281148.121,32.715,29.297,22.949,-16.602,321.289
1532281148.125,31.250,27.832,21.973,-21.484,141.113
1532281148.129,29.785,24.902,20.996,-21.484,-246.582
1532281148.133,29.785,23.438,18.555,-19.043,-151.855
1532281148.137,31.250,24.414,18.555,-20.020,248.047
1532281148.140,31.250,24.902,19.531,-22.461,251.465
1532281148.144,22.949,23.926,19.043,-26.855,-166.992
1532281148.148,22.461,23.926,17.090,-28.809,-264.160
1532281148.152,24.414,22.949,15.137,-21.484,136.230
1532281148.156,23.438,22.461,18.066,-17.090,310.059
1532281148.160,24.902,24.414,19.043,-19.531,-33.203
1532281148.164,28.320,23.926,14.648,-19.531,-246.094
1532281148.168,32.227,24.902,14.160,-15.137,66.406
1532281148.172,30.762,24.902,13.672,-16.113,330.078
1532281148.176,24.902,23.438,12.695,-20.508,49.805
1532281148.180,22.461,24.902,11.719,-18.066,-270.508
1532281148.183,24.414,25.391,14.160,-14.160,-65.430
1532281148.187,22.949,23.926,18.066,-14.160,292.969
1532281148.191,21.484,22.949,17.578,-14.160,160.156
1532281148.195,20.508,22.461,17.578,-10.742,-204.102
1532281148.199,22.949,21.484,17.090,-6.348,-137.695
1532281148.203,26.367,21.484,19.531,-1.465,251.465
1532281148.207,23.926,23.438,21.973,-10.742,248.047
1532281148.211,26.855,23.926,21.973,-15.137,-156.738
1532281148.215,24.902,24.902,19.531,-9.766,-239.746
1532281148.219,18.555,25.391,21.484,-9.766,116.699
1532281148.222,16.602,24.414,22.461,-6.836,296.875
1532281148.226,16.602,24.902,20.996,-9.766,-55.664
1532281148.230,21.484,25.391,20.020,-7.812,-290.039
1532281148.234,19.043,22.949,21.484,-3.906,26.367
1532281148.238,16.113,22.461,24.414,-5.371,323.242
1532281148.242,20.996,25.879,22.949,-3.906,92.773
1532281148.246,28.320,26.367,22.949,0.488,-267.090
1532281148.250,27.832,23.438,24.902,1.953,-106.445
1532281148.254,23.926,24.902,24.414,3.418,280.273
1532281148.258,21.973,24.902,26.367,-1.953,198.730
1532281148.262,25.391,22.949,28.320,-2.441,-170.898
1532281148.265,32.715,23.926,25.879,2.441,-161.133
1532281148.269,31.250,23.926,26.367,6.836,200.195
1532281148.273,23.926,21.973,26.855,2.930,277.344
1532281148.277,23.926,19.531,25.879,-1.953,-78.125
1532281148.281,29.297,18.555,28.809,9.277,-228.027
1532281148.285,33.691,18.555,29.297,8.789,124.512
1532281148.289,33.691,18.066,28.809,5.859,339.355
1532281148.293,29.297,18.555,27.344,15.137,12.207
1532281148.297,25.879,16.602,28.809,10.742,-270.020
1532281148.301,23.926,15.137,28.809,11.719,4.395
1532281148.305,21.484,15.625,29.785,12.695,316.895
1532281148.308,23.438,12.695,30.273,9.277,125.000
1532281148.312,27.832,16.113,29.785,9.277,-235.840
1532281148.316,28.809,18.555,29.297,15.137,-131.348
1532281148.320,25.391,18.066,27.832,19.531,253.418
1532281148.324,22.949,19.531,28.320,13.672,206.543
1532281148.328,24.414,22.461,31.250,10.254,-201.660
1532281148.332,25.391,24.414,29.785,18.555,-237.305
1532281148.336,24.414,21.973,26.367,24.414,198.242
1532281148.340,22.461,20.020,27.344,17.578,332.031
1532281148.344,21.973,22.461,29.785,14.648,-61.035
1532281148.347,21.973,23.926,31.738,18.066,-265.137
1532281148.351,21.973,23.438,29.297,19.043,63.477
1532281148.355,23.926,23.438,28.809,17.090,311.523
1532281148.359,25.879,25.391,33.203,14.648,32.227
1532281148.363,26.855,25.391,31.250,16.602,-274.414
1532281148.367,25.391,22.949,29.785,21.484,-71.289
1532281148.371,27.832,25.879,29.297,18.066,287.109
1532281148.375,28.320,28.809,29.297,11.719,134.766
1532281148.379,15.137,25.879,29.785,11.230,-234.375
1532281148.383,13.672,24.414,29.785,15.137,-128.418
1532281148.387,22.461,26.855,26.855,15.137,247.559
1532281148.390,20.996,30.762,23.438,13.672,250.000
1532281148.394,20.996,29.785,22.949,12.207,-145.508
1532281148.398,21.973,27.832,22.461,11.719,-217.773
1532281148.402,20.508,25.879,23.926,13.184,187.012
1532281148.406,23.926,24.902,26.855,13.672,333.496
1532281148.410,27.832,26.855,29.785,14.648,-19.531
1532281148.414,23.438,25.391,27.832,14.160,-251.953
1532281148.418,16.602,21.484,25.879,17.090,57.129
1532281148.422,16.602,21.973,27.344,19.043,343.750
1532281148.426,18.066,23.438,28.320,9.766,52.246
1532281148.430,16.602,21.973,27.832,7.324,-303.223
1532281148.433,20.996,21.973,25.391,19.043,-81.543
1532281148.437,23.926,23.926,20.508,21.973,298.340
1532281148.441,20.020,22.949,21.484,16.602,189.941
1532281148.445,17.578,22.461,26.367,14.160,-207.031
1532281148.449,16.113,21.484,26.855,23.926,-177.734
1532281148.453,14.648,20.996,24.414,30.762,233.398
1532281148.457,13.672,22.461,23.926,24.902,263.184
1532281148.461,13.184,23.926,26.367,20.508,-130.859
1532281148.465,17.578,24.902,25.391,20.996,-239.258
1532281148.469,18.066,26.367,24.902,20.996,130.371
1532281148.472,17.578,26.367,25.879,20.020,304.688
1532281148.476,20.020,24.902,23.438,20.996,-17.578
1532281148.480,20.020,25.391,22.461,25.879,-248.535
1532281148.484,21.973,28.320,22.949,25.879,12.695
1532281148.488,25.879,28.809,23.926,26.855,297.363
1532281148.492,24.902,26.367,24.414,21.484,71.289
1532281148.496,26.367,26.855,26.855,19.531,-251.953
1532281148.500,32.715,28.809,26.367,25.879,-87.402
1532281148.504,29.297,27.832,24.902,24.414,271.484
1532281148.508,27.344,27.344,27.344,19.043,161.133
1532281148.512,28.320,28.809,28.320,16.602,-213.867
1532281148.515,27.832,29.297,28.320,23.438,-178.223
1532281148.519,29.297,28.320,28.809,30.762,210.449
1532281148.523,28.320,25.391,27.344,28.809,286.621
1532281148.527,31.250,26.855,26.855,26.855,-102.051
1532281148.531,33.691,28.809,24.414,27.344,-255.371
1532281148.535,30.762,26.367,23.438,32.715,94.727
1532281148.539,30.762,24.902,24.902,34.180,297.852
1532281148.543,33.203,24.902,25.879,29.297,-12.207
1532281148.547,33.691,26.855,24.902,31.738,-288.574
1532281148.551,36.133,26.367,25.391,36.621,-41.992
1532281148.554,35.156,23.438,29.297,35.645,304.199
1532281148.558,27.832,21.484,31.738,35.645,143.555
1532281148.562,28.320,21.973,29.785,34.668,-228.516
1532281148.566,30.273,22.461,28.809,27.344,-143.555
1532281148.570,26.367,22.461,29.785,20.020,245.117
1532281148.574,22.461,22.461,26.855,20.996,236.816
1532281148.578,21.973,21.484,27.832,24.414,-154.785
1532281148.582,23.438,21.973,27.344,29.297,-191.895
1532281148.586,28.809,22.949,29.297,32.715,188.477
1532281148.590,34.180,22.461,31.250,32.715,295.898
1532281148.594,28.320,23.926,28.320,32.227,-61.035
1532281148.597,21.973,23.438,27.832,32.227,-248.047
1532281148.601,22.461,20.996,27.344,34.668,73.730
1532281148.605,24.414,20.996,30.273,31.738,321.289
1532281148.609,27.832,21.484,32.715,22.461,25.879
1532281148.613,24.414,21.484,33.203,21.973,-263.672
1532281148.617,24.414,21.973,32.227,32.227,-32.715
1532281148.621,32.715,21.484,31.738,34.180,312.012
1532281148.625,35.156,20.996,30.762,32.715,164.062
1532281148.629,32.715,21.484,27.344,33.203,-221.680
1532281148.633,38.086,20.508,24.902,38.574,-150.879
1532281148.637,41.504,21.973,27.832,43.945,236.328
1532281148.640,41.504,22.461,28.320,41.992,260.742
1532281148.644,43.457,20.996,31.738,38.574,-136.719
1532281148.648,40.527,20.508,33.691,37.598,-246.582
1532281148.652,41.016,20.996,31.250,46.387,142.090
1532281148.656,41.504,20.020,32.227,48.340,316.406
1532281148.660,38.574,20.508,30.273,40.527,-10.742
1532281148.664,40.039,22.461,28.320,38.086,-255.859
1532281148.668,39.551,21.484,29.297,41.016,30.273
1532281148.672,37.598,20.508,28.320,43.945,335.938
1532281148.676,38.086,24.414,26.855,43.945,82.520
1532281148.679,37.598,23.926,27.832,44.922,-247.070
1532281148.683,34.180,21.973,32.227,49.805,-59.082
1532281148.687,34.668,24.902,32.715,46.875,301.270
1532281148.691,37.109,24.414,31.738,42.480,155.273
1532281148.695,32.227,23.438,31.250,39.551,-217.773
1532281148.699,28.809,22.949,28.809,38.574,-172.363
1532281148.703,30.273,20.508,29.297,41.016,216.309
1532281148.707,32.715,24.414,31.250,37.109,241.211
1532281148.711,35.645,27.344,32.715,33.691,-176.270
1532281148.715,35.645,25.879,32.227,37.109,-261.719
1532281148.719,37.109,26.367,33.691,45.410,118.164
1532281148.722,35.156,27.344,33.203,49.805,302.246
1532281148.726,35.645,28.320,32.715,42.969,-25.391
1532281148.730,36.133,25.879,34.668,39.551,-288.574
1532281148.734,35.645,23.926,32.715,45.898,-2.930
1532281148.738,40.039,26.367,31.250,44.922,321.777
1532281148.742,39.551,26.855,34.180,43.945,120.117
1532281148.746,36.621,25.879,32.715,38.574,-242.188
1532281148.750,37.598,24.414,29.785,33.691,-125.000
1532281148.754,34.180,23.926,30.762,40.527,273.438
1532281148.758,32.715,25.879,29.297,39.551,232.910
1532281148.762,35.156,27.344,29.297,33.691,-164.062
1532281148.765,37.598,26.367,31.250,35.645,-220.703
1532281148.769,41.504,27.344,33.691,42.480,186.035
1532281148.773,36.133,27.344,34.668,38.574,304.688
1532281148.777,28.809,26.367,33.203,30.762,-79.102
1532281148.781,36.133,30.273,32.227,33.203,-249.023
1532281148.785,44.434,31.250,29.297,35.645,65.918
1532281148.789,44.922,30.762,29.297,30.762,281.250
1532281148.793,42.480,29.297,30.273,27.344,5.859
1532281148.797,40.039,27.344,31.250,28.320,-265.137
1532281148.801,39.551,27.832,34.668,33.691,-32.227
1532281148.804,34.180,26.855,35.156,36.133,281.250
1532281148.808,28.809,25.879,35.156,37.109,115.723
1532281148.812,22.949,26.855,36.133,37.109,-242.188
1532281148.816,18.066,27.344,34.668,35.156,-164.062
1532281148.820,21.973,27.344,36.621,37.598,240.723
1532281148.824,24.414,27.344,38.574,36.133,245.117
1532281148.828,23.926,29.297,38.086,32.715,-150.391
1532281148.832,20.508,31.738,37.598,34.668,-211.914
1532281148.836,20.508,34.668,36.133,37.598,156.738
1532281148.840,21.484,34.668,37.109,35.645,303.711
1532281148.844,21.484,32.715,37.598,27.832,-49.805
1532281148.847,19.531,31.250,37.109,23.926,-295.898
1532281148.851,14.648,28.809,40.039,27.832,31.250
1532281148.855,18.066,30.273,39.551,33.203,319.824
1532281148.859,20.020,32.227,37.109,31.250,76.172
1532281148.863,17.090,32.715,36.133,27.344,-256.836
1532281148.867,20.020,33.203,38.574,23.926,-72.754
1532281148.871,20.508,36.133,36.621,23.438,310.059
1532281148.875,13.672,35.645,38.574,20.996,164.062
1532281148.879,20.508,32.715,43.945,24.414,-226.562
1532281148.883,21.973,32.715,42.969,31.250,-166.992
1532281148.887,5.859,35.156,41.016,15.625,190.918
1532281148.890,5.371,35.156,39.062,10.254,227.539
1532281148.894,17.090,34.180,37.109,20.996,-104.492
1532281148.898,17.090,33.691,36.621,20.020,-187.012
1532281148.902,9.766,32.715,34.180,18.066,187.012
1532281148.906,11.230,31.738,36.621,17.090,324.219
1532281148.910,19.043,27.832,41.992,21.973,-48.828
1532281148.914,24.414,26.367,40.039,28.809,-291.016
1532281148.918,21.973,25.391,34.668,30.762,31.250
1532281148.922,22.461,28.320,35.156,28.809,343.262
1532281148.926,17.578,30.273,39.551,26.367,95.703
1532281148.929,8.301,28.809,39.551,21.973,-251.465
1532281148.933,15.137,31.738,35.156,25.879,-87.891
1532281148.937,20.020,32.227,34.668,28.809,289.062
1532281148.941,12.695,28.320,34.668,21.973,201.172
1532281148.945,11.719,29.785,32.715,17.578,-202.148
1532281148.949,16.602,29.785,33.203,22.461,-189.453
1532281148.953,14.160,26.855,33.691,28.809,222.656
1532281148.957,14.648,29.297,35.156,26.367,288.086
1532281148.961,14.648,30.273,37.109,22.949,-100.586
1532281148.965,14.648,29.785,36.621,21.484,-266.113
1532281148.969,22.461,29.785,35.156,25.391,90.332
1532281148.972,31.738,30.273,34.668,29.785,314.941
1532281148.976,33.203,33.203,32.227,26.855,0.977
1532281148.980,20.996,32.227,33.691,26.367,-253.906
1532281148.984,11.230,30.273,36.621,23.438,13.672
1532281148.988,15.625,28.809,34.668,20.020,310.059
1532281148.992,16.602,27.832,32.715,21.484,118.164
1532281148.996,21.484,29.785,34.180,23.926,-210.449
1532281149.000,27.832,30.762,34.180,28.809,-96.680
1532281149.004,28.809,30.273,33.691,35.645,283.203
1532281149.008,33.691,33.691,35.645,36.621,257.324
1532281149.012,33.691,36.621,35.645,31.250,-144.043
1532281149.015,29.297,34.668,33.691,30.273,-186.035
1532281149.019,30.762,33.691,35.156,34.668,209.961
1532281149.023,35.645,35.156,38.086,36.621,290.039
1532281149.027,36.133,37.109,40.527,28.809,-118.652
1532281149.031,33.203,37.109,37.598,27.832,-301.270
1532281149.035,30.273,35.156,36.133,34.180,60.547
1532281149.039,22.461,32.715,38.086,31.738,322.754
1532281149.043,19.531,32.715,37.598,26.367,33.691
1532281149.047,25.879,36.133,38.086,28.320,-278.320
1532281149.051,25.391,36.133,37.109,36.133,-45.410
1532281149.054,23.438,35.156,35.156,34.180,315.430
1532281149.058,24.902,35.645,36.621,29.297,174.316
1532281149.062,19.531,34.668,38.086,24.414,-215.332
1532281149.066,20.996,34.180,39.062,28.320,-135.254
1532281149.070,25.391,37.109,38.086,37.109,256.836
1532281149.074,26.855,39.551,38.086,35.156,255.371
1532281149.078,22.949,36.133,39.551,26.855,-139.648
1532281149.082,20.508,34.180,38.086,28.320,-235.840
1532281149.086,23.438,36.621,35.645,30.762,114.258
1532281149.090,24.902,39.062,34.180,25.391,260.742
1532281149.094,24.902,38.574,34.668,24.902,-33.203
1532281149.097,23.926,34.668,37.109,27.344,-234.863
1532281149.101,20.996,32.715,37.109,32.227,51.758
1532281149.105,20.508,31.738,33.691,31.738,330.566
1532281149.109,20.996,31.738,33.691,26.855,75.195
1532281149.113,20.508,32.715,36.133,27.344,-277.344
1532281149.117,21.484,32.715,34.668,35.156,-77.148
1532281149.121,21.973,30.273,34.668,39.551,314.941
1532281149.125,19.043,28.320,37.109,34.180,179.688
1532281149.129,15.137,27.344,38.574,27.344,-221.680
1532281149.133,18.555,26.367,36.621,35.156,-160.645
1532281149.136,25.879,28.809,33.203,44.434,239.258
1532281149.140,27.832,31.738,31.250,43.945,277.832
1532281149.144,25.391,32.227,33.691,39.062,-118.164
1532281149.148,28.320,31.738,33.203,37.109,-249.512
1532281149.152,29.785,31.738,31.738,43.945,150.391
1532281149.156,24.902,29.297,35.645,40.527,347.168
1532281149.160,26.855,29.785,36.133,36.621,-6.348
1532281149.164,29.297,31.250,33.203,39.551,-286.133
1532281149.168,29.785,31.738,33.691,37.109,-8.301
1532281149.172,26.855,30.273,36.133,37.109,322.266
1532281149.176,23.926,28.809,35.156,41.016,111.328
1532281149.179,24.902,28.320,34.668,41.992,-258.789
1532281149.183,27.832,27.344,35.156,45.898,-121.094
1532281149.187,31.738,27.344,35.156,47.852,272.949
1532281149.191,31.250,30.273,35.645,46.875,232.910
1532281149.195,27.344,31.250,34.180,44.922,-173.340
1532281149.199,28.320,33.203,33.203,38.574,-204.590
1532281149.203,30.273,31.250,33.203,39.551,192.871
1532281149.207,26.367,27.832,34.180,34.668,266.602
1532281149.211,27.832,29.785,34.180,31.738,-103.516
1532281149.215,34.180,29.785,33.203,41.016,-271.973
1532281149.219,35.645,26.367,35.156,44.922,67.871
1532281149.222,32.715,26.855,36.621,43.457,306.152
1532281149.226,28.809,27.832,36.621,38.086,1.953
1532281149.230,25.879,22.949,34.180,32.715,-270.020
1532281149.234,28.320,22.461,33.691,39.551,-19.531
1532281149.238,31.250,26.367,32.715,41.504,319.824
1532281149.242,24.902,25.879,32.715,29.297,138.184
1532281149.246,23.926,24.414,32.227,27.344,-235.840
1532281149.250,27.832,25.391,32.715,36.133,-145.996
1532281149.254,31.250,22.949,33.691,41.016,251.465
1532281149.258,30.273,23.926,34.668,38.574,228.516
1532281149.261,29.785,26.855,33.203,38.574,-170.410
1532281149.265,34.668,26.855,30.762,40.527,-208.496
1532281149.269,30.762,24.902,31.250,37.598,166.992
1532281149.273,23.926,23.926,30.762,38.574,307.129
1532281149.277,25.879,24.902,29.297,39.062,-55.664
1532281149.281,31.738,25.391,27.344,38.574,-251.465
1532281149.285,34.180,26.367,23.926,42.969,62.988
1532281149.289,35.156,29.785,23.926,40.527,318.359
1532281149.293,40.527,30.273,24.414,38.574,65.430
1532281149.297,42.969,29.297,25.391,41.992,-270.020
1532281149.301,40.527,31.250,25.391,42.969,-64.453
1532281149.304,40.527,31.738,25.879,40.527,299.805
1532281149.308,41.992,31.738,27.344,33.203,143.555
1532281149.312,36.133,33.203,27.344,29.785,-223.633
1532281149.316,33.203,37.109,23.438,34.180,-145.508
1532281149.320,40.527,37.109,24.414,40.527,269.531
1532281149.324,38.574,32.715,29.297,38.086,276.855
1532281149.328,26.855,32.715,30.762,27.344,-150.879
1532281149.332,25.391,32.715,29.297,30.273,-211.426
1532281149.336,25.391,29.785,30.762,43.457,159.180
1532281149.340,26.855,27.832,31.738,45.898,315.918
1532281149.344,31.250,28.809,34.668,41.504,-12.695
1532281149.347,30.273,30.762,35.645,40.039,-277.832
1532281149.351,27.344,31.250,29.297,38.086,40.527
1532281149.355,26.855,32.715,28.809,35.156,344.238
1532281149.359,24.414,32.715,31.250,31.250,94.727
1532281149.363,24.902,29.785,30.762,31.738,-253.418
1532281149.367,31.738,31.250,30.762,34.668,-116.211
1532281149.371,33.203,35.645,31.738,36.621,280.762
1532281149.375,27.832,32.227,33.691,39.062,221.191
1532281149.379,28.320,31.738,34.180,39.551,-190.918
1532281149.383,33.203,32.715,36.133,42.969,-181.641
1532281149.386,34.180,31.738,35.156,47.363,212.402
1532281149.390,31.250,32.715,32.227,41.992,271.973
1532281149.394,32.227,35.156,32.227,33.691,-118.652
1532281149.398,34.180,36.621,30.762,32.227,-249.023
1532281149.402,34.668,36.133,28.320,39.062,147.461
1532281149.406,34.668,34.180,28.809,38.574,336.914
1532281149.410,33.691,34.180,30.273,29.785,-27.344
1532281149.414,35.645,37.109,29.297,28.809,-289.062
1532281149.418,39.062,36.133,26.855,36.133,-3.418
1532281149.422,36.133,34.668,26.367,38.574,335.938
1532281149.426,31.250,35.156,28.809,29.297,147.949
1532281149.429,33.203,34.180,29.297,29.297,-212.402
1532281149.433,35.156,35.156,27.344,35.645,-84.961
1532281149.437,35.645,36.133,29.297,37.109,277.344
1532281149.441,36.621,36.621,30.273,37.598,224.609
1532281149.445,31.250,35.156,28.809,35.645,-171.875
1532281149.449,27.832,32.227,30.273,35.156,-234.375
1532281149.453,29.785,31.738,29.297,42.969,176.758
1532281149.457,31.738,31.738,30.273,44.922,291.992
1532281149.461,32.715,32.227,30.762,38.574,-76.172
1532281149.465,34.668,33.691,28.320,35.156,-256.836
1532281149.469,38.086,33.203,27.344,38.086,91.797
1532281149.472,38.574,34.668,27.832,40.527,338.379
1532281149.476,34.180,34.668,28.320,32.715,39.062
1532281149.480,33.203,35.156,26.855,32.227,-246.094
1532281149.484,34.180,35.156,27.832,40.527,-39.062
1532281149.488,34.180,34.668,26.855,36.133,303.223
1532281149.492,33.691,38.086,25.391,30.273,143.555
1532281149.496,27.832,38.086,27.344,26.367,-259.766
1532281149.500,32.715,34.668,26.367,26.855,-140.625
1532281149.504,40.039,33.691,25.879,34.180,261.230
1532281149.508,41.992,33.691,28.809,29.297,202.148
1532281149.511,41.992,35.156,28.320,25.879,-179.688
1532281149.515,42.480,36.621,25.879,34.668,-222.656
1532281149.519,42.480,38.086,23.438,41.992,154.785
1532281149.523,39.062,38.086,23.926,45.410,298.340
1532281149.527,36.621,36.621,29.297,45.898,-50.781
1532281149.531,33.203,34.668,29.785,48.828,-279.297
1532281149.535,30.762,33.691,26.367,44.922,28.809
1532281149.539,28.809,35.156,26.367,40.527,323.730
1532281149.543,29.297,35.645,29.297,40.527,52.734
1532281149.547,31.250,35.645,31.250,38.574,-285.645
1532281149.551,33.203,33.691,29.785,41.504,-102.051
1532281149.554,32.715,31.250,30.273,47.363,304.688
1532281149.558,31.738,29.785,32.227,43.457,187.012
1532281149.562,35.645,32.715,30.273,38.086,-229.492
1532281149.566,40.039,33.203,25.879,38.574,-170.898
1532281149.570,41.016,32.227,26.855,40.527,246.582
1532281149.574,38.086,32.715,27.832,39.062,294.922
1532281149.578,34.668,32.227,26.855,34.180,-112.793
1532281149.582,31.250,31.250,26.367,32.715,-238.770
1532281149.586,31.738,31.250,27.832,39.062,134.277
1532281149.590,27.344,32.227,29.297,36.621,323.730
1532281149.594,23.926,32.227,27.832,30.762,-7.812
1532281149.597,28.320,32.227,26.855,34.668,-253.906
1532281149.601,27.832,34.180,25.391,37.598,25.391
1532281149.605,29.785,35.645,26.855,31.250,309.082
1532281149.609,34.668,34.668,28.320,24.414,72.754
1532281149.613,33.203,34.180,26.367,28.320,-260.254
1532281149.617,30.762,34.668,24.414,33.691,-92.285
1532281149.621,31.250,36.133,25.391,35.645,296.875
1532281149.625,38.086,39.062,24.414,31.738,212.402
1532281149.629,36.133,39.551,21.484,23.926,-209.473
1532281149.633,20.996,35.156,23.926,28.320,-209.961
1532281149.636,18.066,31.738,23.438,31.738,212.402
1532281149.640,20.508,32.227,20.020,25.391,275.879
1532281149.644,25.879,31.250,17.090,21.973,-160.156
1532281149.648,31.738,29.297,19.043,22.949,-283.203
1532281149.652,33.691,32.227,22.461,26.855,129.883
1532281149.656,29.297,35.645,21.973,26.855,333.496
1532281149.660,30.273,34.180,21.484,24.414,27.344
1532281149.664,38.086,34.180,24.414,28.320,-258.301
1532281149.668,38.574,35.645,20.508,40.039,-21.484
1532281149.672,37.109,35.156,18.066,46.875,312.500
1532281149.676,32.715,35.645,21.484,36.133,119.141
1532281149.679,30.273,36.133,19.043,28.809,-257.324
1532281149.683,31.738,31.738,17.578,36.621,-128.906
1532281149.687,28.809,29.297,20.020,36.621,269.043
1532281149.691,24.414,29.785,22.949,30.762,211.426
1532281149.695,26.855,27.832,24.414,29.785,-166.504
1532281149.699,34.668,26.367,21.484,32.227,-190.918
1532281149.703,36.133,27.832,20.020,38.086,189.453
1532281149.707,33.691,28.809,22.461,38.086,308.594
1532281149.711,35.156,31.250,22.461,37.109,-59.570
1532281149.715,34.668,33.203,20.996,40.039,-269.043
1532281149.718,36.621,34.180,20.996,40.527,85.938
1532281149.722,37.109,32.227,22.461,36.621,354.492
1532281149.726,35.645,29.297,21.484,30.273,44.922
1532281149.730,34.668,31.250,17.090,24.902,-268.555
1532281149.734,32.715,29.785,17.578,29.785,-37.109
1532281149.738,29.297,27.832,22.461,28.809,315.918
1532281149.742,24.902,28.809,22.461,23.926,162.598
1532281149.746,25.391,31.250,19.531,23.926,-223.145
1532281149.750,31.738,31.250,18.066,28.809,-149.902
1532281149.754,34.180,28.809,18.555,37.109,243.164
1532281149.758,29.785,27.832,20.020,31.738,241.699
1532281149.761,25.391,28.320,21.484,26.367,-138.184
1532281149.765,24.414,28.320,19.531,28.320,-208.008
1532281149.769,28.809,27.344,19.531,31.738,161.133
1532281149.773,30.762,27.832,22.461,33.691,300.781
1532281149.777,24.414,28.320,23.438,32.227,-23.926
1532281149.781,18.555,27.832,24.414,35.156,-241.699
1532281149.785,17.090,25.879,23.926,36.621,43.457
1532281149.789,22.949,27.832,21.973,31.250,321.777
1532281149.793,26.367,29.785,21.973,33.203,76.660
1532281149.797,25.879,29.297,21.973,33.203,-260.742
1532281149.801,23.926,28.320,24.414,33.691,-62.500
1532281149.804,21.973,27.832,25.879,40.039,302.734
1532281149.808,21.973,27.832,24.902,34.668,178.223
1532281149.812,27.832,30.762,25.879,34.668,-213.867
1532281149.816,26.855,30.762,24.902,39.062,-177.246
1532281149.820,22.461,28.809,23.926,39.551,251.465
1532281149.824,24.414,30.273,27.344,35.156,267.090
1532281149.828,27.832,32.715,30.273,30.762,-146.484
1532281149.832,32.715,32.227,30.273,35.645,-226.074
1532281149.836,30.762,30.762,27.832,41.016,135.254
1532281149.840,29.785,31.738,26.367,41.504,320.801
1532281149.843,26.855,32.715,26.855,33.203,-10.742
1532281149.847,22.949,32.227,25.391,33.691,-291.504
1532281149.851,24.902,31.738,25.879,43.945,-6.348
1532281149.855,23.926,31.738,27.832,40.039,323.730
1532281149.859,26.855,32.715,26.855,32.715,117.188
1532281149.863,28.809,33.691,29.785,34.180,-250.488
1532281149.867,22.461,32.227,29.297,31.250,-134.277
1532281149.871,21.484,30.762,26.367,31.250,235.352
1532281149.875,22.461,31.250,26.855,32.227,195.312
1532281149.879,22.461,30.273,26.855,27.832,-163.574
1532281149.883,24.902,30.762,24.414,33.691,-173.828
1532281149.886,28.320,31.738,24.414,40.039,189.941
1532281149.890,28.320,30.762,28.809,35.156,297.852
1532281149.894,26.855,30.273,30.273,28.809,-69.336
1532281149.898,27.344,29.297,30.762,26.367,-238.770
1532281149.902,29.785,26.855,28.809,31.738,108.398
1532281149.906,28.809,27.344,28.320,34.180,329.102
1532281149.910,28.809,26.855,30.762,28.320,42.480
1532281149.914,27.832,24.414,29.297,26.367,-250.977
1532281149.918,26.367,24.414,27.832,30.273,0.977
1532281149.922,26.367,23.438,28.320,32.227,332.520
1532281149.926,24.902,24.414,28.320,24.902,116.699
1532281149.929,28.809,26.367,28.320,21.973,-260.254
1532281149.933,29.785,25.391,27.832,32.715,-140.625
1532281149.937,29.297,24.902,27.344,34.180,258.301
1532281149.941,28.809,25.391,24.902,27.344,244.141
1532281149.945,27.832,26.855,26.367,28.320,-179.688
1532281149.949,24.902,26.855,27.832,29.297,-250.000
1532281149.953,20.996,27.344,25.879,31.250,172.363
1532281149.957,21.973,26.367,25.879,31.250,305.664
1532281149.961,23.438,23.926,26.367,28.320,-57.617
1532281149.965,27.344,24.902,28.809,30.762,-282.227
1532281149.968,31.738,23.926,28.320,32.227,0.488
1532281149.972,32.715,22.949,27.344,36.133,281.738
1532281149.976,30.273,25.879,27.832,35.156,38.574
1532281149.980,26.367,26.367,27.832,31.250,-276.367
1532281149.984,29.785,24.414,30.273,38.086,-74.219
1532281149.988,31.250,24.902,29.785,39.551,271.973
1532281149.992,33.691,24.902,26.855,36.621,161.133
1532281149.996,32.715,23.926,24.902,35.156,-215.332
1532281150.000,30.762,23.926,24.414,34.668,-162.109
1532281150.004,32.715,25.391,25.879,41.016,242.676
1532281150.008,35.156,25.391,28.320,38.574,244.629
1532281150.011,38.086,22.949,29.785,36.133,-145.508
1532281150.015,40.039,24.414,27.832,42.969,-214.844
1532281150.019,40.039,26.367,27.832,47.852,162.109
1532281150.023,39.551,25.391,27.832,43.945,317.871
1532281150.027,41.504,24.414,27.832,38.086,-37.109
1532281150.031,37.598,23.926,24.902,37.598,-266.113
1532281150.035,28.809,23.926,22.949,39.062,30.762
1532281150.039,25.879,24.902,23.438,39.551,344.727
1532281150.043,24.414,25.879,22.949,34.180,106.445
1532281150.047,23.438,25.879,21.973,25.391,-278.320
1532281150.051,24.902,25.879,17.090,27.832,-93.750
1532281150.054,24.902,25.391,17.578,33.203,294.434
1532281150.058,27.832,25.391,20.020,30.273,189.941
1532281150.062,26.367,23.926,19.531,30.762,-196.777
1532281150.066,26.367,24.414,17.578,28.320,-207.031
1532281150.070,25.391,21.973,15.625,25.879,171.387
1532281150.074,21.484,18.555,15.625,26.367,273.926
1532281150.078,21.973,17.578,16.602,20.508,-76.172
1532281150.082,21.973,17.578,14.648,22.461,-230.469
1532281150.086,20.508,19.043,15.137,27.832,95.703
1532281150.090,21.973,18.066,17.090,27.344,307.129
1532281150.093,23.926,18.066,15.137,27.344,25.879
1532281150.097,24.902,17.090,16.113,28.320,-246.094
1532281150.101,24.414,17.578,17.090,35.156,8.301
1532281150.105,21.484,19.043,15.137,31.738,318.359
1532281150.109,24.902,19.043,14.648,27.344,125.000
1532281150.113,30.762,17.578,14.648,33.203,-232.422
1532281150.117,29.785,18.066,15.625,34.180,-102.051
1532281150.121,23.926,16.602,15.137,33.691,290.527
1532281150.125,23.438,15.137,15.625,28.320,197.266
1532281150.129,24.902,17.578,17.090,24.902,-226.562
1532281150.133,21.973,15.137,15.625,29.785,-238.770
1532281150.136,20.020,14.160,15.625,32.715,166.016
1532281150.140,20.508,16.602,16.113,32.715,278.809
1532281150.144,22.461,17.090,17.090,32.227,-73.730
1532281150.148,26.367,19.531,19.043,30.273,-260.742
1532281150.152,27.832,21.973,17.090,34.180,80.566
1532281150.156,23.438,20.996,18.555,35.156,328.613
1532281150.160,25.391,21.484,21.484,27.344,65.918
1532281150.164,24.902,20.996,19.531,20.508,-227.051
1532281150.168,17.090,20.996,19.531,23.926,-50.293
1532281150.172,12.207,17.578,19.531,26.367,294.922
1532281150.176,10.742,15.137,17.090,24.414,159.668
1532281150.179,14.160,19.043,15.625,24.902,-224.121
1532281150.183,18.066,20.508,15.625,25.879,-159.668
1532281150.187,19.531,20.996,17.090,29.297,232.910
1532281150.191,16.602,20.996,19.531,24.414,240.234
1532281150.195,16.113,19.043,18.555,19.043,-124.023
1532281150.199,20.508,18.555,17.578,25.391,-195.312
1532281150.203,20.508,18.066,21.484,29.785,144.043
1532281150.207,18.066,20.020,21.973,23.926,280.762
1532281150.211,18.066,19.531,17.578,18.555,-52.734
1532281150.215,20.020,20.020,17.578,23.438,-264.648
1532281150.218,20.996,18.555,20.508,29.785,58.594
1532281150.222,20.020,17.578,20.996,28.809,337.402
1532281150.226,29.297,19.531,20.508,23.926,59.082
1532281150.230,39.551,20.020,17.578,26.855,-279.297
1532281150.234,35.645,18.066,17.090,29.297,-89.844
1532281150.238,30.762,19.043,21.973,27.344,270.020
1532281150.242,31.738,21.484,24.902,23.926,168.945
1532281150.246,32.227,27.832,21.484,19.531,-217.773
1532281150.250,32.227,32.227,18.066,26.367,-190.918
1532281150.254,21.973,29.297,21.484,32.715,219.238
1532281150.258,11.230,24.902,21.973,25.879,248.535
1532281150.261,16.602,20.508,19.043,27.832,-143.555
1532281150.265,24.902,18.066,18.066,35.645,-250.977
1532281150.269,21.973,16.113,19.531,30.273,117.188
1532281150.273,13.672,12.695,20.996,24.414,337.402
1532281150.277,11.230,12.207,20.020,23.438,22.949
1532281150.281,14.648,13.672,18.066,25.879,-246.094
1532281150.285,22.949,14.160,18.066,25.391,31.738
1532281150.289,24.414,14.160,17.090,22.461,314.941
1532281150.293,19.531,14.160,16.602,18.555,87.891
1532281150.297,18.066,16.602,15.625,13.672,-233.887
1532281150.300,12.695,14.648,12.695,19.043,-85.449
1532281150.304,9.766,11.719,14.160,22.461,285.645
1532281150.308,13.672,13.672,16.113,19.531,197.754
1532281150.312,9.277,15.137,17.578,16.113,-187.012
1532281150.316,6.348,12.695,18.555,19.043,-182.617
1532281150.320,8.301,13.184,17.090,23.438,189.453
1532281150.324,12.695,17.578,16.113,22.461,256.348
1532281150.328,19.531,20.508,15.625,19.043,-119.141
1532281150.332,18.066,18.555,15.625,18.066,-258.789
1532281150.336,18.066,13.672,17.090,22.949,80.078
1532281150.340,17.578,16.113,16.113,25.879,312.012
1532281150.343,22.461,19.531,17.578,28.809,27.832
1532281150.347,33.203,20.508,24.414,22.949,-285.156
1532281150.351,35.645,20.996,24.902,24.902,-33.691
1532281150.355,29.785,20.020,21.484,32.715,321.777
1532281150.359,21.973,20.020,20.996,31.738,165.039
1532281150.363,24.414,21.484,20.996,31.738,-210.449
1532281150.367,23.438,17.090,20.996,30.762,-129.883
1532281150.371,18.555,15.137,24.414,32.227,239.746
1532281150.375,22.461,15.625,25.391,31.738,239.258
1532281150.379,28.809,16.602,24.414,31.250,-151.855
1532281150.383,30.273,20.020,21.973,31.738,-200.684
1532281150.386,30.273,21.973,17.090,24.902,168.457
1532281150.390,32.227,21.973,19.531,20.508,283.691
1532281150.394,26.855,20.020,22.461,23.926,-49.805
1532281150.398,22.461,20.996,20.508,22.949,-249.512
1532281150.402,26.367,23.438,16.602,26.367,65.430
1532281150.406,31.250,23.926,13.672,30.762,340.820
1532281150.410,34.180,22.949,13.672,28.320,75.195
1532281150.414,29.785,22.949,15.625,29.785,-238.281
1532281150.418,29.297,21.973,16.602,37.598,-30.273
1532281150.422,32.227,20.508,17.090,41.504,334.961
1532281150.425,30.273,20.996,18.066,34.668,185.059
1532281150.429,32.715,20.996,18.066,31.250,-240.234
1532281150.433,33.203,22.461,18.555,34.668,-170.410
1532281150.437,31.250,24.902,19.043,35.156,238.281
1532281150.441,31.250,24.414,18.555,34.668,274.902
1532281150.445,29.785,24.414,18.555,29.785,-119.141
1532281150.449,31.738,23.438,18.555,29.297,-254.883
1532281150.453,32.715,24.414,16.602,38.086,145.996
1532281150.457,32.715,26.367,16.113,37.598,338.867
1532281150.461,33.691,26.855,18.555,30.273,0.000
1532281150.465,34.180,26.367,20.020,30.273,-253.906
1532281150.468,35.645,25.879,20.508,33.203,25.879
1532281150.472,32.715,25.391,19.043,33.203,322.266
1532281150.476,29.785,25.391,16.602,31.250,95.215
1532281150.480,34.180,23.438,19.531,30.762,-227.051
1532281150.484,33.691,22.949,20.020,31.250,-71.777
1532281150.488,30.762,25.391,20.020,26.367,285.645
1532281150.492,30.273,24.902,22.949,26.367,194.336
1532281150.496,30.762,22.949,21.973,30.273,-202.148
1532281150.500,34.668,23.438,20.996,35.645,-175.293
1532281150.504,38.574,24.902,19.531,42.969,219.727
1532281150.508,39.062,27.344,20.508,39.551,259.277
1532281150.511,34.668,28.320,19.531,32.227,-121.582
1532281150.515,35.156,27.344,22.461,34.180,-243.164
1532281150.519,34.180,23.438,26.855,35.156,110.840
1532281150.523,28.809,22.949,27.344,34.180,304.688
1532281150.527,33.691,27.344,28.809,28.320,-32.227
1532281150.531,29.297,26.855,29.785,24.414,-309.570
1532281150.535,21.484,24.902,29.297,28.809,-9.766
1532281150.539,29.297,25.879,29.785,28.320,324.219
1532281150.543,31.250,28.809,29.785,22.461,109.863
1532281150.547,28.809,31.250,29.785,21.973,-256.348
1532281150.550,24.414,28.809,32.227,23.438,-116.699
1532281150.554,19.531,24.902,31.738,23.438,269.043
1532281150.558,20.996,25.879,32.227,21.484,208.984
1532281150.562,19.531,26.367,32.227,20.996,-173.828
1532281150.566,17.090,24.902,29.297,19.531,-210.938
1532281150.570,21.484,24.414,28.809,21.973,172.852
1532281150.574,21.484,22.949,27.344,19.531,291.504
1532281150.578,18.555,28.320,24.414,11.230,-71.289
1532281150.582,26.367,29.785,25.391,15.625,-235.840
1532281150.586,32.715,28.320,24.414,20.020,98.633
1532281150.590,31.250,27.344,24.414,17.090,319.824
1532281150.593,18.555,24.414,26.367,11.230,43.945
1532281150.597,11.719,26.367,26.367,8.301,-247.070
1532281150.601,11.719,25.879,24.902,18.555,-30.273
1532281150.605,11.230,23.926,22.949,23.438,304.199
1532281150.609,10.254,25.879,22.461,19.043,150.879
1532281150.613,10.742,23.926,23.438,16.602,-220.215
1532281150.617,12.695,17.578,21.973,15.625,-141.113
1532281150.621,11.230,14.648,21.484,17.578,259.766
1532281150.625,8.301,11.719,22.461,14.648,231.445
1532281150.629,6.348,6.836,22.949,12.207,-145.996
1532281150.633,10.742,4.883,25.391,15.625,-212.402
1532281150.636,14.648,6.836,24.414,19.531,165.527
1532281150.640,15.137,6.348,19.531,20.996,322.754
1532281150.644,13.184,4.883,22.461,20.020,-47.363
1532281150.648,14.648,5.371,25.879,23.926,-272.949
1532281150.652,13.672,4.395,27.344,26.855,47.363
1532281150.656,9.277,2.930,27.344,24.414,326.660
1532281150.660,7.324,1.465,29.297,19.043,59.082
1532281150.664,6.836,-0.488,31.250,16.602,-259.277
1532281150.668,6.348,-1.465,29.785,15.625,-87.891
1532281150.672,12.207,-2.441,31.738,14.648,255.371
1532281150.675,12.695,-2.930,30.273,16.602,159.668
1532281150.679,11.719,0.488,27.344,15.137,-202.148
1532281150.683,15.137,2.441,26.367,16.602,-182.129
1532281150.687,16.602,0.977,26.855,19.043,210.449
1532281150.691,14.648,1.465,27.344,19.531,285.645
1532281150.695,13.184,0.977,26.367,18.555,-126.953
1532281150.699,15.137,1.465,26.855,20.996,-245.117
1532281150.703,13.184,2.930,24.902,23.438,156.250
1532281150.707,11.719,3.906,23.438,18.066,329.590
1532281150.711,17.090,4.883,25.391,19.531,-27.832
1532281150.715,16.602,4.395,26.367,23.438,-283.691
1532281150.718,16.113,0.488,27.832,24.902,10.742
1532281150.722,17.090,0.488,27.344,22.461,311.035
1532281150.726,13.184,2.930,27.344,16.602,66.406
1532281150.730,14.160,5.371,28.809,14.160,-274.902
1532281150.734,20.020,4.883,27.832,21.484,-106.934
1532281150.738,23.926,6.836,27.344,23.926,268.066
1532281150.742,28.320,10.254,25.879,25.879,202.637
1532281150.746,29.297,11.230,23.438,22.949,-193.848
1532281150.750,27.832,11.719,26.855,22.461,-209.473
1532281150.754,29.297,11.230,27.344,30.273,190.918
1532281150.758,27.344,10.742,24.414,26.855,299.316
1532281150.761,24.902,10.742,26.855,23.438,-64.453
1532281150.765,23.438,8.301,29.297,20.996,-258.301
1532281150.769,23.926,5.371,31.738,25.391,74.219
1532281150.773,22.949,4.395,30.762,32.715,326.172
1532281150.777,15.625,7.812,24.414,24.414,30.762
1532281150.781,20.020,8.789,22.949,27.344,-255.371
1532281150.785,26.367,7.812,24.902,35.645,-32.715
1532281150.789,23.926,11.719,23.438,33.203,308.594
1532281150.793,20.996,12.207,24.414,26.367,152.344
1532281150.797,24.902,13.184,23.926,30.273,-263.672
1532281150.800,26.855,13.672,25.879,34.180,-162.109
1532281150.804,21.973,12.695,25.879,30.273,273.926
1532281150.808,23.438,16.113,22.949,23.438,218.262
1532281150.812,26.855,14.160,25.879,24.902,-178.223
1532281150.816,26.367,12.695,26.855,32.227,-205.566
1532281150.820,22.949,14.648,27.344,31.738,185.547
1532281150.824,24.902,15.137,29.785,28.809,316.406
1532281150.828,25.391,14.648,29.785,22.461,-71.289
1532281150.832,24.902,14.648,27.344,21.484,-246.094
1532281150.836,26.855,17.090,26.855,25.879,82.031
1532281150.840,29.297,19.531,29.297,29.785,332.031
1532281150.843,22.461,20.996,29.785,23.926,72.754
1532281150.847,12.207,21.484,27.344,20.020,-251.953
1532281150.851,15.137,23.926,27.832,24.414,-51.758
1532281150.855,19.531,26.855,29.297,25.879,300.293
1532281150.859,21.973,27.344,28.809,25.391,158.691
1532281150.863,26.367,30.273,27.832,27.344,-235.352
1532281150.867,25.391,32.715,25.879,24.414,-179.688
1532281150.871,21.484,31.738,26.855,22.461,215.820
1532281150.875,20.996,32.715,28.320,26.855,245.605
1532281150.879,20.508,32.715,28.320,27.832,-124.023
1532281150.882,21.484,30.273,28.809,32.715,-224.609
1532281150.886,19.043,28.320,29.785,34.668,135.742
1532281150.890,16.602,25.879,31.250,34.180,315.430
1532281150.894,23.926,26.855,34.668,36.133,-30.762
1532281150.898,27.344,28.809,34.180,38.574,-250.488
1532281150.902,27.344,35.156,29.297,44.434,72.754
1532281150.906,31.250,39.551,30.273,43.457,344.238
1532281150.910,33.203,38.574,34.180,35.645,70.312
1532281150.914,34.180,39.551,34.180,35.645,-282.715
1532281150.918,36.133,39.551,33.203,38.086,-79.590
1532281150.922,39.062,38.574,34.180,40.527,324.707
1532281150.925,39.551,39.551,34.668,38.086,198.242
1532281150.929,35.645,39.551,36.133,33.203,-206.543
1532281150.933,34.668,39.551,35.645,38.086,-172.852
1532281150.937,40.527,40.527,34.668,41.504,217.285
1532281150.941,39.062,40.039,38.574,41.016,273.926
1532281150.945,33.691,39.551,40.527,36.621,-125.977
1532281150.949,34.668,41.016,37.109,32.227,-262.207
1532281150.953,34.668,38.574,37.109,41.992,118.652
1532281150.957,31.250,37.109,36.133,40.039,332.520
1532281150.961,28.320,36.133,34.668,33.691,28.320
1532281150.965,30.762,36.133,37.598,35.645,-244.141
1532281150.968,32.715,35.156,39.551,39.062,23.926
1532281150.972,34.180,34.180,38.574,40.039,343.750
1532281150.976,37.109,35.645,39.551,33.691,124.023
1532281150.980,40.039,38.086,39.062,30.762,-232.910
1532281150.984,45.410,37.109,35.156,36.133,-102.539
1532281150.988,51.270,36.621,33.691,34.668,286.133
1532281150.992,49.805,35.645,37.109,34.180,199.707
1532281150.996,43.945,34.180,39.551,37.109,-215.820
1532281151.000,41.992,34.668,38.086,44.434,-181.641
1532281151.004,40.527,34.180,37.109,53.711,214.844
1532281151.007,37.598,35.156,37.598,49.805,304.688
1532281151.011,35.645,35.156,38.574,46.387,-70.801
1532281151.015,36.621,33.203,39.062,47.852,-246.582
1532281151.019,33.691,33.691,40.527,47.363,104.492
1532281151.023,26.367,34.668,40.039,42.969,322.754
1532281151.027,27.832,37.109,37.109,41.016,21.973
1532281151.031,31.250,37.598,36.621,44.434,-278.809
1532281151.035,33.203,36.133,37.598,43.945,-35.645
1532281151.039,34.180,34.180,37.109,40.039,307.617
1532281151.043,36.133,35.156,39.062,40.527,130.859
1532281151.047,36.133,35.645,41.016,44.922,-235.352
1532281151.050,34.668,32.715,41.016,47.363,-138.184
1532281151.054,32.715,32.715,40.527,49.316,261.230
1532281151.058,32.227,31.250,41.504,47.363,239.258
1532281151.062,33.691,29.297,42.480,44.434,-158.691
1532281151.066,37.109,31.250,42.480,42.480,-220.215
1532281151.070,44.434,31.250,38.574,52.734,143.555
1532281151.074,46.875,30.762,38.574,62.012,296.387
1532281151.078,45.410,32.715,43.457,54.199,-43.457
1532281151.082,38.574,30.762,43.457,52.246,-250.977
1532281151.086,35.645,31.250,40.527,52.246,25.391
1532281151.090,36.133,32.715,42.969,46.875,298.828
1532281151.093,34.668,30.762,43.945,45.898,60.059
1532281151.097,32.715,32.227,41.016,44.434,-256.836
1532281151.101,31.738,32.227,43.457,49.805,-27.832
1532281151.105,32.227,31.738,45.898,48.828,324.219
1532281151.109,33.203,30.273,44.922,45.410,172.363
1532281151.113,38.574,28.320,41.992,46.387,-208.496
1532281151.117,42.480,29.785,41.504,50.293,-141.602
1532281151.121,44.434,29.785,42.969,55.664,255.859
1532281151.125,44.434,30.273,42.969,52.246,247.070
1532281151.129,42.480,28.320,42.969,48.828,-173.828
1532281151.132,42.969,28.320,40.039,45.898,-265.137
1532281151.136,41.016,27.832,39.551,46.875,133.301
1532281151.140,40.527,27.832,39.551,46.387,320.312
1532281151.144,37.109,27.344,38.574,38.574,-36.621
1532281151.148,33.691,24.414,40.039,42.480,-304.199
1532281151.152,36.621,24.902,41.504,50.293,36.133
1532281151.156,36.621,29.297,40.039,46.387,371.094
1532281151.160,36.133,29.785,39.551,44.922,102.539
1532281151.164,39.062,28.320,39.551,45.898,-245.605
1532281151.168,39.551,29.297,37.598,42.480,-103.516
1532281151.172,38.574,30.273,38.086,45.410,263.184
1532281151.175,36.133,31.250,40.039,45.898,204.102
1532281151.179,34.180,29.785,41.016,39.551,-217.285
1532281151.183,30.762,27.344,39.551,39.551,-193.359
1532281151.187,32.715,27.344,39.551,36.621,201.172
1532281151.191,39.062,29.297,42.480,35.156,269.043
1532281151.195,39.551,29.785,38.574,38.086,-97.168
1532281151.199,38.574,29.297,35.156,42.480,-263.672
1532281151.203,41.992,30.762,34.668,47.852,105.957
1532281151.207,40.039,32.715,33.203,48.340,300.781
1532281151.211,38.086,32.227,34.668,46.387,-8.301
1532281151.215,42.969,31.250,36.133,46.875,-256.836
1532281151.218,44.434,29.297,37.598,53.711,8.789
1532281151.222,41.992,25.879,38.574,47.363,344.727
1532281151.226,49.316,30.762,37.109,44.434,119.629
1532281151.230,54.199,39.062,29.785,46.387,-261.719
1532281151.234,44.434,39.062,29.297,41.504,-111.816
1532281151.238,33.203,36.133,33.203,38.574,275.391
1532281151.242,36.621,36.621,33.691,39.551,220.215
1532281151.246,41.016,39.062,32.227,32.715,-187.500
1532281151.250,41.016,39.551,32.227,24.902,-218.750
1532281151.254,32.715,38.086,36.133,31.738,193.359
1532281151.257,25.879,36.133,36.621,31.250,294.434
1532281151.261,35.645,37.598,35.156,30.762,-83.984
1532281151.265,41.992,37.598,36.133,34.668,-246.582
1532281151.269,29.785,34.668,36.133,35.156,87.891
1532281151.273,20.020,35.156,35.156,32.227,324.707
1532281151.277,21.484,37.598,32.715,28.809,36.133
1532281151.281,26.367,37.109,31.738,34.180,-259.766
1532281151.285,26.367,33.691,33.203,40.039,-28.320
1532281151.289,27.344,34.180,34.668,33.691,299.316
1532281151.293,29.297,34.668,33.691,32.227,137.207
1532281151.297,26.855,36.133,32.227,33.691,-211.426
1532281151.300,28.320,35.645,33.691,36.133,-99.609
1532281151.304,28.320,34.180,31.738,36.621,289.062
1532281151.308,21.973,35.645,31.738,25.391,272.949
1532281151.312,25.879,37.598,33.203,24.414,-120.605
1532281151.316,29.297,35.645,34.180,31.738,-207.520
1532281151.320,22.461,32.715,34.180,30.762,148.438
1532281151.324,23.438,35.156,32.715,30.762,300.781
1532281151.328,28.320,36.133,31.250,26.367,-72.754
1532281151.332,28.320,32.715,33.203,26.855,-297.852
1532281151.336,28.320,32.227,33.691,36.133,39.062
1532281151.340,30.273,34.180,34.180,37.598,335.938
1532281151.343,27.344,34.180,35.156,33.203,106.445
1532281151.347,25.391,34.668,35.156,30.273,-234.375
1532281151.351,24.902,33.203,34.180,31.250,-54.688
1532281151.355,22.949,29.785,35.645,31.250,319.336
1532281151.359,23.438,27.832,36.621,30.762,190.430
1532281151.363,26.367,28.809,37.598,31.738,-226.074
1532281151.367,27.344,31.738,37.109,32.227,-195.801
1532281151.371,31.250,33.203,35.156,33.203,213.379
1532281151.375,26.855,32.227,34.180,34.668,286.621
1532281151.379,26.855,33.203,33.691,37.109,-118.652
1532281151.382,36.133,36.133,32.715,45.410,-239.258
1532281151.386,38.574,36.133,31.738,41.992,123.047
1532281151.390,34.668,37.109,29.297,38.574,298.828
1532281151.394,27.832,38.086,31.250,38.574,-25.391
1532281151.398,24.414,36.621,32.715,33.203,-287.598
1532281151.402,23.438,35.645,30.762,36.133,10.254
1532281151.406,29.297,36.133,31.250,38.574,318.359
1532281151.410,33.691,35.645,33.203,36.133,89.844
1532281151.414,33.203,35.156,35.156,36.621,-249.512
1532281151.418,32.227,35.645,34.180,37.598,-84.961
1532281151.422,31.738,34.668,31.738,43.457,304.688
1532281151.425,33.203,33.691,32.227,43.945,212.402
1532281151.429,34.180,34.668,32.227,39.551,-175.293
1532281151.433,35.156,35.156,29.785,40.527,-163.086
1532281151.437,36.621,34.668,28.320,41.504,231.934
1532281151.441,30.762,33.691,29.297,40.527,321.777
1532281151.445,24.414,33.691,30.762,35.156,-94.238
1532281151.449,26.855,33.691,32.715,34.180,-285.156
1532281151.453,25.391,28.809,36.621,40.039,82.520
1532281151.457,28.809,27.832,37.109,41.016,303.223
1532281151.461,28.809,28.809,33.691,33.203,7.324
1532281151.464,26.855,28.320,33.203,30.762,-257.324
1532281151.468,27.832,29.785,32.227,33.203,-41.016
1532281151.472,24.414,30.273,31.738,30.762,309.082
1532281151.476,25.879,33.203,34.180,31.250,171.387
1532281151.480,27.344,36.621,32.715,31.250,-210.449
1532281151.484,26.855,35.645,31.250,33.691,-151.367
1532281151.488,26.367,34.668,32.227,34.668,232.910
1532281151.492,29.297,34.180,31.738,34.668,229.492
1532281151.496,36.621,35.156,30.273,38.574,-166.016
1532281151.500,37.109,36.621,27.832,41.016,-205.078
1532281151.504,33.203,33.691,28.809,42.480,177.734
1532281151.507,32.715,33.691,31.738,37.598,278.320
1532281151.511,34.668,35.156,28.809,32.715,-83.984
1532281151.515,36.133,33.203,28.320,34.668,-271.484
1532281151.519,38.086,32.715,29.785,38.086,58.105
1532281151.523,32.227,32.715,29.785,36.133,309.082
1532281151.527,28.320,31.738,31.250,31.738,24.902
1532281151.531,30.273,33.203,32.227,35.645,-265.137
1532281151.535,30.762,34.180,28.809,42.969,-44.434
1532281151.539,33.203,36.621,28.320,46.875,304.199
1532281151.543,33.691,37.598,30.762,41.016,175.781
1532281151.547,34.668,37.598,30.273,38.086,-225.098
1532281151.550,37.109,34.668,31.738,42.480,-161.133
1532281151.554,35.156,33.691,31.738,46.387,252.930
1532281151.558,32.227,35.156,29.297,44.434,250.977
1532281151.562,31.738,33.203,29.785,36.133,-133.789
1532281151.566,29.785,33.203,30.762,32.715,-250.488
1532281151.570,29.785,32.227,32.227,30.762,100.098
1532281151.574,30.273,30.273,31.250,29.297,300.781
1532281151.578,29.785,31.250,31.250,31.250,-21.484
1532281151.582,32.715,31.738,32.227,37.109,-264.648
1532281151.586,35.156,32.715,30.762,39.551,24.414
1532281151.589,31.250,33.203,30.762,39.062,333.984
1532281151.593,26.855,33.691,32.715,35.645,126.953
1532281151.597,28.320,33.691,30.762,33.691,-250.000
1532281151.601,33.691,32.715,29.297,41.992,-96.191
1532281151.605,35.156,34.180,32.715,46.875,294.434
1532281151.609,35.645,32.715,36.133,42.480,166.016
1532281151.613,31.250,30.762,36.133,42.480,-222.168
1532281151.617,27.344,32.227,34.180,42.480,-190.430
1532281151.621,29.297,33.691,33.691,46.875,209.473
1532281151.625,31.250,34.180,33.691,46.387,251.465
1532281151.629,31.250,34.668,34.180,36.621,-128.418
1532281151.632,34.180,33.691,34.180,40.039,-248.047
1532281151.636,34.180,34.668,33.203,43.457,116.699
1532281151.640,33.691,34.180,32.227,38.086,315.918
1532281151.644,32.227,33.203,31.250,33.691,-32.227
1532281151.648,31.250,34.180,32.227,29.297,-301.270
1532281151.652,30.762,33.691,32.227,33.203,-22.949
1532281151.656,26.855,33.203,29.785,36.621,297.852
1532281151.660,31.738,33.691,29.785,36.133,117.676
1532281151.664,35.156,34.668,31.250,40.039,-231.934
1532281151.668,29.785,32.227,33.203,41.504,-109.863
1532281151.672,25.391,30.762,34.180,42.969,280.762
1532281151.675,25.879,30.762,32.715,40.039,223.633
1532281151.679,27.832,33.203,33.691,40.039,-151.367
1532281151.683,28.809,35.156,33.203,43.945,-177.246
1532281151.687,33.203,33.691,33.691,41.992,207.031
1532281151.691,29.785,36.133,34.180,35.645,299.805
1532281151.695,25.879,32.715,34.668,35.645,-82.520
1532281151.699,26.367,29.785,33.691,37.109,-263.184
1532281151.703,25.391,31.250,31.250,37.598,82.031
1532281151.707,28.809,33.203,29.785,35.156,313.965
1532281151.711,33.203,33.203,30.762,31.250,-6.348
1532281151.714,36.621,30.762,31.250,36.621,-264.648
1532281151.718,39.551,33.203,25.391,41.504,-1.953
1532281151.722,32.227,33.203,23.926,35.645,314.941
1532281151.726,27.832,29.785,27.832,28.809,124.023
1532281151.730,35.645,28.320,28.320,26.855,-250.000
1532281151.734,39.551,27.832,26.367,32.227,-138.672
1532281151.738,37.598,25.391,25.391,35.156,268.555
1532281151.742,41.504,26.367,27.344,25.879,257.324
1532281151.746,42.480,30.762,26.855,18.555,-144.043
1532281151.750,42.969,33.203,24.902,19.043,-233.887
1532281151.754,41.992,32.227,27.832,33.203,145.996
1532281151.757,37.109,29.785,30.273,41.992,315.918
1532281151.761,27.832,27.832,27.344,41.504,-32.715
1532281151.765,25.391,26.855,27.832,46.387,-274.902
1532281151.769,25.391,27.344,29.297,50.781,43.457
1532281151.773,18.066,27.832,29.785,47.852,351.562
1532281151.777,18.066,29.297,30.273,46.875,95.215
1532281151.781,19.531,27.344,28.320,42.969,-245.117
1532281151.785,22.461,26.367,27.832,40.039,-73.242
1532281151.789,29.297,27.832,30.273,37.109,263.184
1532281151.793,26.367,27.832,29.297,33.691,147.461
1532281151.797,27.344,31.250,26.855,32.715,-228.516
1532281151.800,33.203,33.203,27.344,34.668,-158.203
1532281151.804,34.180,32.715,26.367,42.480,265.137
1532281151.808,33.203,34.668,26.367,40.039,269.531
1532281151.812,34.668,33.691,28.320,37.109,-135.254
1532281151.816,36.621,31.738,27.832,41.992,-220.215
1532281151.820,30.273,27.832,25.879,40.527,155.273
1532281151.824,27.344,26.367,25.391,35.156,317.871
1532281151.828,28.320,28.320,25.879,32.715,-20.996
1532281151.832,28.320,28.809,25.391,37.598,-259.277
1532281151.836,29.785,30.762,24.414,39.062,33.691
1532281151.839,29.785,31.738,25.879,35.645,310.059
1532281151.843,31.250,32.227,27.832,40.039,85.938
1532281151.847,28.809,31.250,25.879,31.250,-289.062
1532281151.851,25.391,31.250,24.902,31.250,-126.953
1532281151.855,29.297,31.250,24.414,44.434,293.457
1532281151.859,29.785,30.762,25.391,38.086,204.102
1532281151.863,27.832,32.715,27.344,31.738,-199.219
1532281151.867,26.855,31.250,28.320,30.273,-193.359
1532281151.871,23.926,30.273,28.809,26.367,212.402
1532281151.875,24.902,33.203,27.344,29.785,303.223
1532281151.879,27.344,32.227,25.879,38.086,-80.566
1532281151.882,28.320,31.250,26.855,38.574,-242.676
1532281151.886,30.762,30.762,27.832,37.598,93.262
1532281151.890,31.738,29.785,28.809,35.645,300.293
1532281151.894,38.086,28.320,31.250,37.109,26.367
1532281151.898,39.551,29.785,28.320,42.480,-234.863
1532281151.902,30.273,31.738,23.926,38.574,21.973
1532281151.906,31.250,32.227,23.926,34.668,313.965
1532281151.910,36.621,32.715,24.414,33.203,120.605
1532281151.914,32.715,30.273,25.391,28.320,-220.215
1532281151.918,33.691,28.809,29.297,33.203,-117.188
1532281151.922,32.715,28.320,30.762,35.645,274.414
1532281151.925,27.832,28.320,31.250,29.297,246.094
1532281151.929,33.691,27.832,32.227,28.809,-188.477
1532281151.933,31.250,24.902,34.668,35.156,-218.262
1532281151.937,22.461,23.438,34.180,35.156,178.711
1532281151.941,27.344,25.879,32.227,36.133,300.781
1532281151.945,30.273,27.832,33.691,34.180,-50.781
1532281151.949,27.344,27.344,34.668,32.227,-264.648
1532281151.953,29.785,25.391,35.156,39.551,65.918
1532281151.957,30.273,27.832,33.691,36.133,322.266
1532281151.961,27.832,28.809,30.762,28.320,39.551
1532281151.964,26.367,27.832,29.785,27.832,-272.461
1532281151.968,24.902,30.273,30.762,31.250,-63.477
1532281151.972,25.391,30.273,30.762,35.156,303.223
1532281151.976,22.461,24.902,32.715,30.273,165.527
1532281151.980,23.926,23.926,32.227,31.250,-227.051
1532281151.984,32.715,24.414,30.273,35.645,-159.668
1532281151.988,35.645,24.902,31.250,30.273,216.797
1532281151.992,33.691,27.344,28.809,25.879,219.727
1532281151.996,33.691,23.926,28.809,26.367,-156.250
1532281152.000,33.203,21.484,26.855,26.367,-220.703
1532281152.004,35.645,22.949,24.414,31.738,144.043
1532281152.007,38.574,20.508,24.902,33.691,301.270
1532281152.011,37.109,17.578,27.344,33.203,-3.906
1532281152.015,35.645,16.602,28.809,36.621,-222.656
1532281152.019,33.691,15.625,25.879,39.551,48.828
1532281152.023,34.668,16.602,23.438,40.527,322.754
1532281152.027,34.668,17.090,27.344,36.133,83.496
1532281152.031,34.180,16.602,27.832,37.109,-237.793
1532281152.035,32.715,18.066,21.973,40.527,-60.059
1532281152.039,27.344,17.578,21.973,37.109,291.504
1532281152.043,27.832,16.602,22.461,32.715,198.242
1532281152.046,28.809,16.602,20.996,28.809,-224.609
1532281152.050,26.855,16.602,21.484,28.809,-223.633
1532281152.054,26.855,13.672,22.949,38.086,210.449
1532281152.058,24.414,12.207,24.902,35.645,276.855
1532281152.062,26.367,14.648,24.414,31.250,-111.816
1532281152.066,27.832,16.602,22.461,33.203,-248.535
1532281152.070,28.320,17.090,21.484,38.086,119.629
1532281152.074,33.203,18.066,20.508,42.480,345.215
1532281152.078,32.227,19.531,23.926,37.109,27.344
1532281152.082,27.344,16.602,26.855,39.062,-262.695
1532281152.086,26.855,15.625,24.414,45.410,-15.137
1532281152.089,28.809,16.113,24.414,41.992,292.969
1532281152.093,32.227,19.043,25.391,42.969,96.191
1532281152.097,30.762,20.020,25.879,45.898,-224.121
1532281152.101,30.273,19.043,24.902,45.410,-97.168
1532281152.105,35.156,19.043,22.461,41.016,240.234
1532281152.109,32.227,17.578,24.902,36.133,166.016
1532281152.113,27.832,17.090,24.902,34.668,-198.730
1532281152.117,28.809,20.020,23.438,35.645,-181.152
1532281152.121,27.832,21.973,22.949,40.527,199.219
1532281152.125,26.367,21.484,22.949,36.133,265.625
1532281152.129,31.738,22.949,23.438,29.297,-107.422
1532281152.132,31.250,23.438,23.438,33.203,-251.953
1532281152.136,25.879,23.438,23.926,38.086,96.191
1532281152.140,25.879,22.461,26.367,37.598,328.613
1532281152.144,25.391,20.508,28.809,36.621,23.438
1532281152.148,22.461,17.090,28.320,35.156,-279.297
1532281152.152,26.367,15.137,26.855,37.109,-30.762
1532281152.156,29.785,15.625,23.926,37.598,306.152
