timestamps,TP9,AF7,AF8,TP10,Right AUX
1532203173.666,29.297,31.250,41.504,30.273,4.395
1532203173.670,17.090,28.809,36.621,16.113,-1.465
1532203173.674,18.555,34.668,33.691,20.508,39.062
1532203173.678,26.367,39.551,36.133,27.832,45.898
1532203173.681,28.320,40.527,34.180,25.391,38.086
1532203173.685,22.949,36.621,33.203,17.090,23.438
1532203173.689,21.484,28.320,31.250,6.836,12.207
1532203173.693,29.297,35.645,35.645,20.020,24.902
1532203173.697,28.320,47.852,40.039,36.133,10.254
1532203173.701,16.602,36.133,35.645,32.715,28.320
1532203173.705,15.625,25.391,36.621,22.461,20.996
1532203173.709,16.602,24.414,38.086,14.160,13.672
1532203173.713,16.602,22.461,41.016,21.484,16.113
1532203173.717,25.879,26.367,49.316,29.785,-4.395
1532203173.721,27.832,32.227,47.852,37.109,35.156
1532203173.724,17.090,25.391,37.109,31.250,44.922
1532203173.728,14.160,20.508,31.250,17.090,-11.230
1532203173.732,18.555,25.391,37.109,18.555,-13.184
1532203173.736,18.066,26.367,38.574,13.184,17.578
1532203173.740,12.695,30.762,32.715,16.113,38.086
1532203173.744,17.578,32.715,34.180,27.832,39.551
1532203173.748,27.832,37.109,32.227,27.344,21.484
1532203173.752,24.902,39.551,25.391,22.949,36.621
1532203173.756,17.578,30.273,28.809,16.602,56.641
1532203173.760,23.926,30.273,38.086,16.602,33.691
1532203173.763,30.762,35.156,39.551,21.484,17.090
1532203173.767,29.297,32.227,41.016,20.020,12.207
1532203173.771,36.621,33.691,46.387,23.926,5.859
1532203173.775,43.457,34.668,41.016,21.973,30.273
1532203173.779,32.715,24.414,32.715,9.277,9.277
1532203173.783,34.180,27.344,38.086,18.066,-8.301
1532203173.787,41.992,26.367,37.598,17.578,14.648
1532203173.791,39.551,26.367,25.391,6.348,10.254
1532203173.795,41.504,32.715,27.832,16.602,-2.441
1532203173.799,43.945,37.109,31.250,27.344,9.277
1532203173.803,41.504,36.133,33.691,25.879,34.180
1532203173.806,32.227,25.391,38.086,26.855,17.578
1532203173.810,22.461,21.973,37.109,27.344,13.184
1532203173.814,19.531,22.461,34.180,26.855,40.039
1532203173.818,20.508,32.715,31.250,30.762,59.082
1532203173.822,21.973,37.109,28.320,27.832,43.457
1532203173.826,23.438,31.738,35.156,23.926,11.230
1532203173.830,33.203,38.086,42.969,31.738,5.371
1532203173.834,35.156,36.621,43.457,36.621,39.551
1532203173.838,27.832,28.809,36.621,27.344,57.617
1532203173.842,23.438,29.297,26.367,11.719,49.316
1532203173.846,23.926,34.668,33.203,15.137,32.227
1532203173.849,25.879,39.551,37.598,22.461,35.156
1532203173.853,23.926,22.949,31.250,18.066,60.547
1532203173.857,24.414,16.113,35.156,25.391,68.359
1532203173.861,19.043,34.668,32.715,21.973,51.270
1532203173.865,22.461,35.156,28.809,25.879,27.832
1532203173.869,32.715,29.297,37.598,32.227,23.438
1532203173.873,34.180,35.156,47.363,36.133,41.016
1532203173.877,34.668,35.156,45.410,34.180,48.340
1532203173.881,30.762,31.250,40.527,11.230,45.410
1532203173.885,24.902,31.738,37.598,8.789,47.363
1532203173.888,24.414,39.551,36.133,16.113,1.465
1532203173.892,22.461,43.945,40.039,13.184,-12.207
1532203173.896,15.137,32.227,28.809,10.254,30.273
1532203173.900,20.508,22.949,31.250,17.090,40.527
1532203173.904,24.414,15.137,40.527,23.926,24.414
1532203173.908,18.555,19.043,40.039,26.367,28.320
1532203173.912,16.113,32.227,37.109,19.531,52.246
1532203173.916,24.414,38.574,37.109,12.207,49.316
1532203173.920,26.855,37.598,38.574,20.996,41.504
1532203173.924,21.973,25.879,37.109,32.227,58.105
1532203173.928,25.391,21.484,37.109,20.996,46.875
1532203173.931,37.109,24.902,37.598,25.879,33.203
1532203173.935,33.691,21.484,30.273,35.156,53.223
1532203173.939,27.832,29.297,25.879,29.785,47.852
1532203173.943,38.574,43.457,41.992,40.039,39.551
1532203173.947,41.504,49.805,48.340,38.086,23.926
1532203173.951,29.785,35.156,35.645,18.066,52.246
1532203173.955,35.156,17.578,38.574,23.438,76.172
1532203173.959,35.645,24.902,42.969,23.926,46.387
1532203173.963,27.832,34.180,41.016,20.996,38.574
1532203173.967,35.156,40.039,42.480,31.738,26.855
1532203173.971,37.598,40.039,38.574,25.391,22.461
1532203173.974,36.133,27.832,37.109,26.855,32.227
1532203173.978,30.273,24.414,33.691,25.391,30.762
1532203173.982,23.438,27.832,26.367,13.672,35.156
1532203173.986,27.344,28.320,30.762,17.578,22.949
1532203173.990,34.668,34.668,33.203,24.902,51.270
1532203173.994,41.016,40.039,34.668,23.926,72.754
1532203173.998,41.992,28.320,41.016,25.391,20.996
1532203174.002,41.016,32.715,45.410,30.273,35.645
1532203174.006,41.504,40.527,40.527,30.762,54.688
1532203174.010,31.250,28.320,29.785,24.414,35.156
1532203174.013,33.691,28.320,27.344,18.066,46.387
1532203174.017,38.574,30.762,30.273,13.672,36.621
1532203174.021,46.875,37.109,35.156,26.855,50.781
1532203174.025,51.758,32.715,39.062,34.180,43.457
1532203174.029,42.480,17.578,31.250,22.949,-11.230
1532203174.033,37.598,27.832,25.391,16.602,-0.488
1532203174.037,34.180,41.504,27.832,28.809,24.414
1532203174.041,24.902,35.645,25.391,25.879,38.574
1532203174.045,25.879,30.273,33.691,20.508,31.250
1532203174.049,28.809,18.555,38.574,27.832,16.113
1532203174.053,26.367,18.555,34.668,23.926,31.738
1532203174.056,33.203,36.621,36.133,25.879,29.785
1532203174.060,38.086,40.039,40.527,31.738,20.508
1532203174.064,28.809,32.227,35.156,29.297,34.180
1532203174.068,27.832,28.809,29.785,21.484,28.320
1532203174.072,30.762,30.762,29.785,22.461,2.930
1532203174.076,35.645,31.738,33.691,38.574,35.156
1532203174.080,37.598,32.227,38.574,40.527,49.316
1532203174.084,31.738,31.738,32.715,31.738,32.227
1532203174.088,35.156,31.250,27.344,38.574,19.043
1532203174.092,30.762,23.926,32.227,40.039,32.715
1532203174.095,23.926,29.297,43.457,31.738,32.227
1532203174.099,25.879,25.879,50.781,48.340,41.504
1532203174.103,25.879,13.672,45.410,52.734,44.434
1532203174.107,24.902,27.832,37.598,25.391,24.414
1532203174.111,24.414,40.039,37.109,25.391,36.621
1532203174.115,31.250,36.621,39.062,36.621,31.250
1532203174.119,39.551,32.227,41.992,41.992,18.555
1532203174.123,36.133,30.762,41.016,40.039,49.805
1532203174.127,33.691,29.785,35.645,37.598,28.320
1532203174.131,34.180,28.809,35.156,31.250,-36.621
1532203174.135,31.250,29.785,38.086,31.250,13.184
1532203174.138,28.809,31.738,35.156,39.551,64.941
1532203174.142,24.414,29.785,26.855,32.715,48.828
1532203174.146,27.344,30.273,27.832,27.832,30.762
1532203174.150,33.203,23.926,37.109,40.039,41.016
1532203174.154,35.156,15.137,42.480,43.457,33.203
1532203174.158,40.039,26.367,42.969,41.992,21.973
1532203174.162,40.527,38.574,36.133,39.551,30.273
1532203174.166,34.668,50.293,37.109,33.691,-5.859
1532203174.170,41.504,49.805,40.527,34.180,-1.953
1532203174.174,41.016,29.297,31.250,30.762,21.973
1532203174.178,41.992,31.250,30.273,37.109,-1.465
1532203174.181,50.781,40.527,41.016,46.387,11.230
1532203174.185,38.574,33.203,33.203,31.738,0.488
1532203174.189,32.227,34.180,24.902,27.832,-4.395
1532203174.193,35.645,36.621,29.785,27.832,42.480
1532203174.197,37.109,35.156,36.133,26.367,13.184
1532203174.201,42.480,20.996,38.574,37.109,11.719
1532203174.205,43.945,17.090,38.574,36.621,29.297
1532203174.209,39.551,44.922,35.645,22.949,-18.555
1532203174.213,37.598,52.246,31.738,23.438,-25.391
1532203174.217,33.203,33.691,36.621,32.715,2.441
1532203174.220,38.574,30.273,38.574,35.645,58.594
1532203174.224,40.039,37.598,36.133,38.086,47.363
1532203174.228,34.668,38.086,35.156,36.133,25.879
1532203174.232,34.668,27.344,36.621,40.039,76.172
1532203174.236,36.621,27.832,41.016,42.969,59.082
1532203174.240,33.691,41.016,33.203,30.762,44.434
1532203174.244,32.715,47.852,24.414,27.832,43.945
1532203174.248,27.832,32.715,29.297,20.996,18.066
1532203174.252,24.902,24.414,36.621,12.695,31.738
1532203174.256,25.879,27.832,29.297,18.555,50.781
1532203174.260,32.227,24.902,31.738,21.484,52.246
1532203174.263,32.715,25.879,41.016,22.949,37.109
1532203174.267,23.438,28.809,39.551,23.926,9.277
1532203174.271,27.344,37.109,46.387,33.203,33.691
1532203174.275,29.785,33.691,40.527,33.203,53.223
1532203174.279,17.090,24.414,32.715,13.184,33.691
1532203174.283,17.090,26.367,44.434,17.090,23.926
1532203174.287,17.578,25.391,43.945,22.461,37.109
1532203174.291,16.602,24.902,40.527,22.949,30.762
1532203174.295,28.809,34.180,44.922,37.109,3.418
1532203174.299,27.832,38.574,39.062,39.062,18.066
1532203174.303,27.344,26.367,39.551,31.250,53.223
1532203174.306,29.785,22.949,38.574,37.109,31.738
1532203174.310,21.973,24.902,33.203,23.926,-5.859
1532203174.314,28.320,32.227,43.457,20.020,10.254
1532203174.318,36.621,42.480,42.969,32.715,29.785
1532203174.322,26.855,39.551,30.762,28.320,42.480
1532203174.326,24.902,35.156,35.156,26.855,12.207
1532203174.330,33.691,32.227,37.109,29.785,12.207
1532203174.334,40.039,34.180,36.133,36.133,25.879
1532203174.338,42.480,35.156,39.551,34.668,37.598
1532203174.342,41.016,26.367,32.227,33.203,41.992
1532203174.345,40.039,20.508,26.367,26.855,26.855
1532203174.349,33.691,37.598,40.527,18.066,-4.395
1532203174.353,32.715,52.734,53.711,29.785,-7.324
1532203174.357,30.762,43.945,43.457,26.367,27.832
1532203174.361,25.391,27.344,28.809,14.648,24.414
1532203174.365,25.391,23.438,30.273,23.926,-5.859
1532203174.369,31.250,36.133,36.621,36.621,12.207
1532203174.373,32.715,39.551,32.715,34.180,36.133
1532203174.377,33.691,29.785,26.855,29.785,24.902
1532203174.381,32.715,33.203,31.738,32.227,20.996
1532203174.385,26.855,25.391,41.504,36.621,42.480
1532203174.388,35.156,14.648,39.551,36.133,61.523
1532203174.392,33.691,25.391,32.227,28.809,30.273
1532203174.396,26.855,35.156,34.668,29.785,20.996
1532203174.400,25.879,33.691,34.180,25.391,35.645
1532203174.404,26.367,28.809,31.250,24.414,26.367
1532203174.408,29.297,31.738,30.273,32.227,-17.578
1532203174.412,29.785,27.344,38.574,30.273,-18.066
1532203174.416,29.785,22.949,43.945,27.344,9.277
1532203174.420,28.320,21.973,36.133,25.391,24.414
1532203174.424,31.250,19.531,35.156,27.344,20.996
1532203174.428,36.621,29.785,35.645,35.156,26.855
1532203174.431,31.250,41.016,33.691,34.180,27.832
1532203174.435,24.414,24.902,35.645,26.855,9.277
1532203174.439,17.578,10.254,28.809,17.578,28.320
1532203174.443,20.996,20.508,28.320,24.414,55.176
1532203174.447,26.855,24.414,37.598,27.344,10.254
1532203174.451,29.785,31.250,36.621,22.949,-11.719
1532203174.455,31.250,35.156,32.227,32.227,47.363
1532203174.459,39.551,37.598,34.180,41.992,58.594
1532203174.463,46.875,36.133,42.480,44.434,34.668
1532203174.467,39.062,24.902,35.156,27.832,8.301
1532203174.470,31.738,26.367,29.297,22.949,20.996
1532203174.474,23.438,33.203,30.273,24.414,40.527
1532203174.478,24.414,34.668,27.832,20.508,28.320
1532203174.482,31.250,31.738,35.645,25.391,13.184
1532203174.486,25.879,21.484,37.109,17.578,1.465
1532203174.490,25.879,23.438,32.227,8.301,-13.672
1532203174.494,31.250,26.855,34.668,12.207,2.930
1532203174.498,30.273,29.785,32.227,16.602,26.367
1532203174.502,32.715,35.645,30.762,26.855,16.602
1532203174.506,37.109,29.297,33.203,25.879,28.809
1532203174.510,33.691,34.668,27.832,12.695,33.203
1532203174.513,35.645,40.039,27.344,13.184,23.438
1532203174.517,52.246,35.645,39.062,25.879,40.039
1532203174.521,49.805,35.645,32.227,29.297,57.129
1532203174.525,37.598,33.203,27.344,25.879,35.156
1532203174.529,34.668,29.785,36.621,26.855,5.859
1532203174.533,32.715,25.391,36.621,32.227,15.137
1532203174.537,29.785,22.461,34.180,38.574,15.137
1532203174.541,21.973,24.902,29.297,39.551,27.832
1532203174.545,20.508,24.902,20.508,34.668,33.691
1532203174.549,21.484,26.855,31.738,28.320,17.090
1532203174.552,22.461,33.203,40.527,29.297,41.992
1532203174.556,36.621,40.527,43.945,44.922,60.059
1532203174.560,41.504,35.645,43.945,46.875,20.996
1532203174.564,31.738,16.602,32.227,35.156,-14.160
1532203174.568,30.273,29.297,37.598,38.086,29.297
1532203174.572,35.645,36.621,41.016,38.086,67.871
1532203174.576,34.668,17.578,34.180,28.320,33.691
1532203174.580,22.949,18.066,31.738,20.996,3.418
1532203174.584,23.438,25.879,33.691,24.902,20.996
1532203174.588,32.715,24.414,32.227,27.344,18.555
1532203174.592,37.109,30.273,33.691,39.551,21.484
1532203174.595,43.945,43.945,42.480,49.805,27.832
1532203174.599,40.527,42.969,32.715,38.086,15.137
1532203174.603,42.969,27.832,33.203,39.551,37.109
1532203174.607,42.969,20.996,39.062,43.945,23.438
1532203174.611,42.480,22.949,41.992,42.969,30.762
1532203174.615,42.969,25.391,38.086,36.133,36.133
1532203174.619,44.922,36.133,38.086,41.504,18.555
1532203174.623,40.039,39.551,42.969,44.922,39.551
1532203174.627,31.738,35.156,30.762,26.367,26.855
1532203174.631,33.691,29.785,26.855,20.996,2.441
1532203174.635,34.668,26.855,29.785,29.297,16.602
1532203174.638,33.203,37.109,26.855,36.621,20.996
1532203174.642,34.668,44.434,30.273,32.715,20.020
1532203174.646,45.410,44.922,34.180,32.227,21.484
1532203174.650,47.363,33.691,27.832,36.133,20.508
1532203174.654,42.480,26.367,28.809,41.016,23.926
1532203174.658,37.109,25.879,31.738,35.156,40.039
1532203174.662,28.809,22.949,29.297,22.461,46.387
1532203174.666,33.691,27.344,33.691,30.762,31.738
1532203174.670,40.527,28.809,38.086,36.621,21.973
1532203174.674,36.621,26.367,42.480,35.156,34.180
1532203174.677,39.551,30.762,43.945,34.180,22.949
1532203174.681,37.598,38.086,27.832,27.344,1.465
1532203174.685,30.762,42.969,18.555,26.855,1.953
1532203174.689,27.344,36.133,21.973,29.297,24.902
1532203174.693,31.738,26.367,25.391,20.996,39.062
1532203174.697,32.715,22.461,27.344,20.020,18.066
1532203174.701,28.809,18.555,31.738,24.902,20.996
1532203174.705,36.621,19.531,29.785,26.855,41.992
1532203174.709,41.504,27.344,23.926,23.438,58.594
1532203174.713,42.969,31.250,28.320,27.832,55.176
1532203174.717,46.387,34.180,35.156,33.691,36.133
1532203174.720,45.410,34.180,34.668,30.762,41.992
1532203174.724,47.363,26.367,32.715,26.855,44.922
1532203174.728,48.340,25.391,28.320,22.949,27.832
1532203174.732,49.316,34.668,25.879,27.344,20.996
1532203174.736,47.363,35.645,31.250,36.621,42.480
1532203174.740,31.738,21.973,23.926,23.926,49.316
1532203174.744,37.109,28.809,28.809,23.438,23.926
1532203174.748,45.898,37.598,37.598,30.762,2.930
1532203174.752,31.738,24.902,28.809,19.531,24.902
1532203174.756,28.809,14.160,15.625,22.461,49.316
1532203174.760,36.133,21.484,17.090,31.250,29.785
1532203174.763,33.691,32.227,35.156,30.273,-0.977
1532203174.767,38.086,33.691,38.086,30.762,-10.742
1532203174.771,45.410,26.855,35.156,30.273,10.254
1532203174.775,38.574,16.602,34.180,32.227,33.203
1532203174.779,30.762,22.461,31.738,35.156,26.367
1532203174.783,29.785,23.926,31.738,34.668,25.879
1532203174.787,35.645,23.438,29.785,33.203,39.551
1532203174.791,39.062,33.203,36.621,36.133,32.227
1532203174.795,33.203,31.738,40.527,38.574,42.480
1532203174.799,26.367,20.508,28.809,28.320,49.805
1532203174.802,24.902,22.949,24.902,26.855,38.086
1532203174.806,31.250,34.180,27.832,36.621,18.555
1532203174.810,35.645,36.133,33.691,37.109,-9.277
1532203174.814,37.598,35.645,38.086,42.480,-9.277
1532203174.818,39.551,27.832,31.738,44.922,1.953
1532203174.822,31.738,14.160,29.785,33.691,23.926
1532203174.826,22.461,16.602,31.738,21.973,35.645
1532203174.830,27.832,31.250,32.715,26.855,-15.137
1532203174.834,31.250,32.715,32.227,38.574,-19.531
1532203174.838,33.691,22.949,28.809,41.504,39.062
1532203174.842,33.691,24.414,25.391,39.551,42.480
1532203174.845,32.227,29.785,30.762,36.133,27.344
1532203174.849,33.691,27.832,33.203,37.598,53.223
1532203174.853,29.297,25.391,28.809,32.715,20.020
1532203174.857,29.297,33.203,26.367,27.344,8.301
1532203174.861,23.438,29.297,25.879,22.949,33.691
1532203174.865,25.391,27.344,31.250,29.785,14.648
1532203174.869,29.785,24.902,37.109,26.855,9.766
1532203174.873,23.438,17.090,31.250,26.367,43.457
1532203174.877,23.926,26.367,28.320,33.203,62.500
1532203174.881,24.414,28.809,25.879,26.855,46.387
1532203174.885,25.391,24.414,26.855,23.926,52.246
1532203174.888,34.180,25.391,34.668,31.738,64.453
1532203174.892,36.133,34.180,35.156,37.109,47.363
1532203174.896,28.320,32.715,25.879,27.344,28.320
1532203174.900,27.344,31.250,21.484,28.809,45.410
1532203174.904,38.574,33.203,30.762,44.922,68.359
1532203174.908,42.969,28.320,36.133,29.785,29.785
1532203174.912,30.762,29.785,29.785,8.789,5.859
1532203174.916,29.297,28.809,32.715,17.578,17.090
1532203174.920,27.832,24.902,34.668,27.832,31.250
1532203174.924,25.391,27.344,30.762,24.902,41.504
1532203174.927,32.227,27.832,30.273,18.066,22.949
1532203174.931,32.227,22.461,31.250,21.973,39.551
1532203174.935,29.785,21.973,34.180,27.344,50.781
1532203174.939,32.715,32.227,36.621,32.227,42.480
1532203174.943,27.832,34.668,31.250,31.250,33.203
1532203174.947,29.785,26.855,24.902,30.762,33.691
1532203174.951,29.785,18.066,22.949,33.203,41.016
1532203174.955,25.879,19.531,27.344,30.762,37.598
1532203174.959,44.434,40.527,42.480,37.598,46.387
1532203174.963,45.410,48.340,42.480,33.691,49.316
1532203174.967,20.996,29.297,27.832,14.160,-5.859
1532203174.970,20.508,16.113,26.367,11.230,-21.484
1532203174.974,26.367,14.160,32.227,16.113,28.320
1532203174.978,22.949,22.949,31.738,17.090,30.273
1532203174.982,25.879,32.227,30.273,23.438,48.340
1532203174.986,20.996,33.203,33.691,28.809,57.129
1532203174.990,12.695,23.438,27.832,23.926,34.180
1532203174.994,22.461,25.391,31.738,32.715,16.113
1532203174.998,32.227,37.109,39.062,37.109,16.602
1532203175.002,25.391,33.203,30.762,24.902,58.594
1532203175.006,20.508,25.879,27.832,21.973,67.871
1532203175.009,23.438,20.996,35.645,16.602,17.090
1532203175.013,33.203,27.344,39.551,29.785,7.324
1532203175.017,38.574,35.645,37.109,45.410,17.090
1532203175.021,35.156,29.297,33.203,40.039,41.016
1532203175.025,36.621,24.414,37.598,31.738,17.090
1532203175.029,37.598,23.438,27.344,33.203,-8.301
1532203175.033,36.133,23.438,26.367,40.039,15.625
1532203175.037,30.762,23.438,34.180,35.156,50.781
1532203175.041,23.438,25.879,27.832,30.273,50.293
1532203175.045,35.156,33.691,28.320,28.320,11.230
1532203175.049,27.344,34.668,32.227,24.414,24.414
1532203175.052,12.207,22.949,35.156,19.043,40.527
1532203175.056,13.672,21.484,35.645,22.461,29.297
1532203175.060,11.719,28.320,28.809,25.391,31.738
1532203175.064,23.438,20.508,29.297,20.996,14.648
1532203175.068,32.715,16.602,38.086,21.973,-26.855
1532203175.072,30.762,24.414,42.969,28.320,-19.043
1532203175.076,27.344,21.973,40.039,28.320,31.250
1532203175.080,23.438,15.137,33.203,26.855,39.062
1532203175.084,22.949,14.648,30.273,31.250,21.973
1532203175.088,23.438,18.555,34.668,26.855,25.879
1532203175.092,20.020,21.973,30.762,23.438,36.133
1532203175.095,20.508,25.879,28.320,19.531,23.926
1532203175.099,28.320,28.809,23.438,23.438,25.879
1532203175.103,34.180,29.785,24.902,33.691,38.086
1532203175.107,37.598,32.227,35.645,40.039,33.203
1532203175.111,31.738,27.344,33.691,34.180,38.086
1532203175.115,33.203,21.973,28.809,29.297,39.551
1532203175.119,33.203,31.250,26.367,27.344,53.223
1532203175.123,30.273,20.508,28.809,34.180,63.477
1532203175.127,30.762,12.695,32.715,26.855,43.457
1532203175.131,31.738,23.926,29.785,20.996,12.695
1532203175.134,47.363,35.156,38.086,44.434,30.762
1532203175.138,48.340,36.621,41.992,53.711,24.414
1532203175.142,36.133,26.367,30.273,41.016,6.348
1532203175.146,43.945,27.832,34.180,47.852,11.230
1532203175.150,43.945,27.344,30.762,47.363,23.926
1532203175.154,44.434,27.344,31.738,45.898,51.758
1532203175.158,49.316,36.621,41.016,49.316,77.637
1532203175.162,45.410,32.715,32.227,48.828,56.152
1532203175.166,42.480,27.832,26.367,41.504,10.742
1532203175.170,51.270,29.785,34.668,48.340,4.883
1532203175.174,59.082,27.344,37.598,65.918,41.504
1532203175.177,47.363,19.531,29.785,45.410,49.316
1532203175.181,44.922,27.344,29.785,37.109,28.320
1532203175.185,46.875,32.715,35.645,43.457,51.270
1532203175.189,43.457,28.320,34.668,31.738,47.363
1532203175.193,51.270,37.598,32.715,27.344,16.113
1532203175.197,51.758,37.109,24.902,36.621,14.648
1532203175.201,49.805,27.832,23.926,41.992,22.949
1532203175.205,45.898,27.344,32.227,37.109,40.527
1532203175.209,43.457,28.809,30.762,34.668,36.133
1532203175.213,41.016,20.020,27.832,30.273,5.859
1532203175.217,45.898,17.578,26.367,39.062,12.695
1532203175.220,52.734,27.832,28.809,48.340,62.988
1532203175.224,49.316,31.250,28.320,40.039,61.523
1532203175.228,54.688,23.926,20.996,40.039,31.738
1532203175.232,57.617,16.113,23.926,38.574,21.973
1532203175.236,55.664,22.461,30.762,33.691,36.133
1532203175.240,58.105,30.762,32.227,31.738,19.531
1532203175.244,49.805,28.809,32.227,36.621,3.418
1532203175.248,44.434,30.762,32.227,34.180,1.465
1532203175.252,53.223,39.062,37.598,41.504,4.883
1532203175.256,53.711,32.715,36.621,57.617,62.012
1532203175.259,51.758,22.461,38.574,61.035,60.059
1532203175.263,40.527,15.137,31.250,51.270,24.414
1532203175.267,30.273,22.461,22.949,47.852,26.367
1532203175.271,36.621,33.691,28.320,51.758,27.832
1532203175.275,42.969,28.809,29.785,53.711,35.156
1532203175.279,46.387,24.902,35.645,52.246,27.344
1532203175.283,46.875,25.391,32.227,50.293,31.250
1532203175.287,45.898,27.344,29.297,38.086,12.207
1532203175.291,48.828,21.484,34.180,32.227,12.207
1532203175.295,46.387,21.973,32.715,41.992,40.527
1532203175.299,44.922,28.320,35.645,45.898,20.996
1532203175.302,50.781,33.691,34.668,53.223,26.855
1532203175.306,53.223,30.762,31.738,52.734,45.898
1532203175.310,55.176,25.391,37.109,46.875,34.668
1532203175.314,57.617,36.133,40.527,58.594,18.066
1532203175.318,47.363,37.109,23.438,54.199,45.898
1532203175.322,42.480,33.691,16.113,45.898,61.035
1532203175.326,45.410,33.691,29.785,41.992,22.461
1532203175.330,40.527,22.461,34.180,28.320,-8.301
1532203175.334,45.410,20.996,39.062,41.504,8.301
1532203175.338,49.805,25.391,40.527,46.875,22.949
1532203175.342,42.969,20.020,31.250,34.180,17.090
1532203175.345,45.898,20.508,30.762,28.320,2.930
1532203175.349,52.246,26.855,33.203,36.621,7.812
1532203175.353,50.781,22.949,33.691,46.387,41.504
1532203175.357,35.156,20.020,30.273,39.551,23.926
1532203175.361,34.668,25.391,20.996,41.016,-6.348
1532203175.365,46.875,20.020,34.180,47.363,-15.137
1532203175.369,44.434,18.555,44.434,43.457,19.531
1532203175.373,35.645,26.855,43.945,33.691,42.480
1532203175.377,36.621,23.926,40.527,31.738,17.578
1532203175.381,37.598,23.438,36.133,32.227,8.789
1532203175.384,29.785,20.020,31.250,37.109,24.414
1532203175.388,30.273,14.160,24.414,31.738,20.508
1532203175.392,38.086,13.672,32.715,32.227,19.531
1532203175.396,32.227,18.555,38.086,45.410,8.301
1532203175.400,31.738,16.113,31.738,44.434,-7.324
1532203175.404,39.062,16.602,31.738,45.410,29.297
1532203175.408,30.762,21.973,26.855,39.062,49.805
1532203175.412,34.180,22.461,15.625,33.691,32.227
1532203175.416,35.645,18.555,22.461,30.762,20.508
1532203175.420,26.855,17.578,33.691,24.902,47.852
1532203175.424,35.156,35.645,33.203,36.621,73.730
1532203175.427,36.133,41.016,32.227,36.133,23.926
1532203175.431,28.809,29.297,33.203,22.461,-2.441
1532203175.435,35.156,27.832,38.574,29.297,39.551
1532203175.439,31.738,24.414,23.438,35.156,60.547
1532203175.443,33.691,17.578,19.531,34.180,45.898
1532203175.447,32.715,13.184,28.320,28.809,45.410
1532203175.451,28.320,18.555,21.973,21.484,59.570
1532203175.455,32.227,21.484,18.555,33.203,36.621
1532203175.459,35.156,20.020,16.602,38.574,10.742
1532203175.463,39.062,19.531,19.043,33.691,23.926
1532203175.466,39.551,25.879,24.902,29.785,21.973
1532203175.470,43.945,40.039,28.320,31.738,8.301
1532203175.474,48.340,40.527,32.227,41.016,24.414
1532203175.478,56.641,34.180,37.109,53.223,11.719
1532203175.482,54.688,30.762,39.551,51.758,-16.113
1532203175.486,39.551,23.438,27.344,32.715,-8.789
1532203175.490,40.527,22.949,15.625,31.738,-23.438
1532203175.494,41.992,20.020,20.508,37.598,9.766
1532203175.498,34.668,18.555,28.809,31.738,26.855
1532203175.502,32.227,21.484,27.344,28.320,13.184
1532203175.506,40.527,15.625,30.273,33.203,42.480
1532203175.509,40.527,21.484,30.273,34.180,47.852
1532203175.513,37.598,31.738,28.320,29.297,20.996
1532203175.517,40.039,36.133,31.250,34.180,26.855
1532203175.521,42.480,33.203,35.156,39.062,53.711
1532203175.525,45.898,26.367,37.598,35.645,40.527
1532203175.529,59.570,35.156,40.527,45.410,16.602
1532203175.533,61.035,37.109,40.527,60.547,31.250
1532203175.537,34.180,20.020,30.273,40.527,21.484
1532203175.541,21.484,1.953,24.414,29.785,17.578
1532203175.545,20.508,11.719,25.879,30.762,29.785
1532203175.549,23.438,22.949,31.738,29.785,18.066
1532203175.552,34.180,18.555,39.551,40.039,44.434
1532203175.556,37.109,23.438,43.945,48.340,50.781
1532203175.560,36.621,23.926,39.551,38.086,20.996
1532203175.564,30.762,23.438,36.133,26.855,3.418
1532203175.568,31.250,23.926,43.457,30.762,16.602
1532203175.572,32.715,19.531,40.039,34.180,54.688
1532203175.576,28.320,22.461,35.156,30.762,29.297
1532203175.580,28.320,21.484,38.086,31.738,9.277
1532203175.584,35.156,29.785,36.621,43.457,4.883
1532203175.588,34.180,31.250,34.180,41.504,9.766
1532203175.591,28.320,14.160,36.133,32.227,26.855
1532203175.595,28.809,20.508,37.109,36.133,-0.977
1532203175.599,33.203,26.367,36.621,30.273,17.090
1532203175.603,33.691,19.043,34.180,27.832,55.664
1532203175.607,35.156,29.297,35.645,36.133,5.371
1532203175.611,41.016,33.691,38.574,33.691,-6.836
1532203175.615,33.203,22.461,27.832,27.832,7.812
1532203175.619,29.785,18.555,24.902,24.414,16.113
1532203175.623,24.902,14.648,29.297,24.414,23.926
1532203175.627,23.926,18.066,30.762,26.367,1.953
1532203175.631,34.668,36.133,32.715,28.320,-3.418
1532203175.634,38.086,33.691,40.039,35.156,-0.977
1532203175.638,26.855,18.555,35.645,31.738,42.969
1532203175.642,21.973,23.438,26.367,17.090,60.059
1532203175.646,30.762,25.879,32.227,21.484,27.344
1532203175.650,38.086,37.109,41.016,37.598,30.273
1532203175.654,40.527,37.598,40.527,36.133,43.945
1532203175.658,31.250,23.438,32.227,19.531,34.180
1532203175.662,22.461,25.391,29.785,13.184,7.324
1532203175.666,30.273,20.020,32.715,23.438,-3.418
1532203175.670,36.621,17.578,35.156,22.949,-5.371
1532203175.674,29.785,23.926,39.062,25.391,6.348
1532203175.677,23.926,23.926,40.527,26.367,41.016
1532203175.681,25.391,32.715,36.621,11.230,64.453
1532203175.685,31.738,32.227,32.715,18.066,62.012
1532203175.689,31.250,23.926,29.785,29.297,40.039
1532203175.693,31.738,26.855,26.367,27.344,39.551
1532203175.697,36.621,36.621,34.668,25.879,36.621
1532203175.701,28.809,33.203,29.297,22.949,33.203
1532203175.705,26.855,22.949,23.438,24.414,25.391
1532203175.709,27.832,12.695,31.250,27.832,0.000
1532203175.713,36.621,16.602,37.598,30.273,17.578
1532203175.716,40.527,20.020,37.109,29.785,10.742
1532203175.720,29.785,21.484,28.320,21.973,3.906
1532203175.724,35.645,35.645,35.156,27.832,24.414
1532203175.728,41.504,46.387,41.016,33.203,4.883
1532203175.732,37.598,34.668,32.227,36.621,23.438
1532203175.736,37.109,29.297,33.691,36.133,53.223
1532203175.740,31.250,25.879,35.156,22.949,59.570
1532203175.744,26.367,21.973,29.785,17.090,51.270
1532203175.748,26.367,23.926,27.344,20.020,23.438
1532203175.752,30.273,12.207,22.949,24.414,27.832
1532203175.756,30.273,17.578,20.020,31.250,44.922
1532203175.759,26.367,26.855,23.926,24.902,33.203
1532203175.763,31.250,29.785,36.133,23.926,29.297
1532203175.767,32.715,35.156,41.016,26.367,-12.207
1532203175.771,34.180,35.156,38.574,29.297,-5.371
1532203175.775,36.621,25.391,38.086,38.086,28.809
1532203175.779,29.297,16.113,33.691,29.785,33.691
1532203175.783,36.133,22.461,39.062,36.621,33.203
1532203175.787,46.875,21.973,44.922,50.293,28.809
1532203175.791,35.156,26.367,29.785,36.621,47.852
1532203175.795,33.203,35.645,20.020,23.926,15.625
1532203175.799,28.809,31.738,22.949,16.113,21.973
1532203175.802,20.020,25.879,35.645,17.090,30.762
1532203175.806,25.879,22.949,43.945,25.879,8.789
1532203175.810,30.762,20.996,43.945,24.414,7.812
1532203175.814,27.832,22.461,33.691,31.738,16.602
1532203175.818,33.203,24.414,27.344,41.992,36.621
1532203175.822,28.809,20.996,28.809,35.645,49.316
1532203175.826,28.320,25.391,27.832,27.344,20.508
1532203175.830,41.016,28.320,38.086,45.410,14.648
1532203175.834,38.574,15.625,41.016,57.617,16.113
1532203175.838,37.109,18.066,39.062,41.016,18.066
1532203175.841,36.133,32.227,37.109,37.598,16.602
1532203175.845,31.738,29.785,28.809,35.645,18.066
1532203175.849,34.668,22.949,31.250,21.484,-21.484
1532203175.853,28.320,14.160,33.203,26.855,-25.879
1532203175.857,26.367,20.508,34.180,27.832,15.625
1532203175.861,29.785,27.344,32.715,23.438,25.879
1532203175.865,27.344,22.949,28.809,33.691,13.672
1532203175.869,32.715,21.484,34.180,41.504,22.461
1532203175.873,41.016,16.602,41.992,46.875,34.668
1532203175.877,37.109,16.602,34.668,54.199,32.227
1532203175.881,35.156,27.344,29.785,37.109,33.203
1532203175.884,35.156,39.062,39.551,25.879,25.391
1532203175.888,35.645,46.387,47.363,38.086,16.113
1532203175.892,40.527,42.480,45.410,39.551,9.277
1532203175.896,36.621,30.273,38.086,41.016,-4.395
1532203175.900,31.250,20.996,29.785,39.551,4.883
1532203175.904,24.414,16.602,23.926,20.020,36.133
1532203175.908,19.043,13.184,24.902,13.672,40.527
1532203175.912,31.250,18.555,24.414,28.809,22.461
1532203175.916,34.180,30.273,27.344,30.762,5.371
1532203175.920,29.785,32.227,31.738,24.414,38.086
1532203175.923,37.109,33.203,32.227,30.273,49.316
1532203175.927,42.480,37.109,38.086,19.043,-11.230
1532203175.931,38.574,33.691,31.250,12.695,-5.371
1532203175.935,35.645,26.855,26.367,25.879,21.973
1532203175.939,41.992,25.391,30.762,31.250,17.578
1532203175.943,54.688,34.180,36.133,36.133,30.762
1532203175.947,62.988,38.574,40.527,37.109,5.371
1532203175.951,55.176,25.391,33.691,16.602,-17.578
1532203175.955,46.875,18.555,26.367,15.625,2.441
1532203175.959,45.410,25.391,26.367,36.133,34.668
1532203175.963,41.504,25.391,27.344,39.551,30.273
1532203175.966,34.180,36.621,29.785,31.738,19.043
1532203175.970,27.344,32.227,25.879,28.809,33.691
1532203175.974,24.902,14.160,22.461,29.785,30.762
1532203175.978,32.715,19.043,22.461,37.598,36.621
1532203175.982,30.273,27.832,21.973,37.598,55.176
1532203175.986,24.902,27.344,28.320,33.691,37.109
1532203175.990,28.809,16.113,30.273,40.039,0.488
1532203175.994,38.086,26.855,31.738,51.270,10.254
1532203175.998,41.504,37.109,29.297,44.434,20.996
1532203176.002,35.156,27.832,30.273,30.273,43.457
1532203176.006,34.180,25.391,31.250,40.527,76.660
1532203176.009,41.016,28.320,30.762,50.293,35.156
1532203176.013,39.062,33.203,31.250,27.832,1.465
1532203176.017,38.086,31.250,22.461,19.531,30.273
1532203176.021,45.898,30.762,20.020,24.902,52.246
1532203176.025,40.039,34.180,20.508,23.926,59.570
1532203176.029,41.504,37.109,20.020,30.273,22.461
1532203176.033,45.410,31.738,19.043,33.691,-5.859
1532203176.037,41.016,28.320,14.648,38.574,29.785
1532203176.041,42.480,37.109,18.555,34.668,43.457
1532203176.045,46.875,41.016,28.809,31.250,30.762
1532203176.048,42.969,34.180,29.297,38.086,4.883
1532203176.052,41.504,26.367,27.344,35.645,24.902
1532203176.056,44.434,41.504,28.320,38.574,38.574
1532203176.060,40.039,45.898,25.879,37.109,34.180
1532203176.064,39.551,38.086,30.273,34.668,28.809
1532203176.068,38.574,32.227,33.691,41.016,-0.977
1532203176.072,34.668,24.902,24.414,40.039,8.301
1532203176.076,38.086,23.926,19.531,32.715,11.719
1532203176.080,39.062,33.203,26.855,34.180,-4.395
1532203176.084,41.016,44.434,30.273,41.992,8.301
1532203176.088,38.086,34.180,22.949,30.762,10.254
1532203176.091,36.621,27.344,18.066,25.879,-8.789
1532203176.095,44.922,36.133,25.391,37.109,-2.441
1532203176.099,45.898,35.156,37.109,41.016,22.461
1532203176.103,46.875,36.133,36.133,49.316,40.039
1532203176.107,46.875,32.715,28.320,49.316,43.945
1532203176.111,46.387,27.344,30.273,41.016,50.781
1532203176.115,45.410,37.109,31.250,43.457,32.227
1532203176.119,43.945,37.109,34.180,45.410,19.043
1532203176.123,53.711,32.227,40.527,50.293,39.551
1532203176.127,45.898,36.133,30.273,42.480,25.391
1532203176.131,35.156,36.133,27.344,39.062,6.348
1532203176.134,46.875,30.273,30.762,49.805,30.273
1532203176.138,41.016,25.879,25.391,35.645,52.246
1532203176.142,35.156,28.320,19.043,24.414,63.477
1532203176.146,41.992,30.273,25.391,32.715,35.156
1532203176.150,41.504,18.555,36.133,35.156,13.672
1532203176.154,35.156,18.555,32.715,30.762,44.434
1532203176.158,30.273,22.949,33.203,26.855,59.570
1532203176.162,32.227,21.484,35.156,25.391,29.785
1532203176.166,35.645,30.762,32.715,26.855,17.090
1532203176.170,34.668,38.086,25.391,23.926,28.809
1532203176.173,39.551,36.621,28.320,28.809,37.109
1532203176.177,43.457,33.691,30.762,35.156,33.203
1532203176.181,42.480,30.762,33.203,33.203,32.227
1532203176.185,43.945,29.785,37.598,31.250,12.695
1532203176.189,49.805,30.762,41.504,37.598,-20.020
1532203176.193,47.363,27.344,30.762,35.645,17.578
1532203176.197,43.945,29.785,24.902,40.527,33.203
1532203176.201,41.504,36.133,39.062,48.340,27.344
1532203176.205,35.645,28.320,39.062,32.715,23.926
1532203176.209,35.645,14.648,28.320,29.785,10.742
1532203176.213,38.086,15.137,26.855,37.109,20.020
1532203176.216,39.062,31.250,36.621,39.062,9.277
1532203176.220,39.062,20.996,36.133,39.062,3.418
1532203176.224,29.785,19.531,29.785,36.133,30.273
1532203176.228,28.320,33.203,31.250,35.645,26.367
1532203176.232,32.227,33.691,33.203,38.086,6.836
1532203176.236,35.156,31.738,36.621,41.992,42.969
1532203176.240,37.598,27.344,35.156,37.598,62.012
1532203176.244,37.109,26.367,34.180,41.992,49.805
1532203176.248,44.434,34.668,37.109,36.621,23.926
1532203176.252,50.293,35.645,28.320,34.180,29.297
1532203176.256,43.945,29.785,26.367,52.246,51.270
1532203176.259,34.180,27.832,32.227,43.945,33.691
1532203176.263,37.598,22.461,38.086,31.738,46.387
1532203176.267,32.715,24.902,34.668,26.367,17.090
1532203176.271,33.691,24.902,31.250,25.391,8.301
1532203176.275,46.875,29.785,30.273,27.344,65.918
1532203176.279,52.734,42.480,33.203,40.527,55.176
1532203176.283,42.480,38.086,42.969,53.711,21.973
1532203176.287,20.996,23.926,43.457,39.551,18.066
1532203176.291,17.578,15.137,37.598,36.133,31.250
1532203176.295,20.996,11.719,42.969,39.062,43.457
1532203176.298,30.273,21.973,51.758,45.410,20.020
1532203176.302,38.086,25.391,36.621,46.387,41.016
1532203176.306,37.598,14.160,25.879,39.062,52.246
1532203176.310,38.574,10.742,37.109,33.691,44.922
1532203176.314,37.598,19.531,43.945,29.297,38.086
1532203176.318,36.133,30.273,41.992,32.715,25.879
1532203176.322,30.762,31.250,42.480,28.320,62.012
1532203176.326,34.668,28.809,48.340,30.762,60.547
1532203176.330,39.062,18.066,43.945,31.738,-9.766
1532203176.334,32.227,14.160,32.715,30.273,-16.602
1532203176.338,32.715,26.367,26.855,33.203,29.785
1532203176.341,38.086,28.809,32.227,40.039,43.945
1532203176.345,40.527,20.508,38.086,41.992,39.062
1532203176.349,42.969,20.020,27.832,43.457,40.527
1532203176.353,43.945,20.508,24.414,52.246,35.645
1532203176.357,41.504,17.578,33.203,40.039,29.785
1532203176.361,38.574,21.973,39.062,36.621,39.551
1532203176.365,28.320,19.043,36.133,41.504,27.344
1532203176.369,27.832,24.414,36.133,33.203,11.719
1532203176.373,34.180,28.320,38.086,22.949,25.879
1532203176.377,38.574,24.414,39.062,24.902,34.180
1532203176.380,41.504,30.273,39.062,37.598,19.531
1532203176.384,38.574,28.320,29.785,35.645,34.668
1532203176.388,38.086,27.832,26.855,32.227,31.250
1532203176.392,39.551,32.227,27.832,35.156,11.230
1532203176.396,41.992,23.926,25.391,40.039,26.855
1532203176.400,43.457,26.367,35.645,46.387,20.996
1532203176.404,35.645,29.297,38.086,37.109,20.996
1532203176.408,23.438,17.090,28.320,20.020,9.277
1532203176.412,31.250,19.043,29.297,24.414,-9.766
1532203176.416,41.504,25.879,34.180,47.363,-10.742
1532203176.420,28.809,24.902,28.320,43.945,-0.488
1532203176.423,26.855,19.531,28.809,37.598,34.180
1532203176.427,37.109,20.996,36.133,45.898,31.250
1532203176.431,39.551,31.738,37.109,44.434,24.414
1532203176.435,44.434,34.668,38.086,40.039,39.551
1532203176.439,44.922,35.156,36.621,43.945,45.410
1532203176.443,42.480,29.785,31.738,36.133,45.898
1532203176.447,41.992,22.949,27.344,39.062,29.297
1532203176.451,45.410,27.344,27.344,52.246,6.348
1532203176.455,50.293,26.855,30.273,49.316,16.113
1532203176.459,50.781,25.879,32.715,44.922,39.551
1532203176.463,44.434,34.668,29.297,41.504,26.367
1532203176.466,37.109,26.855,20.020,41.016,-8.301
1532203176.470,38.086,22.949,21.973,34.668,3.906
1532203176.474,35.156,27.344,25.879,31.738,48.340
1532203176.478,30.762,22.949,29.785,32.715,41.504
1532203176.482,27.832,29.297,36.133,33.691,49.316
1532203176.486,29.785,38.086,33.203,30.762,35.156
1532203176.490,33.691,37.598,30.762,29.297,31.738
1532203176.494,35.645,35.645,32.227,30.273,49.805
1532203176.498,28.809,37.598,30.273,21.973,14.648
1532203176.502,33.203,41.016,18.555,23.438,17.578
1532203176.505,42.969,37.598,29.297,40.527,45.898
1532203176.509,27.832,33.203,46.875,37.109,21.973
1532203176.513,10.254,28.320,49.316,31.738,-2.930
1532203176.517,-0.977,20.508,50.781,28.809,17.090
1532203176.521,-8.301,11.230,52.734,27.832,48.828
1532203176.525,-10.254,14.648,60.059,23.926,33.691
1532203176.529,-15.137,17.090,66.406,15.625,29.297
1532203176.533,-20.996,17.090,70.801,17.578,46.875
1532203176.537,-24.902,26.367,75.684,11.719,52.734
1532203176.541,-33.203,15.625,71.289,3.418,63.477
1532203176.545,-45.898,4.395,64.941,-0.488,46.387
1532203176.548,-54.688,5.859,69.824,-9.766,15.137
1532203176.552,-52.246,8.301,83.008,-13.184,12.695
1532203176.556,-45.410,0.000,85.938,-6.836,32.715
1532203176.560,-38.086,-7.324,87.402,-2.930,35.645
1532203176.564,-35.156,-8.301,89.355,2.930,52.734
1532203176.568,-32.715,-10.254,91.309,9.766,44.922
1532203176.572,-37.598,-16.602,91.309,5.859,39.551
1532203176.576,-37.598,-21.484,91.797,9.277,50.293
1532203176.580,-26.367,-26.855,101.074,25.391,35.156
1532203176.584,-20.020,-32.715,102.051,36.621,37.598
1532203176.588,-2.930,-32.715,100.098,53.223,46.875
1532203176.591,7.324,-31.250,93.750,65.430,35.156
1532203176.595,9.766,-34.668,81.055,76.660,40.527
1532203176.599,27.344,-36.621,81.543,83.984,45.898
1532203176.603,37.598,-40.039,80.566,89.355,61.035
1532203176.607,41.992,-36.621,70.801,98.145,54.688
1532203176.611,52.246,-23.438,68.848,95.703,5.371
1532203176.615,56.641,-19.043,68.359,101.562,20.020
1532203176.619,59.082,-24.902,62.012,106.445,47.852
1532203176.623,61.523,-28.320,57.617,107.422,34.180
1532203176.627,66.895,-24.414,56.152,118.652,26.855
1532203176.630,76.172,-17.578,56.641,125.977,39.551
1532203176.634,79.590,-11.719,54.199,126.465,40.527
1532203176.638,80.078,-6.348,41.992,120.605,54.199
1532203176.642,85.938,-1.465,38.574,111.328,27.832
1532203176.646,93.262,2.441,43.457,95.215,-28.320
1532203176.650,85.449,-2.930,28.809,87.402,-18.555
1532203176.654,83.008,-4.883,26.367,85.449,17.090
1532203176.658,91.309,0.977,35.156,83.008,8.789
1532203176.662,95.703,2.441,31.738,89.355,5.371
1532203176.666,91.309,4.883,28.320,85.938,-2.441
1532203176.670,80.078,7.324,29.785,85.449,21.973
1532203176.673,69.336,8.301,31.250,95.703,41.016
1532203176.677,67.383,8.789,29.785,90.820,18.066
1532203176.681,67.871,13.184,25.391,84.961,22.461
1532203176.685,61.035,15.625,28.320,82.031,26.367
1532203176.689,58.105,10.742,35.156,81.055,23.926
1532203176.693,60.059,16.113,31.738,81.055,38.086
1532203176.697,62.988,26.855,28.809,80.078,58.594
1532203176.701,62.500,25.391,21.484,76.172,45.410
1532203176.705,61.523,21.484,17.578,70.801,45.898
1532203176.709,58.594,22.461,25.879,71.777,61.523
1532203176.713,58.594,15.625,27.832,79.102,38.574
1532203176.716,64.941,14.160,26.367,84.473,23.926
1532203176.720,62.012,30.273,25.879,83.496,41.992
1532203176.724,60.059,41.504,28.809,69.824,30.273
1532203176.728,61.523,35.645,26.367,65.918,-0.488
1532203176.732,60.059,31.738,19.043,70.801,-17.090
1532203176.736,65.918,40.527,23.438,67.871,16.113
1532203176.740,70.312,39.062,21.484,55.176,33.203
1532203176.744,66.895,33.691,15.137,38.086,-0.488
1532203176.748,54.199,30.762,14.160,32.715,-27.344
1532203176.752,43.457,29.297,20.996,36.621,-14.648
1532203176.755,43.945,28.320,23.926,39.062,22.461
1532203176.759,46.387,28.320,22.461,35.645,29.297
1532203176.763,54.199,33.203,22.949,39.062,17.578
1532203176.767,56.152,38.574,26.367,52.734,19.531
1532203176.771,56.641,36.621,28.320,53.711,16.113
1532203176.775,53.223,27.832,22.461,44.922,48.340
1532203176.779,50.781,31.250,15.137,46.387,46.387
1532203176.783,47.363,36.133,16.602,51.758,15.137
1532203176.787,45.898,34.180,23.926,52.734,14.160
1532203176.791,56.152,40.527,31.250,48.340,-5.859
1532203176.795,57.617,35.645,27.344,48.828,-6.836
1532203176.798,51.270,22.949,16.113,51.270,30.273
1532203176.802,49.316,35.645,17.090,44.922,48.340
1532203176.806,51.270,50.293,22.949,46.387,45.898
1532203176.810,50.293,51.270,24.414,53.223,37.109
1532203176.814,47.363,40.039,19.043,46.387,19.043
1532203176.818,47.363,37.598,17.578,29.297,28.809
1532203176.822,44.922,42.480,24.902,27.344,36.133
1532203176.826,41.504,34.180,26.855,30.273,31.738
1532203176.830,41.504,28.320,24.414,21.484,8.789
1532203176.834,43.945,31.250,22.461,24.902,1.953
1532203176.837,51.270,29.785,24.414,38.574,30.762
1532203176.841,48.828,32.227,19.531,37.598,28.809
1532203176.845,45.898,42.969,19.531,40.039,26.367
1532203176.849,50.781,39.551,26.855,51.758,23.926
1532203176.853,52.734,34.180,26.855,48.340,33.691
1532203176.857,50.781,40.039,20.996,52.734,37.598
1532203176.861,48.340,36.621,18.555,55.176,17.578
1532203176.865,50.781,23.926,27.344,46.875,0.977
1532203176.869,51.758,29.785,26.367,42.480,16.113
1532203176.873,46.875,39.551,17.578,22.949,51.270
1532203176.877,42.480,39.062,16.113,22.949,46.387
1532203176.880,51.758,43.945,24.902,48.828,37.598
1532203176.884,59.570,50.293,31.250,62.988,44.434
1532203176.888,45.410,42.480,28.320,40.527,31.250
1532203176.892,37.109,33.691,27.344,27.832,17.090
1532203176.896,41.504,34.180,23.438,38.574,32.227
1532203176.900,44.434,36.133,22.461,35.156,13.184
1532203176.904,53.223,41.992,31.738,35.645,7.324
1532203176.908,58.105,47.852,37.109,35.645,16.602
1532203176.912,50.293,39.062,31.250,28.320,34.668
1532203176.916,42.969,28.809,22.461,29.785,48.340
1532203176.920,41.992,36.133,20.508,36.133,18.066
1532203176.923,39.551,38.574,24.902,30.762,11.719
1532203176.927,37.598,34.668,22.461,23.926,10.254
1532203176.931,38.086,33.203,27.344,30.273,1.465
1532203176.935,37.598,30.273,31.250,32.715,12.695
1532203176.939,37.598,29.297,26.855,34.668,36.621
1532203176.943,41.016,35.156,31.250,38.574,58.105
1532203176.947,44.434,38.086,33.691,41.016,41.016
1532203176.951,41.016,41.504,31.250,43.945,23.438
1532203176.955,34.668,37.109,28.320,37.109,24.414
1532203176.959,38.086,35.645,30.762,31.738,22.461
1532203176.962,44.434,44.922,31.738,30.762,21.484
1532203176.966,43.945,35.645,24.414,22.461,9.277
1532203176.970,43.457,37.598,23.438,24.414,-9.277
1532203176.974,44.434,48.828,29.785,31.738,10.254
1532203176.978,38.086,40.039,28.320,20.508,27.344
1532203176.982,39.062,40.527,27.344,22.461,6.348
1532203176.986,46.875,50.293,30.762,35.156,5.371
1532203176.990,41.504,40.039,23.438,36.621,44.434
1532203176.994,44.922,34.668,27.832,43.457,39.551
1532203176.998,45.898,40.039,24.902,42.969,-9.277
1532203177.002,41.504,35.156,14.160,39.062,-2.441
1532203177.005,49.805,32.715,22.461,37.109,13.672
1532203177.009,48.340,36.133,26.855,41.504,4.395
1532203177.013,42.969,32.227,15.625,39.062,38.086
1532203177.017,53.711,35.156,19.043,34.180,33.203
1532203177.021,57.617,42.969,30.762,41.992,3.418
1532203177.025,50.293,37.598,29.297,33.691,9.277
1532203177.029,47.363,29.785,29.785,21.973,2.930
1532203177.033,50.781,30.762,35.645,33.691,-5.371
1532203177.037,43.945,35.156,34.668,40.039,-6.348
1532203177.041,39.551,41.504,30.762,32.715,23.438
1532203177.045,44.922,44.434,30.273,38.574,22.461
1532203177.048,39.062,36.133,23.438,41.504,-26.855
1532203177.052,33.203,33.691,15.625,30.273,-11.719
1532203177.056,41.016,36.133,16.602,30.762,29.785
1532203177.060,46.387,31.738,21.973,29.785,28.320
1532203177.064,57.129,36.621,28.320,28.809,30.273
1532203177.068,52.246,37.109,31.250,37.109,10.254
1532203177.072,37.109,32.715,31.738,40.039,24.902
1532203177.076,36.133,41.504,31.738,46.387,46.875
1532203177.080,37.598,43.457,23.438,31.738,3.418
1532203177.084,39.062,35.645,20.508,19.531,19.043
1532203177.087,35.645,29.297,22.461,26.367,36.621
1532203177.091,35.156,33.203,28.809,37.109,22.949
1532203177.095,39.062,39.062,32.227,44.922,19.531
1532203177.099,46.875,35.645,32.715,37.598,13.672
1532203177.103,41.992,27.832,29.785,38.086,31.250
1532203177.107,31.250,26.855,23.926,37.109,40.527
1532203177.111,35.156,27.344,22.461,39.551,0.000
1532203177.115,38.574,24.902,24.902,41.016,-2.930
1532203177.119,43.457,29.297,23.926,35.645,21.484
1532203177.123,49.316,35.156,23.438,44.922,33.203
1532203177.127,53.711,40.039,30.762,37.598,24.902
1532203177.130,52.246,46.387,33.203,22.949,6.836
1532203177.134,39.062,44.434,27.344,29.297,24.414
1532203177.138,37.598,40.527,27.832,46.875,39.551
1532203177.142,40.039,34.668,32.715,46.387,29.785
1532203177.146,41.504,27.832,38.574,39.551,32.715
1532203177.150,43.945,28.809,41.016,31.738,18.555
1532203177.154,36.621,31.250,29.785,24.902,19.531
1532203177.158,35.645,33.691,22.949,37.598,36.133
1532203177.162,38.086,32.715,22.461,37.109,44.922
1532203177.166,35.645,33.203,22.461,31.738,15.625
1532203177.170,39.551,33.203,25.391,36.133,6.836
1532203177.173,43.457,39.551,23.926,37.598,61.523
1532203177.177,46.875,42.969,29.297,44.922,46.387
1532203177.181,53.223,40.527,32.715,44.434,20.996
1532203177.185,58.594,39.062,34.668,34.668,34.668
1532203177.189,52.734,33.691,32.715,31.250,40.527
1532203177.193,43.945,33.691,25.391,24.902,27.344
1532203177.197,43.945,32.227,18.066,35.645,13.184
1532203177.201,51.270,29.785,25.879,55.176,-3.418
1532203177.205,51.270,32.227,37.598,43.457,10.254
1532203177.209,42.480,31.738,31.738,21.484,13.672
1532203177.212,37.598,26.367,27.344,23.438,10.742
1532203177.216,39.062,26.367,20.996,40.039,15.137
1532203177.220,42.969,35.156,20.996,43.457,25.879
1532203177.224,38.086,35.156,30.762,38.574,55.664
1532203177.228,36.621,38.086,39.062,51.758,32.715
1532203177.232,44.922,37.598,38.086,58.594,19.531
1532203177.236,45.410,24.902,32.715,42.480,16.113
1532203177.240,45.410,21.973,31.250,26.855,33.691
1532203177.244,44.434,28.320,27.344,24.902,67.383
1532203177.248,39.062,36.621,24.414,37.109,44.922
1532203177.252,40.527,34.180,20.996,47.852,33.203
1532203177.255,39.062,28.320,20.508,37.598,45.898
1532203177.259,41.016,30.273,24.414,28.320,37.109
1532203177.263,48.828,36.133,20.508,33.691,12.207
1532203177.267,46.387,38.086,23.438,24.414,-6.348
1532203177.271,44.922,39.062,28.320,12.695,-8.301
1532203177.275,44.434,38.086,28.320,31.250,5.859
1532203177.279,38.574,33.203,31.250,42.969,21.973
1532203177.283,37.598,28.809,24.414,36.133,29.297
1532203177.287,45.898,29.785,24.414,43.945,7.812
1532203177.291,45.410,25.391,29.785,50.781,23.926
1532203177.294,40.527,22.461,30.273,42.969,34.668
1532203177.298,37.109,29.297,29.785,41.016,-1.953
1532203177.302,37.109,37.598,27.832,42.969,17.578
1532203177.306,41.016,42.969,27.832,48.828,47.363
1532203177.310,36.133,37.598,24.414,38.574,19.531
1532203177.314,31.250,31.738,19.043,34.180,-8.301
1532203177.318,37.109,31.738,19.531,41.992,13.672
1532203177.322,44.434,27.832,20.996,41.992,55.176
1532203177.326,37.598,30.273,21.973,26.367,38.574
1532203177.330,39.062,37.598,24.902,26.367,22.461
1532203177.334,44.434,35.156,23.926,21.973,36.133
1532203177.337,48.828,37.109,31.250,20.020,50.293
1532203177.341,49.805,39.551,32.227,28.809,53.223
1532203177.345,42.969,34.180,18.066,22.949,35.645
1532203177.349,42.480,34.668,17.578,25.391,-2.930
1532203177.353,50.781,37.109,24.902,29.785,9.277
1532203177.357,54.199,37.598,24.414,28.809,55.176
1532203177.361,46.387,33.203,23.438,23.926,67.383
1532203177.365,41.504,31.250,27.344,28.809,30.762
1532203177.369,39.062,35.645,25.391,33.203,20.996
1532203177.373,39.062,36.621,20.508,36.621,49.316
1532203177.377,40.527,36.621,22.949,44.434,47.852
1532203177.380,32.715,34.180,24.414,46.387,40.039
1532203177.384,23.926,33.691,30.273,39.062,26.855
1532203177.388,29.785,33.203,40.039,32.715,20.996
1532203177.392,35.156,27.832,31.738,30.762,32.227
1532203177.396,29.297,31.250,26.367,41.016,12.207
1532203177.400,33.203,38.086,28.809,43.945,20.020
1532203177.404,33.691,37.598,24.902,33.203,40.527
1532203177.408,34.668,38.086,30.762,29.785,11.719
1532203177.412,40.527,36.133,32.715,30.762,9.277
1532203177.416,40.039,29.297,31.250,34.180,24.414
1532203177.419,40.039,35.156,32.715,35.645,30.273
1532203177.423,41.504,34.180,27.344,37.598,34.668
1532203177.427,46.387,29.297,29.785,38.574,37.598
1532203177.431,41.504,30.273,33.203,41.504,21.973
1532203177.435,41.504,34.180,33.691,44.434,12.207
1532203177.439,47.852,44.434,29.297,42.969,39.062
1532203177.443,41.992,45.410,24.414,40.039,74.219
1532203177.447,41.504,38.086,27.344,35.156,30.762
1532203177.451,44.922,33.691,32.227,31.250,-9.277
1532203177.455,41.504,30.273,28.809,41.016,22.461
1532203177.459,45.898,35.156,26.855,46.387,38.086
1532203177.462,48.340,42.969,37.109,47.363,28.809
1532203177.466,39.551,39.551,38.086,50.781,38.574
1532203177.470,39.551,35.156,34.668,33.691,44.922
1532203177.474,40.527,38.086,36.133,26.367,54.688
1532203177.478,38.574,37.109,33.203,34.668,31.738
1532203177.482,42.969,35.645,32.715,40.039,18.066
1532203177.486,42.969,33.203,29.785,37.109,30.273
1532203177.490,37.109,32.227,26.855,37.598,6.836
1532203177.494,35.645,34.668,29.785,42.480,10.742
1532203177.498,41.016,38.574,28.809,36.621,49.805
1532203177.502,46.875,47.852,33.691,35.645,55.664
1532203177.505,40.527,40.527,26.855,22.461,31.738
1532203177.509,32.715,27.344,12.695,8.301,19.531
1532203177.513,37.109,26.855,15.625,16.602,23.438
1532203177.517,39.062,30.273,23.438,21.973,5.859
1532203177.521,41.504,35.645,27.832,17.578,24.902
1532203177.525,42.969,34.668,24.902,17.090,40.527
1532203177.529,44.434,33.691,24.902,21.973,3.418
1532203177.533,50.293,38.574,30.273,30.762,8.301
1532203177.537,48.340,41.016,29.297,39.551,37.598
1532203177.541,45.898,41.992,23.926,38.574,40.039
1532203177.544,46.875,40.039,29.785,37.109,37.598
1532203177.548,46.387,38.574,34.180,28.809,-6.836
1532203177.552,45.898,41.016,26.855,22.949,-3.906
1532203177.556,50.293,39.062,23.438,32.715,57.617
1532203177.560,54.688,34.668,28.320,41.016,50.781
1532203177.564,59.570,31.738,29.297,40.039,6.348
1532203177.568,57.617,26.855,28.809,33.203,-2.930
1532203177.572,56.641,31.738,31.250,35.645,12.207
1532203177.576,52.734,40.527,27.344,32.715,41.992
1532203177.580,45.410,41.992,22.461,32.715,41.992
1532203177.584,50.781,43.457,29.297,42.969,13.672
1532203177.587,48.828,35.645,31.250,32.715,27.832
1532203177.591,40.039,29.297,23.926,23.438,52.734
1532203177.595,49.316,38.574,34.180,38.574,54.688
1532203177.599,51.270,41.016,33.691,41.992,22.461
1532203177.603,45.898,37.598,20.508,39.551,34.668
1532203177.607,45.410,37.109,23.438,37.109,51.758
1532203177.611,41.016,31.738,27.344,37.598,50.781
1532203177.615,38.574,32.715,30.762,36.621,44.922
1532203177.619,42.969,38.086,32.715,36.133,19.043
1532203177.623,44.434,38.574,29.297,40.039,31.738
1532203177.627,41.504,34.180,26.367,44.434,29.297
1532203177.630,39.062,27.832,29.297,42.969,11.230
1532203177.634,41.016,28.809,36.133,39.551,9.766
1532203177.638,51.758,34.180,44.434,39.062,26.367
1532203177.642,51.758,32.227,42.480,43.945,59.570
1532203177.646,40.527,32.227,36.621,56.641,41.504
1532203177.650,36.621,34.180,34.180,46.387,29.785
1532203177.654,42.480,33.691,34.668,40.039,48.340
1532203177.658,42.969,31.250,34.180,37.598,65.430
1532203177.662,34.668,28.320,32.227,44.434,75.684
1532203177.666,36.621,29.297,31.738,50.293,50.293
1532203177.669,44.922,31.250,30.273,49.805,17.578
1532203177.673,43.457,27.832,27.832,41.016,59.570
1532203177.677,43.945,26.367,32.715,35.156,64.453
1532203177.681,48.340,28.809,33.203,42.480,44.434
1532203177.685,41.504,29.297,28.320,36.621,52.734
1532203177.689,41.504,37.109,38.086,38.086,26.855
1532203177.693,38.574,39.551,34.180,31.738,29.297
1532203177.697,37.109,36.133,30.762,28.320,51.758
1532203177.701,42.969,32.227,37.109,42.969,55.176
1532203177.705,41.016,24.414,31.250,39.551,58.594
1532203177.709,41.992,34.668,27.344,40.039,50.293
1532203177.712,39.062,39.551,25.879,50.293,38.574
1532203177.716,35.156,31.738,29.785,45.410,41.504
1532203177.720,40.039,29.785,33.691,40.527,42.480
1532203177.724,49.316,32.227,31.738,45.410,37.109
1532203177.728,51.270,37.109,28.320,46.387,17.090
1532203177.732,52.246,36.621,26.855,38.086,20.020
1532203177.736,47.852,32.227,28.320,38.574,35.156
1532203177.740,45.410,33.691,26.367,38.086,57.617
1532203177.744,50.781,37.598,31.738,45.410,73.730
1532203177.748,53.711,39.062,36.621,53.711,30.762
1532203177.751,51.270,36.133,28.320,44.434,35.645
1532203177.755,50.293,33.691,28.809,36.133,41.992
1532203177.759,51.270,34.180,27.832,40.527,2.441
1532203177.763,44.922,32.227,25.391,48.828,8.301
1532203177.767,39.551,30.273,34.180,43.945,-0.977
1532203177.771,41.992,29.297,40.527,38.086,-1.465
1532203177.775,43.457,29.297,30.762,40.527,34.668
1532203177.779,52.246,37.598,33.203,53.711,45.898
1532203177.783,62.500,46.875,45.898,66.406,41.504
1532203177.787,53.223,41.016,35.156,46.875,21.484
1532203177.791,45.410,32.715,28.809,27.832,43.945
1532203177.794,49.805,31.250,31.738,29.297,57.129
1532203177.798,53.711,33.203,31.250,35.156,35.156
1532203177.802,50.293,34.668,32.715,41.992,20.508
1532203177.806,44.922,35.156,32.227,46.387,14.160
1532203177.810,47.363,35.645,28.320,46.387,16.113
1532203177.814,45.898,29.297,29.785,49.805,15.625
1532203177.818,45.898,29.297,34.180,50.293,16.602
1532203177.822,47.363,37.598,32.227,44.922,36.133
1532203177.826,45.898,39.062,29.297,36.133,58.105
1532203177.830,44.434,38.086,29.297,31.250,17.090
1532203177.834,43.457,36.133,27.832,32.227,20.996
1532203177.837,47.363,35.156,24.902,34.180,42.969
1532203177.841,49.316,35.645,27.832,45.410,39.062
1532203177.845,53.223,38.086,30.762,46.387,42.969
1532203177.849,57.129,38.574,24.902,40.527,43.945
1532203177.853,55.176,39.551,27.344,40.039,24.414
1532203177.857,51.270,38.086,36.133,42.480,43.457
1532203177.861,47.852,35.156,34.668,41.504,56.152
1532203177.865,43.457,33.203,32.715,38.086,18.066
1532203177.869,41.016,33.691,33.203,35.645,-4.883
1532203177.873,41.992,35.645,32.227,34.180,6.836
1532203177.876,48.340,35.156,36.133,39.062,54.688
1532203177.880,50.781,35.156,33.203,41.992,56.152
1532203177.884,43.945,30.762,23.438,44.434,51.758
1532203177.888,41.504,30.273,25.879,46.387,59.570
1532203177.892,45.410,37.109,32.227,46.875,69.336
1532203177.896,53.711,44.434,40.039,45.410,61.035
1532203177.900,54.199,45.410,38.086,45.898,46.387
1532203177.904,47.363,39.062,31.738,41.504,51.758
1532203177.908,45.898,32.715,27.832,36.133,83.496
1532203177.912,47.852,35.645,23.926,39.551,75.684
1532203177.916,45.898,38.574,26.855,40.039,40.527
1532203177.919,44.922,39.062,30.273,49.316,41.992
1532203177.923,49.805,40.527,33.203,54.199,58.594
1532203177.927,51.270,39.062,32.227,36.133,40.527
1532203177.931,47.852,34.668,24.414,32.715,13.184
1532203177.935,49.316,38.086,33.203,44.434,32.227
1532203177.939,48.828,43.945,39.551,46.387,52.734
1532203177.943,46.875,34.180,25.391,39.062,73.242
1532203177.947,46.387,32.227,23.926,43.457,66.406
1532203177.951,42.969,40.039,27.344,41.504,51.270
1532203177.955,44.434,40.039,25.391,31.250,65.918
1532203177.959,46.387,38.086,28.809,36.133,78.613
1532203177.962,47.363,38.086,32.227,42.480,62.988
1532203177.966,50.293,36.621,34.668,43.945,48.828
1532203177.970,52.246,36.133,34.180,49.316,21.484
1532203177.974,51.758,39.062,28.809,45.410,19.043
1532203177.978,46.387,38.574,27.344,42.480,58.105
1532203177.982,45.898,38.086,33.203,44.434,53.711
1532203177.986,45.410,41.016,36.133,39.551,54.199
1532203177.990,41.992,39.062,30.762,37.109,77.148
1532203177.994,41.016,36.133,29.297,34.668,59.082
1532203177.998,39.062,37.109,32.227,31.738,43.945
1532203178.001,39.551,35.156,35.156,40.527,58.105
1532203178.005,41.992,38.086,36.133,48.828,45.410
1532203178.009,43.457,39.062,31.250,38.574,25.879
1532203178.013,43.457,38.574,28.320,37.598,53.711
1532203178.017,43.457,40.527,28.809,46.875,45.410
1532203178.021,45.898,40.039,29.297,45.410,41.504
1532203178.025,43.457,39.551,28.320,48.340,79.102
1532203178.029,46.875,40.039,25.879,35.156,72.266
1532203178.033,51.758,41.504,26.855,22.461,73.242
1532203178.037,56.152,41.016,31.738,31.738,113.281
1532203178.041,62.500,41.504,34.180,37.109,98.145
1532203178.044,59.570,43.945,31.250,31.738,78.125
1532203178.048,59.570,43.457,24.414,24.902,68.359
1532203178.052,60.547,41.504,22.949,27.832,62.500
1532203178.056,52.246,39.062,26.855,31.738,92.285
1532203178.060,49.805,38.086,31.738,41.016,92.773
1532203178.064,50.293,39.551,28.320,51.758,79.590
1532203178.068,44.922,40.527,24.414,47.852,88.867
1532203178.072,43.945,40.527,30.762,49.805,101.562
1532203178.076,45.898,41.016,34.668,55.664,94.727
1532203178.080,42.969,39.551,32.715,46.875,96.191
1532203178.084,41.992,35.645,28.809,39.062,95.215
1532203178.087,40.527,37.109,32.227,37.598,81.543
1532203178.091,42.480,37.598,34.180,40.039,104.980
1532203178.095,47.852,36.621,31.738,43.945,108.398
1532203178.099,48.340,37.109,38.086,42.969,76.660
1532203178.103,48.340,39.062,42.480,50.293,85.449
1532203178.107,47.363,37.598,37.109,38.574,82.520
1532203178.111,42.480,31.738,29.785,21.973,68.359
1532203178.115,41.504,31.738,26.855,32.227,78.125
1532203178.119,43.457,33.691,28.320,39.062,103.516
1532203178.123,42.969,35.156,27.832,40.039,122.559
1532203178.126,50.293,42.969,30.762,46.387,118.652
1532203178.130,53.711,45.898,36.133,46.875,102.539
1532203178.134,49.805,39.062,31.250,35.156,95.215
1532203178.138,47.363,36.133,27.832,31.738,125.000
1532203178.142,53.711,41.992,34.180,36.621,155.273
1532203178.146,54.688,37.109,32.227,45.898,131.348
1532203178.150,48.340,28.809,21.484,35.156,107.910
1532203178.154,50.781,28.320,24.902,29.297,173.828
1532203178.158,47.852,30.762,27.832,33.691,257.324
1532203178.162,46.387,36.621,29.785,35.156,284.180
1532203178.166,50.293,36.133,31.738,35.156,293.945
1532203178.169,51.758,40.039,27.344,34.180,327.148
1532203178.173,53.223,42.480,29.785,43.945,414.062
1532203178.177,54.199,40.527,32.227,47.852,470.215
1532203178.181,50.293,40.039,30.762,40.527,487.793
1532203178.185,45.898,37.598,29.297,39.062,492.188
1532203178.189,46.387,38.086,30.273,37.109,501.465
1532203178.193,48.340,40.527,29.785,37.109,533.203
1532203178.197,46.387,42.480,23.926,35.645,540.527
1532203178.201,46.387,40.527,24.414,36.133,543.945
1532203178.205,46.875,41.504,28.809,41.504,560.547
1532203178.208,51.758,42.480,29.297,35.645,554.199
1532203178.212,50.781,40.039,26.855,29.785,555.664
1532203178.216,44.922,39.062,29.297,38.086,558.594
1532203178.220,43.457,38.574,31.738,42.480,539.551
1532203178.224,41.992,37.598,29.785,36.133,508.789
1532203178.228,45.410,36.621,26.855,30.762,464.355
1532203178.232,50.781,40.039,29.297,40.527,446.777
1532203178.236,49.805,41.016,29.297,45.898,475.586
1532203178.240,47.852,39.551,31.738,43.945,457.520
1532203178.244,44.434,34.668,35.156,48.828,427.246
1532203178.248,45.410,34.668,38.086,56.152,375.000
1532203178.251,47.363,36.133,35.156,54.688,336.914
1532203178.255,43.945,36.621,24.414,51.270,364.746
1532203178.259,47.363,43.457,29.785,43.945,347.656
1532203178.263,42.480,38.086,30.762,36.621,305.176
1532203178.267,33.203,29.785,25.879,37.109,264.648
1532203178.271,44.922,35.156,26.855,41.504,266.113
1532203178.275,46.875,34.668,27.832,43.945,299.805
1532203178.279,33.691,31.250,28.809,41.016,287.109
1532203178.283,37.109,35.645,32.715,43.457,228.516
1532203178.287,43.457,40.039,34.180,40.527,201.172
1532203178.291,48.340,39.062,30.273,26.367,191.895
1532203178.294,47.852,32.715,30.273,25.391,159.668
1532203178.298,44.922,30.273,32.715,37.109,113.281
1532203178.302,44.434,26.367,33.203,48.340,130.859
1532203178.306,43.457,27.344,35.645,42.480,166.992
1532203178.310,41.992,36.133,35.645,33.691,139.648
1532203178.314,41.992,38.574,33.203,41.992,74.219
1532203178.318,49.805,42.480,38.574,48.340,41.016
1532203178.322,46.875,36.621,34.668,42.969,48.340
1532203178.326,39.062,32.227,29.785,37.109,44.922
1532203178.330,37.598,36.133,31.250,36.133,-22.949
1532203178.333,35.156,33.203,32.715,35.156,-61.523
1532203178.337,35.645,31.738,36.133,41.992,-17.578
1532203178.341,34.668,34.180,37.109,46.875,-7.812
1532203178.345,34.180,31.250,38.086,38.086,-35.645
1532203178.349,32.715,28.320,38.086,38.574,-66.895
1532203178.353,33.691,34.668,37.109,44.922,-44.922
1532203178.357,31.250,34.180,35.645,37.109,-22.949
1532203178.361,32.715,28.320,28.809,42.480,-46.875
1532203178.365,38.086,33.691,31.738,35.645,-100.586
1532203178.369,37.598,34.180,35.156,26.367,-115.234
1532203178.373,39.551,31.250,29.785,31.250,-62.988
1532203178.376,39.551,35.645,35.156,34.180,-71.289
1532203178.380,39.551,33.691,39.062,34.180,-93.750
1532203178.384,37.109,28.320,35.645,37.109,-86.914
1532203178.388,32.715,28.320,30.273,37.109,-100.098
1532203178.392,34.668,29.785,31.250,29.785,-96.680
1532203178.396,35.645,25.391,40.527,41.992,-77.637
1532203178.400,32.715,29.297,39.551,46.387,-100.098
1532203178.404,32.227,37.109,35.645,27.832,-100.098
1532203178.408,37.109,38.086,35.645,29.785,-79.102
1532203178.412,40.527,37.109,30.273,33.203,-85.938
1532203178.416,40.527,35.645,30.762,32.715,-125.488
1532203178.419,40.527,32.715,33.203,36.133,-133.301
1532203178.423,38.574,30.273,32.227,32.715,-104.004
1532203178.427,35.645,30.762,36.133,24.902,-155.273
1532203178.431,38.086,33.203,37.109,25.879,-200.195
1532203178.435,40.039,33.691,37.109,35.645,-143.066
1532203178.439,38.574,33.203,38.086,29.785,-106.445
1532203178.443,33.691,29.785,33.691,28.320,-122.559
1532203178.447,31.250,30.762,32.227,32.227,-173.340
1532203178.451,30.762,31.738,29.785,33.203,-187.988
1532203178.455,34.668,31.738,25.879,32.227,-137.695
1532203178.458,31.738,32.715,30.762,24.414,-126.953
1532203178.462,29.785,37.109,28.809,24.902,-137.695
1532203178.466,34.668,38.086,28.809,30.273,-178.711
1532203178.470,30.762,32.227,39.062,26.855,-180.176
1532203178.474,34.668,33.691,41.016,19.043,-131.348
1532203178.478,36.621,38.086,35.645,25.879,-159.180
1532203178.482,34.180,32.227,34.668,25.879,-205.566
1532203178.486,37.109,31.250,33.691,23.926,-208.008
1532203178.490,37.598,37.598,32.715,31.738,-168.457
1532203178.494,36.621,37.598,34.180,27.344,-154.785
1532203178.498,34.668,30.762,30.762,20.508,-202.637
1532203178.501,29.785,26.367,27.344,14.648,-205.078
1532203178.505,28.809,32.227,27.344,18.066,-187.012
1532203178.509,28.320,34.668,27.344,23.438,-187.012
1532203178.513,28.809,33.691,31.738,28.809,-209.961
1532203178.517,32.715,35.645,38.574,36.621,-236.328
1532203178.521,30.762,35.156,35.156,32.715,-199.219
1532203178.525,30.762,35.156,33.203,28.320,-193.359
1532203178.529,38.574,32.715,35.156,23.926,-245.605
1532203178.533,34.668,27.832,31.738,25.879,-258.301
1532203178.537,36.621,34.668,34.668,35.645,-221.680
1532203178.541,41.504,39.062,38.086,32.715,-204.102
1532203178.544,35.156,31.250,32.227,20.996,-230.469
1532203178.548,33.691,28.320,30.762,17.090,-262.207
1532203178.552,38.574,30.273,30.762,20.508,-231.934
1532203178.556,39.551,31.250,28.809,26.367,-194.336
1532203178.560,36.621,34.180,26.367,25.391,-207.031
1532203178.564,37.598,39.062,29.297,29.785,-215.332
1532203178.568,41.016,40.039,29.297,33.203,-229.004
1532203178.572,41.016,36.133,31.738,28.320,-175.781
1532203178.576,40.039,33.691,38.086,31.250,-115.723
1532203178.580,39.551,31.738,35.156,28.809,-144.531
1532203178.583,36.621,30.762,29.297,24.414,-150.879
1532203178.587,39.551,34.180,26.367,30.762,-129.883
1532203178.591,41.992,34.180,26.855,37.109,-115.723
1532203178.595,43.457,36.133,29.785,36.133,-116.699
1532203178.599,38.086,38.574,32.227,38.086,-127.930
1532203178.603,33.203,32.715,31.250,36.133,-114.258
1532203178.607,37.109,28.320,28.320,32.227,-93.262
1532203178.611,40.039,33.691,27.832,31.738,-92.285
1532203178.615,41.016,38.574,32.715,35.645,-122.559
1532203178.619,41.504,38.086,38.086,40.039,-119.141
1532203178.623,41.992,40.527,41.016,43.457,-68.359
1532203178.626,40.039,41.992,38.086,42.969,-51.758
1532203178.630,42.969,40.527,31.250,43.945,-71.777
1532203178.634,49.805,38.086,26.855,44.434,-71.289
1532203178.638,48.340,36.133,28.809,30.762,-67.871
1532203178.642,42.969,37.109,29.785,23.438,-59.082
1532203178.646,41.504,35.645,28.320,23.438,-64.453
1532203178.650,38.574,34.180,28.320,23.926,-92.773
1532203178.654,38.574,35.645,31.250,31.738,-78.125
1532203178.658,38.086,35.645,35.645,32.227,-29.297
1532203178.662,37.109,38.086,38.086,30.762,-46.875
1532203178.665,38.574,42.969,38.086,39.062,-93.750
1532203178.669,32.227,38.086,29.785,30.762,-82.520
1532203178.673,32.227,31.738,26.855,24.414,-76.660
1532203178.677,34.668,31.250,31.250,29.785,-59.082
1532203178.681,34.180,33.691,31.250,34.668,-63.965
1532203178.685,40.039,34.180,30.762,40.527,-104.004
1532203178.689,35.156,34.180,31.738,33.691,-92.285
1532203178.693,30.273,36.621,27.832,30.762,-66.406
1532203178.697,35.156,36.621,27.344,34.668,-118.164
1532203178.701,33.691,35.156,32.227,34.180,-137.695
1532203178.705,34.180,34.180,31.738,35.645,-53.223
1532203178.708,36.133,30.762,30.762,35.156,-40.527
1532203178.712,38.574,28.320,29.785,30.762,-88.379
1532203178.716,40.039,36.133,28.809,32.715,-97.656
1532203178.720,37.598,39.062,25.879,38.574,-80.566
1532203178.724,39.062,39.551,26.367,32.227,-61.523
1532203178.728,51.758,47.363,39.551,24.414,-79.102
1532203178.732,53.711,41.504,36.621,24.414,-106.445
1532203178.736,44.434,33.203,25.391,23.438,-86.914
1532203178.740,44.434,36.133,23.438,29.297,-46.875
1532203178.744,39.551,36.621,25.879,31.738,-37.598
1532203178.748,32.227,34.180,27.832,22.949,-69.336
1532203178.751,30.273,33.691,29.785,32.715,-77.637
1532203178.755,36.133,35.645,30.273,40.527,-28.320
1532203178.759,42.969,38.574,27.344,36.133,-19.043
1532203178.763,36.133,36.133,28.320,36.133,-51.758
1532203178.767,26.367,33.691,30.762,36.133,-75.195
1532203178.771,27.832,35.645,30.762,30.273,-76.660
1532203178.775,29.297,38.086,29.297,32.715,-38.574
1532203178.779,33.691,40.039,29.297,36.133,-38.574
1532203178.783,36.133,39.062,30.273,31.738,-74.707
1532203178.787,33.691,34.180,30.273,25.879,-65.918
1532203178.790,36.621,29.785,29.297,31.738,-36.621
1532203178.794,41.016,33.691,31.250,49.316,-50.781
1532203178.798,34.180,34.668,28.809,38.574,-77.148
1532203178.802,31.250,34.668,22.461,25.879,-48.828
1532203178.806,44.922,37.109,25.391,37.598,-27.832
1532203178.810,42.969,36.621,29.297,26.367,-59.082
1532203178.814,30.273,34.180,31.250,27.832,-83.496
1532203178.818,23.926,29.785,33.203,35.156,-58.105
1532203178.822,29.297,33.203,34.180,33.203,-19.043
1532203178.826,36.133,36.133,32.715,25.391,-9.277
1532203178.830,30.273,31.738,27.832,16.602,-12.207
1532203178.833,31.250,30.762,27.344,20.508,-28.809
1532203178.837,36.621,36.621,29.785,24.902,-23.926
1532203178.841,36.621,39.551,33.203,32.227,17.090
1532203178.845,37.109,36.621,35.645,37.598,25.391
1532203178.849,39.551,33.691,35.156,35.156,-58.594
1532203178.853,38.574,31.738,30.762,35.645,-66.406
1532203178.857,35.645,31.738,32.715,37.598,1.953
1532203178.861,34.180,33.203,34.180,38.574,1.465
1532203178.865,31.738,33.691,31.250,37.598,-14.160
1532203178.869,34.180,35.156,35.156,27.344,-41.016
1532203178.873,37.109,34.668,32.715,27.344,-17.578
1532203178.876,33.203,32.227,27.344,28.809,10.742
1532203178.880,29.785,26.855,32.715,25.391,-16.113
1532203178.884,32.227,27.832,29.785,31.250,-36.133
1532203178.888,33.203,34.180,24.902,38.574,5.371
1532203178.892,36.133,27.344,26.855,27.832,36.133
1532203178.896,39.062,25.879,27.344,27.344,-16.113
1532203178.900,33.203,30.762,30.762,33.203,-35.645
1532203178.904,35.645,33.203,33.691,30.273,-41.992
1532203178.908,39.551,29.297,35.156,29.297,-41.504
1532203178.912,36.133,26.367,35.156,32.715,-4.395
1532203178.915,35.156,30.273,29.785,26.367,-23.926
1532203178.919,34.668,29.785,25.391,20.508,-23.438
1532203178.923,31.738,28.809,28.809,39.551,19.531
1532203178.927,30.273,30.762,33.691,35.645,22.461
1532203178.931,28.809,33.203,34.180,14.160,-1.953
1532203178.935,30.762,31.738,34.180,21.484,-12.695
1532203178.939,36.621,28.320,33.691,26.367,14.160
1532203178.943,35.645,29.297,33.691,30.762,16.602
1532203178.947,39.551,31.738,33.691,35.645,-26.367
1532203178.951,44.434,31.250,33.691,31.250,-36.133
1532203178.955,45.898,35.156,39.062,38.574,-28.320
1532203178.958,46.387,32.227,36.133,37.598,6.836
1532203178.962,41.992,26.855,28.320,30.273,17.578
1532203178.966,42.969,29.785,26.367,36.621,-14.648
1532203178.970,45.410,34.180,30.273,38.574,10.254
1532203178.974,40.527,34.180,32.227,36.133,70.801
1532203178.978,38.086,30.762,30.762,41.016,61.523
1532203178.982,41.016,31.250,30.762,39.551,9.277
1532203178.986,41.016,31.738,30.273,32.715,-8.301
1532203178.990,35.645,33.203,30.273,23.438,7.324
1532203178.994,37.598,35.156,32.715,29.785,20.508
1532203178.997,37.109,30.273,37.598,45.410,-0.488
1532203179.001,33.691,29.297,33.691,36.133,-3.906
1532203179.005,34.180,32.715,29.297,32.715,43.457
1532203179.009,32.715,31.738,30.762,40.039,64.941
1532203179.013,30.762,33.203,23.438,33.203,39.062
1532203179.017,36.621,33.691,24.414,31.738,6.836
1532203179.021,38.574,29.297,33.203,29.785,22.461
1532203179.025,34.668,27.344,33.691,31.250,65.430
1532203179.029,36.133,32.715,35.156,41.016,8.301
1532203179.033,40.527,32.715,38.086,47.363,-41.992
1532203179.037,38.086,29.297,38.086,42.969,-19.043
1532203179.040,33.691,30.762,38.086,34.668,-13.184
1532203179.044,30.762,31.250,38.086,38.086,-9.277
1532203179.048,30.273,32.227,33.203,35.645,-75.684
1532203179.052,37.109,34.180,30.273,32.227,-115.234
1532203179.056,38.574,30.762,31.250,40.527,-71.289
1532203179.060,34.668,27.344,29.297,35.156,-44.434
1532203179.064,33.203,32.715,28.809,28.320,-80.566
1532203179.068,31.250,34.180,30.762,26.367,-122.559
1532203179.072,34.180,30.762,28.320,29.785,-74.219
1532203179.076,38.574,32.227,29.297,40.527,-58.105
1532203179.080,29.297,32.227,28.320,34.180,-99.121
1532203179.083,25.391,32.227,25.879,27.832,-89.355
1532203179.087,37.109,33.203,23.438,32.227,-59.082
1532203179.091,38.574,33.203,25.879,28.809,-53.223
1532203179.095,32.227,32.227,34.668,33.203,-32.227
1532203179.099,28.320,33.203,36.621,39.551,-42.480
1532203179.103,22.461,35.156,31.250,31.250,-28.809
1532203179.107,23.926,32.715,21.484,26.855,16.602
1532203179.111,32.227,34.668,21.973,36.621,9.277
1532203179.115,35.645,37.109,34.180,45.410,-21.484
1532203179.119,36.621,31.738,33.203,37.109,-21.484
1532203179.122,41.016,29.785,29.297,32.227,13.672
1532203179.126,37.598,32.227,32.715,41.016,6.348
1532203179.130,25.391,30.273,31.250,27.344,-34.668
1532203179.134,20.508,26.855,26.367,18.066,-50.781
1532203179.138,28.320,28.320,26.367,30.273,-18.066
1532203179.142,37.598,29.297,27.832,37.598,9.277
1532203179.146,38.574,31.738,28.809,34.180,-6.836
1532203179.150,31.738,29.297,28.809,25.391,6.348
1532203179.154,28.320,30.762,23.926,25.391,35.156
1532203179.158,34.668,35.156,23.438,32.227,61.035
1532203179.162,34.668,33.691,24.902,35.156,88.867
1532203179.165,35.156,36.133,34.180,36.133,44.922
1532203179.169,37.109,34.180,37.598,26.855,3.418
1532203179.173,34.180,30.273,27.344,25.879,50.781
1532203179.177,31.738,28.320,27.344,27.344,44.922
1532203179.181,29.297,26.855,30.762,32.715,10.742
1532203179.185,29.785,29.785,32.227,40.527,13.184
1532203179.189,34.180,32.715,35.156,34.180,26.855
1532203179.193,42.969,32.227,40.039,36.133,51.758
1532203179.197,43.457,26.855,33.203,40.039,41.016
1532203179.201,37.109,27.344,24.902,34.668,4.883
1532203179.205,34.180,30.273,28.320,35.156,19.043
1532203179.208,39.551,30.762,30.762,33.691,40.527
1532203179.212,41.992,28.809,27.344,30.762,20.020
1532203179.216,39.551,28.320,26.367,40.039,1.953
1532203179.220,39.062,29.297,29.297,47.363,27.344
1532203179.224,38.086,31.250,33.691,47.852,61.035
1532203179.228,43.945,32.227,38.086,38.574,26.855
1532203179.232,48.828,30.273,33.203,31.738,-3.906
1532203179.236,39.551,32.715,25.879,37.598,38.086
1532203179.240,31.250,30.273,26.367,34.668,81.543
1532203179.244,39.062,28.809,28.809,34.668,62.988
1532203179.247,43.457,30.762,31.250,41.016,19.043
1532203179.251,34.668,30.273,35.156,38.574,24.414
1532203179.255,32.227,28.809,35.156,40.527,70.801
1532203179.259,36.133,28.320,28.809,42.480,59.570
1532203179.263,40.527,28.320,24.902,41.992,1.953
1532203179.267,40.039,29.785,28.320,39.551,-19.043
1532203179.271,37.109,30.273,32.227,34.180,-15.625
1532203179.275,37.109,28.809,29.297,30.273,44.434
1532203179.279,37.109,27.344,26.855,31.738,39.062
1532203179.283,39.551,30.762,25.879,36.133,1.953
1532203179.287,36.133,34.180,26.367,38.086,44.434
1532203179.290,34.180,34.180,31.250,36.133,77.148
1532203179.294,35.645,30.273,30.762,31.738,65.430
1532203179.298,33.203,29.297,35.645,29.297,19.531
1532203179.302,35.156,30.273,39.551,38.574,9.766
1532203179.306,29.785,30.273,32.227,46.387,43.457
1532203179.310,25.879,28.809,28.809,35.156,32.715
1532203179.314,32.715,21.484,27.832,26.367,-32.715
1532203179.318,32.715,22.949,28.809,33.691,-18.066
1532203179.322,26.855,34.180,26.855,33.691,27.832
1532203179.326,21.484,40.039,29.785,27.344,41.504
1532203179.330,22.949,46.387,40.039,26.855,-16.113
1532203179.333,28.809,42.480,41.504,26.367,-41.992
1532203179.337,31.738,34.180,33.203,30.762,34.180
1532203179.341,35.645,34.668,31.738,42.969,92.773
1532203179.345,33.203,31.250,32.715,40.527,54.688
1532203179.349,26.855,28.320,28.809,29.297,4.395
1532203179.353,28.320,27.832,27.832,28.809,20.508
1532203179.357,35.645,32.227,29.297,32.715,21.484
1532203179.361,36.621,34.668,33.203,33.203,39.062
1532203179.365,27.832,32.715,33.691,34.180,33.203
1532203179.369,26.855,33.203,26.367,21.973,5.859
1532203179.372,28.809,31.738,24.414,20.020,6.348
1532203179.376,28.809,28.320,27.832,21.484,-2.930
1532203179.380,34.180,31.738,32.227,19.043,2.441
1532203179.384,47.363,33.203,40.039,33.691,-11.719
1532203179.388,47.363,28.320,37.109,34.668,1.953
1532203179.392,42.480,29.785,34.180,37.109,56.152
1532203179.396,38.574,30.273,37.109,31.738,24.414
1532203179.400,37.598,29.785,33.203,22.949,19.043
1532203179.404,45.410,31.738,30.762,33.691,47.363
1532203179.408,52.246,32.227,31.250,31.250,22.461
1532203179.412,45.410,31.738,25.879,20.996,21.484
1532203179.415,37.109,27.832,28.809,34.668,12.695
1532203179.419,38.574,28.320,39.551,44.922,20.020
1532203179.423,37.598,34.180,41.016,44.434,62.988
1532203179.427,32.715,36.621,40.039,44.434,31.738
1532203179.431,31.250,32.715,36.133,36.621,1.953
1532203179.435,30.762,26.855,32.227,38.574,2.930
1532203179.439,27.344,22.949,35.156,43.457,43.945
1532203179.443,26.855,25.879,32.715,34.668,68.359
1532203179.447,29.297,31.738,31.738,32.227,5.371
1532203179.451,34.668,33.203,35.156,28.320,-28.320
1532203179.454,46.875,33.691,38.574,35.645,34.180
1532203179.458,44.434,35.156,36.621,40.527,67.383
1532203179.462,35.645,35.156,33.203,35.156,19.043
1532203179.466,30.273,34.668,30.273,32.227,-22.461
1532203179.470,34.180,37.109,32.715,25.391,-25.879
1532203179.474,49.805,44.434,43.945,38.086,34.668
1532203179.478,40.527,38.086,39.551,41.992,54.688
1532203179.482,27.344,26.367,32.227,37.109,6.836
1532203179.486,40.039,25.879,33.691,38.086,2.441
1532203179.490,46.387,26.855,32.715,29.297,40.039
1532203179.494,42.480,30.762,33.691,35.645,27.832
1532203179.497,44.434,36.133,32.227,38.574,2.441
1532203179.501,49.805,38.574,25.391,28.320,6.836
1532203179.505,52.246,35.645,24.902,42.969,38.086
1532203179.509,48.828,33.203,38.086,42.480,16.113
1532203179.513,36.133,29.297,42.480,32.227,-15.137
1532203179.517,26.855,24.902,40.039,37.598,-8.301
1532203179.521,36.133,26.855,34.180,41.504,36.133
1532203179.525,41.504,26.855,35.156,44.922,73.730
1532203179.529,33.691,27.832,45.898,35.156,28.320
1532203179.533,33.203,27.344,44.922,29.785,17.578
1532203179.537,34.668,25.879,43.457,31.250,48.340
1532203179.540,34.180,26.367,41.016,29.297,49.805
1532203179.544,27.344,25.879,38.574,28.320,62.500
1532203179.548,24.414,24.414,38.086,22.461,13.672
1532203179.552,38.574,25.879,34.180,22.949,-0.977
1532203179.556,43.945,27.832,33.691,34.180,66.895
1532203179.560,38.086,25.879,32.715,40.527,60.059
1532203179.564,37.598,29.785,33.203,38.574,10.742
1532203179.568,43.457,34.668,38.086,42.969,14.648
1532203179.572,44.434,33.203,34.668,40.039,50.293
1532203179.576,41.504,30.273,32.227,25.391,73.730
1532203179.579,39.551,24.902,29.297,25.391,40.527
1532203179.583,38.086,25.391,25.391,40.039,9.766
1532203179.587,41.504,27.832,29.297,38.574,19.043
1532203179.591,49.316,30.273,33.691,31.250,40.039
1532203179.595,56.641,37.109,36.133,41.016,43.945
1532203179.599,58.594,38.086,31.250,41.992,12.695
1532203179.603,44.434,35.156,25.879,39.551,3.418
1532203179.607,33.203,36.621,27.832,37.109,26.855
1532203179.611,37.109,39.551,30.762,31.738,12.207
1532203179.615,35.156,36.133,30.273,31.250,38.086
1532203179.619,37.109,34.668,33.691,34.180,66.895
1532203179.622,46.875,32.715,35.156,35.156,67.871
1532203179.626,45.898,29.785,30.273,34.668,75.684
1532203179.630,41.016,27.832,27.344,34.668,19.531
1532203179.634,40.527,28.320,31.250,35.645,4.883
1532203179.638,46.875,34.180,39.551,50.781,25.879
1532203179.642,47.852,31.738,38.086,54.688,48.828
1532203179.646,47.363,28.809,31.250,42.969,46.387
1532203179.650,42.969,31.738,28.320,40.039,4.395
1532203179.654,37.598,28.809,34.668,40.527,29.297
1532203179.658,38.574,28.320,37.598,35.156,66.406
1532203179.662,34.668,32.227,35.645,34.668,34.180
1532203179.665,37.598,27.832,40.527,37.598,8.789
1532203179.669,44.434,26.855,37.598,37.109,21.484
1532203179.673,39.551,33.203,30.273,35.645,55.176
1532203179.677,32.227,36.621,36.133,35.156,51.270
1532203179.681,31.250,32.715,41.992,35.156,7.812
1532203179.685,33.203,33.691,40.527,33.691,-15.137
1532203179.689,34.180,34.668,33.203,31.250,-2.441
1532203179.693,24.414,32.227,30.762,22.949,31.738
1532203179.697,22.949,25.879,30.273,27.344,17.578
1532203179.701,25.879,23.926,28.809,41.992,21.484
1532203179.704,22.949,29.297,35.645,38.574,52.246
1532203179.708,31.738,33.203,36.621,32.715,64.941
1532203179.712,37.598,31.250,31.250,22.949,54.688
1532203179.716,31.738,34.180,33.203,18.555,18.066
1532203179.720,24.902,35.645,30.762,24.414,46.387
1532203179.724,29.785,25.879,24.902,27.832,62.500
1532203179.728,34.668,24.902,28.809,33.203,32.715
1532203179.732,23.438,27.832,31.250,25.879,10.254
1532203179.736,27.832,28.809,27.344,15.625,16.113
1532203179.740,32.227,33.691,28.809,11.719,43.457
1532203179.744,23.438,34.180,32.715,20.508,59.570
1532203179.747,24.902,33.203,37.598,23.926,5.859
1532203179.751,22.949,28.809,35.156,20.996,-45.410
1532203179.755,21.973,26.367,30.762,16.602,13.672
1532203179.759,29.297,34.180,40.527,23.438,56.152
1532203179.763,22.461,30.762,41.016,32.227,24.414
1532203179.767,23.438,23.438,30.762,28.320,2.930
1532203179.771,29.297,23.926,27.832,28.809,20.996
1532203179.775,19.531,19.531,28.809,31.738,51.758
1532203179.779,15.137,23.438,29.297,28.320,17.090
1532203179.783,22.949,35.645,30.273,20.996,3.418
1532203179.787,27.832,38.574,34.180,11.719,-3.418
1532203179.790,28.320,34.180,34.180,10.254,14.648
1532203179.794,25.391,33.203,29.297,20.020,63.965
1532203179.798,23.926,32.227,29.297,20.508,2.441
1532203179.802,27.832,31.738,31.738,29.785,20.996
1532203179.806,25.879,31.738,35.156,29.785,58.594
1532203179.810,30.273,28.809,36.621,26.367,40.039
1532203179.814,37.109,27.832,29.785,34.180,54.688
1532203179.818,40.039,41.016,34.180,38.086,29.297
1532203179.822,35.156,44.922,40.527,23.438,21.484
1532203179.826,19.043,33.691,34.668,16.602,34.180
1532203179.829,20.020,33.203,31.738,19.531,10.254
1532203179.833,27.344,34.668,32.715,26.855,20.996
1532203179.837,21.484,30.762,35.645,36.621,38.574
1532203179.841,16.602,33.203,39.062,30.762,58.105
1532203179.845,31.738,30.762,41.504,40.527,34.668
1532203179.849,50.293,29.297,36.133,54.688,5.371
1532203179.853,36.621,41.992,26.367,29.297,36.133
1532203179.857,31.250,50.293,24.414,3.906,43.457
1532203179.861,40.527,46.387,29.785,13.672,65.430
1532203179.865,37.109,46.387,36.621,29.785,47.852
1532203179.869,28.809,43.945,37.109,20.020,19.531
1532203179.872,22.949,37.109,31.250,14.160,59.570
1532203179.876,21.973,34.180,25.879,16.113,59.082
1532203179.880,27.344,32.715,30.273,20.996,11.719
1532203179.884,29.297,34.180,36.133,31.250,-0.488
1532203179.888,27.832,31.738,36.621,23.438,43.945
1532203179.892,28.809,28.809,30.762,20.020,92.773
1532203179.896,38.086,34.668,31.250,29.785,54.199
1532203179.900,41.992,38.574,30.273,32.715,23.438
1532203179.904,40.039,37.598,23.926,33.203,63.477
1532203179.908,44.434,33.691,31.738,39.062,85.938
1532203179.911,42.480,35.156,39.551,29.297,76.172
1532203179.915,42.969,34.668,36.621,19.043,39.062
1532203179.919,41.016,33.203,33.203,19.043,29.785
1532203179.923,29.297,30.273,31.738,22.949,61.035
1532203179.927,30.762,26.855,26.367,19.043,64.453
1532203179.931,27.344,32.715,24.902,4.395,19.531
1532203179.935,23.926,34.180,31.250,12.207,30.273
1532203179.939,29.297,32.715,38.574,21.973,57.129
1532203179.943,28.320,32.227,40.527,28.320,82.031
1532203179.947,29.297,27.344,35.156,23.926,61.523
1532203179.951,35.645,30.762,28.809,24.414,38.086
1532203179.954,38.086,38.574,27.832,34.180,85.449
1532203179.958,37.598,39.062,31.738,39.062,91.309
1532203179.962,34.180,37.109,34.180,33.203,66.895
1532203179.966,31.250,38.086,37.598,26.855,32.715
1532203179.970,32.715,37.109,38.086,28.809,17.090
1532203179.974,28.809,31.250,34.180,26.367,52.246
1532203179.978,35.156,37.109,37.109,32.227,38.086
1532203179.982,43.945,39.062,37.598,40.527,14.648
1532203179.986,43.945,37.598,27.344,38.574,41.992
1532203179.990,42.480,37.598,23.438,28.809,34.668
1532203179.994,40.527,40.527,35.645,27.832,39.551
1532203179.997,37.598,38.574,35.645,33.203,37.598
1532203180.001,36.133,27.832,27.344,30.762,26.367
1532203180.005,35.645,25.391,32.227,29.297,47.852
1532203180.009,39.062,29.785,33.203,27.344,75.195
1532203180.013,39.551,34.180,31.250,26.855,48.340
1532203180.017,37.109,37.109,38.574,30.273,14.160
1532203180.021,39.551,38.086,39.062,44.434,42.969
1532203180.025,35.645,39.062,39.062,47.363,54.688
1532203180.029,30.273,35.156,38.574,29.297,20.996
1532203180.033,34.180,32.227,38.086,33.691,1.465
1532203180.036,39.551,34.180,38.086,41.016,21.484
1532203180.040,43.945,36.133,34.180,30.762,66.406
1532203180.044,40.527,38.574,34.180,28.809,51.270
1532203180.048,38.574,36.621,29.785,29.785,11.719
1532203180.052,40.527,35.156,28.320,35.645,36.621
1532203180.056,37.109,35.156,30.762,29.297,85.449
1532203180.060,34.180,34.180,28.320,10.742,75.684
1532203180.064,36.133,33.691,29.297,19.043,27.832
1532203180.068,40.527,36.621,28.809,26.367,9.277
1532203180.072,40.039,36.621,31.738,16.113,39.551
1532203180.076,38.086,34.180,36.621,19.043,71.289
1532203180.079,42.480,32.227,36.133,35.156,55.176
1532203180.083,40.039,35.156,35.645,44.434,32.227
1532203180.087,30.762,34.180,34.180,35.645,57.617
1532203180.091,30.273,32.227,32.227,30.762,72.266
1532203180.095,33.691,32.715,31.250,35.645,43.945
1532203180.099,25.391,31.250,31.250,30.273,25.391
1532203180.103,12.207,27.832,30.762,27.832,27.344
1532203180.107,23.438,32.715,30.273,42.969,57.617
1532203180.111,41.016,37.109,32.227,31.738,28.809
1532203180.115,33.691,36.133,31.250,10.742,-8.301
1532203180.119,27.832,37.598,30.762,25.391,34.180
1532203180.122,26.367,28.809,31.738,26.855,59.570
1532203180.126,26.855,29.297,37.109,23.926,62.988
1532203180.130,27.344,32.227,42.480,30.273,62.012
1532203180.134,26.855,31.250,37.109,25.391,19.531
1532203180.138,30.273,32.715,33.203,28.320,26.855
1532203180.142,31.738,36.133,32.227,32.227,56.641
1532203180.146,33.203,34.668,32.715,29.785,7.812
1532203180.150,39.551,31.250,34.180,31.738,-19.531
1532203180.154,41.992,30.273,33.691,33.203,21.484
1532203180.158,40.527,27.832,35.156,32.715,40.039
1532203180.161,39.551,26.367,32.227,33.691,22.949
1532203180.165,35.645,33.203,28.809,32.715,12.695
1532203180.169,36.133,42.480,34.180,19.531,16.602
1532203180.173,37.598,41.504,34.180,22.949,32.715
1532203180.177,41.992,40.527,30.762,36.133,53.223
1532203180.181,48.340,41.504,31.738,29.297,40.527
1532203180.185,40.039,35.156,34.180,27.832,23.438
1532203180.189,27.832,26.855,40.527,28.809,51.758
1532203180.193,24.902,27.344,43.457,25.879,73.242
1532203180.197,27.344,31.738,37.109,24.414,46.875
1532203180.201,36.133,35.645,36.621,25.391,2.930
1532203180.204,41.992,33.203,42.969,31.738,19.043
1532203180.208,41.992,29.297,42.480,34.668,47.852
1532203180.212,42.480,35.156,38.086,30.762,38.086
1532203180.216,41.504,38.086,38.086,35.156,31.738
1532203180.220,36.133,36.133,39.062,39.062,49.805
1532203180.224,31.250,36.621,35.645,28.320,55.664
1532203180.228,39.551,36.621,36.133,18.555,18.066
1532203180.232,43.457,31.738,41.016,24.414,9.277
1532203180.236,32.227,29.785,39.062,20.508,18.066
1532203180.240,28.809,31.738,36.621,22.949,30.762
1532203180.244,32.715,37.598,39.062,36.621,39.062
1532203180.247,35.156,35.156,42.969,32.715,25.879
1532203180.251,27.832,25.391,42.480,23.438,13.184
1532203180.255,22.461,26.367,39.551,19.531,39.551
1532203180.259,34.180,29.785,35.645,25.391,74.707
1532203180.263,48.340,30.762,34.668,31.738,37.109
1532203180.267,45.410,34.180,32.227,21.484,-21.484
1532203180.271,37.109,34.668,29.297,26.367,13.184
1532203180.275,41.504,35.156,34.668,41.992,49.316
1532203180.279,47.852,34.180,38.086,27.344,18.066
1532203180.283,42.969,32.715,37.109,22.461,11.230
1532203180.286,38.086,34.668,36.133,24.414,15.625
1532203180.290,41.992,28.809,39.551,29.785,80.078
1532203180.294,41.504,22.949,41.504,37.598,80.078
1532203180.298,33.203,30.273,34.668,39.062,40.527
1532203180.302,28.809,33.691,33.691,50.293,63.965
1532203180.306,31.738,29.785,38.574,33.691,54.199
1532203180.310,36.621,32.715,43.945,26.855,26.367
1532203180.314,36.133,34.668,46.387,35.645,21.973
1532203180.318,33.691,30.273,42.480,43.457,17.090
1532203180.322,34.668,27.832,41.992,46.387,51.270
1532203180.326,39.551,28.320,42.480,43.945,95.215
1532203180.329,44.922,28.809,40.039,44.922,44.922
1532203180.333,45.410,33.203,35.645,43.457,6.348
1532203180.337,49.805,35.645,35.156,39.062,34.180
1532203180.341,44.922,31.738,40.039,37.109,62.988
1532203180.345,32.715,26.855,32.715,45.410,58.594
1532203180.349,39.551,26.367,28.809,31.738,15.625
1532203180.353,41.016,32.227,36.621,23.438,27.832
1532203180.357,46.875,40.039,46.875,45.410,72.266
1532203180.361,46.387,39.062,41.016,34.668,37.598
1532203180.365,32.715,28.320,29.297,22.461,24.902
1532203180.368,35.156,28.320,40.039,34.668,20.508
1532203180.372,40.039,36.133,41.504,41.504,43.457
1532203180.376,32.227,36.133,33.203,38.574,62.012
1532203180.380,26.855,32.227,36.621,42.480,15.137
1532203180.384,32.227,26.855,38.574,37.109,2.930
1532203180.388,27.344,29.297,33.691,36.133,28.320
1532203180.392,25.391,41.504,35.156,46.387,30.762
1532203180.396,30.273,41.992,33.691,39.062,20.996
1532203180.400,30.273,33.203,27.832,33.691,-13.672
1532203180.404,26.855,30.273,31.250,27.344,23.438
1532203180.408,32.715,34.180,40.039,36.133,51.758
1532203180.411,30.762,34.668,37.598,35.156,7.812
1532203180.415,21.973,28.809,27.344,20.996,0.488
1532203180.419,25.879,26.855,30.762,12.207,16.113
1532203180.423,27.832,28.320,35.645,17.090,47.852
1532203180.427,27.832,33.203,36.621,24.902,37.109
1532203180.431,29.297,33.203,34.180,24.902,2.441
1532203180.435,25.879,25.391,28.809,23.438,14.160
1532203180.439,25.879,22.461,29.297,21.973,19.043
1532203180.443,22.949,28.809,29.297,28.809,46.875
1532203180.447,18.555,30.762,30.273,30.273,16.602
1532203180.451,30.273,36.621,34.180,20.020,-28.809
1532203180.454,33.203,40.527,28.320,32.715,25.391
1532203180.458,24.902,34.668,24.414,38.086,38.086
1532203180.462,25.391,31.738,32.227,22.461,31.250
1532203180.466,26.367,30.273,34.668,16.113,33.203
1532203180.470,29.785,29.785,31.738,21.484,41.504
1532203180.474,31.738,28.809,33.203,32.715,56.152
1532203180.478,33.203,28.320,31.738,31.250,58.105
1532203180.482,37.598,30.273,27.344,24.414,44.434
1532203180.486,41.504,31.250,32.715,34.668,28.809
1532203180.490,39.551,33.203,34.180,37.109,15.625
1532203180.493,40.527,34.180,28.320,20.020,27.832
1532203180.497,36.621,33.203,28.809,14.648,23.926
1532203180.501,34.668,35.645,36.133,24.902,7.812
1532203180.505,43.945,33.691,33.203,36.621,44.922
1532203180.509,40.039,31.738,31.738,38.574,57.129
1532203180.513,32.227,36.133,38.574,31.250,17.090
1532203180.517,33.691,34.180,34.180,27.832,19.531
1532203180.521,35.645,31.250,28.320,29.785,64.453
1532203180.525,35.156,34.668,32.227,34.180,70.312
1532203180.529,36.621,38.086,44.922,39.551,-4.395
1532203180.533,29.785,32.715,42.480,39.062,-21.484
1532203180.536,22.461,28.809,34.180,22.949,19.043
1532203180.540,24.902,30.273,27.832,13.672,57.617
1532203180.544,23.926,28.320,27.832,21.484,76.172
1532203180.548,23.438,23.438,36.621,20.020,27.344
1532203180.552,29.785,23.438,37.109,24.414,22.461
1532203180.556,33.691,31.738,34.668,36.621,43.945
1532203180.560,29.785,32.715,33.691,30.273,56.641
1532203180.564,36.133,30.273,33.203,28.320,42.480
1532203180.568,43.457,32.227,27.832,33.203,23.926
1532203180.572,39.062,29.785,30.273,30.762,15.137
1532203180.576,36.133,31.250,37.598,27.832,35.645
1532203180.579,32.715,31.250,35.156,25.391,40.039
1532203180.583,32.715,27.832,31.738,33.691,10.742
1532203180.587,38.574,28.809,34.180,26.367,5.859
1532203180.591,36.133,28.809,36.133,34.180,20.508
1532203180.595,34.668,30.273,39.062,52.734,56.641
1532203180.599,37.598,28.809,40.039,44.922,27.832
1532203180.603,33.691,24.902,30.762,34.668,17.090
1532203180.607,37.109,33.691,31.250,28.809,58.105
1532203180.611,38.086,38.574,36.621,32.715,47.852
1532203180.615,32.715,31.250,35.156,36.133,6.836
1532203180.618,37.109,30.273,36.133,38.574,-1.953
1532203180.622,34.668,31.738,37.598,41.016,49.805
1532203180.626,31.250,32.715,35.156,43.945,53.223
1532203180.630,35.645,34.668,36.621,38.086,-18.066
1532203180.634,34.668,30.273,39.062,19.531,7.324
1532203180.638,29.297,24.414,34.180,18.066,79.102
1532203180.642,29.785,26.367,32.715,27.832,99.609
1532203180.646,33.203,30.762,37.598,25.879,58.594
1532203180.650,34.180,32.715,40.527,29.785,1.953
1532203180.654,36.621,37.109,38.086,38.574,47.363
1532203180.658,39.062,40.527,36.133,39.551,99.121
1532203180.661,39.062,36.621,40.527,38.086,83.496
1532203180.665,41.504,31.738,42.969,37.598,36.621
1532203180.669,42.969,35.645,42.969,30.762,13.184
1532203180.673,36.133,37.109,38.086,32.227,66.406
1532203180.677,35.645,39.062,36.133,41.504,52.246
1532203180.681,42.480,41.992,44.922,35.645,-0.977
1532203180.685,36.133,35.156,47.363,24.414,12.207
1532203180.689,33.691,33.203,40.527,26.855,52.734
1532203180.693,37.598,34.180,34.668,34.180,71.777
1532203180.697,38.086,29.785,40.039,33.691,25.391
1532203180.701,37.109,32.227,40.527,25.391,-1.953
1532203180.704,39.551,38.574,34.180,28.320,50.781
1532203180.708,44.922,40.527,33.203,29.297,63.477
1532203180.712,42.969,38.574,34.180,20.020,9.277
1532203180.716,42.969,37.109,39.062,21.484,-8.301
1532203180.720,45.410,38.086,38.086,20.508,52.246
1532203180.724,50.781,40.527,38.574,27.344,85.449
1532203180.728,52.246,40.039,40.039,36.133,33.691
1532203180.732,42.480,34.180,33.203,37.598,-0.977
1532203180.736,32.715,35.156,29.297,44.434,30.762
1532203180.740,29.785,40.039,35.156,52.246,73.242
1532203180.743,34.668,40.527,41.504,51.758,78.125
1532203180.747,30.762,38.086,40.039,42.969,36.621
1532203180.751,23.926,36.621,37.598,40.039,26.855
1532203180.755,26.855,35.156,36.133,39.551,62.012
1532203180.759,33.203,31.738,37.109,42.480,73.242
1532203180.763,36.133,31.250,36.133,34.180,28.809
1532203180.767,36.621,33.691,36.621,29.785,-4.883
1532203180.771,39.062,38.086,36.621,38.086,33.691
1532203180.775,41.992,41.016,32.715,39.062,93.262
1532203180.779,40.039,39.551,33.203,38.086,70.312
1532203180.783,40.039,32.715,33.691,36.133,31.738
1532203180.786,41.504,32.227,30.273,35.645,14.160
1532203180.790,40.527,33.203,34.180,34.668,15.137
1532203180.794,37.598,28.809,40.527,38.086,45.410
1532203180.798,30.273,31.738,34.180,34.180,37.598
1532203180.802,25.879,38.574,28.809,30.762,22.949
1532203180.806,31.250,39.062,29.785,37.598,41.016
1532203180.810,39.062,35.156,29.297,33.203,45.898
1532203180.814,39.551,35.645,29.297,37.598,29.297
1532203180.818,35.645,37.598,30.273,36.621,23.438
1532203180.822,36.133,37.598,30.762,29.297,39.551
1532203180.825,28.320,29.785,28.809,27.832,55.664
1532203180.829,25.879,25.391,30.273,22.461,17.578
1532203180.833,34.180,28.809,32.715,21.973,6.348
1532203180.837,35.645,29.785,32.227,34.180,47.852
1532203180.841,34.668,32.715,32.227,36.621,67.383
1532203180.845,30.273,35.645,32.715,24.414,61.523
1532203180.849,29.297,35.645,33.691,20.508,38.086
1532203180.853,32.227,35.156,32.227,22.949,31.738
1532203180.857,32.227,30.273,34.668,16.602,45.898
1532203180.861,29.297,27.344,32.227,12.695,55.176
1532203180.865,29.785,32.715,28.320,14.160,48.828
1532203180.868,30.762,35.156,35.156,10.742,18.555
1532203180.872,26.367,31.250,33.203,11.719,17.578
1532203180.876,33.691,24.902,32.227,22.949,64.941
1532203180.880,35.645,28.809,32.715,26.855,42.480
1532203180.884,32.715,34.180,25.879,20.996,19.531
1532203180.888,32.227,30.762,25.879,13.184,44.922
1532203180.892,31.250,30.273,30.762,19.043,62.500
1532203180.896,31.738,30.762,34.668,31.250,63.965
1532203180.900,33.691,29.785,35.645,29.785,23.438
1532203180.904,35.645,29.297,34.668,29.297,17.578
1532203180.908,37.598,24.414,37.109,30.273,28.320
1532203180.911,33.691,24.902,34.180,31.738,34.180
1532203180.915,30.762,32.227,34.668,31.738,31.250
1532203180.919,36.133,36.133,42.480,31.250,22.949
1532203180.923,36.133,36.133,43.945,41.504,79.590
1532203180.927,30.273,32.227,36.621,28.320,83.984
1532203180.931,25.391,26.367,29.297,21.973,22.461
1532203180.935,26.367,24.414,28.320,29.785,20.996
1532203180.939,26.855,25.391,29.297,25.391,53.711
1532203180.943,26.855,26.367,32.227,31.738,78.125
1532203180.947,34.180,28.320,32.227,38.574,20.996
1532203180.950,36.621,27.344,31.250,32.715,-2.441
1532203180.954,36.133,28.809,29.297,26.367,44.922
1532203180.958,33.203,30.762,31.738,30.762,96.680
1532203180.962,32.227,31.250,34.668,34.180,83.984
1532203180.966,32.715,30.273,36.133,28.320,28.320
1532203180.970,34.668,26.855,38.086,32.227,22.949
1532203180.974,36.133,30.273,38.086,30.273,67.871
1532203180.978,32.227,33.203,33.203,19.531,78.125
1532203180.982,34.668,34.180,34.180,31.738,24.902
1532203180.986,39.062,35.645,35.645,42.480,17.090
1532203180.990,34.668,35.156,35.156,26.367,38.574
1532203180.993,32.227,33.691,34.180,21.484,56.641
1532203180.997,32.227,27.832,33.203,37.598,46.875
1532203181.001,36.133,25.391,32.227,39.551,7.812
1532203181.005,40.039,28.320,31.738,37.598,16.602
1532203181.009,38.086,26.855,38.574,33.691,17.578
1532203181.013,41.016,28.320,46.875,50.781,15.137
1532203181.017,36.621,34.180,45.410,57.617,51.758
1532203181.021,25.879,30.273,35.156,34.668,34.668
1532203181.025,31.250,27.344,33.691,32.715,35.645
1532203181.029,35.645,27.344,36.133,39.062,42.480
1532203181.033,33.203,30.762,35.156,33.691,-3.418
1532203181.036,32.715,31.250,31.250,29.297,13.184
1532203181.040,26.855,31.250,33.691,31.250,50.781
1532203181.044,28.320,31.738,35.156,24.902,35.156
1532203181.048,36.133,30.273,35.645,27.832,9.277
1532203181.052,37.598,29.785,36.621,27.344,-15.625
1532203181.056,35.645,28.809,34.180,33.203,36.133
1532203181.060,39.062,27.344,35.156,42.480,59.082
1532203181.064,41.016,29.297,36.133,40.039,20.996
1532203181.068,34.668,28.320,31.250,37.598,1.953
1532203181.072,32.715,27.344,29.785,29.297,18.555
1532203181.075,30.273,28.809,29.785,21.973,58.105
1532203181.079,31.250,26.855,30.273,27.344,41.016
1532203181.083,34.668,29.297,30.762,31.738,21.484
1532203181.087,30.273,28.320,32.715,32.227,30.762
1532203181.091,29.785,26.855,33.691,36.133,36.133
1532203181.095,32.227,26.855,31.250,35.645,51.758
1532203181.099,37.109,27.344,33.691,34.668,25.391
1532203181.103,39.551,27.344,29.785,33.691,20.996
1532203181.107,35.645,27.832,28.320,31.250,50.293
1532203181.111,29.785,29.297,36.621,23.926,40.527
1532203181.115,31.250,22.461,36.621,23.926,35.645
1532203181.118,32.715,18.555,35.645,30.762,39.062
1532203181.122,36.621,24.902,35.645,31.250,79.102
1532203181.126,43.457,32.715,41.504,33.691,77.148
1532203181.130,41.504,31.738,41.992,42.969,45.898
1532203181.134,38.086,25.879,34.668,45.410,34.668
1532203181.138,39.551,26.367,32.715,34.668,22.461
1532203181.142,36.621,22.949,29.785,29.785,51.270
1532203181.146,36.133,25.391,34.668,39.551,33.203
1532203181.150,37.598,31.250,36.621,41.016,-29.297
1532203181.154,36.621,27.832,32.227,40.039,-0.977
1532203181.158,39.551,24.414,34.180,39.551,56.152
1532203181.161,43.945,28.320,32.227,39.062,59.570
1532203181.165,48.340,34.668,30.273,41.992,18.555
1532203181.169,44.922,33.691,33.203,33.691,3.906
1532203181.173,40.527,28.809,33.691,34.180,52.246
1532203181.177,43.457,28.809,29.297,46.387,63.477
1532203181.181,45.898,30.273,31.250,52.246,11.719
1532203181.185,46.875,32.227,40.039,52.734,5.371
1532203181.189,46.387,32.715,37.109,38.086,38.574
1532203181.193,38.086,25.879,34.668,35.645,48.340
1532203181.197,33.691,26.367,38.086,37.109,47.363
1532203181.200,39.551,29.297,40.527,35.645,35.156
1532203181.204,43.457,29.297,40.039,36.133,62.500
1532203181.208,47.363,28.809,37.109,32.227,68.848
1532203181.212,49.316,25.879,35.645,33.691,27.344
1532203181.216,43.457,21.973,38.574,43.457,19.043
1532203181.220,40.039,27.344,40.527,47.363,54.199
1532203181.224,40.039,34.668,40.039,51.270,61.035
1532203181.228,42.969,33.203,38.574,56.641,34.180
1532203181.232,39.551,33.203,37.109,49.316,24.902
1532203181.236,41.504,34.180,33.203,40.039,29.785
1532203181.240,41.016,31.250,31.250,33.203,54.688
1532203181.243,37.109,33.691,41.016,37.109,67.871
1532203181.247,41.016,36.621,44.434,38.574,24.902
1532203181.251,37.598,29.297,38.086,31.250,-6.836
1532203181.255,33.691,23.438,34.668,39.551,13.672
1532203181.259,39.062,21.973,33.691,35.156,22.949
1532203181.263,41.016,24.414,34.668,25.391,0.977
1532203181.267,38.574,26.367,36.621,31.250,-35.156
1532203181.271,41.504,23.926,36.133,36.621,-17.090
1532203181.275,40.527,25.879,34.180,31.738,47.852
1532203181.279,39.062,30.273,34.180,29.297,10.742
1532203181.282,40.039,31.250,37.109,32.227,-16.602
1532203181.286,36.621,29.785,38.086,30.762,5.859
1532203181.290,36.621,29.785,39.062,29.297,20.996
1532203181.294,36.133,30.273,37.109,38.574,20.996
1532203181.298,37.598,29.785,34.668,40.527,15.625
1532203181.302,36.621,29.785,36.133,39.062,37.598
1532203181.306,28.320,29.785,36.133,37.598,52.734
1532203181.310,30.273,28.320,36.133,37.598,34.180
1532203181.314,39.551,29.785,36.621,50.293,22.949
1532203181.318,40.527,31.738,35.645,44.434,16.602
1532203181.322,38.086,28.809,35.156,31.738,48.340
1532203181.325,41.504,30.273,34.668,35.645,41.016
1532203181.329,38.574,30.762,36.133,32.715,0.977
1532203181.333,33.203,28.320,35.645,33.203,-7.812
1532203181.337,39.062,26.855,33.691,45.898,-11.719
1532203181.341,40.039,25.879,36.133,46.387,8.789
1532203181.345,36.133,25.391,32.227,40.527,19.043
1532203181.349,36.133,27.832,30.762,34.180,-12.695
1532203181.353,38.086,28.320,33.203,22.949,-5.371
1532203181.357,46.875,28.320,35.645,28.809,23.926
1532203181.361,51.270,27.344,37.109,35.156,8.301
1532203181.365,48.828,25.391,35.645,26.367,-14.160
1532203181.368,44.434,25.879,35.156,39.062,-52.246
1532203181.372,38.086,26.367,36.133,44.434,-27.344
1532203181.376,37.109,20.996,39.551,49.316,26.367
1532203181.380,38.574,21.484,39.551,49.805,-12.695
1532203181.384,34.668,24.902,39.062,34.180,-35.645
1532203181.388,30.273,26.855,40.527,29.785,-56.152
1532203181.392,27.344,29.297,37.109,20.996,-47.363
1532203181.396,26.855,28.320,34.180,24.414,-27.344
1532203181.400,24.414,28.809,35.645,39.551,-60.059
1532203181.404,32.715,30.273,36.133,54.199,-38.086
1532203181.407,38.086,28.320,38.574,47.363,-21.484
1532203181.411,37.109,23.926,38.574,28.320,-44.434
1532203181.415,40.039,24.902,37.109,31.250,-57.617
1532203181.419,41.504,30.273,40.039,47.852,-81.055
1532203181.423,39.551,30.273,39.062,43.945,-27.344
1532203181.427,41.016,26.855,37.109,37.598,-17.578
1532203181.431,44.434,29.297,38.574,29.297,-90.332
1532203181.435,42.480,29.297,36.621,31.250,-81.055
1532203181.439,38.574,27.832,35.156,34.180,-13.184
1532203181.443,35.645,29.785,34.180,27.344,-3.906
1532203181.447,38.574,26.367,37.598,37.109,-46.387
1532203181.450,37.109,24.414,37.109,37.598,-68.848
1532203181.454,36.621,32.715,37.109,41.504,-61.523
1532203181.458,36.621,35.645,43.457,46.875,-19.531
1532203181.462,30.762,29.297,37.109,43.457,-15.137
1532203181.466,26.855,24.902,34.668,37.598,-52.246
1532203181.470,21.973,21.973,31.738,22.949,-54.199
1532203181.474,20.020,21.973,28.320,21.484,-12.207
1532203181.478,21.484,22.949,33.203,36.621,1.465
1532203181.482,25.391,20.996,32.227,37.598,-30.273
1532203181.486,26.367,20.996,26.367,34.180,-32.227
1532203181.490,24.902,26.855,25.879,27.344,41.016
1532203181.493,27.344,29.297,31.738,32.227,56.641
1532203181.497,34.668,30.762,35.645,28.320,-12.695
1532203181.501,30.273,29.785,35.645,25.879,-29.785
1532203181.505,28.320,29.785,35.645,27.344,3.418
1532203181.509,29.785,29.297,34.668,13.184,12.695
1532203181.513,24.902,27.832,40.039,17.090,-19.043
1532203181.517,26.367,29.297,40.527,22.949,-17.090
1532203181.521,27.344,27.344,32.715,22.461,26.855
1532203181.525,21.484,23.926,30.273,25.879,45.410
1532203181.529,18.066,25.391,30.762,13.184,20.996
1532203181.532,24.902,28.320,30.273,10.742,-4.883
1532203181.536,35.156,28.320,36.621,35.156,19.043
1532203181.540,34.180,27.344,38.086,38.574,90.332
1532203181.544,27.344,26.367,32.227,30.762,73.730
1532203181.548,26.367,28.320,32.715,33.691,15.137
1532203181.552,23.438,30.762,35.156,27.832,58.594
1532203181.556,26.367,28.320,32.715,15.625,103.027
1532203181.560,32.715,27.832,34.180,20.996,107.910
1532203181.564,31.250,28.809,35.156,28.320,123.535
1532203181.568,28.320,25.879,30.762,9.766,141.113
1532203181.572,31.738,23.438,32.227,6.836,166.992
1532203181.575,32.227,24.414,30.273,28.320,230.957
1532203181.579,31.250,25.879,27.344,23.926,255.859
1532203181.583,31.738,26.855,32.715,23.438,199.707
1532203181.587,33.691,29.785,34.668,31.738,195.312
1532203181.591,31.250,26.855,33.691,27.832,244.629
1532203181.595,30.273,25.879,34.180,39.551,254.883
1532203181.599,29.297,27.832,32.227,35.645,231.445
1532203181.603,30.273,27.832,35.156,24.902,238.770
1532203181.607,40.527,29.297,38.574,27.344,248.535
1532203181.611,39.062,25.879,31.250,24.902,268.066
1532203181.615,40.039,22.461,29.297,25.391,230.957
1532203181.618,41.016,24.414,36.621,31.250,211.914
1532203181.622,36.621,26.367,34.180,25.879,276.855
1532203181.626,29.785,26.367,28.320,22.461,272.461
1532203181.630,32.227,28.320,37.109,40.039,219.238
1532203181.634,37.598,31.250,41.992,53.223,192.871
1532203181.638,26.367,25.391,36.621,40.527,214.844
1532203181.642,19.531,19.531,32.227,29.297,253.906
1532203181.646,17.578,17.090,32.227,28.320,216.309
1532203181.650,20.508,20.508,33.691,24.414,160.645
1532203181.654,25.391,23.926,32.715,23.438,163.574
1532203181.657,27.344,21.484,33.203,18.555,166.504
1532203181.661,28.809,23.438,38.574,17.090,166.016
1532203181.665,28.809,25.879,40.527,28.320,149.414
1532203181.669,35.645,26.855,39.062,35.156,113.770
1532203181.673,37.109,29.785,37.598,37.109,144.043
1532203181.677,34.180,30.273,37.109,40.039,167.969
1532203181.681,35.645,28.320,34.180,29.297,138.672
1532203181.685,30.762,26.367,35.156,24.414,101.074
1532203181.689,26.367,29.785,39.062,20.508,86.426
1532203181.693,25.391,30.762,38.086,15.137,104.980
1532203181.697,25.391,29.297,39.551,29.785,73.730
1532203181.700,30.273,28.809,36.133,41.992,31.250
1532203181.704,31.738,25.879,30.273,41.992,62.500
1532203181.708,27.344,26.367,33.691,31.738,71.777
1532203181.712,25.879,26.855,36.133,13.184,41.016
1532203181.716,27.832,25.879,34.668,9.277,39.551
1532203181.720,26.367,25.391,34.668,22.949,41.016
1532203181.724,26.855,25.391,36.133,38.574,60.547
1532203181.728,26.367,25.391,34.668,29.297,59.570
1532203181.732,28.809,24.902,32.715,22.461,23.926
1532203181.736,34.668,27.832,31.250,21.484,0.977
1532203181.739,34.180,27.344,29.297,17.090,27.344
1532203181.743,29.785,25.879,31.738,22.949,26.855
1532203181.747,27.344,30.273,30.273,26.367,-23.926
1532203181.751,30.273,32.715,31.738,28.809,-53.223
1532203181.755,31.250,31.250,33.203,35.156,-12.695
1532203181.759,29.297,25.879,31.738,39.551,-11.719
1532203181.763,25.391,21.973,36.621,34.180,-57.129
1532203181.767,25.879,16.602,39.551,26.855,-89.844
1532203181.771,31.738,13.672,37.598,23.926,-106.934
1532203181.775,33.203,21.973,37.598,32.227,-69.336
1532203181.779,33.203,26.855,39.062,47.363,-68.848
1532203181.782,35.156,27.344,34.180,42.480,-116.699
1532203181.786,34.668,27.832,31.250,30.273,-122.559
1532203181.790,34.180,28.320,36.133,36.133,-94.238
1532203181.794,39.062,29.785,36.621,37.109,-110.352
1532203181.798,38.086,29.297,34.180,29.785,-142.090
1532203181.802,35.156,31.738,38.574,34.180,-152.832
1532203181.806,35.156,34.180,39.062,35.156,-123.535
1532203181.810,27.344,28.320,29.297,20.508,-144.043
1532203181.814,25.879,26.367,22.461,17.578,-165.039
1532203181.818,24.414,25.879,22.461,27.832,-146.484
1532203181.822,23.926,26.367,26.367,31.250,-109.863
1532203181.825,30.762,32.715,31.250,32.715,-85.938
1532203181.829,25.879,27.832,31.250,27.344,-132.812
1532203181.833,22.949,22.949,28.320,21.973,-156.738
1532203181.837,25.391,25.879,26.855,30.273,-126.465
1532203181.841,24.902,26.855,26.367,33.203,-104.492
1532203181.845,24.902,29.297,29.785,31.738,-94.238
1532203181.849,25.391,31.738,28.809,28.809,-135.254
1532203181.853,30.762,29.785,26.855,29.785,-156.738
1532203181.857,35.645,28.809,30.273,34.668,-86.426
1532203181.861,35.156,26.367,32.715,30.273,-43.945
1532203181.864,38.574,24.414,28.320,27.832,-62.500
1532203181.868,39.062,25.879,26.367,19.531,-93.262
1532203181.872,35.645,26.855,32.227,19.531,-61.035
1532203181.876,36.621,27.344,32.227,22.461,-41.016
1532203181.880,30.762,26.367,30.273,23.926,-51.270
1532203181.884,23.926,27.832,32.715,35.156,-58.105
1532203181.888,23.438,30.762,33.203,30.762,-85.449
1532203181.892,19.531,30.762,29.297,13.672,-68.848
1532203181.896,20.020,27.832,25.879,18.555,-34.668
1532203181.900,26.367,25.391,28.320,26.367,-73.730
1532203181.904,30.273,25.391,35.156,28.809,-47.363
1532203181.907,26.855,25.391,36.621,31.250,2.930
1532203181.911,24.902,22.461,33.691,27.832,1.465
1532203181.915,30.762,25.879,39.551,29.785,-1.465
1532203181.919,38.574,31.738,46.875,42.480,-20.996
1532203181.923,35.156,25.879,36.621,32.715,-20.508
1532203181.927,29.785,21.973,28.320,25.879,5.371
1532203181.931,31.250,23.438,30.273,34.180,-13.184
1532203181.935,33.203,20.996,31.738,36.621,-17.090
1532203181.939,35.156,19.043,31.738,33.691,29.785
1532203181.943,36.133,21.973,35.645,36.621,48.828
1532203181.947,33.203,23.438,37.598,35.645,6.836
1532203181.950,30.273,22.461,34.180,20.508,-60.059
1532203181.954,30.273,22.461,30.762,20.508,-31.250
1532203181.958,33.691,19.043,28.809,30.762,39.551
1532203181.962,30.762,16.602,33.691,29.785,48.340
1532203181.966,26.855,20.508,36.621,22.949,2.930
1532203181.970,29.297,24.902,31.738,20.020,0.977
1532203181.974,30.762,27.832,26.855,20.508,28.809
1532203181.978,37.598,27.832,28.320,18.555,25.879
1532203181.982,41.504,26.367,33.691,23.926,-3.418
1532203181.986,39.062,23.438,35.645,30.762,-5.371
1532203181.989,39.062,25.391,33.691,16.602,23.926
1532203181.993,41.504,29.785,31.738,11.719,48.828
1532203181.997,47.363,29.297,32.715,20.508,28.320
1532203182.001,51.270,28.809,33.691,29.785,-2.930
1532203182.005,48.340,26.367,38.574,34.180,41.504
1532203182.009,42.480,26.855,39.062,38.086,56.641
1532203182.013,40.527,25.879,37.109,43.457,25.391
1532203182.017,32.227,22.461,37.109,38.574,11.719
1532203182.021,23.926,21.484,37.109,41.992,31.250
1532203182.025,30.762,28.320,44.922,50.293,36.133
1532203182.029,26.855,28.320,41.016,46.875,34.180
1532203182.032,28.809,22.461,30.762,31.250,1.953
1532203182.036,30.762,20.996,33.203,28.320,6.836
1532203182.040,22.461,17.578,30.762,34.668,46.875
1532203182.044,22.461,19.531,27.344,32.227,41.992
1532203182.048,25.879,22.949,34.180,23.926,4.883
1532203182.052,33.203,23.926,37.109,30.762,-21.484
1532203182.056,32.715,22.461,31.250,32.715,29.785
1532203182.060,26.855,20.508,28.320,24.902,36.133
1532203182.064,29.297,22.949,31.738,28.809,9.277
1532203182.068,29.785,24.414,31.738,20.508,19.043
1532203182.072,27.344,24.414,29.785,16.113,42.969
1532203182.075,29.297,26.855,30.762,26.855,61.035
1532203182.079,25.879,25.391,30.273,26.367,50.781
1532203182.083,24.902,23.438,34.180,31.738,42.480
1532203182.087,29.785,23.926,37.598,40.527,35.156
1532203182.091,33.691,26.855,36.133,39.551,38.086
1532203182.095,36.621,27.344,36.133,32.227,47.363
1532203182.099,31.738,26.855,36.621,41.992,31.250
1532203182.103,30.762,27.344,37.109,46.875,40.527
1532203182.107,35.156,23.438,35.156,33.691,63.965
1532203182.111,34.668,23.438,36.621,32.227,62.988
1532203182.114,33.691,23.438,36.133,33.203,33.691
1532203182.118,36.133,19.043,32.715,33.203,4.883
1532203182.122,39.062,19.531,29.785,28.809,44.434
1532203182.126,38.574,23.926,29.297,35.645,79.102
1532203182.130,34.668,26.367,33.203,40.527,25.391
1532203182.134,35.156,23.926,33.691,33.203,-13.184
1532203182.138,40.039,20.996,30.762,26.367,40.039
1532203182.142,39.062,20.996,27.832,25.879,87.402
1532203182.146,38.574,24.414,26.367,35.645,58.594
1532203182.150,39.551,22.461,28.809,35.156,8.301
1532203182.154,39.551,22.461,28.809,31.738,25.391
1532203182.157,36.621,23.438,26.855,32.715,56.152
1532203182.161,38.086,24.414,27.832,35.156,66.895
1532203182.165,40.039,24.414,33.691,41.992,42.480
1532203182.169,38.574,27.832,35.156,30.273,13.672
1532203182.173,41.504,31.738,28.809,18.555,36.133
1532203182.177,55.176,28.809,26.855,22.461,66.895
1532203182.181,58.594,28.809,27.344,29.785,54.199
1532203182.185,36.621,28.320,28.320,43.457,18.066
1532203182.189,29.297,27.832,25.879,42.480,19.531
1532203182.193,33.691,26.855,23.438,35.156,59.570
1532203182.196,31.738,25.391,26.367,24.414,69.336
1532203182.200,28.320,25.879,25.391,6.348,40.039
1532203182.204,30.273,24.902,27.344,21.973,45.898
1532203182.208,35.156,24.902,32.715,37.598,58.594
1532203182.212,36.133,25.391,32.715,43.457,7.812
1532203182.216,37.598,25.391,31.738,51.270,-16.602
1532203182.220,39.551,24.414,30.273,36.621,12.207
1532203182.224,45.898,23.926,28.320,23.926,50.293
1532203182.228,45.898,26.855,27.832,24.902,48.828
1532203182.232,44.434,27.344,26.855,19.043,3.906
1532203182.236,42.969,25.391,22.949,20.996,18.066
1532203182.239,38.086,24.414,20.020,28.320,66.895
1532203182.243,34.668,21.484,21.484,29.297,59.570
1532203182.247,38.086,24.902,28.320,32.227,25.879
1532203182.251,37.598,27.344,29.297,31.738,-0.488
1532203182.255,37.598,23.438,27.344,32.227,30.762
1532203182.259,40.039,23.438,26.367,34.180,71.289
1532203182.263,36.621,24.902,26.367,40.039,26.367
1532203182.267,33.691,26.855,30.762,38.574,2.441
1532203182.271,28.809,25.879,29.297,31.250,14.160
1532203182.275,29.297,23.926,25.391,30.762,43.945
1532203182.279,25.879,23.438,26.367,25.879,57.617
1532203182.282,20.020,24.902,22.461,32.715,28.320
1532203182.286,26.855,30.762,27.832,36.621,26.855
1532203182.290,31.738,29.297,33.691,28.320,41.016
1532203182.294,31.738,25.391,31.250,32.715,60.059
1532203182.298,29.297,26.367,26.367,32.715,31.738
1532203182.302,29.297,24.902,20.508,24.902,1.465
1532203182.306,30.762,24.902,21.484,23.438,56.152
1532203182.310,27.832,25.879,25.879,25.391,67.383
1532203182.314,25.879,23.926,31.250,29.785,49.316
1532203182.318,27.344,23.438,33.691,33.691,42.969
1532203182.321,26.367,22.461,27.832,32.227,44.434
1532203182.325,24.414,24.902,19.531,27.344,70.801
1532203182.329,31.250,32.715,26.855,20.996,41.992
1532203182.333,31.250,35.156,33.691,22.461,10.742
1532203182.337,24.902,30.273,28.320,24.902,41.992
1532203182.341,22.949,25.879,24.414,23.438,46.387
1532203182.345,23.438,24.414,24.414,29.785,41.992
1532203182.349,24.902,25.391,26.367,28.320,28.320
1532203182.353,29.785,23.926,26.367,19.043,-4.395
1532203182.357,32.227,23.926,28.320,24.902,39.062
1532203182.361,24.902,21.973,28.320,28.809,62.012
1532203182.364,25.391,21.484,26.367,29.297,35.156
1532203182.368,27.832,26.367,32.227,24.902,2.930
1532203182.372,27.344,24.414,32.227,19.531,9.277
1532203182.376,28.320,23.438,26.855,17.090,59.570
1532203182.380,28.320,24.414,26.367,16.602,46.387
1532203182.384,27.344,24.902,31.250,29.297,6.836
1532203182.388,26.367,27.832,32.227,33.203,41.504
1532203182.392,32.715,31.250,25.391,24.902,66.406
1532203182.396,33.691,29.297,22.461,20.996,37.109
1532203182.400,26.367,24.902,23.438,20.508,23.926
1532203182.404,25.879,25.391,28.320,31.250,34.668
1532203182.407,28.320,25.879,32.715,34.180,65.918
1532203182.411,27.344,26.367,25.391,24.902,47.852
1532203182.415,30.273,26.855,25.391,24.902,48.828
1532203182.419,27.832,26.855,31.738,29.297,67.871
1532203182.423,29.297,28.809,32.715,26.855,64.941
1532203182.427,32.715,32.715,30.762,28.320,46.875
1532203182.431,27.344,29.297,24.902,24.902,31.738
1532203182.435,25.879,26.367,24.902,17.090,46.387
1532203182.439,31.250,28.320,21.484,18.555,77.148
1532203182.443,26.367,24.902,19.531,25.391,75.684
1532203182.446,25.391,25.879,25.391,29.785,44.922
1532203182.450,36.133,29.785,28.809,26.855,13.672
1532203182.454,40.039,31.738,27.344,23.438,29.297
1532203182.458,36.621,30.762,18.555,27.344,61.035
1532203182.462,32.227,29.297,21.484,29.297,43.457
1532203182.466,29.785,31.250,27.832,23.926,11.719
1532203182.470,33.203,28.809,26.367,7.812,10.254
1532203182.474,36.621,28.320,23.926,7.324,52.246
1532203182.478,36.133,29.785,25.391,31.738,63.965
1532203182.482,37.109,29.785,26.855,40.527,57.617
1532203182.486,37.598,29.785,24.902,34.668,56.152
1532203182.489,34.668,28.320,24.902,25.879,63.965
1532203182.493,33.691,26.367,29.785,24.414,74.219
1532203182.497,32.715,23.926,32.227,22.949,50.781
1532203182.501,30.273,24.414,30.273,22.461,14.160
1532203182.505,29.297,25.879,28.809,31.738,35.156
1532203182.509,31.250,24.902,31.250,25.879,38.574
1532203182.513,38.574,22.461,27.344,23.438,24.414
1532203182.517,36.621,22.949,24.902,28.809,18.066
1532203182.521,34.180,29.297,32.227,41.504,18.555
1532203182.525,36.621,33.691,33.691,43.457,49.316
1532203182.529,30.273,28.809,23.438,33.203,42.480
1532203182.532,28.809,24.902,20.996,28.320,17.578
1532203182.536,32.227,24.902,25.879,31.738,36.621
1532203182.540,32.227,27.832,30.273,36.133,79.590
1532203182.544,28.809,27.344,28.320,29.297,70.312
1532203182.548,20.508,22.461,28.320,23.926,23.926
1532203182.552,15.625,20.996,26.367,23.438,12.695
1532203182.556,20.996,22.461,21.973,27.832,36.133
1532203182.560,28.809,23.926,26.367,25.879,33.691
1532203182.564,38.086,25.391,35.156,28.320,35.156
1532203182.568,37.109,28.320,38.574,28.320,26.855
1532203182.571,30.762,27.344,34.668,21.973,24.902
1532203182.575,35.156,22.949,29.785,28.320,52.734
1532203182.579,38.574,25.391,34.668,39.062,59.570
1532203182.583,31.738,26.855,40.527,36.621,16.113
1532203182.587,27.832,19.043,32.715,29.297,-11.230
1532203182.591,28.320,14.648,21.973,33.691,26.367
1532203182.595,27.344,17.090,21.973,38.086,39.551
1532203182.599,24.902,23.438,28.809,32.715,10.742
1532203182.603,25.879,25.391,30.762,37.598,17.578
1532203182.607,35.645,26.367,28.809,27.832,28.809
1532203182.611,41.992,27.344,25.879,19.531,41.504
1532203182.614,38.574,29.297,26.367,21.973,43.457
1532203182.618,37.598,29.785,22.949,32.715,34.668
1532203182.622,40.527,25.391,19.531,42.969,38.086
1532203182.626,43.457,24.414,24.414,29.297,41.016
1532203182.630,43.945,25.879,26.367,18.066,42.480
1532203182.634,44.922,25.879,16.602,22.949,42.969
1532203182.638,44.922,25.879,21.484,26.855,34.668
1532203182.642,36.133,23.926,33.691,35.156,39.062
1532203182.646,27.832,20.996,34.180,39.062,29.785
1532203182.650,25.391,21.973,31.738,32.227,-21.484
1532203182.653,28.320,23.438,28.809,33.203,-28.320
1532203182.657,31.250,25.879,26.367,43.945,18.066
1532203182.661,33.203,28.320,28.320,49.805,41.992
1532203182.665,36.133,26.367,29.297,42.480,27.344
1532203182.669,37.109,25.879,29.297,31.738,16.113
1532203182.673,35.645,27.832,27.832,28.809,47.852
1532203182.677,39.551,29.785,23.438,21.484,31.738
1532203182.681,37.598,28.809,21.973,19.043,16.113
1532203182.685,29.785,25.879,24.902,24.902,23.926
1532203182.689,28.809,23.926,24.902,22.949,41.016
1532203182.693,33.691,28.809,22.461,20.020,54.688
1532203182.696,40.039,30.762,23.926,15.625,47.852
1532203182.700,30.273,25.391,24.414,8.789,47.852
1532203182.704,18.555,22.949,24.902,18.555,62.012
1532203182.708,28.320,31.250,31.250,27.832,57.129
1532203182.712,32.227,33.691,34.180,30.762,75.195
1532203182.716,30.273,21.973,26.855,34.180,59.082
1532203182.720,31.738,20.508,22.461,35.645,38.086
1532203182.724,33.691,22.461,23.438,33.203,37.598
1532203182.728,32.715,19.531,29.785,33.691,19.043
1532203182.732,30.273,14.648,37.109,45.410,21.973
1532203182.736,41.992,23.438,30.762,47.852,17.090
1532203182.739,40.527,38.574,20.996,41.016,36.133
1532203182.743,30.762,38.086,21.484,41.016,62.500
1532203182.747,24.902,32.715,20.996,23.438,39.062
1532203182.751,27.832,32.227,24.414,17.578,1.465
1532203182.755,38.086,37.109,26.367,27.832,37.598
1532203182.759,28.809,35.156,22.949,12.207,83.008
1532203182.763,22.949,27.832,19.531,7.812,51.270
1532203182.767,34.180,24.414,15.625,6.836,10.742
1532203182.771,37.109,26.855,15.625,11.719,18.555
1532203182.775,39.062,27.832,17.090,24.902,46.875
1532203182.778,43.945,25.391,22.949,32.715,24.902
1532203182.782,46.387,26.367,27.832,39.062,5.859
1532203182.786,40.527,30.273,26.855,35.645,22.461
1532203182.790,39.551,31.250,25.391,29.297,25.879
1532203182.794,38.574,33.203,28.809,40.039,46.387
1532203182.798,32.227,32.227,29.785,44.434,62.988
1532203182.802,34.180,33.203,28.320,34.668,44.922
1532203182.806,36.621,31.250,25.879,37.109,29.785
1532203182.810,39.551,27.344,23.438,38.086,40.527
1532203182.814,35.645,26.367,21.484,25.879,44.922
1532203182.818,37.598,29.785,25.879,26.855,30.273
1532203182.821,42.480,30.762,30.273,33.203,19.531
1532203182.825,34.668,25.391,28.320,33.691,56.641
