timestamps,TP9,AF7,AF8,TP10,Right AUX
1532215855.574,44.922,44.922,32.227,34.180,-212.402
1532215855.578,34.668,41.504,33.691,33.203,-354.980
1532215855.582,16.602,38.086,39.062,29.785,-257.812
1532215855.586,18.066,36.621,43.457,26.855,-65.430
1532215855.590,23.926,32.227,44.922,34.180,-130.859
1532215855.594,33.691,38.574,40.527,39.062,-328.613
1532215855.598,33.691,42.480,37.598,39.062,-271.973
1532215855.602,27.344,35.156,35.156,37.598,-62.988
1532215855.605,35.156,31.250,33.691,36.621,-43.457
1532215855.609,31.738,34.180,34.180,28.320,-219.727
1532215855.613,23.438,35.645,33.203,27.344,-216.309
1532215855.617,33.203,33.203,32.227,42.969,8.789
1532215855.621,47.363,34.668,31.738,49.316,84.961
1532215855.625,47.363,36.133,32.227,45.898,-51.758
1532215855.629,32.715,32.715,28.809,39.551,-159.668
1532215855.633,38.086,27.344,25.879,40.527,-25.391
1532215855.637,53.711,25.391,27.344,43.457,147.949
1532215855.641,51.270,29.297,26.855,49.316,15.137
1532215855.645,49.805,30.762,24.414,54.688,-152.832
1532215855.648,44.922,29.785,27.832,50.293,-35.156
1532215855.652,42.969,30.273,32.227,47.363,107.422
1532215855.656,45.898,32.227,31.250,50.293,63.477
1532215855.660,52.734,34.180,28.320,50.293,-110.840
1532215855.664,55.664,32.715,30.273,47.363,-69.336
1532215855.668,61.523,30.762,32.715,44.922,121.094
1532215855.672,52.246,30.273,32.227,44.434,104.980
1532215855.676,38.574,31.738,31.250,47.852,-81.055
1532215855.680,41.016,31.250,31.250,49.316,-119.629
1532215855.684,46.875,27.344,33.691,49.316,40.527
1532215855.687,41.016,27.344,34.180,43.457,125.488
1532215855.691,41.016,30.273,36.133,35.156,-29.785
1532215855.695,45.410,33.203,37.109,38.086,-145.020
1532215855.699,41.504,35.156,36.133,37.598,26.855
1532215855.703,40.039,35.156,34.180,33.203,157.227
1532215855.707,26.855,34.180,31.250,35.645,39.551
1532215855.711,26.855,33.203,32.227,37.109,-124.512
1532215855.715,21.973,33.691,34.180,37.109,-33.203
1532215855.719,21.973,30.762,37.109,41.016,134.766
1532215855.723,37.109,27.344,39.062,49.316,98.145
1532215855.727,40.039,34.668,35.645,45.410,-100.098
1532215855.730,39.551,41.504,33.691,36.621,-107.422
1532215855.734,38.574,39.551,36.621,35.156,124.512
1532215855.738,26.855,34.668,39.062,30.762,154.297
1532215855.742,14.648,33.691,41.016,30.762,-21.973
1532215855.746,20.508,33.203,37.598,40.039,-77.637
1532215855.750,34.668,29.297,42.969,38.574,74.707
1532215855.754,25.391,32.715,41.016,26.367,175.293
1532215855.758,16.113,36.621,31.738,26.367,43.945
1532215855.762,20.020,36.133,36.133,30.273,-85.449
1532215855.766,21.484,36.133,40.527,28.809,34.668
1532215855.770,18.066,31.738,44.434,30.273,174.316
1532215855.773,13.184,27.832,48.828,39.551,83.496
1532215855.777,20.020,28.809,42.480,38.574,-103.516
1532215855.781,26.855,35.645,36.133,30.762,-68.359
1532215855.785,22.461,37.598,36.133,31.250,137.207
1532215855.789,19.043,31.250,36.133,30.273,153.320
1532215855.793,29.785,27.832,38.086,29.297,-39.551
1532215855.797,42.969,31.250,36.621,34.180,-43.457
1532215855.801,40.039,33.691,32.715,42.969,140.137
1532215855.805,32.715,32.715,30.762,45.410,166.504
1532215855.809,35.645,31.738,29.297,47.852,-30.762
1532215855.812,35.156,32.715,26.367,45.410,-119.141
1532215855.816,42.480,33.203,25.879,41.504,59.570
1532215855.820,46.875,33.691,28.320,44.922,195.801
1532215855.824,35.645,35.156,31.250,49.316,93.262
1532215855.828,34.668,32.715,31.738,48.828,-75.195
1532215855.832,38.086,29.785,32.715,44.434,13.672
1532215855.836,39.551,29.785,35.156,50.781,183.594
1532215855.840,52.246,33.691,33.203,58.105,118.652
1532215855.844,61.523,39.551,30.762,54.199,-63.477
1532215855.848,50.293,37.598,30.762,50.781,-26.855
1532215855.852,48.340,32.715,34.668,51.270,158.691
1532215855.855,53.711,33.691,35.156,51.270,183.105
1532215855.859,51.758,33.203,32.715,49.316,-36.133
1532215855.863,47.852,31.738,34.668,53.223,-80.566
1532215855.867,41.504,31.250,36.621,53.223,153.320
1532215855.871,44.434,31.250,38.574,46.875,197.754
1532215855.875,39.551,28.809,38.574,44.922,-0.488
1532215855.879,26.855,31.250,35.156,43.945,-85.938
1532215855.883,24.414,34.180,34.180,40.039,57.617
1532215855.887,32.227,33.203,34.668,33.691,171.387
1532215855.891,39.062,34.180,36.133,31.738,31.738
1532215855.895,43.457,32.715,34.180,31.738,-126.465
1532215855.898,41.992,28.809,35.156,37.109,5.859
1532215855.902,27.832,25.879,38.574,42.480,155.273
1532215855.906,31.738,25.879,35.645,46.387,97.656
1532215855.910,35.156,25.391,36.621,47.363,-93.262
1532215855.914,34.668,26.855,36.621,42.969,-58.594
1532215855.918,39.551,28.809,41.016,42.480,152.344
1532215855.922,31.738,29.297,43.945,42.969,160.645
1532215855.926,25.879,29.785,40.039,42.480,-34.668
1532215855.930,41.992,36.133,34.180,36.133,-91.797
1532215855.934,57.129,41.504,33.203,34.668,65.918
1532215855.937,41.504,40.527,40.039,41.992,165.527
1532215855.941,23.926,35.645,43.457,35.645,26.367
1532215855.945,33.203,32.227,42.969,38.574,-105.957
1532215855.949,33.203,31.250,42.480,42.969,57.129
1532215855.953,28.809,35.156,43.457,39.062,189.453
1532215855.957,31.738,38.086,42.969,37.109,89.844
1532215855.961,36.133,36.621,39.062,40.039,-75.195
1532215855.965,35.645,38.086,35.645,43.457,-30.762
1532215855.969,32.227,38.574,36.621,37.598,166.016
1532215855.973,41.016,38.086,38.574,31.250,128.418
1532215855.977,35.645,36.133,36.621,26.855,-85.449
1532215855.980,24.902,33.691,35.645,32.715,-50.293
1532215855.984,33.203,33.203,36.133,44.434,139.160
1532215855.988,34.668,33.203,37.109,40.039,155.762
1532215855.992,32.227,32.715,36.133,33.691,-32.227
1532215855.996,32.227,28.320,32.715,37.598,-75.195
1532215856.000,32.715,31.250,31.738,41.504,120.605
1532215856.004,42.969,33.203,31.738,49.316,204.590
1532215856.008,47.363,30.762,31.250,50.293,31.738
1532215856.012,38.086,29.785,33.203,41.016,-117.676
1532215856.016,40.039,30.273,32.227,40.527,24.902
1532215856.019,46.875,32.227,31.250,41.992,179.688
1532215856.023,37.109,32.227,36.621,44.922,87.402
1532215856.027,35.645,31.250,40.039,44.922,-85.938
1532215856.031,49.316,33.691,41.016,41.016,-41.504
1532215856.035,53.223,32.715,40.527,43.457,142.090
1532215856.039,42.480,32.715,38.574,45.898,154.297
1532215856.043,36.621,35.645,39.551,42.480,-39.062
1532215856.047,42.480,35.645,36.621,40.039,-69.824
1532215856.051,49.805,33.691,36.621,41.016,120.117
1532215856.055,46.387,33.203,38.574,41.016,176.758
1532215856.059,48.340,34.180,37.598,38.574,-6.836
1532215856.062,36.133,32.715,39.062,35.645,-101.074
1532215856.066,27.832,31.250,39.551,37.109,85.449
1532215856.070,35.156,29.785,38.574,30.762,180.664
1532215856.074,28.809,29.785,38.574,29.785,27.832
1532215856.078,25.391,29.297,41.016,41.016,-114.746
1532215856.082,28.320,29.297,41.504,43.457,3.418
1532215856.086,41.992,28.809,39.551,44.434,186.035
1532215856.090,52.734,29.785,38.574,45.898,108.887
1532215856.094,51.758,31.738,39.062,47.363,-82.031
1532215856.098,44.434,28.320,41.016,47.363,-13.184
1532215856.102,38.574,29.297,41.016,48.828,149.414
1532215856.105,33.203,30.762,41.504,51.758,132.812
1532215856.109,36.621,28.320,42.480,38.086,-58.594
1532215856.113,38.574,29.785,41.016,22.949,-94.727
1532215856.117,29.297,35.156,35.645,30.762,117.188
1532215856.121,33.203,37.598,36.621,35.156,180.176
1532215856.125,30.273,35.156,44.922,31.738,27.832
1532215856.129,23.926,34.668,45.410,32.227,-100.098
1532215856.133,27.832,31.738,45.898,41.504,38.086
1532215856.137,33.691,32.227,45.898,44.922,189.941
1532215856.141,41.992,39.062,39.062,36.621,63.477
1532215856.144,39.551,41.016,34.668,31.738,-111.328
1532215856.148,36.621,38.574,36.133,28.320,5.371
1532215856.152,31.738,33.691,37.598,28.809,174.316
1532215856.156,29.785,33.203,39.062,37.109,128.906
1532215856.160,37.109,32.715,41.504,40.527,-65.918
1532215856.164,44.922,29.297,43.457,42.480,-76.172
1532215856.168,46.875,34.180,36.621,42.480,129.883
1532215856.172,50.781,39.062,32.227,39.062,151.367
1532215856.176,48.828,39.062,35.645,43.945,-50.293
1532215856.180,31.738,34.180,33.691,47.363,-96.680
1532215856.184,35.645,29.297,30.273,46.387,84.961
1532215856.187,46.875,31.738,27.832,45.898,178.711
1532215856.191,46.387,30.762,31.250,46.875,29.297
1532215856.195,36.621,26.855,36.621,42.969,-103.027
1532215856.199,25.879,25.879,33.203,39.062,28.809
1532215856.203,26.367,26.855,32.227,42.969,183.594
1532215856.207,36.621,27.344,34.668,43.945,97.168
1532215856.211,46.387,24.414,32.227,40.039,-104.980
1532215856.215,41.504,24.902,30.273,43.457,-19.043
1532215856.219,34.668,27.344,32.715,47.363,169.922
1532215856.223,34.180,30.273,32.715,44.434,117.188
1532215856.227,38.086,33.203,29.297,40.039,-47.852
1532215856.230,29.785,33.203,30.762,30.273,-91.309
1532215856.234,23.438,32.715,34.180,30.762,87.891
1532215856.238,30.762,31.250,35.156,41.016,163.574
1532215856.242,33.203,29.785,33.203,41.504,-37.109
1532215856.246,38.086,30.273,32.227,43.945,-129.395
1532215856.250,42.480,29.785,33.203,45.410,56.641
1532215856.254,39.551,26.855,32.715,41.992,169.922
1532215856.258,33.203,25.391,32.715,34.180,26.367
1532215856.262,31.738,26.367,32.715,33.691,-114.258
1532215856.266,36.621,27.832,29.297,39.551,33.203
1532215856.269,47.852,26.855,28.809,38.574,208.984
1532215856.273,59.570,28.809,30.762,42.480,86.914
1532215856.277,61.035,30.273,27.832,45.410,-120.117
1532215856.281,55.664,27.344,25.879,40.527,-45.898
1532215856.285,60.059,31.250,30.273,41.992,166.992
1532215856.289,65.918,32.227,30.273,38.086,119.629
1532215856.293,59.570,25.879,26.855,35.645,-91.797
1532215856.297,55.664,25.391,26.855,40.527,-92.285
1532215856.301,47.363,25.391,29.297,47.852,111.328
1532215856.305,38.086,23.438,30.273,57.617,181.152
1532215856.309,39.062,24.414,33.203,63.477,-12.207
1532215856.312,39.062,24.414,34.180,59.570,-125.977
1532215856.316,33.691,22.461,31.250,58.594,40.527
1532215856.320,28.320,23.926,32.227,61.035,189.453
1532215856.324,27.832,25.879,36.621,59.082,63.477
1532215856.328,23.926,21.973,40.039,54.688,-126.465
1532215856.332,29.785,22.461,38.574,51.270,-2.441
1532215856.336,41.992,26.855,37.109,51.270,185.059
1532215856.340,35.645,27.344,34.668,43.945,105.469
1532215856.344,32.715,28.809,32.227,36.133,-107.910
1532215856.348,36.621,29.785,31.250,40.039,-66.895
1532215856.352,31.250,27.344,29.785,37.598,122.070
1532215856.355,29.297,27.832,30.273,38.086,126.953
1532215856.359,31.250,28.809,28.809,45.410,-70.312
1532215856.363,31.250,30.762,26.855,49.316,-110.352
1532215856.367,40.527,32.715,25.879,49.805,113.770
1532215856.371,44.922,30.762,28.809,44.434,161.133
1532215856.375,42.969,28.809,31.738,44.434,-20.508
1532215856.379,51.758,29.297,32.227,48.828,-145.508
1532215856.383,51.758,27.832,33.203,50.293,25.879
1532215856.387,40.039,27.344,33.691,49.316,195.312
1532215856.391,43.945,31.250,31.738,51.758,40.527
1532215856.394,49.805,33.691,31.738,48.828,-142.090
1532215856.398,56.152,30.273,30.273,46.875,-18.066
1532215856.402,59.570,28.320,30.273,48.340,170.898
1532215856.406,48.828,33.203,31.250,46.875,137.695
1532215856.410,41.992,35.645,28.809,41.016,-74.219
1532215856.414,41.992,35.156,28.320,41.992,-78.613
1532215856.418,41.504,33.691,29.297,47.852,133.789
1532215856.422,42.480,32.715,32.715,44.434,158.691
1532215856.426,45.410,33.691,35.156,46.387,-22.949
1532215856.430,49.316,32.715,37.109,41.504,-95.215
1532215856.434,51.270,33.203,39.062,42.969,74.707
1532215856.437,44.434,34.668,33.691,47.852,172.852
1532215856.441,29.785,33.203,34.668,39.551,26.855
1532215856.445,16.602,30.762,38.086,36.133,-85.449
1532215856.449,18.066,32.227,36.133,35.645,24.414
1532215856.453,32.227,34.668,37.598,31.250,156.250
1532215856.457,39.062,33.203,37.109,32.227,77.637
1532215856.461,32.715,30.762,33.691,24.902,-110.840
1532215856.465,31.250,31.250,32.227,21.973,-10.742
1532215856.469,24.902,34.180,35.645,25.391,193.848
1532215856.473,29.785,32.715,36.133,21.973,157.227
1532215856.476,38.574,31.250,31.738,25.879,-58.105
1532215856.480,31.250,28.809,36.621,26.855,-91.797
1532215856.484,23.926,26.855,42.969,28.320,116.211
1532215856.488,35.645,30.762,43.457,40.527,180.176
1532215856.492,34.668,30.273,41.992,30.273,-45.898
1532215856.496,40.039,30.273,40.039,28.809,-127.441
1532215856.500,47.363,29.297,41.504,37.598,65.918
1532215856.504,30.762,25.879,44.922,35.645,180.176
1532215856.508,20.020,24.902,47.363,31.738,28.320
1532215856.512,18.555,24.902,47.363,31.738,-123.047
1532215856.516,20.020,23.438,46.387,37.109,4.395
1532215856.519,23.438,19.043,50.293,38.086,177.246
1532215856.523,39.551,20.020,51.758,40.039,136.719
1532215856.527,41.504,27.344,43.945,40.527,-76.172
1532215856.531,31.738,31.738,34.668,31.250,-57.617
1532215856.535,33.203,29.785,36.133,26.855,124.023
1532215856.539,33.691,25.879,41.016,31.738,119.629
1532215856.543,31.738,26.367,41.016,35.645,-81.543
1532215856.547,36.621,27.832,39.062,38.086,-104.980
1532215856.551,35.156,27.344,40.527,29.785,49.805
1532215856.555,29.297,25.879,41.504,27.344,85.938
1532215856.559,28.320,23.438,39.062,38.574,-40.039
1532215856.562,33.203,26.855,34.668,36.621,-106.445
1532215856.566,36.133,34.180,29.297,31.250,67.871
1532215856.570,41.016,36.133,31.738,31.250,167.969
1532215856.574,37.598,33.203,33.691,27.344,48.828
1532215856.578,22.949,30.762,32.227,28.809,-93.750
1532215856.582,24.414,26.367,34.180,35.156,10.742
1532215856.586,31.250,23.438,36.133,40.527,171.387
1532215856.590,33.203,20.996,38.574,37.598,73.242
1532215856.594,35.156,19.531,37.109,32.227,-135.254
1532215856.598,38.574,22.461,33.203,34.180,-78.125
1532215856.601,33.691,24.414,29.785,35.645,140.625
1532215856.605,31.250,25.391,29.785,35.156,173.340
1532215856.609,26.367,23.926,33.203,34.180,-32.715
1532215856.613,26.367,20.996,30.762,38.086,-105.469
1532215856.617,32.715,24.414,28.320,41.992,81.543
1532215856.621,23.926,23.438,28.320,37.598,191.406
1532215856.625,29.785,20.996,28.809,37.598,30.762
1532215856.629,27.832,20.508,27.832,37.598,-106.934
1532215856.633,22.949,18.555,24.902,40.039,19.531
1532215856.637,30.273,17.090,24.414,48.828,140.625
1532215856.641,30.273,16.602,24.414,51.270,68.359
1532215856.644,30.762,17.090,24.414,51.270,-86.914
1532215856.648,34.668,17.090,23.926,51.758,-30.762
1532215856.652,35.645,17.090,24.414,50.293,117.676
1532215856.656,42.969,18.066,23.926,49.316,88.867
1532215856.660,41.992,22.461,22.949,51.270,-82.031
1532215856.664,39.551,23.438,23.438,54.688,-72.754
1532215856.668,36.133,22.461,22.949,47.852,100.098
1532215856.672,32.227,22.461,25.391,41.992,118.652
1532215856.676,38.574,21.973,25.391,51.270,-34.180
1532215856.680,47.852,20.996,23.926,52.734,-90.332
1532215856.684,51.758,20.508,20.996,48.340,72.266
1532215856.687,40.527,22.461,18.066,45.410,184.570
1532215856.691,37.109,23.926,19.531,43.945,26.367
1532215856.695,48.340,25.879,17.090,41.016,-123.535
1532215856.699,43.457,24.414,16.113,41.016,32.227
1532215856.703,35.645,23.438,18.066,45.898,172.852
1532215856.707,41.504,23.926,15.625,47.363,72.754
1532215856.711,47.852,24.902,13.672,43.457,-101.074
1532215856.715,51.758,23.438,12.207,49.805,-48.828
1532215856.719,53.223,22.461,16.113,55.664,158.203
1532215856.723,55.176,23.926,17.578,48.340,131.836
1532215856.726,51.758,21.973,15.137,45.898,-86.914
1532215856.730,44.434,20.020,16.113,40.527,-102.539
1532215856.734,48.340,24.902,18.066,41.504,107.422
1532215856.738,39.062,24.414,19.043,48.828,169.922
1532215856.742,37.598,19.043,17.578,48.828,-31.738
1532215856.746,44.434,20.020,15.137,48.340,-103.027
1532215856.750,36.133,22.949,16.602,51.758,80.566
1532215856.754,41.016,23.438,19.531,56.641,156.250
1532215856.758,46.387,22.461,19.043,55.176,3.418
1532215856.762,43.457,19.531,19.043,51.758,-132.324
1532215856.766,45.898,16.602,20.508,49.316,0.488
1532215856.769,48.340,18.555,20.996,45.898,152.832
1532215856.773,37.109,20.996,20.508,44.434,60.059
1532215856.777,37.109,22.949,20.020,46.875,-106.445
1532215856.781,39.551,19.531,21.484,47.363,-38.574
1532215856.785,37.109,17.090,22.461,48.828,162.109
1532215856.789,42.480,20.020,22.949,43.457,149.414
1532215856.793,51.270,21.484,22.461,42.969,-59.570
1532215856.797,48.828,20.508,25.879,52.246,-92.773
1532215856.801,35.645,20.996,24.414,53.223,100.586
1532215856.805,34.180,20.996,20.020,43.457,172.363
1532215856.808,30.273,21.484,20.508,37.109,-12.207
1532215856.812,23.926,23.438,19.531,39.062,-119.629
1532215856.816,38.086,22.461,20.508,44.434,47.852
1532215856.820,50.293,20.020,23.438,49.316,162.109
1532215856.824,41.504,20.020,25.879,50.781,46.875
1532215856.828,42.969,21.484,22.461,41.016,-86.426
1532215856.832,41.992,28.320,18.555,31.250,4.395
1532215856.836,37.598,28.809,19.531,38.086,167.480
1532215856.840,39.551,24.902,16.602,41.016,109.375
1532215856.844,34.180,23.926,17.578,40.527,-83.984
1532215856.848,34.668,22.949,19.043,39.551,-70.801
1532215856.851,44.434,22.461,18.555,38.574,124.023
1532215856.855,47.852,23.926,20.996,45.410,159.668
1532215856.859,41.992,22.949,20.508,49.805,-56.152
1532215856.863,41.992,22.461,18.555,50.781,-107.910
1532215856.867,39.062,26.855,17.578,49.805,99.609
1532215856.871,35.645,28.809,20.020,39.551,146.973
1532215856.875,39.062,26.855,20.996,35.645,2.441
1532215856.879,37.109,25.391,22.461,42.969,-102.051
1532215856.883,37.598,26.367,24.902,40.527,23.438
1532215856.887,42.480,27.344,25.391,35.645,180.176
1532215856.891,49.316,30.762,23.926,35.156,63.965
1532215856.894,39.551,31.738,25.879,35.156,-122.559
1532215856.898,23.926,28.809,28.320,36.621,-19.043
1532215856.902,23.438,28.809,26.367,38.086,158.203
1532215856.906,26.367,28.809,25.391,32.227,109.375
1532215856.910,26.855,28.320,28.320,30.762,-117.188
1532215856.914,27.832,28.320,28.809,32.715,-142.090
1532215856.918,31.250,32.715,26.367,33.203,95.703
1532215856.922,30.273,36.133,28.320,35.156,168.945
1532215856.926,23.438,35.156,27.832,34.180,-11.230
1532215856.930,22.949,33.691,23.438,32.715,-105.957
1532215856.933,33.691,33.203,26.367,31.738,55.176
1532215856.937,39.551,31.738,32.227,35.156,169.434
1532215856.941,28.320,31.738,33.203,37.598,20.508
1532215856.945,24.414,29.297,35.156,32.715,-148.438
1532215856.949,12.695,26.855,35.645,30.273,-32.227
1532215856.953,3.906,26.855,32.715,26.855,132.324
1532215856.957,11.719,28.809,30.762,22.461,76.660
1532215856.961,13.184,31.738,30.762,19.531,-89.844
1532215856.965,23.926,34.668,27.344,22.949,-20.020
1532215856.969,33.691,34.180,23.438,30.273,153.809
1532215856.973,30.273,32.227,22.949,21.973,85.938
1532215856.976,25.879,31.738,24.902,20.996,-71.777
1532215856.980,19.043,28.809,28.320,34.180,-58.105
1532215856.984,29.785,23.926,32.227,35.156,106.934
1532215856.988,30.762,24.902,32.715,29.785,145.508
1532215856.992,20.508,31.250,26.367,29.297,5.859
1532215856.996,17.090,36.621,24.902,30.273,-91.309
1532215857.000,10.742,35.156,27.344,21.973,57.129
1532215857.004,10.254,29.297,27.832,17.578,187.988
1532215857.008,-0.977,24.902,32.715,17.578,34.180
1532215857.012,3.418,24.414,33.691,22.461,-125.000
1532215857.016,24.414,25.879,29.785,31.738,9.277
1532215857.019,28.809,29.785,27.832,32.715,164.551
1532215857.023,33.203,31.250,29.297,27.832,73.242
1532215857.027,42.480,29.297,27.832,29.297,-112.793
1532215857.031,38.574,31.250,25.879,34.180,-71.777
1532215857.035,30.273,34.668,23.926,34.668,139.160
1532215857.039,27.344,32.715,22.949,31.738,135.254
1532215857.043,20.020,26.855,27.344,28.809,-61.035
1532215857.047,27.344,20.996,30.762,40.527,-80.566
1532215857.051,38.574,24.902,27.344,43.457,97.168
1532215857.055,33.691,32.227,20.996,29.785,160.645
1532215857.058,36.621,33.203,20.508,28.320,4.883
1532215857.062,34.668,32.715,20.508,29.297,-103.027
1532215857.066,27.344,29.297,20.020,29.297,56.152
1532215857.070,32.227,27.344,22.949,33.203,169.922
1532215857.074,36.621,28.320,23.438,33.691,45.898
1532215857.078,45.410,29.785,21.973,38.086,-139.648
1532215857.082,52.246,28.320,21.484,44.922,-30.762
1532215857.086,39.551,24.902,21.484,47.363,167.969
1532215857.090,35.645,25.879,18.555,46.875,88.867
1532215857.094,47.363,29.785,20.508,49.316,-100.098
1532215857.098,55.664,31.250,22.461,51.270,-91.309
1532215857.101,45.410,30.273,22.949,51.758,96.680
1532215857.105,37.109,26.855,24.902,51.758,174.316
1532215857.109,42.480,28.320,27.344,46.387,-6.836
1532215857.113,40.039,29.785,26.855,35.645,-121.582
1532215857.117,33.203,26.855,24.902,36.133,70.801
1532215857.121,27.344,24.902,24.414,41.016,183.105
1532215857.125,24.414,25.879,21.973,37.598,19.043
1532215857.129,34.668,24.902,19.043,32.715,-117.188
1532215857.133,37.598,24.414,18.555,35.645,45.898
1532215857.137,33.691,24.414,20.996,45.410,210.938
1532215857.141,37.598,24.414,20.996,48.340,71.777
1532215857.144,43.945,23.926,20.020,46.387,-128.906
1532215857.148,55.176,23.926,22.461,50.781,-43.457
1532215857.152,52.246,24.902,19.043,42.480,126.465
1532215857.156,36.133,21.973,21.484,41.016,122.070
1532215857.160,34.180,22.949,26.367,47.852,-49.316
1532215857.164,39.062,26.367,22.461,41.504,-69.336
1532215857.168,49.805,27.344,18.066,35.156,115.234
1532215857.172,58.105,28.320,18.066,33.691,155.762
1532215857.176,54.199,24.414,20.020,35.156,-10.742
1532215857.180,55.176,22.461,18.555,31.250,-70.801
1532215857.183,56.152,24.902,15.625,34.668,79.590
1532215857.187,56.152,22.949,14.648,41.992,179.199
1532215857.191,54.688,20.996,15.137,41.504,36.133
1532215857.195,51.270,20.996,17.090,47.363,-133.789
1532215857.199,44.922,19.531,15.625,57.129,19.043
1532215857.203,40.527,20.996,15.137,62.500,189.941
1532215857.207,38.574,24.414,18.555,58.594,70.801
1532215857.211,48.828,22.949,19.043,54.688,-119.141
1532215857.215,46.875,22.949,15.625,54.688,-26.855
1532215857.219,34.668,25.391,16.113,50.293,161.621
1532215857.223,34.180,21.484,19.043,42.480,143.066
1532215857.226,42.480,22.461,16.602,41.016,-39.551
1532215857.230,50.781,25.879,14.160,44.922,-77.637
1532215857.234,51.270,27.344,16.602,48.340,109.863
1532215857.238,53.711,26.855,18.555,49.316,172.852
1532215857.242,52.734,25.391,19.531,41.504,-7.324
1532215857.246,50.293,26.855,21.484,41.992,-106.445
1532215857.250,43.945,24.902,22.461,39.062,25.391
1532215857.254,47.852,24.414,22.949,40.527,117.188
1532215857.258,51.270,27.832,22.949,45.410,25.391
1532215857.262,41.016,25.391,20.508,40.527,-126.953
1532215857.265,38.086,22.949,20.020,47.852,-16.113
1532215857.269,36.621,24.414,21.484,46.387,147.949
1532215857.273,39.551,22.461,22.949,38.086,59.570
1532215857.277,34.180,22.461,22.949,42.480,-131.836
1532215857.281,22.949,24.414,21.973,42.969,-70.312
1532215857.285,28.809,21.973,19.043,38.574,147.949
1532215857.289,39.062,22.461,20.020,35.645,133.789
1532215857.293,46.875,26.855,21.484,35.156,-73.242
1532215857.297,44.434,26.855,20.508,42.480,-92.773
1532215857.301,41.504,24.902,19.531,47.363,119.141
1532215857.305,42.969,23.438,17.090,51.758,189.941
1532215857.308,45.898,23.926,16.602,46.875,-0.977
1532215857.312,48.340,25.879,18.555,41.016,-99.121
1532215857.316,45.898,25.391,18.555,42.969,46.387
1532215857.320,46.875,24.902,19.043,42.969,196.777
1532215857.324,46.387,25.879,19.043,45.410,106.445
1532215857.328,53.223,27.832,21.484,51.270,-85.449
1532215857.332,54.199,26.855,25.391,47.363,-27.344
1532215857.336,59.570,28.320,27.832,43.945,140.137
1532215857.340,62.500,31.250,28.809,48.828,96.191
1532215857.344,42.480,30.762,25.879,47.852,-78.613
1532215857.348,37.598,28.809,23.926,41.504,-63.477
1532215857.351,41.016,28.320,23.926,37.598,123.047
1532215857.355,47.852,27.832,23.438,37.598,154.297
1532215857.359,52.246,27.344,23.926,39.062,-16.113
1532215857.363,48.340,30.762,22.949,39.551,-67.871
1532215857.367,43.945,31.738,21.484,37.598,88.867
1532215857.371,49.805,29.297,19.043,39.551,170.410
1532215857.375,61.035,30.762,21.484,39.551,14.160
1532215857.379,55.176,30.762,23.926,38.086,-102.051
1532215857.383,46.387,28.320,20.996,33.691,62.500
1532215857.387,45.898,29.297,20.508,36.621,172.852
1532215857.390,45.898,30.762,19.531,39.062,55.176
1532215857.394,42.969,34.180,19.043,35.156,-126.953
1532215857.398,46.387,33.203,20.996,36.621,-61.035
1532215857.402,55.664,29.785,20.508,38.086,146.973
1532215857.406,49.805,28.809,19.531,36.621,123.535
1532215857.410,49.316,28.809,20.508,28.809,-99.609
1532215857.414,49.316,28.320,20.508,27.832,-119.629
1532215857.418,38.086,25.879,20.020,35.645,88.379
1532215857.422,44.922,29.785,19.531,37.109,130.859
1532215857.426,54.688,31.738,18.555,40.039,-64.453
1532215857.430,59.570,27.832,20.996,44.434,-137.207
1532215857.433,56.152,26.855,23.926,42.969,50.293
1532215857.437,51.270,26.367,24.414,50.293,181.641
1532215857.441,52.246,27.344,24.902,54.199,28.320
1532215857.445,50.293,27.832,24.414,50.293,-114.258
1532215857.449,52.246,25.879,24.414,44.434,12.207
1532215857.453,47.363,30.762,25.391,41.504,142.090
1532215857.457,34.180,33.691,24.414,39.551,68.848
1532215857.461,28.809,29.297,25.879,34.180,-111.816
1532215857.465,28.320,26.367,29.297,33.203,-47.363
1532215857.469,34.668,29.785,29.785,32.227,145.020
1532215857.473,35.156,30.762,30.273,31.250,131.348
1532215857.476,23.926,28.809,28.809,28.809,-83.496
1532215857.480,19.043,29.785,29.297,26.855,-102.051
1532215857.484,19.531,29.785,29.297,30.762,94.238
1532215857.488,23.438,27.832,28.809,27.832,160.645
1532215857.492,21.973,27.344,28.809,17.578,-15.625
1532215857.496,24.414,27.832,29.785,18.066,-123.535
1532215857.500,27.344,25.879,34.180,25.879,62.988
1532215857.504,25.879,29.297,30.273,29.297,177.734
1532215857.508,26.367,34.668,27.832,26.367,37.109
1532215857.512,22.949,31.738,31.250,22.949,-105.957
1532215857.515,14.648,28.320,31.738,23.926,-10.742
1532215857.519,6.348,31.250,36.133,19.531,169.434
1532215857.523,14.160,35.156,35.156,18.555,103.516
1532215857.527,22.461,36.133,31.738,20.996,-101.562
1532215857.531,16.602,37.598,36.133,10.742,-77.148
1532215857.535,16.113,37.598,37.598,10.742,124.512
1532215857.539,18.066,37.598,35.645,20.996,148.438
1532215857.543,17.578,38.086,35.156,19.043,-53.223
1532215857.547,17.090,35.156,32.227,12.695,-94.727
1532215857.551,17.578,35.645,32.227,15.137,68.848
1532215857.555,15.625,34.180,37.109,24.902,144.043
1532215857.558,15.137,30.762,39.551,27.344,3.906
1532215857.562,19.531,33.203,34.668,25.879,-131.836
1532215857.566,21.973,36.621,29.297,29.785,20.996
1532215857.570,21.484,34.668,31.738,23.438,154.297
1532215857.574,25.391,33.691,34.668,16.113,19.043
1532215857.578,32.715,32.715,34.180,25.391,-117.676
1532215857.582,32.715,33.203,31.738,34.668,-29.785
1532215857.586,24.414,33.203,30.273,37.598,149.414
1532215857.590,30.273,34.668,27.832,36.133,98.633
1532215857.594,46.875,37.109,25.391,38.086,-116.211
1532215857.598,35.156,30.762,26.367,37.598,-67.871
1532215857.601,20.508,25.879,29.785,41.016,137.695
1532215857.605,26.855,26.855,32.227,48.340,134.766
1532215857.609,53.223,33.691,26.367,41.992,-57.129
1532215857.613,55.664,39.551,19.043,32.227,-129.395
1532215857.617,34.180,35.645,20.508,32.715,79.590
1532215857.621,27.832,31.250,21.484,33.691,186.523
1532215857.625,31.250,29.297,20.508,33.691,27.832
1532215857.629,36.133,28.809,21.484,37.598,-117.188
1532215857.633,38.086,28.320,20.996,40.039,-2.930
1532215857.637,36.133,26.367,20.508,41.992,174.316
1532215857.640,31.738,25.391,22.949,39.551,87.891
1532215857.644,37.598,25.879,26.367,38.574,-108.398
1532215857.648,43.457,27.832,27.344,43.945,-29.785
1532215857.652,42.969,25.879,25.391,46.875,168.945
1532215857.656,41.016,21.484,22.949,45.410,125.488
1532215857.660,44.922,23.926,22.461,42.969,-88.867
1532215857.664,49.316,26.367,22.461,45.898,-92.773
1532215857.668,41.504,27.832,21.973,47.363,131.836
1532215857.672,39.062,28.320,24.414,38.086,140.625
1532215857.676,42.969,28.809,26.855,36.621,-59.570
1532215857.680,53.711,29.785,25.391,41.504,-105.957
1532215857.683,48.828,27.344,23.926,39.551,61.035
1532215857.687,37.598,25.879,23.438,41.504,178.711
1532215857.691,32.715,28.320,21.973,34.668,33.691
1532215857.695,27.832,27.344,21.484,39.062,-119.141
1532215857.699,41.016,26.855,20.508,41.504,3.418
1532215857.703,47.852,28.320,18.555,34.180,157.715
1532215857.707,37.598,27.344,15.625,38.574,82.520
1532215857.711,34.180,27.344,17.578,34.668,-141.602
1532215857.715,37.109,27.344,17.090,31.250,-78.613
1532215857.719,34.180,30.273,17.090,42.969,180.664
1532215857.722,41.992,32.715,16.602,43.945,155.762
1532215857.726,52.246,31.738,14.648,42.969,-68.359
1532215857.730,53.223,32.227,15.625,44.922,-91.797
1532215857.734,52.734,32.227,19.043,45.410,109.863
1532215857.738,50.781,32.715,18.066,45.898,175.781
1532215857.742,53.223,35.645,17.090,41.992,-21.973
1532215857.746,55.664,32.715,19.043,37.109,-127.930
1532215857.750,53.711,32.227,20.508,28.320,21.973
1532215857.754,46.875,33.691,22.949,23.926,149.414
1532215857.758,51.270,31.738,24.414,31.250,46.875
1532215857.762,43.457,30.273,22.949,31.250,-111.816
1532215857.765,25.879,29.785,20.020,30.762,11.230
1532215857.769,30.273,32.227,21.484,36.621,145.508
1532215857.773,35.645,32.227,23.438,41.992,60.059
1532215857.777,37.598,28.320,21.973,45.898,-89.844
1532215857.781,39.062,27.832,21.484,46.875,-25.391
1532215857.785,46.387,30.762,20.996,50.293,152.832
1532215857.789,47.363,31.250,21.484,47.852,124.512
1532215857.793,38.574,32.227,19.043,39.551,-75.684
1532215857.797,43.945,33.203,20.508,41.992,-113.281
1532215857.801,44.434,31.738,19.043,40.527,86.914
1532215857.805,29.297,29.297,15.625,34.668,191.895
1532215857.808,28.320,28.320,18.555,33.203,4.395
1532215857.812,33.691,31.250,17.090,27.832,-146.973
1532215857.816,40.527,28.809,19.531,29.297,38.574
1532215857.820,33.691,29.297,21.973,30.762,189.453
1532215857.824,30.273,33.203,22.949,25.879,48.828
1532215857.828,37.598,33.203,24.414,22.461,-139.648
1532215857.832,39.062,33.203,22.949,23.926,-28.809
1532215857.836,28.320,30.762,20.020,26.367,175.293
1532215857.840,24.902,28.320,21.973,25.879,115.723
1532215857.844,35.645,29.297,22.461,29.297,-106.934
1532215857.847,30.762,29.785,20.996,32.227,-92.773
1532215857.851,13.672,28.809,22.949,30.273,102.051
1532215857.855,17.090,32.715,22.949,36.621,173.340
1532215857.859,23.926,33.203,24.414,41.016,-14.160
1532215857.863,41.504,29.297,26.855,39.551,-105.957
1532215857.867,50.781,30.762,28.320,38.086,91.309
1532215857.871,38.574,35.156,27.832,33.691,162.598
1532215857.875,33.203,38.086,27.344,39.062,-6.836
1532215857.879,30.762,37.109,28.809,42.969,-114.258
1532215857.883,36.621,35.645,29.297,42.480,28.809
1532215857.887,44.922,36.621,30.273,41.504,179.688
1532215857.890,41.504,38.574,31.738,37.109,62.500
1532215857.894,29.785,36.133,31.738,33.203,-117.188
1532215857.898,37.109,33.203,30.762,27.832,-21.484
1532215857.902,43.457,34.668,27.344,27.344,168.945
1532215857.906,38.574,35.156,25.879,29.785,143.066
1532215857.910,41.504,33.691,32.227,29.297,-93.262
1532215857.914,33.203,28.809,37.598,28.320,-139.160
1532215857.918,31.250,24.414,39.551,34.668,116.699
1532215857.922,32.715,28.320,37.109,36.621,192.871
1532215857.926,34.668,35.645,30.273,33.691,-31.250
1532215857.930,32.227,40.039,26.855,32.715,-125.488
1532215857.933,30.762,39.551,26.367,29.785,48.828
1532215857.937,31.250,36.133,29.297,30.762,166.504
1532215857.941,23.926,30.273,35.156,30.762,33.203
1532215857.945,22.949,24.902,37.109,33.203,-108.398
1532215857.949,26.855,26.855,33.691,38.574,-8.301
1532215857.953,28.320,37.109,24.414,33.691,157.227
1532215857.957,25.879,39.551,22.461,30.762,110.840
1532215857.961,20.508,33.203,26.855,29.297,-104.980
1532215857.965,22.461,30.273,27.344,29.297,-75.684
1532215857.969,34.668,23.438,30.273,35.645,126.953
1532215857.972,36.133,24.414,31.250,35.156,126.953
1532215857.976,30.762,32.227,23.926,27.344,-57.129
1532215857.980,24.902,30.762,23.438,26.855,-88.379
1532215857.984,25.879,25.391,28.809,34.180,89.355
1532215857.988,26.855,24.902,26.367,34.180,153.809
1532215857.992,27.832,24.902,25.391,23.438,-24.414
1532215857.996,22.949,23.438,25.879,24.902,-111.328
1532215858.000,27.832,21.973,23.926,34.668,66.406
1532215858.004,30.762,24.902,24.414,37.598,193.359
1532215858.008,30.762,28.809,22.949,33.691,66.895
1532215858.012,29.297,28.809,23.926,27.344,-106.445
1532215858.015,22.461,26.367,27.344,31.738,1.953
1532215858.019,29.297,28.320,24.902,34.180,214.844
1532215858.023,36.133,29.785,23.926,37.109,148.926
1532215858.027,33.691,27.832,21.484,43.457,-84.961
1532215858.031,33.691,26.855,21.484,40.039,-92.773
1532215858.035,41.504,26.367,21.484,40.527,110.352
1532215858.039,54.199,23.926,21.973,46.387,163.086
1532215858.043,47.852,25.879,21.484,44.434,-55.664
1532215858.047,31.250,26.855,22.461,44.434,-119.141
1532215858.051,31.250,27.344,21.973,42.969,72.754
1532215858.055,29.297,25.879,18.066,36.133,168.457
1532215858.058,29.297,23.438,18.066,34.668,35.645
1532215858.062,31.250,24.414,18.555,37.598,-85.449
1532215858.066,35.156,26.855,18.066,40.527,49.316
1532215858.070,39.551,28.809,18.066,43.457,178.223
1532215858.074,47.363,26.367,18.066,44.434,49.316
1532215858.078,61.035,22.949,19.043,48.828,-133.789
1532215858.082,47.852,22.461,17.090,47.363,-25.391
1532215858.086,38.086,25.391,16.602,46.387,163.574
1532215858.090,39.062,27.344,17.090,41.992,118.164
1532215858.094,48.340,25.879,18.555,33.203,-113.770
1532215858.097,44.434,23.926,17.578,29.785,-94.238
1532215858.101,26.855,26.855,19.043,31.250,142.090
1532215858.105,28.320,30.273,24.414,35.156,155.762
1532215858.109,35.645,28.809,23.438,33.691,-47.852
1532215858.113,44.922,28.809,21.973,34.668,-94.238
1532215858.117,51.758,32.715,23.438,39.551,108.398
1532215858.121,53.223,31.738,23.926,37.109,198.730
1532215858.125,51.758,29.785,20.996,40.527,40.039
1532215858.129,38.086,28.320,19.531,42.969,-103.516
1532215858.133,32.715,28.320,20.020,39.062,0.488
1532215858.137,33.691,29.297,19.531,49.805,166.504
1532215858.140,27.344,29.297,21.484,53.223,94.238
1532215858.144,23.926,30.273,21.484,48.340,-113.770
1532215858.148,25.879,27.832,20.996,46.387,-56.641
1532215858.152,35.156,28.809,19.043,43.457,141.602
1532215858.156,43.457,32.715,19.043,50.293,116.211
1532215858.160,36.621,30.762,20.996,51.270,-56.152
1532215858.164,32.715,31.738,20.996,51.758,-78.613
1532215858.168,34.180,31.738,19.043,51.758,92.285
1532215858.172,42.969,28.809,20.996,53.711,137.207
1532215858.176,43.945,27.344,22.949,53.711,-20.020
1532215858.179,40.039,25.879,20.508,49.805,-79.102
1532215858.183,46.875,26.855,20.020,49.316,56.641
1532215858.187,47.852,26.855,23.926,49.316,145.508
1532215858.191,41.504,27.832,26.367,44.434,-0.488
1532215858.195,43.945,28.320,24.414,43.457,-116.211
1532215858.199,41.992,26.367,22.461,44.434,29.297
1532215858.203,25.391,24.414,21.973,40.039,156.250
1532215858.207,24.414,24.414,22.461,41.016,70.801
1532215858.211,32.715,22.949,25.391,43.457,-90.820
1532215858.215,30.273,21.484,28.809,45.898,-47.363
1532215858.219,36.133,22.461,25.879,46.875,139.160
1532215858.222,40.527,20.020,23.438,46.387,163.574
1532215858.226,32.715,20.996,24.902,45.898,-4.883
1532215858.230,29.785,26.367,21.973,43.945,-100.098
1532215858.234,32.227,25.879,20.508,42.480,78.125
1532215858.238,36.133,22.949,18.555,40.039,187.988
1532215858.242,38.574,24.414,16.113,37.598,2.441
1532215858.246,38.086,25.391,18.555,35.645,-104.980
1532215858.250,39.551,25.391,21.484,38.574,24.902
1532215858.254,39.062,24.414,20.020,38.086,143.066
1532215858.258,37.109,24.902,18.555,35.645,62.500
1532215858.262,32.715,27.832,18.555,38.574,-88.379
1532215858.265,31.250,26.367,19.531,41.992,-21.484
1532215858.269,32.715,26.367,20.508,40.039,139.648
1532215858.273,39.062,29.297,19.531,32.715,87.891
1532215858.277,41.992,28.809,19.043,32.227,-83.984
1532215858.281,41.016,27.344,20.020,39.551,-47.852
1532215858.285,39.551,28.320,19.531,42.969,120.605
1532215858.289,38.574,30.762,17.578,33.691,143.066
1532215858.293,32.227,30.273,15.625,28.809,-39.551
1532215858.297,29.297,28.809,16.113,31.250,-73.730
1532215858.301,33.203,28.809,20.508,38.574,101.074
1532215858.304,39.062,28.320,17.578,45.898,136.230
1532215858.308,41.016,30.273,17.090,45.410,-28.809
1532215858.312,36.621,30.273,18.555,44.434,-147.461
1532215858.316,39.062,29.297,18.555,48.340,3.906
1532215858.320,36.621,29.785,20.020,46.875,145.996
1532215858.324,32.227,26.855,21.484,41.992,28.320
1532215858.328,35.156,23.926,19.531,39.062,-128.418
1532215858.332,38.086,25.879,18.066,31.738,-53.711
1532215858.336,35.645,27.344,16.602,30.762,132.812
1532215858.340,31.738,28.320,17.090,36.133,98.633
1532215858.344,35.645,29.785,19.043,37.109,-92.773
1532215858.347,47.852,30.762,17.578,41.504,-75.684
1532215858.351,51.270,29.297,19.043,44.434,121.582
1532215858.355,46.875,28.809,22.461,45.898,175.293
1532215858.359,41.504,26.367,21.973,42.969,-44.922
1532215858.363,45.410,23.926,18.555,40.527,-125.000
1532215858.367,49.316,25.391,18.066,39.062,75.684
1532215858.371,46.387,26.367,19.043,41.992,161.621
1532215858.375,42.969,25.391,18.555,46.387,13.672
1532215858.379,36.133,24.414,18.066,46.387,-126.465
1532215858.383,31.250,23.926,19.043,46.387,-0.488
1532215858.387,28.809,24.902,20.020,45.410,170.898
1532215858.390,35.156,27.832,18.555,39.062,56.152
1532215858.394,37.109,27.344,20.020,34.668,-152.344
1532215858.398,42.480,26.855,20.508,39.551,-46.387
1532215858.402,43.457,28.809,20.508,43.945,158.691
1532215858.406,27.344,26.855,21.973,43.457,127.930
1532215858.410,34.180,27.832,21.973,41.016,-92.773
1532215858.414,41.016,30.273,21.484,41.504,-120.605
1532215858.418,38.574,28.809,20.508,51.270,90.820
1532215858.422,34.180,25.879,22.461,51.758,172.363
1532215858.426,30.273,24.902,19.531,44.434,-2.441
1532215858.429,28.809,27.344,17.578,42.480,-110.352
1532215858.433,26.367,26.367,20.508,42.480,59.082
1532215858.437,23.926,24.902,21.484,43.457,180.176
1532215858.441,30.273,26.367,23.438,42.969,25.391
1532215858.445,41.016,25.391,20.996,41.992,-126.465
1532215858.449,42.480,27.344,18.066,48.340,-17.090
1532215858.453,34.668,26.855,20.020,52.246,140.625
1532215858.457,33.203,24.414,20.996,51.758,96.680
1532215858.461,36.133,24.414,20.996,50.781,-105.957
1532215858.465,37.598,24.414,20.508,51.758,-40.527
1532215858.469,46.387,25.391,18.555,50.293,162.109
1532215858.472,47.852,26.855,19.043,46.875,104.004
1532215858.476,42.480,30.762,19.043,45.410,-80.078
1532215858.480,41.504,30.762,16.602,47.363,-97.656
1532215858.484,37.598,26.367,18.066,48.828,83.008
1532215858.488,32.227,25.391,20.020,45.898,139.160
1532215858.492,49.805,27.344,20.508,45.898,-50.293
1532215858.496,54.199,27.832,20.508,48.828,-118.652
1532215858.500,35.645,27.344,19.043,49.805,46.875
1532215858.504,37.109,26.367,18.555,51.270,165.039
1532215858.508,47.363,26.855,18.555,56.152,55.176
1532215858.512,48.828,29.297,16.602,48.828,-128.906
1532215858.515,46.875,27.344,15.137,43.945,-23.926
1532215858.519,46.387,26.367,15.137,46.387,151.367
1532215858.523,42.480,27.832,13.672,43.945,119.141
1532215858.527,31.250,25.391,15.137,41.504,-85.449
1532215858.531,27.832,21.973,18.066,40.039,-75.684
1532215858.535,25.879,20.996,16.113,41.016,151.855
1532215858.539,20.508,21.973,14.160,37.109,184.082
1532215858.543,28.320,20.508,14.160,34.668,-49.316
1532215858.547,31.738,18.555,15.137,36.133,-132.812
1532215858.551,24.902,18.555,14.648,30.273,50.781
1532215858.554,27.832,21.484,12.207,30.762,116.211
1532215858.558,30.762,22.461,9.766,34.668,-25.879
1532215858.562,26.855,21.973,12.207,40.527,-114.746
1532215858.566,25.879,22.949,16.113,43.457,44.434
1532215858.570,28.320,20.020,15.625,36.621,182.129
1532215858.574,44.434,19.043,13.184,40.527,66.406
1532215858.578,35.645,18.555,13.672,47.363,-102.051
1532215858.582,23.438,15.137,16.113,46.875,1.465
1532215858.586,33.203,14.648,17.090,46.387,175.781
1532215858.590,36.133,17.090,15.137,44.434,111.328
1532215858.594,34.668,19.043,12.695,42.480,-94.727
1532215858.597,32.227,20.508,13.672,47.852,-75.684
1532215858.601,36.133,20.508,16.113,55.176,120.605
1532215858.605,44.434,22.949,14.648,49.316,164.062
1532215858.609,42.480,24.902,11.719,39.062,-31.250
1532215858.613,29.785,19.043,10.254,34.668,-120.605
1532215858.617,21.973,16.602,9.766,38.086,67.871
1532215858.621,27.832,21.484,10.742,37.598,176.270
1532215858.625,31.738,20.020,14.648,45.410,30.273
1532215858.629,23.926,17.090,16.602,47.852,-136.719
1532215858.633,27.344,22.949,16.602,43.945,-21.484
1532215858.636,40.527,23.438,20.020,51.758,152.832
1532215858.640,44.922,20.996,18.555,47.852,49.805
1532215858.644,41.016,22.949,17.090,45.410,-114.258
1532215858.648,24.902,24.414,19.043,51.270,-25.391
1532215858.652,24.902,23.438,19.531,48.340,118.652
1532215858.656,35.645,22.949,18.066,42.969,112.793
1532215858.660,26.367,23.438,17.090,41.016,-39.062
1532215858.664,23.926,21.484,18.555,39.062,-56.152
1532215858.668,20.508,20.508,16.602,36.621,112.793
1532215858.672,20.508,22.461,15.137,33.691,172.363
1532215858.676,23.438,24.414,15.137,38.574,-20.020
1532215858.679,23.926,23.926,12.695,43.457,-109.863
1532215858.683,27.832,20.508,13.184,45.898,86.426
1532215858.687,31.250,20.508,17.090,45.410,193.848
1532215858.691,32.227,20.020,15.137,41.992,67.383
1532215858.695,30.762,19.531,10.742,46.387,-84.473
1532215858.699,40.039,21.484,13.672,54.688,9.766
1532215858.703,37.109,20.996,13.672,51.758,171.387
1532215858.707,23.438,20.508,11.230,46.387,107.422
1532215858.711,26.855,21.973,12.207,38.574,-116.211
1532215858.715,31.738,23.438,14.160,31.250,-88.867
1532215858.719,37.598,23.926,10.254,34.668,99.609
1532215858.722,37.598,25.391,9.277,39.062,110.840
1532215858.726,41.504,25.391,16.113,44.434,-69.824
1532215858.730,38.086,24.902,18.066,49.316,-130.371
1532215858.734,32.715,23.926,17.578,52.734,71.289
1532215858.738,41.016,22.949,22.461,54.199,151.855
1532215858.742,32.227,22.461,24.902,45.410,-0.488
1532215858.746,20.508,21.973,21.973,42.969,-103.516
1532215858.750,15.625,23.438,23.438,41.992,13.184
1532215858.754,18.555,23.926,23.438,38.086,140.137
1532215858.758,28.320,21.484,21.484,38.086,42.480
1532215858.761,28.320,22.461,22.461,32.715,-101.562
1532215858.765,29.785,24.414,19.531,31.250,-11.719
1532215858.769,29.785,26.855,18.066,27.832,151.855
1532215858.773,23.926,30.273,15.625,22.949,103.516
1532215858.777,23.438,27.344,15.625,28.809,-91.797
1532215858.781,24.902,25.879,20.996,30.762,-79.102
1532215858.785,23.438,25.391,20.508,26.855,111.328
1532215858.789,29.785,21.973,20.020,28.320,125.000
1532215858.793,29.297,23.438,18.066,19.043,-50.293
1532215858.797,20.508,22.949,19.043,20.508,-89.355
1532215858.801,25.879,24.414,24.902,31.250,68.359
1532215858.804,28.809,23.926,24.414,31.250,165.527
1532215858.808,36.621,24.414,21.973,30.273,47.852
1532215858.812,36.133,21.973,18.555,26.367,-73.242
1532215858.816,37.598,20.020,18.066,30.273,22.461
1532215858.820,39.551,24.902,19.531,33.691,177.246
1532215858.824,33.203,25.879,18.066,34.180,120.117
1532215858.828,32.715,24.902,17.090,30.762,-92.773
1532215858.832,34.180,24.902,18.555,23.438,-57.617
1532215858.836,33.691,25.391,19.531,23.438,148.926
1532215858.840,30.762,23.926,17.578,30.762,117.676
1532215858.844,32.227,21.973,20.020,35.645,-87.402
1532215858.847,35.645,23.438,21.484,33.691,-72.266
1532215858.851,37.109,25.391,21.973,31.250,92.773
1532215858.855,44.434,25.391,23.438,33.691,117.188
1532215858.859,37.109,21.973,20.996,28.320,-21.484
1532215858.863,28.320,22.949,20.020,30.273,-101.074
1532215858.867,30.273,25.879,18.066,36.621,30.762
1532215858.871,25.879,25.391,16.113,29.785,134.277
1532215858.875,28.320,25.391,19.531,28.320,12.207
1532215858.879,25.879,23.438,20.508,30.273,-115.723
1532215858.883,24.902,23.926,19.531,26.367,-15.625
1532215858.886,27.832,23.926,19.043,24.414,141.113
1532215858.890,27.832,23.438,19.531,22.461,78.613
1532215858.894,17.578,23.438,18.555,21.973,-115.723
1532215858.898,15.625,21.973,15.625,23.438,-48.340
1532215858.902,24.414,21.973,17.578,20.996,151.367
1532215858.906,21.973,20.996,23.926,30.273,150.879
1532215858.910,28.809,20.020,23.926,32.227,-51.270
1532215858.914,40.039,22.949,20.508,28.809,-81.543
1532215858.918,32.227,24.414,18.066,33.691,107.910
1532215858.922,25.879,24.414,18.066,28.809,124.512
1532215858.926,27.344,25.391,19.531,26.855,-40.527
1532215858.929,24.414,24.902,20.508,31.250,-116.211
1532215858.933,31.738,23.438,21.484,26.855,19.043
1532215858.937,33.691,25.879,21.973,22.461,122.070
1532215858.941,29.785,25.391,21.484,28.809,4.883
1532215858.945,30.273,20.020,21.973,32.715,-135.742
1532215858.949,23.926,20.020,21.973,28.320,-23.438
1532215858.953,19.531,21.484,19.043,27.344,157.227
1532215858.957,21.484,20.996,20.020,28.809,86.914
1532215858.961,19.531,24.902,20.996,28.809,-85.449
1532215858.965,19.043,27.832,19.043,27.832,-21.973
1532215858.969,18.555,27.344,19.531,25.879,136.230
1532215858.972,15.625,22.949,21.973,14.160,115.234
1532215858.976,11.230,22.461,22.949,12.695,-66.895
1532215858.980,9.277,26.367,25.879,19.531,-114.258
1532215858.984,14.648,28.320,28.809,21.484,92.773
1532215858.988,18.066,30.273,29.785,16.602,158.691
1532215858.992,23.926,30.762,30.762,12.207,-45.898
1532215858.996,23.926,28.809,31.250,17.578,-110.840
1532215859.000,18.066,29.297,33.691,18.555,48.340
1532215859.004,5.371,28.320,30.762,7.812,170.410
1532215859.008,3.418,29.297,29.297,-1.953,82.520
1532215859.011,13.184,31.250,34.180,0.488,-97.168
1532215859.015,15.625,29.297,32.227,-0.977,-12.695
1532215859.019,10.254,30.273,29.785,2.930,162.598
1532215859.023,5.859,28.809,31.250,10.742,136.719
1532215859.027,9.766,21.973,35.156,18.066,-64.941
1532215859.031,7.812,23.926,39.062,19.531,-80.566
1532215859.035,4.395,29.785,38.086,10.742,126.953
1532215859.039,-6.836,29.297,37.598,9.766,154.785
1532215859.043,-12.695,29.785,36.621,7.812,-27.344
1532215859.047,-6.348,28.809,33.691,7.324,-78.613
1532215859.051,-8.789,25.879,35.645,4.883,96.680
1532215859.054,-7.812,29.297,35.645,-1.465,194.824
1532215859.058,-2.930,31.738,35.645,-2.441,28.809
1532215859.062,-7.812,30.273,38.086,-4.883,-137.207
1532215859.066,-9.277,30.762,39.551,-3.418,25.391
1532215859.070,-4.395,29.785,39.551,-4.395,167.969
1532215859.074,0.488,29.297,39.551,-9.277,56.152
1532215859.078,3.906,28.809,36.621,-6.836,-101.562
1532215859.082,-9.277,27.832,32.715,-2.441,-31.250
1532215859.086,-8.789,27.832,32.227,1.953,164.062
1532215859.090,2.441,27.832,31.738,-0.488,116.699
1532215859.093,3.418,24.414,27.832,-3.418,-64.941
1532215859.097,5.371,20.996,26.367,-0.488,-76.172
1532215859.101,12.695,21.484,23.926,3.906,82.520
1532215859.105,24.902,24.902,22.949,12.207,147.461
1532215859.109,20.020,25.879,27.832,11.719,-42.480
1532215859.113,13.184,25.879,23.438,1.465,-127.930
1532215859.117,15.625,24.414,18.555,9.277,73.242
1532215859.121,20.996,20.996,20.996,17.090,176.758
1532215859.125,30.273,21.484,22.461,18.066,39.062
1532215859.129,20.508,20.996,19.531,19.531,-114.746
1532215859.133,20.508,21.973,15.137,17.578,-24.902
1532215859.136,25.879,21.484,13.184,20.020,135.254
1532215859.140,28.320,21.484,13.184,25.879,78.125
1532215859.144,32.715,21.484,12.695,28.320,-95.703
1532215859.148,37.109,19.043,13.672,27.832,-66.895
1532215859.152,41.016,20.508,13.672,23.926,130.859
1532215859.156,34.668,21.973,11.719,29.785,141.602
1532215859.160,30.762,19.043,13.184,36.621,-50.293
1532215859.164,40.039,19.043,16.113,36.133,-88.867
1532215859.168,44.922,20.020,13.184,37.109,83.008
1532215859.172,42.480,21.484,12.207,25.391,122.070
1532215859.176,49.805,21.484,13.672,19.531,-35.156
1532215859.179,47.852,19.043,11.719,27.832,-111.328
1532215859.183,32.715,20.020,11.230,33.691,61.035
1532215859.187,36.133,20.996,10.742,34.180,186.035
1532215859.191,47.852,20.020,10.254,38.574,53.223
1532215859.195,55.176,20.020,12.207,43.457,-112.793
1532215859.199,53.711,22.461,13.184,42.480,-25.391
1532215859.203,47.852,22.949,13.672,40.527,124.023
1532215859.207,52.246,20.508,15.137,40.039,95.215
1532215859.211,52.734,20.996,13.184,35.645,-96.680
1532215859.215,43.945,23.926,13.184,30.273,-83.008
1532215859.218,43.457,24.902,16.602,32.715,128.906
1532215859.222,46.875,22.949,15.137,33.203,138.184
1532215859.226,49.805,20.996,14.648,34.668,-34.668
1532215859.230,54.688,22.461,18.555,37.598,-103.516
1532215859.234,53.223,22.461,17.578,34.668,66.895
1532215859.238,48.340,20.996,17.090,38.086,165.039
1532215859.242,46.387,21.973,19.531,39.551,12.695
1532215859.246,35.156,21.973,19.043,34.668,-92.285
1532215859.250,35.645,22.949,20.996,34.668,23.438
1532215859.254,47.363,25.879,24.902,36.621,130.859
1532215859.258,42.480,23.438,20.996,34.668,45.410
1532215859.261,34.668,21.484,18.555,33.203,-113.281
1532215859.265,43.945,21.973,19.531,35.156,-44.434
1532215859.269,40.527,24.902,20.508,31.738,112.793
1532215859.273,37.598,27.344,18.066,27.344,77.637
1532215859.277,38.086,24.902,19.531,25.879,-78.613
1532215859.281,40.527,23.926,22.461,26.855,-73.242
1532215859.285,41.504,24.902,20.020,29.297,134.766
1532215859.289,30.762,22.461,19.043,24.902,189.453
1532215859.293,35.645,21.973,19.043,29.297,-19.531
1532215859.297,34.668,23.438,18.066,36.133,-95.703
1532215859.301,33.691,23.926,19.531,36.621,74.707
1532215859.304,36.621,24.414,16.602,36.133,173.340
1532215859.308,35.645,24.902,17.578,32.227,20.508
1532215859.312,40.039,21.973,20.508,24.902,-111.328
1532215859.316,42.969,22.949,20.508,28.320,29.785
1532215859.320,38.086,26.367,18.555,28.809,165.039
1532215859.324,33.691,25.391,16.602,26.855,86.914
1532215859.328,32.715,26.367,18.066,30.762,-88.379
1532215859.332,32.227,24.414,16.113,22.949,-66.895
1532215859.336,31.738,20.508,16.602,24.414,121.582
1532215859.340,29.785,20.020,18.066,32.227,130.371
1532215859.343,32.715,21.484,17.090,29.785,-59.082
1532215859.347,31.738,20.996,12.695,35.645,-86.914
1532215859.351,37.598,21.484,13.184,33.203,76.172
1532215859.355,36.621,22.461,20.508,27.832,133.789
1532215859.359,34.180,22.461,22.949,31.250,-14.160
1532215859.363,33.691,23.926,23.926,33.691,-95.703
1532215859.367,29.785,22.949,26.855,33.691,46.875
1532215859.371,30.273,23.438,25.391,32.227,146.484
1532215859.375,37.109,23.438,24.414,32.227,33.691
1532215859.379,42.480,20.996,25.879,32.227,-101.562
1532215859.383,32.715,22.461,22.949,32.227,9.766
1532215859.386,21.484,24.414,22.461,38.086,164.062
1532215859.390,24.902,25.879,26.367,33.691,62.500
1532215859.394,27.832,25.879,26.367,21.484,-142.578
1532215859.398,21.973,23.926,21.973,25.879,-66.406
1532215859.402,25.879,23.926,22.461,29.785,128.906
1532215859.406,31.738,24.414,25.391,27.832,120.117
1532215859.410,21.484,25.879,26.855,28.809,-70.312
1532215859.414,26.367,22.949,26.367,34.668,-101.562
1532215859.418,32.227,20.020,23.926,34.180,92.285
1532215859.422,23.438,23.438,22.461,28.809,163.086
1532215859.426,23.438,23.926,22.949,28.809,-20.020
1532215859.429,23.926,22.949,22.949,32.715,-113.281
1532215859.433,26.855,22.461,22.949,37.598,37.109
1532215859.437,35.156,22.949,23.926,38.574,132.812
1532215859.441,39.062,26.367,24.414,35.156,61.523
1532215859.445,36.621,26.367,20.508,36.133,-99.121
1532215859.449,36.621,26.855,20.020,33.203,-59.570
1532215859.453,35.645,29.785,20.020,18.555,89.844
1532215859.457,34.668,29.785,16.602,21.973,82.031
1532215859.461,30.273,29.785,20.996,28.320,-74.219
1532215859.465,22.949,28.809,21.484,23.438,-45.898
1532215859.468,26.367,25.879,20.020,25.391,159.180
1532215859.472,31.738,25.879,21.973,28.809,143.066
1532215859.476,32.715,24.414,21.973,27.832,-43.945
1532215859.480,44.434,22.949,21.973,28.320,-95.215
1532215859.484,41.016,27.344,20.508,31.250,44.922
1532215859.488,20.508,27.832,21.973,33.691,141.602
1532215859.492,18.555,24.414,22.461,24.902,0.488
1532215859.496,26.855,23.926,21.484,21.973,-118.652
1532215859.500,27.832,22.949,20.020,27.344,30.762
1532215859.504,23.438,21.973,20.020,24.902,162.109
1532215859.508,25.879,21.484,22.949,25.391,55.176
1532215859.511,28.320,25.391,23.438,23.438,-104.980
1532215859.515,25.879,27.344,22.461,26.367,-20.996
1532215859.519,27.832,23.438,21.484,30.273,146.973
1532215859.523,39.062,25.391,20.996,29.785,114.746
1532215859.527,33.203,26.855,20.996,25.879,-82.520
1532215859.531,14.160,22.461,18.555,23.438,-106.445
1532215859.535,13.672,21.484,17.578,25.391,109.863
1532215859.539,21.973,22.949,20.020,28.320,155.762
1532215859.543,29.785,23.926,21.973,29.297,-40.039
1532215859.547,32.715,21.973,19.043,31.738,-91.797
1532215859.550,26.855,20.508,19.043,30.762,43.945
1532215859.554,29.785,21.484,20.508,33.691,110.840
1532215859.558,43.457,22.461,20.996,36.621,32.715
1532215859.562,30.273,23.926,22.461,30.762,-98.145
1532215859.566,18.555,24.902,21.973,29.785,23.438
1532215859.570,20.508,20.996,21.484,27.344,167.969
1532215859.574,21.484,20.508,19.531,20.996,76.660
1532215859.578,23.926,26.367,18.066,20.020,-94.727
1532215859.582,24.414,28.320,20.020,27.344,-50.293
1532215859.586,30.273,28.320,20.020,31.250,116.699
1532215859.590,29.785,30.762,18.066,24.902,80.078
1532215859.593,35.645,30.762,16.602,18.066,-89.355
1532215859.597,49.805,26.855,14.648,23.438,-79.102
1532215859.601,37.109,26.855,15.137,22.949,109.863
1532215859.605,15.137,24.902,17.090,17.578,161.621
1532215859.609,14.160,22.949,21.484,23.926,-18.066
1532215859.613,23.926,22.949,21.484,27.344,-94.727
1532215859.617,27.344,23.438,17.578,20.020,92.773
1532215859.621,27.832,21.973,18.066,18.066,177.246
1532215859.625,25.391,20.020,20.020,27.344,29.297
1532215859.629,22.461,20.996,19.531,29.297,-125.977
1532215859.633,29.297,25.391,17.090,23.926,-34.668
1532215859.636,40.527,27.344,17.090,28.320,133.789
1532215859.640,36.621,23.926,20.508,28.809,88.867
1532215859.644,28.809,25.391,22.461,31.250,-76.660
1532215859.648,26.367,25.391,22.461,31.250,-76.172
1532215859.652,21.973,20.508,25.879,22.949,69.336
1532215859.656,26.367,20.508,26.855,25.391,104.492
1532215859.660,30.762,22.461,23.438,25.879,-27.832
1532215859.664,22.949,24.414,22.949,30.273,-75.684
1532215859.668,22.461,26.367,22.949,39.551,62.988
1532215859.672,27.344,28.320,22.461,33.691,124.512
1532215859.675,32.715,27.832,24.902,32.227,3.418
1532215859.679,36.133,24.902,25.391,34.180,-105.957
1532215859.683,31.738,24.902,23.438,32.227,12.207
1532215859.687,29.785,27.344,22.949,30.762,162.598
1532215859.691,31.250,26.855,21.484,21.484,24.902
1532215859.695,27.344,23.438,22.461,19.043,-139.648
1532215859.699,30.273,23.438,20.020,30.762,15.137
1532215859.703,33.691,24.414,20.020,33.203,167.480
1532215859.707,34.180,24.902,24.902,33.203,74.219
1532215859.711,31.250,25.391,25.391,33.691,-83.984
1532215859.715,27.344,23.926,24.414,35.156,-51.270
1532215859.718,26.367,21.973,24.414,35.156,94.238
1532215859.722,40.039,22.949,22.949,30.273,128.418
1532215859.726,43.457,25.391,21.973,32.715,-31.250
1532215859.730,37.109,27.832,22.461,33.691,-99.121
1532215859.734,38.574,27.344,21.484,31.250,64.941
1532215859.738,38.574,26.367,20.020,34.180,141.602
1532215859.742,39.062,27.344,18.555,28.320,-0.488
1532215859.746,38.086,25.391,16.113,24.414,-109.375
1532215859.750,47.852,26.855,19.531,26.855,28.809
1532215859.754,45.410,28.320,22.949,30.762,181.152
1532215859.758,36.621,28.320,21.973,35.645,90.332
1532215859.761,36.621,31.738,20.508,32.227,-87.402
1532215859.765,29.785,30.273,20.996,28.320,-20.020
1532215859.769,24.902,25.879,23.438,29.297,125.488
1532215859.773,28.809,26.855,24.902,26.855,83.496
1532215859.777,35.156,27.832,25.879,24.414,-77.637
1532215859.781,37.109,26.367,26.367,24.902,-95.215
1532215859.785,36.621,27.344,27.344,26.855,96.680
1532215859.789,30.762,27.344,28.320,28.320,160.645
1532215859.793,20.020,27.344,27.344,26.855,-14.648
1532215859.797,22.461,27.344,27.832,25.879,-87.402
1532215859.800,26.855,25.879,28.809,24.414,74.219
1532215859.804,22.461,27.344,27.832,24.902,166.016
1532215859.808,22.461,30.273,30.273,28.320,33.203
1532215859.812,29.297,30.273,29.785,23.438,-148.926
1532215859.816,36.133,28.809,27.344,18.066,-38.086
1532215859.820,26.855,26.367,25.879,20.508,160.156
1532215859.824,20.996,28.809,24.414,19.043,93.262
1532215859.828,24.414,30.273,25.879,17.578,-104.004
1532215859.832,26.367,28.809,28.320,17.578,-44.922
1532215859.836,27.344,27.832,27.344,19.531,154.785
1532215859.840,34.180,29.297,24.902,26.367,128.906
1532215859.843,29.785,27.344,28.809,31.250,-88.867
1532215859.847,24.902,27.344,28.809,25.879,-121.582
1532215859.851,33.203,28.809,26.367,25.391,68.359
1532215859.855,22.461,29.297,26.367,32.227,154.785
1532215859.859,22.461,26.367,25.879,32.715,-10.254
1532215859.863,27.832,21.973,24.902,32.227,-128.906
1532215859.867,27.344,21.973,20.020,31.738,15.137
1532215859.871,30.762,22.461,18.555,27.832,110.840
1532215859.875,33.203,22.949,19.531,26.367,21.484
1532215859.879,33.203,25.391,21.973,30.762,-105.957
1532215859.883,27.832,23.438,20.996,26.855,-4.395
1532215859.886,33.691,25.391,17.578,25.391,154.785
1532215859.890,34.668,27.344,20.508,18.555,77.148
1532215859.894,28.320,23.926,23.926,13.672,-101.074
1532215859.898,38.086,25.391,26.855,23.438,-53.223
1532215859.902,46.875,25.879,26.367,23.438,120.605
1532215859.906,44.922,22.949,21.484,20.996,107.422
1532215859.910,40.527,22.949,22.461,18.555,-69.336
1532215859.914,32.227,23.926,21.973,19.531,-116.699
1532215859.918,28.809,22.949,18.555,29.785,77.637
1532215859.922,28.809,20.996,20.020,33.691,164.062
1532215859.925,27.832,21.484,24.414,40.039,10.742
1532215859.929,29.297,23.438,25.391,39.551,-107.422
1532215859.933,37.109,20.996,25.879,38.086,28.320
1532215859.937,37.598,19.043,27.344,42.969,144.043
1532215859.941,24.414,18.066,27.344,39.551,36.133
1532215859.945,26.855,18.066,29.785,38.086,-76.660
1532215859.949,40.039,20.508,27.832,40.527,2.441
1532215859.953,33.203,23.438,25.391,41.016,141.602
1532215859.957,22.949,23.926,25.879,43.457,86.426
1532215859.961,31.738,22.461,26.367,43.457,-100.098
1532215859.965,35.645,22.949,22.949,41.992,-59.082
1532215859.968,28.320,22.461,20.020,39.551,85.938
1532215859.972,29.785,23.438,20.508,29.785,77.148
1532215859.976,31.250,25.391,20.996,28.320,-52.734
1532215859.980,35.645,24.414,22.461,34.668,-91.309
1532215859.984,47.852,23.926,25.879,38.086,54.199
1532215859.988,38.086,23.438,23.438,35.645,128.906
1532215859.992,23.438,23.438,19.043,29.785,8.789
1532215859.996,22.949,23.926,20.996,30.762,-114.746
1532215860.000,23.926,24.902,22.949,40.527,13.184
1532215860.004,29.297,25.391,23.438,44.922,155.273
1532215860.007,34.668,26.855,26.855,43.457,51.270
1532215860.011,42.969,28.320,27.832,37.598,-113.770
1532215860.015,42.480,26.367,24.902,28.320,-70.312
1532215860.019,15.625,20.996,20.996,24.414,93.262
1532215860.023,19.531,20.508,21.973,24.414,109.375
1532215860.027,33.691,23.438,26.367,28.809,-19.531
1532215860.031,25.391,24.902,20.996,32.227,-46.387
1532215860.035,31.250,24.414,16.602,35.645,86.426
1532215860.039,32.715,22.461,21.973,35.156,150.879
1532215860.043,30.273,22.461,23.926,30.762,7.812
1532215860.047,36.133,21.973,20.020,33.203,-75.684
1532215860.050,39.062,22.461,19.043,30.273,49.316
1532215860.054,34.668,25.879,25.391,29.785,133.301
1532215860.058,31.250,26.367,24.902,36.133,44.922
1532215860.062,30.273,24.902,20.996,33.691,-89.355
1532215860.066,30.762,24.414,21.484,33.691,12.207
1532215860.070,33.691,24.414,22.949,38.086,148.438
1532215860.074,44.922,26.855,22.461,38.574,68.848
1532215860.078,45.410,26.855,22.949,34.668,-66.895
1532215860.082,36.621,29.785,22.949,35.645,-4.883
1532215860.086,38.086,32.715,20.996,42.480,140.625
1532215860.090,38.086,32.715,25.391,44.434,128.418
1532215860.093,35.645,32.227,26.855,44.922,-31.738
1532215860.097,38.086,30.273,22.949,45.410,-46.387
1532215860.101,42.480,29.785,23.438,47.852,101.562
1532215860.105,48.828,29.785,25.391,49.316,162.598
1532215860.109,44.434,24.902,24.902,42.480,16.602
1532215860.113,39.551,24.902,24.902,29.785,-103.516
1532215860.117,32.715,27.344,23.926,27.344,41.992
1532215860.121,29.297,24.414,23.438,34.668,150.391
1532215860.125,43.945,27.832,23.438,34.668,41.016
1532215860.129,47.363,33.203,24.902,30.762,-98.633
1532215860.132,39.551,31.738,23.438,33.203,0.488
1532215860.136,39.551,29.785,24.414,39.551,153.320
1532215860.140,38.574,29.297,23.926,40.039,74.219
1532215860.144,40.527,29.297,22.949,40.527,-88.867
1532215860.148,42.480,29.297,24.414,42.480,-53.711
1532215860.152,39.062,27.832,24.902,35.156,94.238
1532215860.156,50.293,26.855,22.461,34.668,121.094
1532215860.160,42.969,26.855,22.949,37.598,-20.996
1532215860.164,32.227,27.344,23.926,40.039,-50.293
1532215860.168,40.527,28.809,25.391,43.945,98.633
1532215860.172,36.621,28.809,26.367,39.551,124.023
1532215860.175,33.203,30.273,23.926,39.062,-27.832
1532215860.179,48.340,28.320,21.973,41.992,-113.281
1532215860.183,49.805,27.832,21.484,38.574,43.945
1532215860.187,34.668,31.250,21.973,35.156,169.922
1532215860.191,36.621,32.715,23.926,28.809,47.852
1532215860.195,38.574,32.227,24.414,25.879,-118.652
1532215860.199,35.645,28.809,21.973,35.156,-10.742
1532215860.203,30.273,27.344,23.926,36.621,173.828
1532215860.207,28.320,29.297,29.297,32.715,147.949
1532215860.211,31.738,31.250,32.227,34.180,-49.805
1532215860.215,32.227,31.250,31.250,36.133,-52.734
1532215860.218,28.809,31.250,30.273,32.715,143.555
1532215860.222,25.879,30.273,33.691,31.738,167.969
1532215860.226,23.926,28.809,31.738,34.668,-48.828
1532215860.230,24.902,29.785,28.320,30.762,-148.438
1532215860.234,26.367,29.297,30.762,21.484,41.016
1532215860.238,29.785,28.809,29.297,23.926,160.156
1532215860.242,27.832,26.367,28.809,25.879,19.043
1532215860.246,22.461,26.367,31.250,24.414,-114.258
1532215860.250,28.320,29.785,31.250,23.438,13.672
1532215860.254,30.273,31.738,30.273,24.414,148.926
1532215860.257,27.832,30.762,30.273,31.738,41.992
1532215860.261,33.691,29.785,32.715,37.598,-115.234
1532215860.265,43.457,30.762,33.203,39.062,-16.113
1532215860.269,38.574,28.809,29.297,34.668,164.062
1532215860.273,30.273,26.855,27.832,29.297,140.137
1532215860.277,35.645,29.297,30.273,32.227,-46.875
1532215860.281,40.039,30.762,29.297,33.203,-75.195
1532215860.285,39.062,31.250,26.855,37.598,116.211
1532215860.289,29.785,32.715,25.879,40.039,178.223
1532215860.293,29.297,32.227,26.367,30.762,-31.738
1532215860.297,31.738,30.762,28.320,30.762,-105.469
1532215860.300,32.227,30.762,26.367,36.133,103.516
1532215860.304,41.992,32.227,26.855,39.062,206.055
1532215860.308,44.434,33.691,29.297,35.645,29.785
1532215860.312,36.133,35.156,29.785,34.180,-146.484
1532215860.316,34.180,38.086,31.250,41.016,27.344
1532215860.320,41.504,37.109,30.762,42.969,225.098
1532215860.324,41.992,32.227,31.738,34.668,126.953
1532215860.328,37.109,34.668,31.738,35.645,-94.727
1532215860.332,39.551,35.645,29.297,38.086,-62.012
1532215860.336,42.480,34.668,30.273,38.086,130.859
1532215860.340,44.922,37.109,32.227,40.039,130.371
1532215860.343,49.316,38.086,29.297,37.109,-68.848
1532215860.347,28.809,35.156,30.273,35.156,-91.309
1532215860.351,10.742,32.227,35.156,29.785,103.516
1532215860.355,25.391,35.645,34.668,29.785,159.668
1532215860.359,35.156,35.645,35.156,33.203,14.160
1532215860.363,29.785,32.227,36.621,30.273,-65.918
1532215860.367,26.855,34.668,34.180,26.855,71.289
1532215860.371,32.227,37.109,33.203,28.320,174.805
1532215860.375,35.645,36.621,33.203,30.762,43.945
1532215860.379,42.969,37.109,30.273,32.227,-133.301
1532215860.382,31.250,36.621,30.273,31.738,-11.230
1532215860.386,20.996,34.180,32.715,31.738,169.922
1532215860.390,26.367,33.691,32.715,31.738,81.055
1532215860.394,28.809,33.203,30.762,31.738,-119.629
1532215860.398,28.320,29.785,29.785,32.715,-79.590
1532215860.402,27.832,29.785,30.762,33.203,137.695
1532215860.406,36.133,31.738,29.297,28.320,158.203
1532215860.410,29.785,33.691,25.391,21.973,-60.547
1532215860.414,24.902,34.668,25.879,18.066,-124.023
1532215860.418,33.203,33.203,27.344,24.414,96.680
1532215860.422,32.227,34.668,30.762,32.715,163.574
1532215860.425,37.598,35.156,31.738,37.109,-15.137
1532215860.429,39.062,32.227,29.785,38.574,-128.906
1532215860.433,28.809,32.715,27.344,38.574,19.043
1532215860.437,30.273,31.250,27.832,37.598,195.801
1532215860.441,40.039,31.250,29.785,38.086,79.590
1532215860.445,37.598,32.227,28.320,38.086,-130.859
1532215860.449,30.273,30.762,27.832,39.062,-26.367
1532215860.453,31.738,30.273,30.762,39.062,144.043
1532215860.457,38.086,32.715,31.250,36.621,97.168
1532215860.461,36.621,32.715,29.785,35.156,-85.938
1532215860.464,31.738,31.738,28.809,35.156,-72.754
1532215860.468,37.598,32.227,31.738,40.039,109.375
1532215860.472,42.480,31.738,30.762,33.203,121.094
1532215860.476,41.992,31.250,30.762,30.762,-71.289
1532215860.480,28.809,33.203,32.715,38.574,-142.090
1532215860.484,22.461,30.762,31.250,37.109,79.590
1532215860.488,32.715,29.297,33.203,36.133,178.711
1532215860.492,24.414,31.738,34.180,34.180,0.977
1532215860.496,14.160,28.809,33.691,27.832,-124.512
1532215860.500,17.578,27.832,32.715,25.879,33.203
1532215860.504,23.926,30.762,30.762,29.785,195.312
1532215860.507,30.762,27.344,32.227,30.762,77.148
1532215860.511,27.832,25.391,33.691,26.367,-124.512
1532215860.515,21.484,27.832,29.785,19.531,-60.547
1532215860.519,22.461,31.250,26.855,16.113,144.531
1532215860.523,14.648,30.762,29.297,15.137,115.234
1532215860.527,17.578,29.785,31.738,20.996,-93.750
1532215860.531,20.996,29.785,32.227,19.531,-101.074
1532215860.535,20.508,27.832,31.250,11.719,97.168
1532215860.539,11.230,23.438,31.250,11.719,178.711
1532215860.543,7.812,18.066,32.227,16.113,2.441
1532215860.547,17.090,18.555,33.691,24.414,-84.961
1532215860.550,25.879,22.949,30.762,28.809,70.312
1532215860.554,28.809,24.902,23.926,28.320,159.668
1532215860.558,24.902,24.902,21.484,21.973,13.672
1532215860.562,27.344,22.949,22.461,20.996,-127.930
1532215860.566,27.344,21.484,26.855,25.391,25.879
1532215860.570,23.926,20.996,28.809,25.879,156.738
1532215860.574,21.973,22.461,27.832,19.531,45.410
1532215860.578,25.391,20.508,28.320,23.438,-127.930
1532215860.582,27.344,18.066,25.879,28.320,-67.871
1532215860.586,25.391,20.508,23.926,26.855,141.113
1532215860.589,31.738,21.973,24.902,23.438,142.090
1532215860.593,45.898,22.461,24.902,22.949,-84.473
1532215860.597,43.457,22.461,25.391,28.320,-98.633
1532215860.601,30.273,20.508,24.902,31.738,100.098
1532215860.605,34.180,19.531,25.879,38.086,143.066
1532215860.609,44.434,20.020,28.809,41.016,-14.160
1532215860.613,44.434,20.508,27.344,38.574,-116.699
1532215860.617,41.504,20.508,25.879,43.945,23.438
1532215860.621,42.480,21.973,28.809,44.922,143.066
1532215860.625,39.062,20.508,24.902,41.504,43.945
1532215860.629,37.109,19.043,23.926,38.086,-115.234
1532215860.632,42.969,22.949,24.902,41.992,-40.039
1532215860.636,43.945,26.855,23.438,50.781,145.020
1532215860.640,51.270,25.391,22.949,46.387,119.629
1532215860.644,45.898,23.926,22.461,41.992,-57.617
1532215860.648,33.203,26.855,22.461,41.016,-40.527
1532215860.652,37.109,26.855,20.020,43.945,117.676
1532215860.656,37.598,24.414,22.461,45.898,113.770
1532215860.660,34.180,23.438,24.414,41.992,-64.941
1532215860.664,30.762,23.438,20.996,40.039,-102.539
1532215860.668,26.855,23.926,20.996,38.574,77.637
1532215860.672,25.879,21.484,20.996,32.227,130.371
1532215860.675,33.691,22.461,21.973,30.273,-20.508
1532215860.679,41.992,25.879,20.508,37.109,-109.863
1532215860.683,42.969,25.391,17.578,39.551,39.062
1532215860.687,37.598,21.973,22.461,41.016,150.391
1532215860.691,31.738,22.949,20.996,35.156,9.766
1532215860.695,23.926,20.508,20.020,29.297,-135.742
1532215860.699,25.879,18.066,20.020,33.203,12.695
1532215860.703,28.320,20.996,18.555,35.156,176.270
1532215860.707,29.297,21.973,20.508,38.574,117.188
1532215860.711,29.297,22.461,21.484,33.203,-83.008
1532215860.714,23.926,24.414,20.996,33.203,-91.309
1532215860.718,31.250,25.879,22.949,43.945,141.113
1532215860.722,37.598,23.926,25.879,42.969,203.613
1532215860.726,32.715,20.996,25.391,38.086,19.531
1532215860.730,30.273,20.996,25.391,36.621,-70.312
1532215860.734,37.109,21.973,26.367,38.574,94.238
1532215860.738,32.227,22.949,25.879,38.574,186.035
1532215860.742,23.926,24.414,27.344,33.691,44.434
1532215860.746,25.391,23.926,22.949,29.297,-87.891
1532215860.750,30.273,20.996,17.090,25.879,6.348
1532215860.754,34.180,22.949,20.996,22.949,130.859
1532215860.757,27.832,25.879,23.926,27.344,77.148
1532215860.761,31.250,22.949,25.391,35.156,-91.797
1532215860.765,39.062,19.043,28.320,36.621,-30.762
1532215860.769,30.762,20.996,30.762,38.574,132.324
1532215860.773,26.367,21.973,29.785,41.016,84.473
1532215860.777,32.227,23.926,28.809,37.109,-100.586
1532215860.781,31.738,24.414,28.809,33.203,-106.445
1532215860.785,25.879,21.973,21.973,30.762,89.844
1532215860.789,32.227,24.902,22.461,33.203,145.508
1532215860.793,32.715,23.926,25.879,31.738,-51.758
1532215860.797,26.367,20.020,26.855,32.227,-140.137
1532215860.800,39.551,21.973,28.809,41.016,54.199
1532215860.804,44.434,25.879,28.809,42.969,183.594
1532215860.808,27.832,27.344,24.414,28.809,46.875
1532215860.812,24.414,30.273,20.996,16.602,-125.977
1532215860.816,23.926,30.762,20.508,9.277,-18.066
1532215860.820,27.344,27.832,18.555,13.184,169.434
1532215860.824,41.016,26.855,20.508,21.973,106.934
1532215860.828,41.992,30.762,23.438,13.672,-101.562
1532215860.832,46.387,31.738,22.949,12.207,-40.039
1532215860.836,51.270,30.273,23.926,20.508,167.969
1532215860.839,36.133,30.273,23.438,22.949,156.250
1532215860.843,27.344,27.344,26.855,28.320,-63.965
1532215860.847,34.668,25.879,28.809,37.598,-85.449
1532215860.851,29.297,25.879,26.367,33.203,89.844
1532215860.855,14.648,24.902,25.391,23.926,133.301
1532215860.859,19.531,24.414,23.926,25.391,0.000
1532215860.863,18.555,25.391,25.391,29.785,-105.469
1532215860.867,10.254,24.414,25.391,29.785,48.828
1532215860.871,7.324,20.996,24.414,20.020,195.312
1532215860.875,14.160,21.973,24.414,22.949,60.547
1532215860.879,22.461,23.438,27.344,32.715,-104.492
1532215860.882,25.879,23.438,26.367,41.016,38.574
1532215860.886,31.738,23.926,26.855,36.621,203.613
1532215860.890,29.785,25.391,30.762,29.297,100.098
1532215860.894,42.480,27.344,31.250,30.762,-108.887
1532215860.898,42.480,25.879,30.762,32.715,-62.988
1532215860.902,19.531,24.902,29.297,32.715,137.695
1532215860.906,20.020,27.832,31.250,30.762,147.461
1532215860.910,16.602,28.320,34.668,25.391,-72.266
1532215860.914,7.812,28.809,37.109,21.484,-111.816
1532215860.918,3.906,28.320,38.574,19.531,114.258
1532215860.921,3.418,27.832,37.598,18.066,184.570
1532215860.925,11.230,27.832,39.551,19.531,18.066
1532215860.929,19.043,31.250,40.039,17.090,-131.836
1532215860.933,17.578,30.762,36.133,14.160,14.648
1532215860.937,17.578,28.809,38.086,18.555,166.992
1532215860.941,17.578,27.832,38.574,19.043,43.457
1532215860.945,10.254,27.344,37.109,16.602,-141.602
1532215860.949,2.930,29.785,38.574,16.113,-51.270
1532215860.953,4.883,30.273,38.086,8.789,130.859
1532215860.957,17.090,29.785,36.621,11.719,104.492
1532215860.961,20.508,31.250,37.598,18.066,-91.797
1532215860.964,12.695,32.715,39.062,19.531,-79.590
1532215860.968,9.766,33.691,38.574,20.508,118.652
1532215860.972,11.230,33.203,40.039,22.461,129.883
1532215860.976,14.160,33.203,41.016,22.949,-18.555
1532215860.980,12.695,31.738,40.527,19.531,-77.637
1532215860.984,15.625,29.297,40.527,18.555,91.309
1532215860.988,24.414,29.297,42.480,20.508,184.570
1532215860.992,28.809,30.762,41.016,20.020,-5.371
1532215860.996,20.996,31.250,39.551,15.625,-157.227
1532215861.000,16.602,31.738,40.039,16.602,21.484
1532215861.004,20.020,34.668,38.086,20.508,196.777
1532215861.007,22.949,34.668,40.039,20.996,81.055
1532215861.011,26.367,33.691,42.480,25.879,-122.559
1532215861.015,27.344,32.227,39.062,28.809,-28.320
1532215861.019,34.668,34.180,37.109,30.273,173.828
1532215861.023,37.109,36.621,39.551,28.320,142.090
1532215861.027,24.902,32.715,40.527,25.391,-72.266
1532215861.031,25.879,28.809,40.527,27.832,-119.141
1532215861.035,34.668,27.832,40.039,31.250,82.031
1532215861.039,30.762,29.785,36.621,28.809,161.133
1532215861.043,19.531,34.668,34.180,17.090,-28.320
1532215861.046,8.301,34.180,35.156,18.066,-123.535
1532215861.050,11.719,35.645,34.668,20.020,43.945
1532215861.054,24.414,37.598,35.156,17.090,154.785
1532215861.058,28.320,36.621,36.621,19.043,2.441
1532215861.062,30.273,33.691,35.645,21.973,-159.668
1532215861.066,34.180,35.645,33.691,22.949,6.348
1532215861.070,26.367,37.598,33.691,23.926,173.828
1532215861.074,21.484,33.691,36.133,26.855,61.523
1532215861.078,24.902,29.297,39.062,29.297,-114.746
1532215861.082,28.320,28.809,38.086,29.297,-48.828
1532215861.086,24.902,31.738,36.133,27.344,142.090
1532215861.089,25.879,31.250,39.062,22.949,138.672
1532215861.093,34.668,27.832,39.551,20.996,-69.824
1532215861.097,29.297,29.785,39.062,27.344,-104.492
1532215861.101,19.043,33.691,35.156,26.367,121.582
1532215861.105,17.090,32.227,33.691,25.879,177.734
1532215861.109,18.066,29.785,35.645,23.438,-34.668
1532215861.113,25.879,31.738,35.645,21.484,-148.926
1532215861.117,32.227,33.203,31.250,28.320,48.340
1532215861.121,33.203,31.250,28.809,24.902,199.707
1532215861.125,28.809,33.691,28.809,20.996,56.641
1532215861.129,26.855,35.156,30.273,26.367,-117.188
1532215861.132,35.156,34.180,29.785,29.297,-8.789
1532215861.136,38.086,35.645,28.320,35.156,180.176
1532215861.140,31.250,33.691,31.250,37.109,125.977
1532215861.144,36.133,30.273,29.785,34.668,-89.355
1532215861.148,40.039,29.297,29.297,39.551,-65.430
1532215861.152,47.852,28.320,33.203,41.992,127.930
1532215861.156,46.387,28.320,35.645,41.016,129.395
1532215861.160,36.133,31.250,34.668,41.016,-59.082
1532215861.164,44.922,32.227,33.691,43.945,-94.238
1532215861.168,41.016,28.809,35.156,44.922,105.957
1532215861.171,27.344,23.926,34.668,39.551,155.273
1532215861.175,29.297,20.996,35.645,44.434,-7.324
1532215861.179,37.598,21.484,35.645,51.270,-105.469
1532215861.183,39.062,24.902,30.762,45.410,30.762
1532215861.187,40.039,26.367,28.320,38.086,172.852
1532215861.191,39.062,24.902,30.762,32.227,45.410
1532215861.195,31.738,27.344,31.250,36.621,-121.582
1532215861.199,32.715,30.273,26.855,49.805,-9.277
1532215861.203,33.203,30.762,24.414,42.969,162.109
1532215861.207,38.574,29.297,25.879,32.227,130.371
1532215861.211,45.898,29.297,29.785,33.691,-45.410
1532215861.214,37.109,29.297,31.738,36.133,-54.688
1532215861.218,23.926,27.344,27.832,38.574,107.910
1532215861.222,33.203,26.367,27.344,42.480,140.137
1532215861.226,41.504,28.320,30.273,44.434,-39.062
1532215861.230,39.551,30.273,28.809,41.016,-131.348
1532215861.234,41.016,29.785,26.855,34.668,48.828
1532215861.238,37.598,25.879,27.832,39.062,161.133
1532215861.242,37.598,21.973,30.273,40.527,12.695
1532215861.246,37.598,20.996,29.785,42.480,-123.535
1532215861.250,32.227,22.461,28.809,51.270,11.719
1532215861.254,28.809,23.438,29.297,49.805,204.102
1532215861.257,23.926,24.414,28.809,37.598,93.262
1532215861.261,30.762,23.926,30.762,33.203,-127.441
1532215861.265,38.574,24.902,31.250,38.574,-62.500
1532215861.269,41.992,24.902,30.273,37.109,123.047
1532215861.273,41.992,27.344,27.832,27.344,71.777
1532215861.277,39.551,30.273,22.461,26.855,-107.422
1532215861.281,34.180,30.273,22.949,28.809,-81.543
1532215861.285,33.203,26.855,30.273,29.785,119.141
1532215861.289,38.574,26.367,29.785,31.250,134.766
1532215861.293,42.969,28.320,22.949,32.715,-34.180
1532215861.296,41.016,25.879,24.414,40.039,-85.938
1532215861.300,43.945,26.367,31.250,45.410,63.965
1532215861.304,46.387,29.297,34.668,47.852,174.316
1532215861.308,44.434,31.250,35.156,47.363,41.992
1532215861.312,50.781,33.691,37.598,42.969,-140.137
1532215861.316,52.734,37.109,39.062,47.852,-12.695
1532215861.320,53.711,39.062,41.992,55.176,162.109
1532215861.324,64.453,41.504,45.898,55.176,102.051
1532215861.328,63.965,43.945,46.875,58.594,-105.957
1532215861.332,65.918,44.922,50.293,64.453,-93.262
1532215861.336,61.035,46.387,51.758,63.477,149.414
1532215861.339,59.082,47.852,49.316,66.406,143.066
1532215861.343,69.336,48.828,50.293,66.406,-62.500
1532215861.347,62.500,48.340,51.758,63.477,-94.727
1532215861.351,62.500,49.805,52.734,65.430,83.984
1532215861.355,70.312,50.781,50.293,68.848,156.250
1532215861.359,69.824,48.828,50.781,70.801,-19.531
1532215861.363,65.430,45.898,50.293,68.848,-122.559
1532215861.367,67.871,44.434,45.898,62.988,36.621
1532215861.371,70.801,42.969,45.898,53.711,128.418
1532215861.375,60.547,39.062,42.969,44.922,0.488
1532215861.378,57.129,35.156,38.086,46.875,-126.465
1532215861.382,58.105,35.645,36.133,46.875,-39.551
1532215861.386,43.457,39.551,35.645,41.992,148.926
1532215861.390,38.574,36.133,32.715,38.086,120.605
1532215861.394,51.758,31.738,32.715,42.480,-82.520
1532215861.398,42.969,31.250,35.156,46.875,-62.012
1532215861.402,42.969,31.250,31.738,42.969,125.977
1532215861.406,47.852,31.250,28.809,40.527,137.695
1532215861.410,39.551,34.668,32.715,32.715,-30.273
1532215861.414,38.086,37.109,33.691,23.926,-103.027
1532215861.418,40.527,34.668,29.297,30.273,68.848
1532215861.421,35.645,31.738,25.391,30.273,182.129
1532215861.425,28.809,28.809,25.879,24.902,29.785
1532215861.429,33.203,31.738,25.391,23.438,-108.887
1532215861.433,31.250,30.273,20.996,19.043,-0.977
1532215861.437,31.738,28.320,24.414,23.438,140.625
1532215861.441,45.410,33.203,28.320,30.762,49.805
1532215861.445,39.062,30.273,28.320,31.738,-133.301
1532215861.449,28.809,26.367,25.391,32.715,-55.176
1532215861.453,38.574,29.785,23.926,38.574,145.020
1532215861.457,48.828,27.344,25.391,42.480,127.441
1532215861.461,41.016,25.879,23.926,40.527,-85.449
1532215861.464,38.086,27.832,22.461,41.504,-84.473
1532215861.468,44.434,29.297,22.461,42.480,108.887
1532215861.472,54.688,33.691,21.973,36.621,114.258
1532215861.476,54.199,34.180,20.020,38.086,-47.363
1532215861.480,55.664,28.320,20.996,46.875,-97.168
1532215861.484,54.688,20.996,25.879,49.805,78.613
1532215861.488,40.039,20.020,27.344,51.270,169.922
1532215861.492,39.551,21.973,27.832,46.875,33.691
1532215861.496,49.805,23.438,28.809,55.176,-103.516
1532215861.500,52.734,22.949,26.855,60.059,22.949
1532215861.503,49.316,22.949,26.367,52.734,197.754
1532215861.507,44.922,24.902,25.391,48.340,96.680
1532215861.511,38.574,26.367,21.484,41.992,-120.605
1532215861.515,41.992,25.391,18.555,40.527,-66.406
1532215861.519,62.012,21.973,19.531,41.016,132.812
1532215861.523,65.430,20.508,23.438,41.016,132.324
1532215861.527,45.410,20.996,26.855,46.875,-55.176
1532215861.531,36.621,21.973,25.879,48.828,-89.355
1532215861.535,41.504,23.926,25.391,47.363,115.234
1532215861.539,46.875,23.926,26.367,51.270,168.457
1532215861.543,44.922,23.438,23.926,49.805,0.000
1532215861.546,41.016,23.438,23.438,47.363,-84.961
1532215861.550,46.875,25.391,23.438,43.457,46.387
1532215861.554,53.223,27.344,20.508,34.180,140.137
1532215861.558,42.969,27.832,20.996,38.086,66.895
1532215861.562,36.621,28.809,25.879,39.551,-98.145
1532215861.566,38.574,28.320,27.832,38.574,-8.789
1532215861.570,30.273,26.367,25.879,41.504,183.594
1532215861.574,35.645,29.785,26.367,40.039,105.957
1532215861.578,50.781,32.715,28.320,39.551,-85.938
1532215861.582,45.898,29.297,25.879,36.621,-41.992
1532215861.586,41.992,26.855,26.367,37.109,151.855
1532215861.589,41.504,27.344,27.832,37.109,142.578
1532215861.593,35.156,24.902,28.320,32.715,-45.898
1532215861.597,31.738,25.879,30.762,30.273,-99.121
1532215861.601,27.832,27.344,32.715,30.273,81.055
1532215861.605,27.832,28.320,33.691,33.203,171.387
1532215861.609,31.738,28.809,31.738,26.855,19.531
1532215861.613,32.715,27.832,31.738,22.461,-134.766
1532215861.617,32.227,27.344,32.715,27.832,8.789
1532215861.621,32.715,24.902,32.227,32.227,155.273
1532215861.625,31.250,24.902,32.715,37.598,54.688
1532215861.628,21.973,25.879,35.156,37.598,-105.957
1532215861.632,6.348,24.902,36.621,29.785,-33.203
1532215861.636,5.371,27.344,38.086,28.320,155.273
1532215861.640,24.414,29.297,37.109,27.832,107.910
1532215861.644,22.461,28.809,35.645,22.461,-82.520
1532215861.648,4.883,31.250,35.156,17.578,-58.105
1532215861.652,15.625,34.180,32.227,16.113,106.445
1532215861.656,24.902,34.668,33.203,16.602,138.672
1532215861.660,23.438,35.645,35.645,19.043,-18.066
1532215861.664,21.484,35.645,37.109,20.996,-107.422
1532215861.668,3.906,31.738,38.086,25.391,70.312
1532215861.671,6.836,32.227,41.504,26.367,174.805
1532215861.675,17.578,33.691,42.969,22.461,18.555
1532215861.679,12.695,29.297,41.016,18.555,-86.426
1532215861.683,13.672,25.879,44.922,23.926,49.316
1532215861.687,16.602,23.926,43.457,29.297,176.270
1532215861.691,22.461,26.855,35.645,19.043,55.664
1532215861.695,33.203,32.227,30.273,18.555,-115.723
1532215861.699,35.645,30.273,30.762,23.926,9.277
1532215861.703,31.738,30.273,35.156,21.973,189.941
1532215861.707,32.227,34.668,32.227,26.855,110.352
1532215861.711,26.367,32.715,29.785,24.414,-101.074
1532215861.714,18.555,28.320,32.715,22.949,-79.102
1532215861.718,25.391,30.273,34.180,31.250,114.258
1532215861.722,31.250,30.273,31.250,35.156,162.109
1532215861.726,39.551,28.809,31.250,34.180,-7.812
1532215861.730,49.805,27.832,34.180,41.992,-120.117
1532215861.734,44.922,28.320,32.715,43.457,57.617
1532215861.738,42.969,30.762,28.320,34.668,184.570
1532215861.742,44.922,30.762,29.297,34.180,17.090
1532215861.746,44.922,31.250,26.855,31.738,-121.582
1532215861.750,48.828,32.227,23.926,30.273,31.738
1532215861.753,52.246,29.785,27.832,30.762,144.531
1532215861.757,60.059,30.273,29.297,33.691,45.410
1532215861.761,60.547,32.227,26.367,38.574,-103.516
1532215861.765,43.945,29.297,22.461,42.969,-37.598
1532215861.769,41.016,24.414,25.879,47.852,138.184
1532215861.773,43.945,24.902,27.344,55.176,109.375
1532215861.777,38.574,27.344,27.832,56.152,-70.312
1532215861.781,26.855,23.926,27.344,47.363,-97.656
1532215861.785,25.879,21.973,25.879,47.363,97.656
1532215861.789,30.273,25.879,29.785,47.852,172.852
1532215861.793,33.691,29.297,34.180,41.016,-20.020
1532215861.796,34.180,26.855,29.785,40.527,-125.977
1532215861.800,31.250,22.461,25.879,38.574,50.781
1532215861.804,29.297,22.461,29.297,35.645,159.180
1532215861.808,29.297,23.926,29.297,32.227,31.738
1532215861.812,32.715,26.855,31.250,34.180,-118.164
1532215861.816,31.738,26.367,33.691,41.016,2.930
1532215861.820,27.832,26.367,30.273,39.551,164.062
1532215861.824,35.645,30.762,30.762,33.691,89.355
1532215861.828,43.945,33.203,30.762,33.691,-87.891
1532215861.832,37.598,32.227,31.250,31.250,-72.266
1532215861.835,30.762,30.273,31.250,32.715,96.680
1532215861.839,33.203,26.855,28.809,35.645,126.953
1532215861.843,36.133,25.879,29.297,33.203,-65.918
1532215861.847,35.645,29.297,29.297,36.621,-94.238
1532215861.851,37.598,29.785,29.785,38.574,99.121
1532215861.855,41.992,28.320,31.250,38.086,168.945
1532215861.859,40.039,29.297,28.809,37.598,8.789
1532215861.863,38.086,27.832,26.367,39.551,-112.793
1532215861.867,47.852,27.832,29.297,43.945,51.758
1532215861.871,49.805,28.809,28.320,42.969,158.203
1532215861.875,38.086,28.809,29.785,39.551,35.156
1532215861.878,35.156,28.809,32.715,37.598,-133.301
1532215861.882,35.156,27.832,32.715,46.387,-32.227
1532215861.886,36.621,26.367,34.668,45.898,176.270
1532215861.890,45.898,28.320,32.227,38.574,93.262
1532215861.894,53.223,32.715,34.180,39.062,-127.441
1532215861.898,46.875,33.203,36.133,36.133,-98.145
1532215861.902,38.086,31.738,33.203,34.180,119.629
1532215861.906,37.598,33.691,31.738,35.156,159.180
1532215861.910,39.551,37.109,34.180,35.645,-49.805
1532215861.914,39.551,34.668,33.691,38.574,-120.117
1532215861.918,44.434,26.855,31.250,40.527,81.055
1532215861.921,52.734,28.320,31.250,39.062,169.922
1532215861.925,45.898,33.691,30.273,37.109,15.137
1532215861.929,37.598,30.762,31.738,40.039,-120.605
1532215861.933,36.133,29.785,32.715,34.180,-0.977
1532215861.937,35.645,27.832,31.738,31.250,164.062
1532215861.941,44.922,26.367,30.762,39.062,86.914
1532215861.945,44.922,29.785,28.320,37.598,-91.797
1532215861.949,32.227,29.297,28.809,35.645,-52.734
1532215861.953,33.691,26.855,30.273,38.574,139.160
1532215861.957,43.945,28.320,30.273,41.504,137.695
1532215861.960,36.133,26.367,27.832,40.527,-80.566
1532215861.964,31.738,24.414,23.926,36.621,-89.355
1532215861.968,33.203,24.902,23.926,37.109,103.027
1532215861.972,35.645,25.879,24.414,29.785,138.184
1532215861.976,39.062,29.785,25.391,30.762,-36.621
1532215861.980,42.480,27.832,25.879,34.668,-118.652
1532215861.984,41.016,28.320,24.414,31.738,63.477
1532215861.988,37.598,30.762,24.414,35.156,177.246
1532215861.992,38.574,32.715,25.391,30.273,14.648
1532215861.996,32.715,32.227,22.461,23.438,-126.465
1532215862.000,35.156,29.297,23.438,26.855,25.879
1532215862.003,41.504,30.273,24.902,32.227,190.430
1532215862.007,42.480,31.250,23.926,32.227,89.844
1532215862.011,36.621,31.250,22.461,31.738,-141.113
1532215862.015,39.062,30.273,22.461,34.668,-73.730
1532215862.019,38.574,30.273,22.949,33.691,145.996
1532215862.023,34.180,30.273,23.926,36.133,120.605
1532215862.027,35.156,33.203,28.320,39.062,-70.312
1532215862.031,28.320,31.250,28.320,35.156,-93.262
1532215862.035,30.762,28.809,27.832,35.645,86.426
1532215862.039,39.062,31.738,30.273,37.109,145.996
1532215862.043,40.039,29.785,31.250,37.598,-23.438
1532215862.046,35.156,28.809,29.785,36.621,-116.211
1532215862.050,40.039,25.879,27.832,30.762,61.523
1532215862.054,31.250,25.879,29.785,30.273,196.777
1532215862.058,12.695,27.344,29.785,34.668,46.875
1532215862.062,16.602,25.391,29.297,33.691,-137.695
1532215862.066,27.344,25.879,30.762,37.109,8.789
1532215862.070,32.715,27.832,31.738,36.621,169.922
1532215862.074,31.250,25.879,29.297,28.809,62.988
1532215862.078,41.016,22.949,26.367,34.180,-117.676
1532215862.082,35.645,23.438,26.367,41.992,-74.219
1532215862.085,21.973,23.438,25.879,41.504,134.766
1532215862.089,29.297,21.973,25.879,39.062,143.066
1532215862.093,30.762,22.949,24.902,38.574,-52.246
1532215862.097,40.039,21.973,23.438,42.969,-90.332
1532215862.101,42.480,24.902,24.902,43.945,82.520
1532215862.105,31.250,27.344,28.320,41.504,181.152
1532215862.109,30.273,24.902,27.832,40.527,-10.254
1532215862.113,25.391,22.461,28.320,29.297,-174.805
1532215862.117,23.926,26.367,27.832,30.762,10.742
1532215862.121,27.344,28.809,28.320,40.527,174.805
1532215862.125,26.855,27.344,30.273,39.551,55.664
1532215862.128,23.438,27.344,29.297,38.086,-126.465
1532215862.132,20.996,27.832,28.809,35.156,-34.180
1532215862.136,16.602,29.297,29.785,34.668,171.875
1532215862.140,21.973,30.762,29.785,36.621,131.836
1532215862.144,23.926,27.832,29.297,36.621,-63.965
1532215862.148,18.555,26.367,28.809,34.668,-71.777
1532215862.152,15.137,26.367,29.785,29.785,110.352
1532215862.156,20.508,27.832,28.809,27.344,149.414
1532215862.160,27.832,31.738,27.344,32.227,-29.785
1532215862.164,23.926,32.715,27.344,32.227,-63.965
1532215862.167,20.996,32.227,25.879,32.227,138.184
1532215862.171,22.461,30.273,20.508,27.832,173.340
1532215862.175,27.344,29.297,17.578,24.414,-17.090
1532215862.179,27.344,28.320,20.020,30.273,-117.188
1532215862.183,31.738,25.391,23.438,31.738,46.387
1532215862.187,32.715,26.367,21.973,31.738,188.477
1532215862.191,28.320,25.879,20.020,30.762,87.891
1532215862.195,29.785,23.926,22.461,28.809,-91.309
1532215862.199,25.879,23.926,20.508,26.367,-9.277
1532215862.203,17.090,26.367,20.020,27.344,175.781
1532215862.207,21.973,26.855,21.973,30.273,135.742
1532215862.210,28.809,23.926,20.508,26.367,-95.215
1532215862.214,34.668,26.367,20.020,28.320,-104.492
1532215862.218,42.480,25.879,20.020,33.691,142.090
1532215862.222,33.203,25.879,21.973,33.203,166.504
1532215862.226,34.668,27.832,22.461,36.133,-36.133
1532215862.230,38.574,27.832,22.949,31.738,-121.094
1532215862.234,28.809,28.320,23.926,24.902,72.266
1532215862.238,32.227,30.273,24.414,26.855,165.527
1532215862.242,34.180,29.785,23.926,27.344,2.930
1532215862.246,26.855,28.320,22.461,24.902,-149.414
1532215862.250,25.391,27.344,21.973,22.461,-16.113
1532215862.253,26.367,26.367,22.949,22.949,160.156
1532215862.257,28.320,28.320,21.973,30.762,99.121
1532215862.261,36.133,30.762,22.949,39.551,-81.055
1532215862.265,41.504,29.297,27.832,43.945,-46.875
1532215862.269,41.504,27.832,27.344,44.922,139.648
1532215862.273,39.062,30.273,27.344,47.363,138.184
1532215862.277,42.969,30.273,28.809,44.434,-81.055
1532215862.281,47.363,26.367,29.297,45.410,-94.238
1532215862.285,40.527,26.367,27.832,48.828,137.695
1532215862.289,41.504,29.297,23.926,48.340,162.109
1532215862.292,41.992,31.738,23.926,42.969,-20.508
1532215862.296,27.344,30.762,26.367,40.039,-104.004
1532215862.300,21.484,30.273,27.344,42.480,35.156
1532215862.304,33.203,33.203,23.926,41.016,159.180
1532215862.308,32.715,29.785,23.438,37.598,50.781
1532215862.312,28.809,29.785,25.391,31.250,-147.461
1532215862.316,39.551,28.320,26.855,36.621,-43.945
1532215862.320,35.645,23.438,26.855,39.062,172.852
1532215862.324,26.367,23.438,26.367,34.180,139.160
1532215862.328,30.273,25.391,27.832,36.133,-85.938
1532215862.332,43.457,29.297,25.879,35.156,-68.848
1532215862.335,43.945,31.250,25.879,36.133,161.621
1532215862.339,39.551,31.250,29.297,39.062,168.457
1532215862.343,46.875,32.715,30.273,41.992,-49.316
1532215862.347,47.852,31.250,29.297,46.875,-122.070
1532215862.351,46.875,30.273,27.344,45.410,81.055
1532215862.355,47.852,32.715,28.320,45.410,178.711
1532215862.359,54.199,30.273,28.809,46.387,-3.906
1532215862.363,56.641,30.762,28.809,46.875,-122.559
1532215862.367,49.805,33.691,30.273,49.316,46.387
1532215862.371,60.059,34.180,30.273,48.828,172.852
1532215862.375,58.105,31.738,29.297,45.410,41.504
1532215862.378,38.574,29.297,29.297,47.852,-123.047
1532215862.382,43.457,28.809,29.785,50.781,-30.273
1532215862.386,54.688,28.320,27.344,47.363,170.410
1532215862.390,54.688,30.273,26.855,46.387,116.699
1532215862.394,50.781,30.762,27.832,46.387,-99.121
1532215862.398,49.805,31.738,24.902,44.922,-66.406
1532215862.402,50.293,33.203,25.391,40.527,120.117
1532215862.406,53.223,30.762,26.855,39.062,144.043
1532215862.410,46.387,29.785,26.855,34.668,-60.547
1532215862.414,34.180,32.227,25.391,27.344,-138.672
1532215862.417,36.133,30.762,22.461,29.297,93.262
1532215862.421,45.410,29.785,23.438,30.762,203.125
1532215862.425,45.410,33.691,25.879,36.621,29.297
1532215862.429,42.480,33.691,23.926,37.598,-125.000
1532215862.433,42.969,33.691,22.461,40.039,21.973
1532215862.437,41.992,34.180,20.508,38.086,185.547
1532215862.441,44.434,33.203,20.996,33.691,71.777
1532215862.445,47.852,34.180,21.484,34.668,-134.277
1532215862.449,46.875,34.180,17.090,31.250,-39.062
1532215862.453,41.016,31.738,16.602,23.926,154.785
1532215862.457,46.875,31.250,18.066,27.344,126.953
1532215862.460,45.410,31.250,19.043,33.691,-87.891
1532215862.464,32.715,29.785,20.020,32.227,-107.910
1532215862.468,39.551,32.715,22.461,35.156,135.742
1532215862.472,39.551,30.762,23.926,36.621,183.105
1532215862.476,41.016,26.855,24.902,37.598,-36.621
1532215862.480,44.434,26.367,22.949,39.551,-135.254
1532215862.484,32.715,27.832,21.973,40.039,47.852
1532215862.488,33.691,28.809,21.973,44.434,181.641
1532215862.492,35.645,26.855,19.531,33.203,18.555
1532215862.496,39.062,27.344,20.508,26.367,-141.602
1532215862.500,41.016,27.344,20.996,35.156,30.762
1532215862.503,33.691,27.832,21.484,38.574,184.082
1532215862.507,34.668,28.320,22.461,39.062,95.703
1532215862.511,38.086,30.273,20.020,37.109,-98.145
1532215862.515,34.180,28.809,19.531,39.551,-69.336
1532215862.519,30.762,26.855,21.484,39.551,138.672
1532215862.523,35.645,26.855,22.949,41.016,148.438
1532215862.527,35.645,26.367,20.996,37.109,-87.402
1532215862.531,33.691,27.832,20.020,33.203,-149.414
1532215862.535,37.598,28.320,22.949,37.598,93.262
1532215862.539,46.387,28.320,23.438,41.992,172.363
1532215862.542,55.176,29.297,24.414,40.527,-37.109
1532215862.546,45.898,29.785,21.973,37.598,-129.395
1532215862.550,37.598,28.320,20.996,36.621,14.160
1532215862.554,36.621,29.297,23.926,39.062,138.184
1532215862.558,35.645,31.250,23.926,37.109,42.480
1532215862.562,35.645,31.250,22.461,33.203,-133.301
1532215862.566,34.180,28.809,25.879,37.598,-27.832
1532215862.570,35.156,29.785,27.832,37.598,146.484
1532215862.574,31.250,31.738,26.855,35.645,67.383
1532215862.578,30.273,32.715,29.785,37.598,-92.285
1532215862.582,27.344,31.738,31.738,42.969,-45.410
1532215862.585,30.762,30.273,31.738,44.922,138.672
1532215862.589,29.785,29.297,32.227,38.086,155.273
1532215862.593,25.879,29.297,32.227,28.320,-70.801
1532215862.597,28.320,28.809,29.785,30.273,-121.094
1532215862.601,20.508,28.320,26.367,39.551,82.031
1532215862.605,20.020,26.367,28.809,39.062,169.922
1532215862.609,25.391,27.832,32.227,37.109,-29.785
1532215862.613,30.273,29.785,31.738,38.574,-166.992
1532215862.617,36.621,26.855,29.785,41.504,55.176
1532215862.621,38.574,28.809,26.855,40.527,188.965
1532215862.624,46.387,34.180,26.855,40.039,48.828
1532215862.628,48.828,35.645,28.809,38.086,-111.328
1532215862.632,49.805,33.691,24.902,31.738,-49.316
1532215862.636,58.105,33.203,22.461,32.715,118.652
1532215862.640,51.758,34.180,20.020,30.762,103.027
1532215862.644,42.969,33.691,20.508,20.996,-99.121
1532215862.648,50.293,33.203,25.391,21.973,-115.234
1532215862.652,54.199,33.203,24.414,25.391,123.535
1532215862.656,51.758,32.227,24.414,32.227,167.480
1532215862.660,49.805,33.203,27.832,39.062,-43.945
1532215862.664,33.691,33.203,28.809,43.945,-121.582
1532215862.667,22.461,31.738,30.762,51.270,78.613
1532215862.671,27.344,30.273,30.762,54.199,165.527
1532215862.675,28.809,30.273,33.691,51.270,-26.367
1532215862.679,37.109,33.203,31.250,47.852,-134.277
1532215862.683,41.016,35.645,25.879,45.898,31.738
1532215862.687,28.320,32.715,29.297,41.504,162.109
1532215862.691,23.926,31.250,30.762,35.156,34.668
1532215862.695,23.438,30.762,29.785,33.691,-137.695
1532215862.699,20.996,31.738,31.738,38.574,-30.762
1532215862.703,26.367,27.344,33.203,38.574,152.344
1532215862.707,35.645,24.414,32.227,42.480,124.512
1532215862.710,40.527,28.320,33.203,41.504,-64.453
1532215862.714,42.480,28.809,31.738,42.480,-85.938
1532215862.718,38.574,29.785,29.785,50.293,105.957
1532215862.722,36.133,32.227,30.273,49.316,148.926
1532215862.726,45.898,31.250,28.320,46.387,-37.598
1532215862.730,48.340,28.320,27.344,41.016,-118.164
1532215862.734,40.527,28.809,27.832,38.574,40.039
1532215862.738,46.875,30.273,28.809,46.875,155.273
1532215862.742,43.945,26.855,27.344,44.922,19.043
1532215862.746,39.062,27.832,24.902,44.434,-103.027
1532215862.749,40.039,28.809,24.902,43.457,40.039
1532215862.753,40.527,28.320,25.391,40.039,198.730
1532215862.757,40.527,29.297,27.344,47.363,94.727
1532215862.761,35.156,28.809,25.879,46.875,-122.559
1532215862.765,33.203,28.809,27.344,41.992,-60.059
1532215862.769,37.109,29.297,29.297,45.410,133.789
1532215862.773,38.086,31.250,27.344,35.645,110.352
1532215862.777,42.969,32.227,30.273,35.156,-66.895
1532215862.781,41.504,27.832,30.762,43.457,-62.500
1532215862.785,38.086,26.855,26.367,41.992,127.930
1532215862.789,37.109,26.367,27.344,37.109,194.824
1532215862.792,45.410,26.367,28.809,38.574,26.855
1532215862.796,45.898,28.809,27.344,45.410,-93.262
1532215862.800,41.016,29.297,28.320,43.945,49.316
1532215862.804,48.340,28.320,25.879,42.969,162.598
1532215862.808,48.828,29.785,26.367,42.480,31.738
1532215862.812,47.852,30.762,31.738,42.480,-141.113
1532215862.816,47.852,27.832,32.227,44.434,-41.504
1532215862.820,38.574,30.273,31.250,42.480,148.926
1532215862.824,37.598,32.227,30.762,42.480,125.977
1532215862.828,43.457,29.297,31.250,41.992,-65.430
1532215862.832,42.969,26.367,31.250,42.969,-60.059
1532215862.835,47.363,28.809,31.250,41.016,147.461
1532215862.839,48.828,33.203,28.809,37.109,160.645
1532215862.843,40.527,30.762,25.879,36.621,-48.828
1532215862.847,37.109,25.391,27.344,38.574,-108.398
1532215862.851,42.480,28.809,28.809,33.691,54.199
1532215862.855,42.969,30.762,26.855,25.391,138.672
1532215862.859,38.086,28.320,27.344,31.250,2.441
1532215862.863,34.180,29.297,28.809,36.621,-120.605
1532215862.867,37.109,28.809,28.809,40.527,24.902
1532215862.871,39.551,29.785,29.785,39.062,145.020
1532215862.874,39.062,29.297,30.762,32.715,57.617
1532215862.878,39.551,27.344,29.785,33.691,-85.449
1532215862.882,42.969,26.855,28.320,32.715,-29.297
1532215862.886,41.504,24.902,25.879,32.227,146.973
1532215862.890,40.039,26.855,23.438,27.344,94.238
1532215862.894,33.203,28.320,24.414,27.832,-118.652
1532215862.898,23.926,27.344,23.926,33.691,-76.660
1532215862.902,30.273,27.344,22.461,33.203,130.371
1532215862.906,38.086,27.832,22.461,33.203,156.738
1532215862.910,35.156,27.344,22.461,29.785,-37.598
1532215862.914,37.109,28.320,24.414,26.367,-103.027
1532215862.917,47.363,28.809,24.414,33.691,84.473
1532215862.921,44.922,24.414,22.949,35.156,177.246
1532215862.925,29.297,20.508,24.902,30.762,35.156
1532215862.929,26.855,23.926,22.461,31.250,-121.582
1532215862.933,38.574,29.297,20.996,32.715,7.324
1532215862.937,33.691,30.273,22.949,28.320,158.691
1532215862.941,27.344,31.250,22.949,24.414,53.223
1532215862.945,31.738,29.297,24.414,26.855,-113.770
1532215862.949,23.926,24.902,21.973,28.809,-55.176
1532215862.953,19.531,20.996,21.973,22.949,126.953
1532215862.957,24.902,20.996,24.902,26.855,114.258
1532215862.960,33.203,21.973,25.391,30.762,-75.195
1532215862.964,40.039,21.973,25.879,32.715,-79.102
1532215862.968,30.273,22.461,23.926,32.227,107.422
1532215862.972,28.320,23.438,24.414,31.250,164.551
1532215862.976,28.320,26.367,25.879,34.180,-11.230
1532215862.980,26.855,28.809,23.926,33.203,-115.234
1532215862.984,29.297,27.344,21.484,30.762,51.758
1532215862.988,34.180,25.879,21.973,33.691,184.082
1532215862.992,30.762,25.879,21.484,30.273,31.738
1532215862.996,24.414,24.902,20.508,26.367,-114.746
1532215862.999,34.668,22.461,22.949,31.250,13.184
1532215863.003,40.039,20.020,25.879,33.691,170.410
1532215863.007,33.691,20.508,27.344,35.156,102.051
1532215863.011,36.133,23.926,26.855,27.832,-120.117
1532215863.015,42.480,26.855,25.879,25.879,-77.637
1532215863.019,34.180,28.320,26.855,38.086,158.691
1532215863.023,36.133,30.273,24.902,34.180,156.250
1532215863.027,40.527,28.320,24.414,27.832,-70.312
1532215863.031,29.297,26.855,23.438,30.273,-99.121
1532215863.035,31.250,28.320,20.508,29.297,97.656
1532215863.039,29.297,26.855,20.508,25.879,136.230
1532215863.042,35.645,27.832,21.484,25.391,-23.926
1532215863.046,38.574,24.902,21.484,29.785,-124.512
1532215863.050,27.832,23.438,22.949,27.832,16.113
1532215863.054,34.668,27.344,24.414,27.344,149.902
1532215863.058,38.086,27.832,25.391,32.715,67.871
1532215863.062,37.598,27.832,23.926,30.762,-103.027
1532215863.066,36.621,26.855,22.461,33.691,-0.488
1532215863.070,30.273,25.391,26.855,33.203,178.711
1532215863.074,37.109,30.762,28.809,27.832,105.469
1532215863.078,40.527,32.227,26.367,30.762,-75.195
1532215863.081,31.250,29.297,23.438,35.156,-36.621
1532215863.085,35.156,27.344,23.926,34.180,155.762
1532215863.089,40.527,26.855,23.926,35.156,166.016
1532215863.093,41.992,26.367,25.879,40.039,-43.945
1532215863.097,40.527,28.809,28.809,40.527,-103.516
1532215863.101,31.738,30.762,26.855,36.621,90.332
1532215863.105,28.809,27.344,28.320,36.621,191.895
1532215863.109,30.273,25.391,31.250,34.180,18.555
1532215863.113,30.273,25.879,32.227,24.414,-134.277
1532215863.117,26.367,24.902,32.227,20.020,19.043
1532215863.121,31.250,24.414,29.297,24.414,198.242
1532215863.124,36.621,26.367,28.809,27.344,89.355
1532215863.128,35.156,28.809,28.320,30.273,-103.516
1532215863.132,36.621,27.344,28.320,34.180,2.930
1532215863.136,25.879,26.367,27.344,31.738,187.988
1532215863.140,20.996,25.879,29.785,30.273,128.906
1532215863.144,26.855,26.367,32.227,37.598,-75.684
1532215863.148,24.414,27.832,29.785,39.062,-54.688
1532215863.152,31.250,25.391,29.785,29.297,123.047
1532215863.156,27.832,23.438,32.715,21.973,155.762
1532215863.160,21.973,20.020,34.668,25.391,-43.945
1532215863.164,23.926,20.508,35.156,24.902,-110.840
1532215863.167,18.555,20.996,36.133,27.344,118.652
1532215863.171,16.602,19.531,34.668,29.297,187.988
1532215863.175,19.043,20.996,31.738,25.391,3.418
1532215863.179,19.531,20.996,33.691,23.926,-137.695
1532215863.183,25.879,22.461,36.133,26.855,8.301
1532215863.187,23.438,21.973,35.156,26.367,165.039
1532215863.191,20.508,22.461,36.621,25.391,42.969
1532215863.195,25.391,25.391,33.203,27.344,-141.602
1532215863.199,17.578,25.879,33.203,23.438,-46.387
1532215863.203,19.043,26.367,35.645,24.414,145.508
1532215863.206,28.320,26.367,34.668,24.902,128.418
1532215863.210,8.301,25.879,35.645,9.766,-108.398
1532215863.214,-0.488,25.879,34.668,-1.953,-142.578
1532215863.218,4.395,23.438,34.180,5.371,89.355
1532215863.222,-5.371,21.973,37.598,6.348,143.066
1532215863.226,0.000,23.926,37.598,5.371,-44.922
1532215863.230,0.977,26.367,36.133,3.418,-129.883
1532215863.234,-9.766,25.879,38.574,2.441,66.406
1532215863.238,-7.812,27.832,40.527,6.348,185.059
1532215863.242,4.883,30.762,41.016,7.324,47.363
1532215863.246,9.766,32.715,39.062,13.184,-119.141
1532215863.249,6.348,33.203,38.086,16.113,-28.320
1532215863.253,13.184,31.738,36.621,11.230,127.441
1532215863.257,15.137,31.738,34.180,11.719,69.824
1532215863.261,11.230,29.785,34.668,15.625,-115.234
1532215863.265,6.836,29.785,35.645,13.672,-48.828
1532215863.269,4.883,28.809,37.109,13.672,150.879
1532215863.273,20.020,29.297,35.156,18.555,124.023
1532215863.277,18.555,32.227,33.203,17.090,-81.055
1532215863.281,4.395,27.344,32.227,15.625,-105.469
1532215863.285,6.836,26.855,29.297,15.137,109.863
1532215863.289,13.184,33.203,27.832,10.742,180.176
1532215863.292,11.230,30.273,29.785,8.789,-20.020
1532215863.296,10.742,27.344,27.344,12.695,-141.602
1532215863.300,11.230,29.785,26.367,22.461,48.340
1532215863.304,18.066,31.250,27.832,25.391,182.617
1532215863.308,21.484,29.785,26.855,25.879,47.363
1532215863.312,13.672,28.320,27.832,25.879,-138.184
1532215863.316,7.812,27.344,29.785,26.367,-29.297
1532215863.320,13.184,27.832,28.809,30.762,148.438
1532215863.324,22.461,27.832,26.855,28.320,90.820
1532215863.328,22.461,23.926,26.855,25.879,-90.332
1532215863.331,16.113,22.949,27.344,16.113,-110.840
1532215863.335,19.531,24.902,27.832,14.160,82.520
1532215863.339,25.391,26.855,29.297,22.461,150.879
1532215863.343,24.414,28.320,29.785,25.879,-41.504
1532215863.347,31.250,30.273,27.832,31.250,-116.211
1532215863.351,33.203,29.785,27.832,24.902,49.805
1532215863.355,32.715,27.832,28.809,25.391,162.109
1532215863.359,35.645,28.809,30.762,27.832,21.973
1532215863.363,35.156,26.855,29.297,29.297,-105.469
1532215863.367,27.344,22.461,28.809,31.250,41.992
1532215863.371,23.438,22.461,30.273,31.250,179.199
1532215863.374,25.391,24.902,27.344,27.832,42.969
1532215863.378,30.273,25.879,26.367,28.809,-151.855
1532215863.382,28.809,25.879,26.855,30.273,-28.809
1532215863.386,24.414,26.367,27.344,29.785,208.496
1532215863.390,30.762,28.809,25.879,28.809,133.789
1532215863.394,35.156,28.809,23.438,23.438,-103.516
1532215863.398,32.715,24.414,21.484,26.855,-71.777
1532215863.402,27.832,23.438,25.391,29.297,145.996
1532215863.406,34.180,25.879,30.273,31.738,187.012
1532215863.410,34.668,26.855,30.762,32.227,-53.711
1532215863.414,30.762,27.832,32.227,32.227,-147.949
1532215863.417,38.086,27.344,32.227,39.551,73.730
1532215863.421,41.992,29.297,29.297,41.504,161.621
1532215863.425,40.527,30.273,26.855,37.598,7.324
1532215863.429,37.109,26.367,25.879,36.621,-138.184
1532215863.433,26.367,24.414,23.926,27.344,-31.250
1532215863.437,23.438,23.438,23.438,26.855,129.395
1532215863.441,28.809,24.902,24.902,40.527,58.105
1532215863.445,39.062,27.344,25.879,44.434,-105.957
1532215863.449,45.898,25.391,27.832,43.945,-58.594
1532215863.453,47.363,25.879,26.367,44.922,138.672
1532215863.456,46.387,25.879,25.879,43.457,137.695
1532215863.460,34.180,22.949,27.344,42.480,-83.984
1532215863.464,36.133,20.020,24.414,43.945,-95.703
1532215863.468,32.227,18.555,23.926,43.945,96.191
1532215863.472,28.809,23.438,27.832,34.668,128.418
1532215863.476,34.668,27.832,27.832,29.297,-62.500
1532215863.480,30.273,28.809,25.879,38.574,-142.578
1532215863.484,25.391,29.297,26.367,41.992,56.641
1532215863.488,35.645,30.762,28.320,47.363,177.246
1532215863.492,38.574,28.809,27.832,44.922,14.160
1532215863.496,33.203,25.879,24.902,37.598,-149.414
1532215863.499,32.227,23.926,27.832,40.527,-24.902
1532215863.503,36.621,23.438,30.762,43.457,148.926
1532215863.507,36.133,25.391,29.297,49.805,81.543
1532215863.511,33.203,26.367,29.785,49.805,-92.285
1532215863.515,29.785,28.320,30.273,47.363,-57.617
1532215863.519,30.273,28.809,28.809,47.363,126.953
1532215863.523,42.969,24.902,24.414,42.480,143.066
1532215863.527,40.527,22.949,24.902,45.410,-64.941
1532215863.531,24.902,20.508,27.832,43.945,-116.211
1532215863.535,27.344,18.555,28.809,34.668,83.984
1532215863.538,36.621,19.531,25.879,31.250,168.457
1532215863.542,34.668,21.484,21.484,28.320,2.930
1532215863.546,46.875,26.367,23.438,29.297,-91.797
1532215863.550,48.340,29.297,25.391,27.344,56.152
1532215863.554,42.969,30.273,21.484,25.879,178.711
1532215863.558,63.477,31.250,16.602,30.762,76.660
1532215863.562,60.059,31.738,16.113,27.832,-115.234
1532215863.566,42.969,29.785,20.508,29.297,-32.227
1532215863.570,43.945,27.832,23.926,33.203,150.391
1532215863.574,45.410,28.320,24.414,33.691,105.469
1532215863.578,43.457,26.855,24.414,40.039,-79.102
1532215863.581,39.062,21.484,25.879,44.922,-58.594
1532215863.585,28.809,20.020,24.414,48.828,138.672
1532215863.589,22.949,21.973,25.391,42.969,130.371
1532215863.593,19.531,22.949,25.391,34.180,-71.289
1532215863.597,24.414,22.461,21.484,41.992,-109.863
1532215863.601,21.484,22.461,21.973,47.363,93.750
1532215863.605,17.090,22.461,21.973,45.898,176.758
1532215863.609,26.367,22.461,20.996,42.969,-2.930
1532215863.613,29.785,26.855,24.902,35.156,-155.762
1532215863.617,38.086,28.809,27.832,36.621,9.277
1532215863.621,42.969,26.367,26.855,46.875,190.918
1532215863.624,38.574,25.879,25.879,43.457,79.102
1532215863.628,41.504,29.785,25.391,40.527,-110.840
1532215863.632,43.945,28.809,26.855,44.434,-46.387
1532215863.636,48.828,29.297,24.902,41.992,150.391
1532215863.640,46.387,30.273,21.973,41.016,143.555
1532215863.644,32.715,28.320,24.902,40.527,-65.430
1532215863.648,26.367,31.250,28.809,43.457,-86.426
1532215863.652,27.344,33.691,30.762,42.480,103.027
1532215863.656,27.344,32.227,30.762,35.645,153.320
1532215863.660,36.133,30.273,29.785,33.203,-35.645
1532215863.663,38.574,31.738,29.297,30.762,-104.004
1532215863.667,25.879,33.203,29.785,32.227,94.238
1532215863.671,30.273,30.762,29.297,30.762,187.988
1532215863.675,35.645,31.738,28.320,28.320,19.531
1532215863.679,28.320,35.156,27.832,33.203,-128.418
1532215863.683,30.273,35.645,28.320,33.691,10.742
1532215863.687,36.621,39.062,27.832,29.297,192.383
1532215863.691,39.551,37.598,26.367,26.367,102.051
1532215863.695,41.992,35.156,26.367,22.949,-104.492
1532215863.699,38.574,37.109,26.367,20.996,-43.457
1532215863.703,29.785,35.645,26.855,23.438,165.527
1532215863.706,28.320,32.227,27.344,23.438,150.879
1532215863.710,40.527,31.738,28.809,26.367,-80.566
1532215863.714,43.945,33.203,27.344,26.367,-123.047
1532215863.718,31.738,35.156,26.855,27.344,107.910
1532215863.722,25.879,35.645,26.855,30.273,198.730
1532215863.726,27.344,33.203,25.391,28.320,5.859
1532215863.730,32.227,33.691,29.297,30.273,-118.652
1532215863.734,32.227,36.133,30.273,34.668,69.824
1532215863.738,37.598,33.691,28.320,33.203,209.961
1532215863.742,40.527,31.250,27.832,30.273,72.266
1532215863.746,28.809,30.273,26.367,30.273,-117.188
1532215863.749,29.785,30.762,24.902,26.367,-22.461
1532215863.753,38.086,32.227,24.414,19.043,151.855
1532215863.757,40.039,30.273,24.902,24.902,75.684
1532215863.761,39.551,31.250,26.367,26.855,-121.094
1532215863.765,34.668,31.738,22.949,24.902,-73.730
1532215863.769,24.414,33.691,18.555,26.855,138.184
1532215863.773,28.809,36.621,22.949,23.438,152.832
1532215863.777,37.109,32.715,26.367,21.973,-63.477
1532215863.781,32.715,28.809,23.926,19.043,-124.512
1532215863.785,30.762,27.832,24.902,19.531,115.234
1532215863.788,27.832,25.879,25.879,20.508,193.359
1532215863.792,31.250,24.414,24.414,20.020,-10.742
1532215863.796,32.227,24.902,23.438,24.902,-151.367
1532215863.800,24.902,29.785,22.461,30.273,35.645
1532215863.804,31.250,33.203,24.902,32.227,178.711
1532215863.808,37.109,29.785,26.855,35.645,36.621
1532215863.812,38.574,29.785,25.879,29.297,-133.301
1532215863.816,37.598,32.227,27.344,26.855,-37.598
1532215863.820,39.062,30.762,25.879,39.551,170.410
1532215863.824,46.875,33.203,25.391,38.574,131.836
1532215863.828,56.152,34.180,26.855,36.621,-94.727
1532215863.831,47.852,31.738,26.855,40.039,-100.098
1532215863.835,41.016,34.668,25.879,40.527,132.812
1532215863.839,48.828,36.621,20.020,39.551,166.504
1532215863.843,45.898,39.551,17.578,31.738,-42.969
1532215863.847,31.250,38.086,19.043,27.832,-122.070
1532215863.851,27.832,37.109,19.043,21.484,34.180
1532215863.855,33.691,39.062,20.020,19.043,142.578
1532215863.859,39.062,36.133,22.461,24.902,23.926
1532215863.863,28.809,34.180,20.996,26.367,-105.469
1532215863.867,26.855,36.133,19.531,26.367,17.090
1532215863.871,33.691,36.133,22.461,24.902,188.477
1532215863.874,34.180,33.203,24.414,30.273,105.469
1532215863.878,41.504,33.203,22.461,40.039,-105.469
1532215863.882,39.551,34.180,23.926,39.551,-34.180
1532215863.886,35.156,33.691,25.391,35.645,185.059
1532215863.890,41.016,35.156,22.949,31.250,111.328
1532215863.894,45.410,38.086,22.949,21.484,-141.113
1532215863.898,39.551,34.668,23.438,28.320,-116.699
1532215863.902,24.902,30.762,23.926,32.227,107.422
1532215863.906,15.137,31.738,22.461,26.855,163.574
1532215863.910,24.902,33.691,20.508,27.832,-19.531
1532215863.913,29.297,33.691,20.996,29.297,-107.910
1532215863.917,27.344,30.762,20.508,33.203,79.102
1532215863.921,23.438,27.344,21.973,30.762,182.617
1532215863.925,17.090,29.785,23.438,29.785,51.270
1532215863.929,22.949,33.203,20.996,32.227,-100.586
1532215863.933,27.344,32.227,22.949,35.645,6.348
1532215863.937,29.785,31.250,25.879,38.086,159.180
1532215863.941,24.414,31.250,25.391,36.133,66.406
1532215863.945,19.531,31.738,22.949,33.691,-127.930
1532215863.949,20.020,31.738,18.066,29.785,-62.012
1532215863.953,15.137,32.227,19.531,17.578,101.074
1532215863.956,15.625,33.203,23.926,16.113,110.352
1532215863.960,19.043,31.250,22.461,23.438,-49.316
1532215863.964,21.973,29.297,21.484,27.832,-89.355
1532215863.968,18.066,26.367,23.926,36.133,111.328
1532215863.972,20.996,25.391,26.367,41.504,147.949
1532215863.976,36.133,26.367,27.832,41.016,-9.766
1532215863.980,42.969,28.320,24.902,35.645,-100.098
1532215863.984,37.598,32.227,20.020,31.250,41.504
1532215863.988,26.855,35.645,15.137,25.879,196.289
1532215863.992,26.367,41.016,16.602,19.531,27.832
1532215863.995,29.297,39.551,21.973,17.578,-142.578
1532215863.999,22.949,34.180,22.461,21.484,15.137
1532215864.003,21.973,32.227,20.996,23.926,164.062
1532215864.007,28.320,34.668,20.996,24.902,109.375
1532215864.011,31.250,34.180,22.461,25.391,-97.656
1532215864.015,31.250,31.250,22.461,29.297,-65.918
1532215864.019,29.785,33.691,20.996,33.691,145.020
1532215864.023,28.809,33.203,20.996,26.855,148.926
1532215864.027,30.762,32.715,24.902,22.949,-45.898
1532215864.031,25.391,32.227,27.832,29.297,-126.953
1532215864.035,23.438,28.809,26.367,29.785,71.777
1532215864.038,32.715,28.809,25.391,33.691,172.363
1532215864.042,34.668,33.691,27.832,35.645,-1.953
1532215864.046,33.691,34.180,25.391,25.391,-113.281
1532215864.050,36.621,35.645,20.508,20.020,24.414
1532215864.054,29.785,38.574,20.508,22.949,181.641
1532215864.058,20.020,36.621,22.461,19.531,78.125
1532215864.062,26.367,34.668,23.926,20.996,-124.512
1532215864.066,29.785,34.180,21.484,29.297,-21.484
1532215864.070,29.297,34.668,20.508,25.879,157.227
1532215864.074,34.668,32.715,23.438,26.367,83.984
1532215864.078,32.227,32.227,25.391,32.227,-100.586
1532215864.081,37.109,36.133,28.809,33.203,-76.660
1532215864.085,31.738,35.645,27.344,31.738,138.672
1532215864.089,32.715,31.250,22.461,36.133,183.594
1532215864.093,38.086,28.809,25.391,33.203,-41.992
1532215864.097,22.949,24.902,30.762,29.297,-123.535
1532215864.101,20.508,22.949,30.273,33.203,76.172
1532215864.105,31.250,23.438,28.320,34.668,174.805
1532215864.109,40.527,25.879,28.809,31.250,3.418
1532215864.113,33.691,28.320,29.297,27.832,-128.906
1532215864.117,24.902,28.320,30.762,28.320,29.297
1532215864.120,16.113,29.297,28.809,25.391,178.223
1532215864.124,14.160,28.320,26.855,25.391,68.359
1532215864.128,14.160,25.391,29.297,26.855,-132.324
1532215864.132,13.672,27.344,28.809,21.484,-77.148
1532215864.136,19.531,28.320,26.367,15.625,125.977
1532215864.140,29.785,26.855,26.855,20.020,125.000
1532215864.144,21.973,27.344,28.809,27.344,-83.984
1532215864.148,14.648,29.297,28.809,30.273,-83.984
1532215864.152,28.809,29.785,28.809,35.156,128.906
1532215864.156,36.133,29.785,28.809,36.621,160.156
1532215864.160,33.203,28.809,27.832,35.156,-12.695
1532215864.163,31.250,26.367,27.344,34.668,-92.773
1532215864.167,31.738,28.320,28.809,33.203,63.965
1532215864.171,29.785,25.879,24.414,34.668,158.203
1532215864.175,29.785,25.879,21.973,30.762,34.668
1532215864.179,29.785,29.785,22.949,26.367,-131.836
1532215864.183,23.926,28.809,23.438,28.809,-28.320
1532215864.187,14.160,28.320,25.879,28.320,186.035
1532215864.191,20.020,27.832,26.367,22.461,88.867
1532215864.195,28.320,26.855,25.391,22.949,-117.188
1532215864.199,22.949,28.809,21.484,28.320,-54.199
1532215864.203,21.973,27.832,20.020,32.227,146.484
1532215864.206,28.809,25.879,19.043,30.273,127.930
1532215864.210,35.156,30.273,19.043,22.949,-72.266
1532215864.214,25.879,33.203,20.020,18.555,-92.285
1532215864.218,19.043,33.203,22.949,30.273,60.059
1532215864.222,21.973,34.180,22.461,30.762,120.605
1532215864.226,21.484,31.738,21.484,25.391,-30.273
1532215864.230,25.879,30.273,19.531,25.879,-128.418
1532215864.234,26.855,32.227,20.996,23.926,14.648
1532215864.238,19.531,32.715,23.926,24.902,143.066
1532215864.242,23.926,31.250,22.949,28.320,44.434
1532215864.245,32.227,27.344,23.926,31.738,-135.254
1532215864.249,25.879,27.832,28.320,30.762,-16.113
1532215864.253,17.578,26.855,26.855,31.250,176.758
1532215864.257,26.367,22.949,26.367,37.109,118.164
1532215864.261,39.551,23.926,24.902,38.086,-93.262
1532215864.265,34.180,26.855,22.949,35.156,-72.754
1532215864.269,22.461,27.344,24.414,31.738,127.441
1532215864.273,24.902,27.344,26.855,29.297,121.094
1532215864.277,22.461,27.832,25.879,28.809,-68.848
1532215864.281,25.391,30.762,20.996,26.855,-118.652
1532215864.285,40.039,31.738,20.020,27.832,83.496
1532215864.288,36.133,28.809,22.949,28.809,180.664
1532215864.292,32.227,28.320,22.461,24.414,18.555
1532215864.296,20.996,29.297,21.484,20.996,-88.867
1532215864.300,20.508,28.809,21.973,21.973,18.066
1532215864.304,33.691,28.320,23.926,26.367,141.602
1532215864.308,29.297,28.320,26.367,30.273,67.871
1532215864.312,25.391,25.391,24.414,33.203,-123.047
1532215864.316,31.250,24.902,23.438,38.574,-41.504
1532215864.320,27.344,26.367,26.367,38.086,156.250
1532215864.324,30.273,24.414,27.344,32.227,104.492
1532215864.328,32.715,23.438,27.832,28.320,-83.008
1532215864.331,36.133,28.809,26.855,28.809,-66.895
1532215864.335,30.762,31.738,24.414,34.180,128.418
1532215864.339,35.645,29.785,23.438,33.203,172.363
1532215864.343,43.945,28.809,24.902,32.715,-36.133
1532215864.347,36.621,28.809,24.414,39.551,-127.441
1532215864.351,41.992,30.762,21.484,41.016,64.453
1532215864.355,35.156,31.250,25.391,35.645,155.273
1532215864.359,29.297,30.762,28.320,31.738,10.254
1532215864.363,29.297,31.738,26.367,28.809,-132.324
1532215864.367,32.715,30.762,23.438,31.738,-4.883
1532215864.370,48.828,30.273,20.508,31.250,132.812
1532215864.374,47.852,30.762,24.414,22.949,23.438
1532215864.378,22.949,30.273,27.344,21.973,-131.836
1532215864.382,19.531,28.809,22.949,24.414,-55.664
1532215864.386,25.391,27.832,22.461,26.367,146.973
1532215864.390,28.320,29.297,22.949,25.879,125.000
1532215864.394,35.645,28.809,22.461,28.320,-77.637
1532215864.398,36.621,25.391,24.902,36.621,-98.145
1532215864.402,29.297,24.902,26.855,38.574,103.516
1532215864.406,22.461,28.809,28.809,36.133,171.875
1532215864.410,28.320,26.367,28.809,39.062,-12.695
1532215864.413,34.668,23.926,28.320,41.504,-136.719
1532215864.417,37.109,25.391,30.273,41.504,43.457
1532215864.421,44.434,24.414,28.809,40.039,172.852
1532215864.425,37.598,23.438,23.926,35.156,28.809
1532215864.429,20.508,21.973,25.879,29.297,-108.398
1532215864.433,25.391,22.461,28.320,26.367,14.160
1532215864.437,30.762,27.832,24.414,27.832,153.320
1532215864.441,33.203,33.203,20.020,33.691,74.707
1532215864.445,30.762,33.203,20.020,32.227,-118.164
1532215864.449,20.508,31.738,21.484,26.367,-72.754
1532215864.452,29.297,32.227,19.531,29.297,132.324
1532215864.456,41.992,32.715,19.531,30.273,124.023
1532215864.460,36.621,31.738,23.926,25.879,-63.965
1532215864.464,33.691,28.320,24.414,23.926,-89.844
1532215864.468,40.039,29.785,23.438,30.273,101.562
1532215864.472,38.574,30.762,22.461,26.855,121.582
1532215864.476,34.180,30.762,21.973,16.602,-61.035
1532215864.480,38.086,33.203,20.508,14.160,-129.883
1532215864.484,39.062,32.227,19.043,15.137,45.410
1532215864.488,39.551,27.832,22.949,27.344,169.434
1532215864.492,44.434,29.297,23.438,39.062,45.898
1532215864.495,37.598,30.762,19.531,41.992,-130.371
1532215864.499,34.180,28.320,20.996,45.898,-21.484
1532215864.503,34.180,27.344,23.926,46.387,199.219
1532215864.507,31.250,30.273,25.391,45.898,118.652
1532215864.511,33.203,33.203,24.902,38.086,-114.746
1532215864.515,31.738,30.762,22.949,32.715,-75.684
1532215864.519,28.809,28.809,25.391,36.621,146.484
1532215864.523,20.508,31.738,22.949,29.785,144.043
1532215864.527,22.461,33.691,21.484,27.832,-62.012
1532215864.531,28.809,33.691,22.949,25.879,-107.422
1532215864.535,20.996,29.785,23.438,20.020,81.543
1532215864.538,17.578,29.297,25.391,19.531,169.922
1532215864.542,27.344,32.715,25.879,20.020,8.301
1532215864.546,39.551,35.645,22.461,21.484,-115.723
1532215864.550,36.133,40.039,20.508,22.949,29.297
1532215864.554,31.738,39.551,24.902,24.414,125.000
1532215864.558,39.062,36.621,28.320,28.809,18.555
1532215864.562,38.086,37.598,27.344,32.715,-113.770
1532215864.566,26.855,36.621,27.832,35.645,-10.742
1532215864.570,34.180,35.156,24.902,37.109,168.945
1532215864.574,48.828,35.645,23.438,33.203,116.699
1532215864.577,36.621,35.645,24.902,27.344,-69.824
1532215864.581,29.785,34.180,23.926,30.762,-87.402
1532215864.585,35.156,31.738,24.902,34.668,98.145
1532215864.589,30.762,30.273,26.367,30.273,136.230
1532215864.593,27.832,29.297,27.832,29.297,-60.059
1532215864.597,26.855,29.297,29.297,34.180,-107.422
1532215864.601,30.273,30.762,26.367,30.762,79.590
1532215864.605,37.109,31.738,20.508,28.320,166.992
