timestamps,TP9,AF7,AF8,TP10,Right AUX
1532279686.986,46.387,27.344,23.926,25.879,254.883
1532279686.990,51.758,28.809,21.484,21.973,-20.508
1532279686.994,50.293,28.809,21.484,25.391,-174.805
1532279686.998,44.434,28.320,18.555,28.320,81.055
1532279687.001,54.688,26.855,18.066,20.996,264.160
1532279687.005,62.500,27.832,20.996,20.020,49.805
1532279687.009,54.199,27.832,21.973,27.344,-198.242
1532279687.013,48.340,25.391,22.949,35.156,-53.711
1532279687.017,51.270,25.879,22.949,39.062,222.168
1532279687.021,61.035,23.926,21.484,34.668,140.625
1532279687.025,61.035,24.414,24.902,33.691,-204.590
1532279687.029,63.965,28.320,26.367,31.738,-185.547
1532279687.033,66.406,29.297,24.414,33.691,201.172
1532279687.037,58.105,28.320,25.391,36.133,242.676
1532279687.040,59.570,28.809,26.367,46.387,-87.402
1532279687.044,62.012,29.785,26.855,46.387,-184.082
1532279687.048,69.336,30.273,26.855,43.457,125.977
1532279687.052,70.312,30.273,26.855,39.551,260.254
1532279687.056,60.547,30.273,27.344,26.367,-35.645
1532279687.060,61.035,30.273,25.879,30.762,-209.961
1532279687.064,60.547,30.273,25.879,29.297,39.551
1532279687.068,60.059,30.273,25.879,20.020,257.324
1532279687.072,65.430,30.762,23.926,22.461,83.496
1532279687.076,70.801,31.738,24.902,32.227,-182.617
1532279687.080,62.988,31.738,25.391,40.527,-60.547
1532279687.083,62.012,32.227,24.902,43.945,218.262
1532279687.087,69.336,32.715,25.879,46.875,141.113
1532279687.091,63.965,32.715,26.855,47.363,-158.691
1532279687.095,63.477,32.715,27.344,40.527,-161.621
1532279687.099,64.941,32.227,26.367,43.457,154.297
1532279687.103,52.734,31.250,28.809,41.016,215.332
1532279687.107,46.387,31.250,31.738,29.785,-110.352
1532279687.111,51.270,32.227,30.273,29.297,-212.402
1532279687.115,52.734,29.785,31.738,31.738,85.449
1532279687.119,51.758,30.273,29.297,28.320,272.461
1532279687.122,53.223,33.203,27.832,24.902,12.695
1532279687.126,45.898,31.738,28.809,21.973,-250.000
1532279687.130,48.828,31.738,28.809,25.879,-12.207
1532279687.134,58.594,34.668,32.227,32.227,259.766
1532279687.138,60.547,38.086,29.297,31.250,75.195
1532279687.142,56.641,39.551,26.367,30.273,-214.355
1532279687.146,50.293,41.016,27.832,27.344,-109.375
1532279687.150,47.363,44.922,28.809,17.090,217.773
1532279687.154,45.410,47.363,31.250,15.137,193.359
1532279687.158,39.551,45.898,32.715,15.625,-137.695
1532279687.162,39.551,42.969,34.180,14.160,-165.527
1532279687.165,47.363,42.969,36.133,18.066,138.184
1532279687.169,46.387,45.898,34.668,20.996,223.145
1532279687.173,41.992,50.781,32.715,20.020,-79.590
1532279687.177,41.992,50.781,35.156,18.555,-235.840
1532279687.181,37.109,44.922,35.645,25.391,41.504
1532279687.185,36.133,41.016,35.645,25.391,225.098
1532279687.189,39.062,43.945,34.180,19.043,0.488
1532279687.193,37.109,46.875,31.250,19.043,-245.117
1532279687.197,39.551,41.992,31.738,25.879,-56.641
1532279687.201,46.387,38.574,33.691,26.367,255.371
1532279687.205,47.363,43.945,32.227,18.555,114.258
1532279687.208,45.410,43.945,32.715,14.160,-219.238
1532279687.212,47.363,40.527,33.691,20.996,-125.977
1532279687.216,46.387,44.434,30.762,21.973,213.379
1532279687.220,41.504,46.387,31.738,20.020,216.309
1532279687.224,35.645,45.898,30.273,24.414,-123.535
1532279687.228,33.691,42.480,28.809,24.902,-186.035
1532279687.232,37.109,41.504,31.738,22.949,153.320
1532279687.236,33.203,41.504,33.203,22.949,256.836
1532279687.240,31.250,40.527,33.691,22.461,-50.293
1532279687.244,36.621,41.504,33.691,23.438,-223.145
1532279687.247,40.039,41.504,32.715,26.367,17.578
1532279687.251,38.574,41.016,26.855,20.508,244.141
1532279687.255,32.715,45.410,26.855,15.625,54.688
1532279687.259,30.762,44.922,29.785,19.531,-200.684
1532279687.263,34.668,41.504,29.297,20.020,-43.945
1532279687.267,25.391,42.480,29.785,18.066,241.699
1532279687.271,23.926,46.875,26.367,19.531,142.578
1532279687.275,27.832,49.805,26.367,14.160,-174.316
1532279687.279,22.949,47.852,28.809,11.719,-166.992
1532279687.283,18.555,43.945,32.227,14.648,176.758
1532279687.287,18.066,43.945,28.809,14.160,225.098
1532279687.290,25.879,46.387,25.391,14.648,-101.562
1532279687.294,33.203,47.363,25.879,20.020,-206.543
1532279687.298,32.227,47.363,23.926,16.602,103.027
1532279687.302,23.438,46.387,25.391,8.789,274.414
1532279687.306,19.531,43.945,27.344,6.348,-26.855
1532279687.310,24.902,40.039,28.320,9.277,-243.652
1532279687.314,24.902,39.062,27.832,15.625,29.785
1532279687.318,20.020,37.598,27.344,16.113,280.273
1532279687.322,26.367,35.645,26.855,24.414,63.477
1532279687.326,27.344,36.133,26.855,25.879,-224.121
1532279687.330,30.273,33.691,25.391,30.762,-86.426
1532279687.333,31.738,29.297,26.855,37.598,211.914
1532279687.337,27.832,29.785,28.809,34.180,125.977
1532279687.341,28.320,32.227,31.250,38.086,-201.660
1532279687.345,29.785,31.250,34.668,30.273,-185.547
1532279687.349,27.344,27.832,29.297,26.855,170.410
1532279687.353,26.367,25.879,27.832,29.297,232.910
1532279687.357,20.996,26.855,30.273,21.484,-81.543
1532279687.361,16.113,25.879,29.297,28.809,-179.199
1532279687.365,30.273,25.879,29.297,50.781,116.211
1532279687.369,40.527,27.344,27.344,59.570,293.945
1532279687.372,28.320,23.926,31.738,47.852,10.254
1532279687.376,24.414,24.902,35.156,47.363,-214.355
1532279687.380,31.250,26.855,31.250,58.594,-8.301
1532279687.384,29.785,23.926,33.203,61.035,243.652
1532279687.388,19.531,22.461,40.039,43.945,85.938
1532279687.392,24.902,24.414,38.086,41.504,-209.961
1532279687.396,38.574,31.250,29.785,53.711,-74.219
1532279687.400,38.086,31.738,31.250,61.523,284.668
1532279687.404,29.785,28.320,36.621,59.082,220.215
1532279687.408,27.832,28.809,36.621,56.641,-108.887
1532279687.412,29.297,27.832,35.645,61.523,-142.578
1532279687.415,27.832,27.344,35.156,61.523,174.316
1532279687.419,31.738,30.273,33.691,58.105,277.832
1532279687.423,35.156,34.180,31.738,62.012,-58.105
1532279687.427,34.180,33.691,32.715,66.406,-186.035
1532279687.431,37.109,32.715,32.227,64.453,95.703
1532279687.435,42.969,33.691,30.762,63.477,283.203
1532279687.439,43.457,33.691,31.250,65.918,74.707
1532279687.443,39.062,28.809,32.715,67.383,-180.664
1532279687.447,34.180,26.855,34.180,67.871,-35.156
1532279687.451,36.621,26.855,34.668,71.289,249.512
1532279687.454,42.969,28.320,33.691,75.684,155.762
1532279687.458,40.527,32.715,30.273,62.988,-169.922
1532279687.462,35.645,29.785,29.785,60.547,-107.910
1532279687.466,30.273,27.832,28.320,68.359,249.512
1532279687.470,29.297,28.809,28.809,71.289,234.863
1532279687.474,38.574,30.273,29.785,73.242,-117.188
1532279687.478,36.133,29.785,28.320,66.406,-166.504
1532279687.482,27.344,27.344,30.273,59.082,163.086
1532279687.486,27.344,27.832,29.297,58.594,261.230
1532279687.490,29.297,27.832,30.273,62.500,-45.898
1532279687.494,40.039,28.809,30.273,69.824,-202.637
1532279687.497,46.387,26.367,28.809,85.449,60.547
1532279687.501,41.992,23.926,31.738,82.520,306.152
1532279687.505,46.387,28.320,30.273,73.730,86.914
1532279687.509,49.805,27.344,28.320,78.125,-218.750
1532279687.513,46.387,26.367,27.832,83.008,-43.457
1532279687.517,46.387,27.344,27.832,81.055,261.719
1532279687.521,42.480,26.855,30.762,78.613,146.973
1532279687.525,35.645,27.832,33.203,74.707,-180.176
1532279687.529,35.156,26.855,32.227,72.754,-154.297
1532279687.533,41.992,25.879,30.762,75.684,188.477
1532279687.537,42.480,29.785,29.297,72.266,234.375
1532279687.540,36.621,31.738,29.297,46.875,-112.305
1532279687.544,37.109,33.203,31.250,26.855,-212.891
1532279687.548,41.504,34.668,29.297,27.832,122.559
1532279687.552,31.738,34.668,30.762,28.320,271.973
1532279687.556,34.668,41.016,31.738,27.344,-23.438
1532279687.560,41.016,43.945,31.738,20.508,-222.656
1532279687.564,34.668,37.598,37.598,19.531,25.391
1532279687.568,32.227,36.133,36.621,30.762,273.438
1532279687.572,42.969,41.504,31.738,32.227,78.125
1532279687.576,36.133,44.922,34.180,21.973,-245.117
1532279687.579,26.855,46.387,33.203,20.508,-100.098
1532279687.583,40.039,49.805,28.809,29.785,236.816
1532279687.587,46.387,53.711,31.250,29.785,120.117
1532279687.591,42.969,50.781,36.621,28.809,-209.961
1532279687.595,35.645,45.898,39.062,30.273,-168.945
1532279687.599,35.156,43.457,37.598,37.109,163.086
1532279687.603,41.504,46.875,35.645,38.574,233.398
1532279687.607,30.762,49.805,38.086,16.602,-84.473
1532279687.611,28.809,48.828,37.598,26.855,-201.660
1532279687.615,31.250,46.875,36.621,38.086,93.262
1532279687.619,33.203,46.387,36.621,31.738,253.418
1532279687.622,39.062,43.945,37.109,35.645,-5.859
1532279687.626,35.645,42.969,39.551,30.762,-251.465
1532279687.630,38.574,43.945,38.574,28.809,-32.227
1532279687.634,35.645,44.434,34.668,38.574,280.762
1532279687.638,28.320,42.969,39.062,39.551,107.910
1532279687.642,28.320,44.434,41.504,32.227,-212.891
1532279687.646,32.227,44.922,38.086,29.785,-98.633
1532279687.650,38.574,43.457,36.133,32.715,231.445
1532279687.654,31.250,44.434,34.668,30.762,197.266
1532279687.658,24.414,43.457,35.645,32.227,-133.301
1532279687.662,28.809,46.387,36.133,38.574,-158.691
1532279687.665,26.855,47.363,35.645,37.109,145.020
1532279687.669,28.809,44.434,37.109,44.434,224.609
1532279687.673,27.832,41.504,38.574,47.852,-60.059
1532279687.677,28.320,39.551,39.062,46.875,-208.496
1532279687.681,33.691,39.062,41.504,52.246,53.223
1532279687.685,30.762,37.109,46.875,46.875,239.258
1532279687.689,29.785,37.598,44.922,48.340,13.184
1532279687.693,36.621,37.598,43.457,60.547,-237.305
1532279687.697,41.992,36.133,44.922,57.129,-38.574
1532279687.701,41.016,36.133,45.898,48.828,291.992
1532279687.704,37.109,40.039,45.898,48.828,159.180
1532279687.708,36.133,41.504,43.945,46.875,-171.875
1532279687.712,31.250,41.992,41.992,45.898,-112.305
1532279687.716,30.273,41.504,44.434,40.527,218.262
1532279687.720,32.227,42.969,46.875,39.551,229.492
1532279687.724,38.574,48.340,42.969,49.805,-101.074
1532279687.728,47.363,44.922,43.945,60.059,-192.871
1532279687.732,43.457,38.574,44.434,60.059,133.789
1532279687.736,42.480,38.574,40.527,49.805,275.879
1532279687.740,28.809,36.621,40.039,48.828,-38.086
1532279687.744,27.832,34.668,41.504,49.316,-217.285
1532279687.747,44.922,35.645,42.480,48.340,48.340
1532279687.751,37.598,35.156,44.434,50.293,287.598
1532279687.755,41.016,34.180,46.387,52.734,73.730
1532279687.759,43.457,32.227,49.316,55.176,-191.406
1532279687.763,47.363,34.668,45.410,57.617,-33.691
1532279687.767,41.992,38.086,41.992,54.688,239.746
1532279687.771,44.434,39.062,41.992,51.758,158.203
1532279687.775,58.105,42.969,41.504,50.293,-144.531
1532279687.779,37.598,43.457,41.504,43.457,-119.629
1532279687.783,34.668,39.551,45.898,46.875,223.633
1532279687.787,49.805,38.574,49.316,53.223,246.582
1532279687.790,46.875,37.598,49.316,54.199,-101.562
1532279687.794,46.387,37.598,46.387,57.617,-170.410
1532279687.798,46.387,39.062,42.480,57.617,140.625
1532279687.802,40.039,39.062,41.992,54.199,285.156
1532279687.806,25.391,41.504,41.992,45.898,-28.320
1532279687.810,30.762,47.852,38.574,45.410,-262.207
1532279687.814,31.738,45.410,38.574,42.969,-4.395
1532279687.818,25.391,42.480,42.480,46.387,246.582
1532279687.822,24.414,45.898,40.039,48.828,83.008
1532279687.826,28.809,44.434,39.551,42.480,-217.285
1532279687.829,42.969,44.434,40.527,51.758,-106.445
1532279687.833,42.480,41.504,42.480,56.152,234.863
1532279687.837,39.062,41.016,41.992,49.805,184.570
1532279687.841,41.016,41.992,41.504,46.387,-150.879
1532279687.845,42.969,42.480,40.039,47.852,-151.855
1532279687.849,41.016,41.504,38.574,50.293,176.758
1532279687.853,38.574,44.434,36.621,41.504,249.023
1532279687.857,45.898,46.875,35.156,37.598,-67.871
1532279687.861,49.316,45.410,33.691,46.875,-207.520
1532279687.865,44.434,42.480,31.738,46.387,78.125
1532279687.869,30.762,38.086,35.156,39.062,232.422
1532279687.872,30.762,36.621,34.180,41.504,0.000
1532279687.876,46.875,38.086,34.180,48.828,-201.172
1532279687.880,43.945,38.086,34.668,49.805,3.906
1532279687.884,41.992,39.062,33.691,50.781,265.625
1532279687.888,41.016,41.016,33.203,45.410,100.586
1532279687.892,41.992,42.480,26.855,37.598,-204.590
1532279687.896,51.270,43.945,25.879,41.992,-101.562
1532279687.900,49.805,40.039,28.320,48.340,234.375
1532279687.904,29.297,37.109,31.738,37.109,215.332
1532279687.908,29.785,38.086,37.109,35.645,-159.180
1532279687.911,45.410,36.133,36.621,45.410,-203.125
1532279687.915,43.945,34.180,33.691,50.293,145.508
1532279687.919,41.504,33.203,36.621,58.594,238.281
1532279687.923,41.504,31.738,37.598,56.152,-80.078
1532279687.927,33.203,34.180,32.715,49.316,-219.238
1532279687.931,34.668,37.109,32.227,45.410,83.008
1532279687.935,29.785,30.762,39.062,42.969,313.477
1532279687.939,31.738,26.855,40.527,42.480,87.891
1532279687.943,32.227,26.367,41.992,45.898,-217.773
1532279687.947,32.715,23.926,43.945,53.711,-62.500
1532279687.951,53.711,28.809,35.645,54.688,253.418
1532279687.954,46.875,32.227,26.855,40.039,165.039
1532279687.958,36.621,29.785,26.855,41.016,-150.879
1532279687.962,30.762,27.832,26.367,44.434,-89.844
1532279687.966,20.508,26.855,24.414,34.668,253.906
1532279687.970,32.227,25.879,23.926,37.598,240.723
1532279687.974,31.250,26.367,25.879,39.062,-116.211
1532279687.978,25.879,28.809,26.367,34.668,-166.016
1532279687.982,32.715,29.297,25.879,26.855,155.762
1532279687.986,30.762,26.367,26.855,20.020,276.367
1532279687.990,29.785,23.438,26.367,30.273,-12.207
1532279687.994,32.715,20.996,26.367,42.480,-175.781
1532279687.997,37.109,20.020,24.414,44.434,86.426
1532279688.001,37.598,20.020,24.414,46.875,316.895
1532279688.005,33.203,19.531,28.320,41.504,78.613
1532279688.009,30.762,19.531,30.762,33.203,-229.980
1532279688.013,37.109,23.926,25.879,38.574,-53.223
1532279688.017,37.598,24.902,23.438,43.457,267.578
1532279688.021,33.203,20.996,26.855,42.480,141.602
1532279688.025,30.762,15.625,29.297,39.062,-215.820
1532279688.029,26.855,12.695,28.809,43.945,-179.199
1532279688.033,39.062,16.602,26.367,50.293,178.711
1532279688.036,41.016,18.555,24.902,45.898,231.445
1532279688.040,35.156,19.043,26.367,43.945,-89.844
1532279688.044,30.762,16.113,29.297,36.133,-223.145
1532279688.048,28.809,18.555,27.832,34.668,81.543
1532279688.052,29.785,23.438,24.902,44.922,269.043
1532279688.056,19.043,20.020,25.391,40.039,-28.320
1532279688.060,20.996,19.043,24.902,34.668,-226.074
1532279688.064,32.227,20.508,26.367,44.922,30.273
1532279688.068,25.391,20.508,21.484,48.828,278.809
1532279688.072,26.855,17.578,19.531,45.410,114.258
1532279688.076,34.668,15.625,22.949,46.387,-184.570
1532279688.079,31.250,18.555,19.531,38.574,-61.035
1532279688.083,21.484,19.043,16.602,29.297,257.812
1532279688.087,21.973,18.555,18.555,29.785,153.320
1532279688.091,27.344,17.090,24.414,33.691,-161.621
1532279688.095,17.578,14.648,24.414,33.691,-126.465
1532279688.099,18.066,18.066,21.484,37.598,195.801
1532279688.103,26.367,20.020,21.484,46.387,248.535
1532279688.107,29.785,19.531,20.020,46.875,-65.918
1532279688.111,39.551,21.484,17.090,47.852,-187.988
1532279688.115,31.738,20.996,16.113,51.758,89.355
1532279688.119,28.809,21.484,16.602,53.711,294.922
1532279688.122,39.551,23.438,18.066,47.363,35.156
1532279688.126,31.250,22.461,15.625,40.527,-225.586
1532279688.130,29.297,20.508,13.672,46.387,-30.273
1532279688.134,25.879,18.555,15.625,48.340,263.184
1532279688.138,23.438,19.043,19.043,38.574,123.535
1532279688.142,24.414,20.508,19.043,37.109,-203.125
1532279688.146,19.531,21.484,19.531,39.062,-135.742
1532279688.150,23.438,22.949,18.066,41.504,174.805
1532279688.154,24.902,23.438,15.625,42.969,176.758
1532279688.158,20.020,23.438,16.602,37.598,-121.094
1532279688.161,20.020,23.438,18.066,36.621,-160.156
1532279688.165,20.020,22.461,17.090,41.016,135.254
1532279688.169,29.785,23.438,16.113,45.410,250.977
1532279688.173,38.086,27.832,16.113,46.875,-28.809
1532279688.177,32.227,31.738,11.230,41.504,-215.332
1532279688.181,34.668,30.762,13.184,43.457,61.035
1532279688.185,34.668,28.809,17.090,41.504,261.719
1532279688.189,31.250,27.344,18.066,37.109,26.855
1532279688.193,27.832,20.996,21.973,43.945,-213.867
1532279688.197,29.785,19.043,24.902,52.246,-29.297
1532279688.201,27.344,20.020,22.949,52.734,262.207
1532279688.204,24.902,22.461,20.020,43.457,108.887
1532279688.208,29.297,25.391,16.602,41.016,-201.660
1532279688.212,20.996,23.438,15.625,41.992,-119.141
1532279688.216,22.461,20.508,19.531,43.945,210.938
1532279688.220,23.438,17.090,21.484,44.922,221.680
1532279688.224,21.484,15.137,24.414,40.527,-111.816
1532279688.228,24.414,18.555,24.414,35.156,-185.547
1532279688.232,21.973,22.461,20.020,37.598,145.996
1532279688.236,27.832,24.902,19.531,41.016,303.711
1532279688.240,35.156,22.949,21.484,45.898,-1.465
1532279688.243,33.203,19.043,22.949,46.875,-226.562
1532279688.247,32.715,21.484,22.949,49.316,21.973
1532279688.251,29.297,23.438,20.508,46.387,271.973
1532279688.255,28.320,23.926,22.461,40.527,52.734
1532279688.259,31.738,22.461,25.391,50.781,-210.938
1532279688.263,36.621,22.461,24.414,54.688,-45.898
1532279688.267,39.551,25.391,23.438,52.734,253.906
1532279688.271,43.945,25.879,22.949,57.129,167.480
1532279688.275,43.945,27.344,26.855,58.105,-146.484
1532279688.279,39.551,29.297,26.367,57.617,-106.934
1532279688.283,40.039,30.762,26.367,61.523,212.402
1532279688.286,37.598,31.738,26.855,54.688,211.426
1532279688.290,38.086,27.832,29.785,48.340,-113.281
1532279688.294,37.109,27.344,31.250,48.828,-183.594
1532279688.298,41.504,31.738,27.832,51.758,94.238
1532279688.302,41.016,32.227,28.809,52.734,251.953
1532279688.306,35.645,31.250,32.227,41.016,-9.277
1532279688.310,36.133,32.715,33.203,39.551,-209.473
1532279688.314,37.109,32.227,32.715,55.664,2.930
1532279688.318,32.715,30.273,34.180,55.176,255.371
1532279688.322,24.902,30.762,36.133,43.945,120.605
1532279688.326,29.297,28.809,40.527,41.016,-212.402
1532279688.329,37.109,26.855,39.551,38.574,-131.836
1532279688.333,35.645,31.250,31.738,42.480,229.492
1532279688.337,30.762,33.203,28.809,44.922,180.176
1532279688.341,29.785,33.691,32.227,41.504,-153.320
1532279688.345,30.762,35.645,31.738,41.504,-144.043
1532279688.349,36.133,37.109,29.785,44.922,194.824
1532279688.353,33.203,39.551,33.203,44.434,260.254
1532279688.357,24.414,38.086,34.668,37.109,-84.961
1532279688.361,29.297,38.086,34.668,43.457,-219.238
1532279688.365,46.387,40.527,35.156,47.363,62.500
1532279688.368,47.852,41.504,34.668,44.434,251.465
1532279688.372,37.598,45.410,31.738,47.852,49.805
1532279688.376,43.457,49.805,28.809,40.527,-206.055
1532279688.380,46.875,47.852,28.809,37.598,-19.043
1532279688.384,42.480,46.387,32.227,34.668,249.512
1532279688.388,28.809,46.387,34.668,27.344,74.707
1532279688.392,17.578,39.551,37.109,34.180,-222.656
1532279688.396,24.902,36.621,38.086,43.945,-139.648
1532279688.400,35.645,40.039,36.133,48.340,182.617
1532279688.404,42.480,43.457,32.715,43.457,166.992
1532279688.408,42.969,47.852,30.273,37.109,-158.203
1532279688.411,33.203,50.781,27.832,34.668,-191.406
1532279688.415,29.785,47.852,29.785,39.062,134.766
1532279688.419,30.273,44.922,32.227,41.992,239.258
1532279688.423,28.809,47.852,31.738,38.086,-65.430
1532279688.427,29.297,46.875,32.715,35.645,-252.441
1532279688.431,32.227,44.922,33.691,45.898,32.715
1532279688.435,38.574,42.969,35.156,49.805,266.113
1532279688.439,38.574,42.969,37.109,49.805,29.297
1532279688.443,36.133,45.898,35.645,50.293,-239.746
1532279688.447,38.086,45.898,34.668,48.828,-62.988
1532279688.451,36.621,45.410,32.715,53.711,270.020
1532279688.454,33.691,43.945,32.715,48.828,156.738
1532279688.458,36.621,43.457,34.668,41.016,-187.500
1532279688.462,35.645,42.480,34.668,42.480,-154.785
1532279688.466,37.109,41.504,35.156,49.316,166.504
1532279688.470,44.922,45.898,36.133,52.734,214.844
1532279688.474,43.945,48.828,36.133,48.828,-109.375
1532279688.478,39.062,49.316,34.668,43.457,-204.590
1532279688.482,36.621,48.340,33.691,43.945,100.586
1532279688.486,41.504,48.828,35.156,41.504,224.609
1532279688.490,47.852,46.875,34.180,41.016,-42.969
1532279688.493,39.551,42.969,33.203,39.551,-206.543
1532279688.497,34.668,42.480,35.645,39.551,35.156
1532279688.501,40.039,43.945,33.691,45.898,258.789
1532279688.505,38.574,44.434,36.133,39.062,55.664
1532279688.509,32.715,44.922,39.551,29.297,-241.211
1532279688.513,30.762,43.457,35.645,34.668,-84.961
1532279688.517,30.762,42.969,35.156,37.109,241.211
1532279688.521,32.227,43.945,39.551,37.598,180.176
1532279688.525,30.273,42.969,39.062,33.203,-149.902
1532279688.529,32.227,43.457,35.645,27.832,-145.996
1532279688.533,40.039,43.945,33.203,33.203,195.312
1532279688.536,41.016,42.969,33.691,31.738,247.559
1532279688.540,32.715,38.086,36.621,19.043,-64.453
1532279688.544,35.645,37.598,35.156,21.484,-176.270
1532279688.548,39.062,40.527,33.203,34.180,108.887
1532279688.552,40.039,41.504,30.762,35.156,258.789
1532279688.556,43.457,43.457,30.762,39.062,1.953
1532279688.560,38.086,41.016,32.227,47.363,-205.566
1532279688.564,35.156,39.551,31.250,44.434,-8.301
1532279688.568,36.133,42.480,31.738,36.621,223.145
1532279688.572,34.668,43.457,29.785,34.668,69.824
1532279688.576,35.645,41.992,25.391,34.668,-176.758
1532279688.579,34.668,38.086,25.391,37.109,-61.523
1532279688.583,24.414,32.715,29.785,33.691,233.887
1532279688.587,15.137,35.645,30.273,27.832,186.523
1532279688.591,21.484,38.574,27.344,25.879,-118.164
1532279688.595,30.273,36.621,26.367,29.297,-135.254
1532279688.599,32.715,35.156,29.297,35.645,199.707
1532279688.603,30.273,32.715,30.762,35.645,290.527
1532279688.607,24.902,33.691,29.785,22.461,-57.129
1532279688.611,31.250,37.598,26.367,16.602,-217.285
1532279688.615,34.668,34.668,28.320,29.297,96.680
1532279688.618,33.691,34.180,30.762,31.738,286.133
1532279688.622,35.645,37.109,27.344,23.438,42.969
1532279688.626,30.762,34.668,27.832,20.996,-226.074
1532279688.630,28.809,33.691,27.832,30.762,-20.020
1532279688.634,34.180,36.621,24.414,35.645,291.992
1532279688.638,32.227,34.668,26.855,33.691,140.625
1532279688.642,29.785,32.227,30.273,25.879,-178.711
1532279688.646,29.297,34.668,29.297,21.484,-120.605
1532279688.650,26.855,34.668,29.297,26.855,219.727
1532279688.654,28.809,36.621,29.785,31.738,209.961
1532279688.658,34.668,39.062,28.320,32.227,-122.559
1532279688.661,35.156,36.133,28.809,28.809,-168.945
1532279688.665,31.738,32.227,29.785,29.785,120.117
1532279688.669,29.785,32.227,29.297,33.691,235.840
1532279688.673,24.414,32.227,31.738,26.855,-57.129
1532279688.677,28.320,33.203,30.273,27.832,-211.914
1532279688.681,34.668,29.785,28.809,39.551,81.543
1532279688.685,33.203,26.855,31.250,39.062,270.508
1532279688.689,28.320,28.320,30.762,32.715,36.133
1532279688.693,31.250,28.809,31.738,30.762,-228.516
1532279688.697,35.156,29.785,30.762,40.039,-56.152
1532279688.700,34.180,28.809,32.715,49.316,268.555
1532279688.704,35.645,27.832,34.180,41.992,132.812
1532279688.708,41.016,28.809,30.762,39.062,-203.613
1532279688.712,43.457,26.855,30.762,40.527,-121.582
1532279688.716,33.691,24.414,30.273,28.809,222.168
1532279688.720,27.344,24.414,30.273,20.996,235.352
1532279688.724,38.574,28.320,29.785,28.809,-92.285
1532279688.728,43.457,33.203,27.832,35.156,-177.246
1532279688.732,40.039,30.273,30.762,39.551,120.605
1532279688.736,35.156,28.809,31.738,37.109,259.277
1532279688.740,35.645,31.250,31.738,40.527,-31.250
1532279688.743,38.574,31.738,30.762,39.551,-249.512
1532279688.747,37.598,34.180,27.344,32.227,-12.695
1532279688.751,30.273,32.715,29.785,23.438,235.352
1532279688.755,25.879,31.738,30.273,20.508,62.500
1532279688.759,33.203,36.133,27.344,26.855,-203.613
1532279688.763,34.180,33.691,31.250,36.133,-76.172
1532279688.767,27.832,30.273,33.691,41.504,215.332
1532279688.771,29.785,32.715,34.668,36.621,162.598
1532279688.775,23.926,33.203,34.668,30.762,-158.691
1532279688.779,23.438,30.273,33.691,30.762,-146.973
1532279688.783,34.180,30.273,31.250,35.156,182.617
1532279688.786,35.156,33.203,27.344,30.762,208.008
1532279688.790,38.086,34.180,28.320,32.715,-103.516
1532279688.794,42.480,38.086,31.250,38.086,-202.148
1532279688.798,35.156,39.551,29.297,30.762,106.934
1532279688.802,30.762,36.621,28.809,31.738,281.250
1532279688.806,34.180,36.133,31.250,35.156,6.348
1532279688.810,32.715,36.621,31.738,28.809,-253.418
1532279688.814,38.086,38.574,26.367,36.133,-16.602
1532279688.818,37.109,38.574,26.367,41.016,265.137
1532279688.822,25.879,36.621,27.832,34.180,115.234
1532279688.825,28.809,36.621,27.832,29.785,-193.848
1532279688.829,37.109,32.715,28.809,35.156,-126.953
1532279688.833,36.133,32.715,27.832,52.246,204.102
1532279688.837,41.016,37.598,26.367,49.805,190.918
1532279688.841,42.480,37.598,25.879,39.551,-139.160
1532279688.845,36.621,37.598,25.879,40.039,-182.129
1532279688.849,35.645,41.016,28.320,35.156,128.418
1532279688.853,29.785,36.133,31.250,36.621,234.375
1532279688.857,19.531,31.738,31.738,37.598,-58.105
1532279688.861,22.949,29.785,31.250,40.527,-207.031
1532279688.865,24.414,27.832,32.227,45.898,75.684
1532279688.868,26.855,27.344,30.762,47.363,266.602
1532279688.872,30.762,28.320,32.227,44.434,34.668
1532279688.876,27.832,30.273,34.180,46.875,-223.633
1532279688.880,23.926,31.738,32.227,42.969,-22.949
1532279688.884,24.414,34.180,27.344,33.691,274.414
1532279688.888,21.973,32.715,26.367,23.926,124.023
1532279688.892,24.414,30.273,28.809,24.902,-195.801
1532279688.896,25.879,31.250,30.273,31.250,-108.887
1532279688.900,24.902,27.344,29.785,38.574,251.953
1532279688.904,24.414,25.391,30.762,43.457,237.793
1532279688.908,22.949,29.297,30.273,35.156,-130.859
1532279688.911,25.391,30.762,22.949,31.250,-182.129
1532279688.915,30.273,28.809,21.484,34.668,172.363
1532279688.919,29.785,29.785,25.879,35.645,294.922
1532279688.923,30.273,33.203,26.367,38.086,-33.203
1532279688.927,33.691,30.762,25.879,35.645,-244.141
1532279688.931,27.832,24.414,29.297,35.156,-1.953
1532279688.935,22.949,24.414,32.715,42.480,249.512
1532279688.939,23.926,24.414,32.227,42.969,52.734
1532279688.943,28.809,23.926,29.785,44.434,-220.703
1532279688.947,24.902,24.902,30.762,43.457,-49.805
1532279688.950,25.391,26.855,30.762,44.434,255.859
1532279688.954,27.832,26.855,26.855,41.016,149.902
1532279688.958,21.484,29.297,25.879,32.715,-169.434
1532279688.962,22.949,30.762,30.762,36.621,-116.211
1532279688.966,21.484,27.344,32.227,39.551,228.027
1532279688.970,22.461,26.855,32.227,36.133,240.234
1532279688.974,27.344,30.762,32.715,30.762,-96.191
1532279688.978,28.809,33.691,31.250,33.203,-187.988
1532279688.982,25.391,31.738,32.227,40.039,133.301
1532279688.986,26.855,31.738,32.227,36.621,292.969
1532279688.990,29.297,34.180,28.320,27.832,-27.344
1532279688.993,24.414,33.203,28.809,28.320,-219.238
1532279688.997,26.367,31.738,30.273,38.086,28.809
1532279689.001,35.645,33.203,29.785,47.852,287.598
1532279689.005,31.738,35.156,29.785,40.039,118.164
1532279689.009,26.855,34.180,29.785,35.645,-186.035
1532279689.013,27.344,31.250,34.180,39.551,-38.574
1532279689.017,27.344,31.250,33.203,39.551,287.598
1532279689.021,33.203,34.180,26.367,38.086,183.594
1532279689.025,40.039,38.086,26.855,39.551,-160.156
1532279689.029,36.621,37.598,27.832,37.598,-169.434
1532279689.032,27.832,35.156,27.344,33.691,177.246
1532279689.036,30.273,35.156,29.785,39.062,255.371
1532279689.040,35.645,35.645,30.273,39.551,-65.430
1532279689.044,33.203,36.621,29.297,35.156,-206.055
1532279689.048,27.344,36.621,28.809,33.691,106.934
1532279689.052,29.785,35.645,26.855,34.668,309.570
1532279689.056,37.598,34.668,27.344,32.715,10.254
1532279689.060,34.180,33.203,29.297,38.574,-232.422
1532279689.064,25.391,32.227,27.344,40.527,28.809
1532279689.068,27.344,32.227,24.902,40.039,291.504
1532279689.072,31.250,31.250,26.367,33.203,81.543
1532279689.075,35.156,32.227,26.855,31.738,-220.703
1532279689.079,38.574,33.691,25.879,39.551,-80.078
1532279689.083,36.621,30.273,24.414,42.969,268.555
1532279689.087,31.250,28.320,22.949,28.809,200.195
1532279689.091,32.227,31.250,25.879,22.949,-140.625
1532279689.095,39.062,30.762,23.438,38.086,-150.391
1532279689.099,41.016,29.297,22.461,42.969,185.547
1532279689.103,35.645,27.832,25.879,38.574,271.484
1532279689.107,28.809,27.832,26.855,35.156,-45.898
1532279689.111,31.250,27.832,27.344,41.016,-191.406
1532279689.115,36.621,27.832,28.320,43.945,83.008
1532279689.118,38.086,28.320,28.809,41.016,270.996
1532279689.122,36.621,29.785,28.320,33.691,41.992
1532279689.126,36.133,31.738,26.855,30.273,-250.488
1532279689.130,37.109,29.785,27.344,37.109,-53.711
1532279689.134,40.527,30.273,28.809,43.945,282.715
1532279689.138,39.551,29.297,31.738,38.086,141.113
1532279689.142,35.645,27.344,35.156,40.039,-172.363
1532279689.146,35.156,27.832,33.691,46.387,-107.422
1532279689.150,34.668,28.809,30.762,42.480,216.797
1532279689.154,34.668,30.273,29.785,39.062,216.797
1532279689.157,40.039,32.715,31.738,41.992,-116.699
1532279689.161,41.016,32.715,33.691,49.805,-173.340
1532279689.165,41.016,30.273,32.227,49.805,151.855
1532279689.169,35.156,28.809,31.250,42.969,246.094
1532279689.173,26.855,28.320,33.203,34.668,-31.738
1532279689.177,37.598,27.344,32.715,36.133,-205.566
1532279689.181,47.363,27.832,30.273,57.617,43.457
1532279689.185,43.945,28.809,30.273,53.711,274.902
1532279689.189,38.574,28.809,29.297,38.574,32.715
1532279689.193,37.109,28.320,27.344,37.598,-241.699
1532279689.197,38.574,28.809,29.785,43.457,-56.152
1532279689.200,38.086,28.809,30.762,46.387,256.348
1532279689.204,39.551,29.297,30.273,44.922,156.738
1532279689.208,35.645,29.785,28.320,33.203,-187.500
1532279689.212,33.203,27.344,27.832,31.250,-156.250
1532279689.216,33.203,25.391,30.762,41.504,202.148
1532279689.220,31.250,25.879,30.762,39.551,256.348
1532279689.224,31.738,28.809,29.785,34.668,-79.102
1532279689.228,38.086,29.297,32.715,29.785,-221.191
1532279689.232,32.227,25.879,35.156,29.297,92.285
1532279689.236,23.926,26.367,32.715,32.715,258.789
1532279689.240,26.367,29.297,32.227,32.227,-2.441
1532279689.243,32.227,30.273,33.691,34.180,-200.195
1532279689.247,32.715,28.809,31.250,34.668,18.066
1532279689.251,30.762,31.250,31.250,32.227,286.133
1532279689.255,30.762,30.762,30.762,25.879,97.656
1532279689.259,33.203,30.273,33.203,31.250,-200.195
1532279689.263,33.691,31.738,31.250,39.551,-78.125
1532279689.267,32.227,30.762,31.250,22.949,215.332
1532279689.271,31.738,32.227,35.156,23.926,158.691
1532279689.275,33.691,31.738,34.180,32.227,-131.348
1532279689.279,35.156,31.738,33.691,26.367,-141.113
1532279689.282,40.527,33.691,32.227,30.273,161.133
1532279689.286,43.457,34.668,33.203,29.785,231.934
1532279689.290,42.480,34.180,33.691,27.344,-87.891
1532279689.294,39.062,31.738,31.738,27.832,-229.492
1532279689.298,34.180,31.738,34.668,37.598,89.355
1532279689.302,34.668,32.715,39.062,52.734,283.691
1532279689.306,36.133,32.715,36.133,49.316,-4.883
1532279689.310,29.785,31.738,34.180,36.133,-243.164
1532279689.314,27.344,31.738,35.645,39.062,-16.113
1532279689.318,26.855,33.691,36.621,40.039,267.090
1532279689.322,26.367,33.203,36.621,34.668,99.121
1532279689.325,24.902,30.273,37.598,34.668,-221.191
1532279689.329,22.949,29.785,35.645,38.574,-116.211
1532279689.333,31.738,29.785,35.156,46.875,241.699
1532279689.337,32.227,30.762,35.645,44.434,231.934
1532279689.341,29.785,35.156,33.691,36.133,-127.930
1532279689.345,27.832,38.086,34.180,32.715,-168.457
1532279689.349,20.020,37.109,34.180,26.855,163.086
1532279689.353,16.602,39.062,34.180,22.949,263.184
1532279689.357,12.695,39.062,36.621,21.973,-48.340
1532279689.361,14.160,32.715,38.574,21.973,-196.777
1532279689.365,20.996,34.180,34.668,26.855,75.684
1532279689.368,19.043,40.039,31.738,33.203,273.926
1532279689.372,15.137,37.598,32.715,24.902,32.227
1532279689.376,17.090,33.691,35.156,15.137,-234.863
1532279689.380,20.996,32.227,36.133,21.484,-18.555
1532279689.384,22.461,30.762,37.109,28.320,281.250
1532279689.388,25.391,34.668,36.133,18.066,105.957
1532279689.392,29.785,37.598,37.598,20.508,-209.961
1532279689.396,35.156,36.621,36.133,32.227,-152.832
1532279689.400,29.785,32.715,36.133,36.133,192.871
1532279689.404,20.020,32.715,38.086,30.273,211.426
1532279689.407,20.020,35.645,37.109,23.926,-143.066
1532279689.411,26.855,33.691,37.598,29.785,-181.641
1532279689.415,24.414,32.715,37.109,31.738,152.832
1532279689.419,16.113,32.227,36.621,18.555,275.391
1532279689.423,24.414,34.180,34.668,20.020,-37.109
1532279689.427,34.668,36.621,32.715,33.203,-257.324
1532279689.431,33.203,36.133,34.180,30.273,12.207
1532279689.435,34.180,37.598,35.645,32.227,268.555
1532279689.439,30.762,38.086,33.203,35.156,59.082
1532279689.443,31.250,36.133,30.762,34.668,-217.773
1532279689.447,36.621,32.715,33.203,34.668,-69.336
1532279689.450,40.527,33.203,34.180,36.133,263.672
1532279689.454,42.969,36.133,32.715,38.574,174.316
1532279689.458,41.504,33.691,34.180,43.945,-173.828
1532279689.462,37.109,30.273,36.133,50.781,-140.625
1532279689.466,41.504,28.809,36.133,57.129,203.613
1532279689.470,37.109,31.250,34.180,43.457,251.465
1532279689.474,28.320,32.227,31.738,25.879,-78.125
1532279689.478,40.527,33.691,31.738,40.039,-178.223
1532279689.482,45.898,35.156,29.785,49.316,129.883
1532279689.486,38.574,32.715,31.250,44.922,290.039
1532279689.489,43.945,34.180,35.156,43.945,-9.277
1532279689.493,51.270,34.668,34.668,52.246,-240.234
1532279689.497,40.039,30.762,34.668,49.805,33.203
1532279689.501,42.480,29.785,36.133,50.781,294.434
1532279689.505,46.875,32.227,34.180,45.898,52.734
1532279689.509,41.504,33.203,33.691,31.738,-262.207
1532279689.513,45.410,36.621,35.156,48.340,-89.844
1532279689.517,46.387,40.527,32.715,53.223,274.902
1532279689.521,44.434,41.016,34.180,45.410,199.219
1532279689.525,46.387,38.086,34.180,50.781,-168.457
1532279689.529,44.434,33.691,34.180,51.758,-167.480
1532279689.532,44.434,32.715,35.645,53.711,166.992
1532279689.536,49.805,33.691,34.668,54.199,255.371
1532279689.540,47.852,34.668,34.668,52.734,-53.223
1532279689.544,43.945,33.203,30.273,49.805,-212.891
1532279689.548,42.480,32.227,28.809,47.363,90.332
1532279689.552,44.922,31.738,31.738,49.316,287.598
1532279689.556,41.504,31.738,33.203,46.875,17.090
1532279689.560,36.133,35.156,32.227,45.898,-231.934
1532279689.564,41.504,33.203,33.203,50.781,-30.762
1532279689.568,41.992,31.738,30.273,46.387,256.836
1532279689.572,47.363,33.203,32.715,55.176,135.742
1532279689.575,52.246,32.227,34.668,61.523,-161.133
1532279689.579,42.969,31.738,33.203,51.270,-84.961
1532279689.583,39.062,31.738,32.227,48.828,228.516
1532279689.587,39.551,30.762,31.738,40.039,187.988
1532279689.591,32.227,31.738,30.273,35.645,-135.742
1532279689.595,35.645,32.227,32.227,44.922,-164.062
1532279689.599,30.762,31.250,33.203,41.992,148.926
1532279689.603,30.762,31.250,30.273,42.969,245.117
1532279689.607,40.527,31.250,30.762,47.852,-44.922
1532279689.611,41.992,33.203,30.762,39.551,-204.590
1532279689.614,47.852,33.203,30.762,48.828,59.082
1532279689.618,41.992,30.273,29.785,52.246,276.855
1532279689.622,30.762,27.344,32.227,43.457,46.387
1532279689.626,30.762,27.344,34.668,39.062,-215.820
1532279689.630,35.645,29.297,30.762,41.016,-27.832
1532279689.634,33.691,29.297,30.273,41.992,255.859
1532279689.638,29.785,30.273,31.738,37.598,109.863
1532279689.642,27.344,33.203,29.785,36.133,-204.590
1532279689.646,24.414,34.180,29.297,47.852,-148.926
1532279689.650,27.832,34.180,28.809,47.363,191.406
1532279689.654,37.109,33.691,29.785,43.457,202.148
1532279689.657,30.762,31.738,32.715,34.668,-137.695
1532279689.661,19.043,28.809,34.180,26.367,-194.336
1532279689.665,20.996,27.832,33.691,31.738,129.883
1532279689.669,14.648,28.320,30.273,18.555,265.137
1532279689.673,20.996,29.785,30.273,36.621,-10.742
1532279689.677,37.109,32.227,34.180,50.293,-235.840
1532279689.681,40.527,33.691,32.227,45.410,9.766
1532279689.685,37.109,36.133,28.809,47.852,260.742
1532279689.689,27.344,37.109,27.832,39.551,30.273
1532279689.693,26.855,30.762,32.227,36.133,-247.070
1532279689.697,34.180,23.926,33.691,43.457,-61.523
1532279689.700,52.246,27.344,31.250,58.594,251.953
1532279689.704,60.547,34.180,29.297,53.223,155.762
1532279689.708,38.086,33.691,30.762,38.086,-175.781
1532279689.712,29.297,29.297,31.738,41.992,-143.555
1532279689.716,41.016,28.809,29.785,46.387,215.820
1532279689.720,45.898,29.297,29.785,42.480,226.562
1532279689.724,43.945,28.320,28.809,44.434,-125.000
1532279689.728,45.410,25.391,29.785,45.410,-240.723
1532279689.732,49.316,23.438,32.227,58.105,86.914
1532279689.736,50.781,27.344,31.738,62.500,283.691
1532279689.739,49.805,26.367,34.180,61.035,-17.090
1532279689.743,47.363,24.902,34.180,61.035,-246.582
1532279689.747,54.688,26.855,33.203,62.500,-12.695
1532279689.751,65.918,25.391,35.156,66.406,269.043
1532279689.755,62.012,23.438,35.645,65.430,109.375
1532279689.759,58.594,24.414,36.621,65.918,-197.754
1532279689.763,61.035,24.414,35.156,64.941,-102.539
1532279689.767,58.105,25.879,32.715,69.824,232.422
1532279689.771,55.664,25.391,32.227,75.684,175.293
1532279689.775,55.176,22.461,33.203,71.777,-173.828
1532279689.779,57.129,22.461,31.250,68.359,-155.273
1532279689.782,60.547,24.902,30.273,76.660,189.453
1532279689.786,55.176,26.855,29.785,72.266,239.258
1532279689.790,52.246,26.855,29.297,62.988,-84.961
1532279689.794,56.152,26.367,29.785,63.965,-191.406
1532279689.798,53.223,25.879,28.320,62.988,108.887
1532279689.802,46.875,24.414,28.809,60.059,289.551
1532279689.806,45.898,26.367,30.273,58.594,19.531
1532279689.810,50.293,25.391,32.227,62.500,-223.633
1532279689.814,47.363,22.461,33.691,68.848,1.465
1532279689.818,51.270,22.949,33.203,66.406,290.039
1532279689.821,55.664,26.367,30.273,61.035,132.324
1532279689.825,47.363,28.320,28.320,48.340,-205.566
1532279689.829,43.945,29.785,27.832,43.457,-111.816
1532279689.833,36.621,28.320,29.297,50.781,248.535
1532279689.837,25.391,27.832,31.738,46.387,218.262
1532279689.841,27.832,28.320,32.715,48.340,-121.582
1532279689.845,35.645,27.344,32.227,57.617,-148.926
1532279689.849,36.133,27.344,30.273,55.664,194.336
1532279689.853,36.133,30.273,29.297,44.434,299.316
1532279689.857,40.039,30.762,33.203,45.898,-34.180
1532279689.861,40.527,28.809,34.180,51.270,-229.980
1532279689.864,41.504,26.855,33.691,53.711,44.922
1532279689.868,43.457,25.879,36.133,51.270,292.480
1532279689.872,42.969,26.367,35.645,50.781,74.219
1532279689.876,48.828,29.297,31.250,44.434,-225.586
1532279689.880,44.922,30.273,29.785,42.480,-43.457
1532279689.884,33.691,28.320,35.645,54.688,274.414
1532279689.888,34.668,28.809,39.062,51.270,150.879
1532279689.892,35.645,26.367,39.551,48.828,-159.180
1532279689.896,35.645,26.367,39.551,51.270,-98.633
1532279689.900,33.691,28.320,37.109,44.434,246.582
1532279689.904,29.785,30.762,34.668,39.062,248.047
1532279689.907,29.785,32.227,36.621,37.598,-94.238
1532279689.911,30.762,30.762,39.062,41.504,-178.223
1532279689.915,35.645,31.250,37.109,48.828,117.676
1532279689.919,38.086,31.250,35.156,44.922,271.973
1532279689.923,34.180,33.691,32.227,37.598,20.020
1532279689.927,27.832,35.156,33.203,32.715,-242.676
1532279689.931,28.320,33.203,33.203,38.086,-18.066
1532279689.935,30.762,32.715,34.668,42.480,268.066
1532279689.939,24.902,28.320,38.574,37.109,68.848
1532279689.943,25.879,24.902,38.086,39.062,-213.379
1532279689.946,32.715,25.391,36.621,42.480,-64.941
1532279689.950,29.785,25.391,34.180,36.133,257.324
1532279689.954,30.273,23.926,34.180,32.227,176.758
1532279689.958,26.367,22.949,35.645,30.762,-174.316
1532279689.962,24.902,22.461,34.180,33.203,-158.203
1532279689.966,28.320,21.973,34.180,25.391,180.664
1532279689.970,24.902,22.461,33.691,22.461,237.305
1532279689.974,29.297,25.879,33.203,38.574,-85.449
1532279689.978,32.227,28.320,29.785,40.527,-209.961
1532279689.982,26.367,24.902,25.879,38.574,104.004
1532279689.986,24.902,21.484,30.273,37.598,264.648
1532279689.989,22.949,19.043,34.180,36.621,-24.902
1532279689.993,24.414,17.578,36.621,37.598,-233.887
1532279689.997,29.297,16.602,33.691,38.574,21.973
1532279690.001,30.762,19.043,30.273,39.062,299.316
1532279690.005,34.180,21.484,29.785,37.109,85.449
1532279690.009,35.645,20.508,31.738,33.203,-213.379
1532279690.013,38.086,20.508,34.180,44.922,-66.895
1532279690.017,44.922,20.996,32.227,34.668,254.395
1532279690.021,47.852,19.531,27.832,27.344,191.895
1532279690.025,49.316,17.090,32.227,48.340,-158.691
1532279690.029,51.758,17.578,33.691,47.363,-160.156
1532279690.032,51.270,18.555,31.738,50.781,185.059
1532279690.036,42.480,19.043,34.180,52.734,237.305
1532279690.040,35.645,16.602,34.668,48.340,-78.613
1532279690.044,37.109,16.113,30.762,46.875,-203.613
1532279690.048,34.180,17.578,32.715,50.781,51.758
1532279690.052,28.320,19.043,35.645,52.734,271.484
1532279690.056,32.227,20.996,32.227,46.387,21.484
1532279690.060,35.645,21.973,31.250,52.734,-230.957
1532279690.064,37.598,23.926,32.227,61.035,-17.578
1532279690.068,33.203,24.414,31.738,53.223,250.000
1532279690.071,23.926,21.973,29.785,41.504,106.934
1532279690.075,27.344,22.461,29.785,47.363,-199.219
1532279690.079,31.250,24.414,33.203,62.988,-121.582
1532279690.083,28.320,23.438,33.691,56.641,229.980
1532279690.087,23.438,25.391,31.738,46.387,230.469
1532279690.091,20.996,27.344,31.738,41.504,-123.535
1532279690.095,24.414,26.855,30.273,40.039,-196.289
1532279690.099,21.484,26.367,29.297,40.527,123.535
1532279690.103,19.043,25.879,29.297,44.922,246.582
1532279690.107,20.508,26.855,29.297,41.016,-57.617
1532279690.111,18.066,26.855,34.668,35.645,-234.863
1532279690.114,15.625,25.391,32.715,39.062,61.523
1532279690.118,19.043,26.855,30.762,35.645,298.340
1532279690.122,17.090,26.367,34.180,41.016,59.570
1532279690.126,19.043,28.320,32.715,44.434,-219.238
1532279690.130,19.043,30.762,28.320,39.551,-16.113
1532279690.134,8.301,29.297,28.809,31.250,305.664
1532279690.138,1.465,28.809,29.785,20.020,159.668
1532279690.142,9.766,27.344,30.273,25.879,-179.199
1532279690.146,20.996,26.367,33.203,33.203,-122.559
1532279690.150,24.414,24.902,34.180,36.621,207.031
1532279690.153,20.996,27.344,30.273,35.156,214.844
1532279690.157,17.090,32.715,29.785,29.297,-102.539
1532279690.161,15.137,31.250,32.227,30.762,-165.039
1532279690.165,10.742,26.855,33.203,32.715,111.816
1532279690.169,10.254,26.367,34.180,24.902,231.934
1532279690.173,14.648,26.855,36.621,28.809,-26.855
1532279690.177,16.113,26.367,36.133,37.598,-235.840
1532279690.181,16.602,28.809,32.227,36.133,17.090
1532279690.185,14.648,29.297,33.691,32.227,292.480
1532279690.189,11.719,25.391,35.156,32.715,88.867
1532279690.193,15.137,25.879,32.227,33.203,-222.656
1532279690.196,20.996,28.809,28.809,34.180,-68.359
1532279690.200,20.996,26.367,34.180,41.992,271.484
1532279690.204,20.020,27.832,37.109,36.621,173.340
1532279690.208,22.949,28.320,36.133,25.391,-179.688
1532279690.212,23.926,25.391,36.133,34.180,-166.504
1532279690.216,30.273,25.391,31.250,31.250,160.156
1532279690.220,27.832,26.855,28.320,24.414,240.723
1532279690.224,20.508,25.879,31.250,29.785,-81.543
1532279690.228,19.531,24.902,34.668,29.297,-219.238
1532279690.232,23.926,26.855,32.715,34.668,97.168
1532279690.236,34.180,27.344,30.762,38.574,275.391
1532279690.239,29.785,28.320,32.227,33.203,3.418
1532279690.243,21.484,30.762,32.227,32.715,-233.398
1532279690.247,27.344,30.762,32.715,29.297,-27.344
1532279690.251,25.879,27.344,33.691,28.320,241.211
1532279690.255,19.043,25.391,32.715,24.414,79.590
1532279690.259,25.879,23.438,33.203,28.320,-227.051
1532279690.263,28.809,24.414,33.203,42.969,-104.980
1532279690.267,20.508,24.414,32.227,34.668,238.770
1532279690.271,22.461,22.461,33.691,29.297,175.781
1532279690.275,30.273,22.461,35.156,33.203,-160.645
1532279690.278,29.297,21.484,35.156,34.668,-174.316
1532279690.282,34.668,20.508,33.691,41.992,167.969
1532279690.286,34.180,20.020,36.133,41.992,251.465
1532279690.290,32.227,21.484,36.133,35.645,-114.746
1532279690.294,39.551,23.926,32.227,39.551,-245.605
1532279690.298,40.527,27.344,31.250,38.086,107.422
1532279690.302,31.738,27.832,30.762,37.109,292.969
1532279690.306,30.273,28.320,30.273,33.691,8.301
1532279690.310,30.762,27.344,31.738,31.738,-212.402
1532279690.314,27.344,22.949,31.738,39.551,9.766
1532279690.318,26.855,21.484,30.273,30.273,278.809
1532279690.321,29.297,21.484,30.273,23.438,114.746
1532279690.325,29.297,22.461,32.227,27.344,-205.566
1532279690.329,24.414,19.043,30.273,30.273,-119.141
1532279690.333,25.879,18.555,26.855,34.668,223.145
1532279690.337,27.344,20.996,26.367,30.762,215.820
1532279690.341,18.555,19.043,25.879,20.020,-120.117
1532279690.345,25.391,20.508,27.832,29.297,-183.594
1532279690.349,29.785,22.949,29.785,33.203,119.629
1532279690.353,22.949,21.484,28.320,25.391,235.352
1532279690.357,20.508,19.043,27.344,26.855,-39.062
1532279690.361,27.832,20.508,27.344,25.391,-221.680
1532279690.364,20.020,21.484,26.855,27.832,36.621
1532279690.368,7.324,19.043,28.809,25.879,298.340
1532279690.372,16.113,20.508,29.297,24.902,69.336
1532279690.376,18.555,23.438,23.926,20.508,-228.516
1532279690.380,9.277,21.484,25.391,28.320,-67.383
1532279690.384,6.836,21.973,26.367,30.273,252.441
1532279690.388,24.414,25.391,27.832,13.184,115.234
1532279690.392,30.273,26.855,29.785,16.113,-212.891
1532279690.396,34.180,25.879,27.832,28.320,-124.512
1532279690.400,37.109,22.461,29.785,39.551,224.609
1532279690.403,28.809,20.020,32.715,42.969,246.582
1532279690.407,24.414,26.855,25.879,23.438,-101.074
1532279690.411,25.879,23.926,26.855,22.949,-173.828
1532279690.415,20.508,17.578,31.250,43.457,149.414
1532279690.419,16.602,20.508,28.320,29.785,291.016
1532279690.423,30.273,21.973,26.855,21.484,-16.113
1532279690.427,27.832,23.926,21.973,24.414,-222.656
1532279690.431,22.461,27.832,20.508,20.996,53.223
1532279690.435,18.066,26.855,22.949,22.461,298.340
1532279690.439,12.207,22.949,27.344,28.809,83.008
1532279690.443,8.301,21.484,25.879,24.902,-225.098
1532279690.446,11.230,20.508,25.879,22.461,-79.102
1532279690.450,17.578,21.973,27.344,22.461,222.656
1532279690.454,14.648,21.973,22.949,5.859,130.859
1532279690.458,19.043,20.020,23.926,13.184,-162.109
1532279690.462,19.043,19.531,25.879,29.785,-125.000
1532279690.466,17.578,20.508,23.926,27.344,187.500
1532279690.470,14.160,18.555,25.391,27.832,248.047
1532279690.474,19.043,20.508,27.832,26.367,-72.266
1532279690.478,26.855,23.438,27.344,27.344,-204.102
1532279690.482,22.949,24.414,24.414,28.809,108.398
1532279690.486,17.090,24.902,21.973,14.160,264.160
1532279690.489,17.578,25.879,23.926,12.207,-17.090
1532279690.493,8.789,26.367,23.438,16.602,-232.422
1532279690.497,4.883,22.461,22.461,29.785,7.324
1532279690.501,12.695,19.531,23.438,33.691,271.484
1532279690.505,16.602,17.578,24.902,22.949,93.262
1532279690.509,31.738,18.066,27.832,40.039,-191.895
1532279690.513,31.738,22.461,24.414,35.156,-82.520
1532279690.517,18.066,27.344,19.531,21.973,238.770
1532279690.521,12.695,25.879,20.996,19.043,189.941
1532279690.525,10.254,22.949,26.367,22.461,-153.809
1532279690.528,11.719,23.438,27.832,20.020,-172.363
1532279690.532,0.977,21.973,25.879,14.160,174.316
1532279690.536,6.348,18.066,26.855,27.832,258.789
1532279690.540,29.297,18.555,25.391,23.438,-81.543
1532279690.544,39.062,21.973,23.926,32.715,-226.074
1532279690.548,32.227,23.926,22.461,37.598,73.242
1532279690.552,25.879,26.855,20.996,31.738,295.410
1532279690.556,16.602,25.879,22.949,17.578,34.180
1532279690.560,25.391,23.438,24.902,22.461,-238.770
1532279690.564,27.832,21.973,27.832,34.668,-31.738
1532279690.568,4.883,23.438,23.926,15.625,245.117
1532279690.571,11.230,24.902,24.414,21.484,110.352
1532279690.575,22.949,23.926,27.832,35.156,-229.004
1532279690.579,18.555,26.367,24.902,27.344,-148.438
1532279690.583,23.438,24.414,21.484,16.113,219.238
1532279690.587,10.742,22.461,21.484,15.625,157.227
1532279690.591,6.836,27.832,25.879,20.508,-185.547
1532279690.595,30.762,30.273,25.879,26.855,-195.312
1532279690.599,33.203,27.344,22.949,35.156,144.531
1532279690.603,13.184,26.855,21.973,23.926,280.273
1532279690.607,20.508,25.391,24.414,10.254,-36.621
1532279690.610,32.715,25.391,26.367,26.367,-208.984
1532279690.614,23.926,26.855,24.414,28.809,55.664
1532279690.618,38.086,25.879,26.367,30.762,279.785
1532279690.622,22.949,27.344,27.832,20.996,46.387
1532279690.626,10.254,30.273,26.367,13.184,-241.699
1532279690.630,30.273,36.133,25.879,25.879,-74.219
1532279690.634,29.297,39.062,25.879,22.949,265.625
1532279690.638,26.367,35.156,29.297,18.555,190.430
1532279690.642,22.949,32.715,29.297,26.855,-147.949
1532279690.646,30.762,32.227,29.785,42.480,-109.863
1532279690.650,39.062,29.785,32.227,38.086,232.910
1532279690.653,33.203,30.762,31.738,36.133,245.605
1532279690.657,39.551,35.156,31.250,39.551,-109.863
1532279690.661,47.852,32.715,33.691,37.109,-182.617
1532279690.665,37.109,32.715,35.156,36.621,124.512
1532279690.669,35.645,34.668,33.691,38.574,244.629
1532279690.673,44.922,30.762,33.203,40.039,-30.762
1532279690.677,31.250,31.738,32.715,28.809,-242.676
1532279690.681,34.668,38.086,33.203,32.227,30.273
1532279690.685,39.062,41.016,28.809,29.297,291.016
1532279690.689,23.438,36.621,30.762,21.484,95.215
1532279690.693,32.715,37.109,33.691,40.039,-187.500
1532279690.696,47.852,35.645,31.738,41.992,-54.199
1532279690.700,31.250,34.180,31.738,33.203,278.809
1532279690.704,32.227,39.062,30.762,40.039,186.035
1532279690.708,43.457,40.527,34.668,43.457,-173.828
1532279690.712,43.945,39.551,36.133,41.992,-166.016
1532279690.716,44.922,37.598,37.109,50.781,178.223
1532279690.720,52.246,38.086,35.156,58.594,255.859
1532279690.724,55.176,39.062,30.762,53.223,-83.984
1532279690.728,44.434,36.621,32.715,50.781,-236.816
1532279690.732,33.203,38.574,33.203,44.434,115.723
1532279690.735,40.039,38.086,33.203,40.527,311.523
1532279690.739,52.734,38.574,32.715,45.410,19.531
1532279690.743,42.480,38.574,33.691,43.945,-211.914
1532279690.747,38.086,36.621,32.715,31.250,20.020
1532279690.751,40.039,39.062,32.227,33.203,282.227
1532279690.755,41.016,39.551,36.133,49.805,103.516
1532279690.759,51.270,40.039,37.109,46.387,-215.332
1532279690.763,54.688,40.527,36.621,49.316,-89.844
1532279690.767,51.270,40.527,37.598,44.922,247.559
1532279690.771,61.035,41.016,36.133,41.992,184.570
1532279690.775,53.711,37.598,38.574,46.875,-142.578
1532279690.778,38.574,39.062,38.086,45.410,-151.367
1532279690.782,41.016,38.086,36.621,55.664,195.801
1532279690.786,34.180,38.086,36.621,43.945,260.254
1532279690.790,26.367,36.621,38.086,40.527,-67.383
1532279690.794,40.527,29.297,40.527,57.129,-207.031
1532279690.798,31.250,30.762,37.109,42.480,94.238
1532279690.802,41.992,39.062,31.250,45.898,291.992
1532279690.806,36.133,39.551,29.297,44.922,13.672
1532279690.810,21.973,36.133,34.668,36.621,-256.348
1532279690.814,39.062,39.062,33.203,52.246,-30.762
1532279690.818,33.691,39.551,29.297,49.316,273.438
1532279690.821,30.273,38.086,34.668,41.992,144.043
1532279690.825,19.043,35.645,38.574,36.133,-169.434
1532279690.829,12.695,34.180,35.156,29.297,-109.863
1532279690.833,26.855,39.551,30.762,33.203,225.098
1532279690.837,26.855,39.062,32.227,34.180,237.305
1532279690.841,11.719,33.691,33.691,19.531,-112.305
1532279690.845,22.949,35.156,31.738,28.320,-208.984
1532279690.849,38.574,34.180,32.227,41.992,125.000
1532279690.853,35.156,31.250,32.715,39.551,257.324
1532279690.857,28.320,34.180,30.762,31.250,-30.762
1532279690.860,24.414,35.156,31.250,28.809,-218.262
1532279690.864,30.762,34.668,34.668,45.898,31.738
1532279690.868,39.551,35.645,38.086,37.109,246.582
1532279690.872,37.109,37.598,35.645,28.809,36.621
1532279690.876,36.133,38.086,33.203,38.574,-199.707
1532279690.880,41.992,33.691,36.133,47.852,-41.504
1532279690.884,45.898,33.203,37.109,52.734,250.488
1532279690.888,40.039,38.086,34.668,42.969,151.855
1532279690.892,23.926,40.039,31.250,22.461,-162.598
1532279690.896,9.766,38.086,26.367,26.855,-157.227
1532279690.900,30.762,39.551,27.832,39.062,191.895
1532279690.903,40.527,40.039,32.227,38.574,240.723
1532279690.907,31.738,41.016,32.227,27.344,-134.766
1532279690.911,22.461,39.551,33.691,23.438,-208.984
1532279690.915,23.926,34.180,34.180,26.367,134.277
1532279690.919,28.809,33.691,32.715,25.391,272.949
1532279690.923,27.832,35.645,33.203,29.785,-13.672
1532279690.927,33.203,37.598,29.297,22.461,-220.215
1532279690.931,30.273,39.551,26.855,24.902,22.949
1532279690.935,36.621,36.133,29.785,34.668,277.344
1532279690.939,41.992,35.645,26.855,27.832,81.055
1532279690.942,40.527,37.109,26.855,25.391,-222.168
1532279690.946,32.227,37.109,26.367,28.320,-89.844
1532279690.950,34.668,36.621,24.414,27.344,253.418
1532279690.954,33.203,35.645,28.320,21.484,182.617
1532279690.958,23.926,33.203,28.809,22.949,-144.043
1532279690.962,32.715,34.180,25.879,29.297,-149.902
1532279690.966,29.297,35.645,24.902,27.832,145.020
1532279690.970,31.250,35.156,26.367,22.949,211.426
1532279690.974,26.855,37.598,25.879,16.602,-84.473
1532279690.978,16.113,38.086,24.902,20.508,-189.941
1532279690.982,28.320,38.086,24.902,25.879,103.516
1532279690.985,37.109,36.133,26.855,20.996,242.676
1532279690.989,29.785,32.715,28.809,25.391,-17.578
1532279690.993,20.508,33.691,28.320,25.879,-237.793
1532279690.997,29.785,35.645,27.344,20.508,-15.625
1532279691.001,36.133,35.645,26.367,21.973,284.180
1532279691.005,33.691,36.621,26.855,24.902,105.469
1532279691.009,33.691,38.086,25.879,18.066,-216.797
1532279691.013,37.598,37.598,25.879,22.949,-98.145
1532279691.017,39.551,38.086,25.391,33.203,262.207
1532279691.021,34.668,38.086,26.367,28.320,209.473
1532279691.025,19.531,35.645,25.879,9.277,-175.781
1532279691.028,24.414,32.715,24.414,18.555,-178.223
1532279691.032,33.203,31.250,26.855,40.527,175.781
1532279691.036,29.297,29.785,25.391,35.645,255.371
1532279691.040,33.203,30.273,22.461,30.273,-62.988
1532279691.044,30.273,34.180,22.461,27.344,-239.258
1532279691.048,21.484,34.180,23.926,22.461,26.855
1532279691.052,12.207,31.250,24.902,13.184,261.719
1532279691.056,21.484,26.855,28.809,23.438,35.645
1532279691.060,29.297,25.879,26.855,27.832,-230.469
1532279691.064,13.672,29.297,23.926,21.973,-27.832
1532279691.067,15.625,27.832,23.926,20.020,274.902
1532279691.071,27.344,26.367,23.926,23.438,149.902
1532279691.075,39.551,25.879,27.344,30.273,-178.711
1532279691.079,29.785,25.879,27.832,30.273,-111.816
1532279691.083,27.344,23.926,32.715,35.645,214.844
1532279691.087,27.832,22.461,34.180,25.879,198.730
1532279691.091,24.902,21.484,29.297,20.996,-133.301
1532279691.095,27.832,21.973,28.320,39.551,-189.453
1532279691.099,28.320,22.461,27.344,27.832,154.785
1532279691.103,34.668,21.973,23.438,22.949,280.762
1532279691.107,18.555,19.531,24.902,35.645,-49.805
1532279691.110,19.531,17.578,25.879,27.344,-221.191
1532279691.114,27.832,15.137,27.344,28.320,58.105
1532279691.118,7.324,13.672,26.367,26.367,289.551
1532279691.122,18.066,18.555,24.902,31.250,94.727
1532279691.126,30.762,22.949,24.414,39.062,-204.102
1532279691.130,9.277,22.461,21.973,27.344,-59.082
1532279691.134,10.254,18.555,25.879,29.785,253.418
1532279691.138,25.879,20.996,25.391,30.762,151.367
1532279691.142,19.043,22.949,22.949,19.043,-154.785
1532279691.146,8.301,20.996,25.391,14.648,-142.578
1532279691.150,20.996,23.438,20.996,-9.277,173.828
1532279691.153,20.996,26.855,16.113,-3.906,243.652
1532279691.157,18.066,24.902,23.926,22.461,-88.867
1532279691.161,14.160,19.043,30.273,20.020,-194.824
1532279691.165,16.602,21.973,24.414,20.020,103.516
1532279691.169,32.227,21.973,23.438,34.668,252.441
1532279691.173,47.363,24.902,24.414,44.434,-17.090
1532279691.177,26.855,31.250,19.531,24.414,-233.887
1532279691.181,13.672,23.926,26.367,20.996,-1.465
1532279691.185,24.902,25.391,27.832,32.227,249.512
1532279691.189,25.391,31.250,20.508,19.531,53.711
1532279691.192,36.133,27.344,21.484,29.297,-210.449
1532279691.196,40.527,21.973,24.414,45.410,-59.570
1532279691.200,35.156,20.996,27.832,50.781,254.883
1532279691.204,28.320,22.461,32.227,35.156,182.129
1532279691.208,22.461,23.926,31.738,32.227,-171.387
1532279691.212,23.438,23.438,30.273,53.711,-175.781
1532279691.216,26.855,24.902,27.832,44.922,170.410
1532279691.220,42.480,31.250,21.973,34.668,228.027
1532279691.224,48.828,31.250,19.043,38.086,-103.516
1532279691.228,29.785,28.320,23.438,47.852,-244.141
1532279691.232,37.109,28.320,25.879,53.711,68.359
1532279691.235,39.551,27.832,21.973,51.270,283.203
1532279691.239,40.039,27.832,20.020,34.668,8.301
1532279691.243,37.109,24.902,22.949,23.438,-236.816
1532279691.247,24.414,21.484,23.438,33.203,-37.109
1532279691.251,28.809,21.973,20.508,29.297,248.535
1532279691.255,7.812,21.484,23.438,37.598,78.125
1532279691.259,-12.207,20.996,26.367,33.691,-231.934
1532279691.263,34.180,27.344,19.531,30.273,-118.652
1532279691.267,52.246,29.785,19.043,39.551,208.008
1532279691.271,29.297,23.926,22.949,38.086,185.059
1532279691.275,22.461,21.484,26.367,45.898,-152.344
1532279691.278,35.645,20.020,22.949,44.922,-200.684
1532279691.282,45.410,20.508,21.484,51.270,134.766
1532279691.286,47.363,24.414,23.926,46.875,243.164
1532279691.290,41.016,29.297,22.949,39.551,-56.152
1532279691.294,33.203,28.320,19.531,26.855,-192.383
1532279691.298,40.039,26.855,15.625,18.066,89.355
1532279691.302,34.668,26.367,16.113,18.555,292.969
1532279691.306,20.020,23.926,20.996,19.043,41.504
1532279691.310,13.184,20.020,21.973,15.625,-205.078
1532279691.314,21.484,17.578,20.996,13.672,-8.301
1532279691.317,24.902,17.090,23.926,15.625,273.438
1532279691.321,23.926,18.555,21.484,-2.441,166.992
1532279691.325,19.531,19.043,20.020,-5.371,-173.340
1532279691.329,10.254,17.090,23.438,-1.953,-127.930
1532279691.333,9.277,17.578,28.809,3.906,243.164
1532279691.337,16.113,20.508,32.227,17.090,223.145
1532279691.341,10.742,20.020,27.832,14.648,-114.746
1532279691.345,3.906,21.973,24.902,19.043,-189.941
1532279691.349,9.766,25.879,27.832,12.207,120.605
1532279691.353,23.926,24.902,27.832,3.906,272.949
1532279691.357,16.113,22.949,23.926,6.348,4.883
1532279691.360,13.672,21.484,20.996,13.184,-188.965
1532279691.364,9.766,18.555,25.879,26.367,53.711
1532279691.368,14.160,19.531,30.273,21.973,283.691
1532279691.372,28.320,25.391,28.809,7.324,85.938
1532279691.376,17.090,26.367,28.809,5.859,-194.336
1532279691.380,20.020,26.367,26.367,17.090,-34.668
1532279691.384,29.297,27.344,25.391,18.066,273.926
1532279691.388,31.250,24.414,26.855,7.812,156.738
1532279691.392,24.902,23.438,27.832,-0.977,-176.270
1532279691.396,17.578,27.344,26.367,-2.441,-129.883
1532279691.399,12.695,27.832,23.438,5.859,229.980
1532279691.403,8.301,25.391,26.855,8.789,246.094
1532279691.407,8.789,23.438,29.297,-9.766,-126.465
1532279691.411,1.465,22.949,28.320,-16.602,-206.055
1532279691.415,3.418,20.996,29.297,-6.836,104.004
1532279691.419,4.883,20.508,28.809,-5.859,244.141
1532279691.423,-4.395,18.555,31.738,-3.418,-8.789
1532279691.427,15.625,21.973,31.738,-2.441,-237.305
1532279691.431,20.996,25.391,31.250,-4.395,6.348
1532279691.435,13.672,26.367,29.785,-2.930,289.551
1532279691.439,19.043,26.367,29.785,10.254,104.980
1532279691.442,15.137,23.438,29.785,7.812,-201.172
1532279691.446,7.324,21.973,27.832,0.488,-88.379
1532279691.450,4.883,22.461,29.297,3.906,259.277
1532279691.454,4.883,19.531,31.250,6.348,187.988
1532279691.458,11.230,20.020,31.738,13.672,-160.156
1532279691.462,21.973,22.461,29.297,20.020,-152.832
1532279691.466,12.207,22.461,23.926,8.301,151.367
1532279691.470,2.441,22.461,22.949,-7.812,214.844
1532279691.474,4.883,20.020,22.949,-10.254,-67.871
1532279691.478,10.742,23.438,22.949,-2.441,-198.242
1532279691.482,24.414,23.926,23.926,14.160,108.887
1532279691.485,20.508,23.438,24.414,19.531,292.969
1532279691.489,11.230,22.949,24.414,9.766,-1.953
1532279691.493,17.090,24.414,24.902,-3.906,-228.516
1532279691.497,12.207,20.020,26.367,11.230,5.859
1532279691.501,16.113,16.602,24.414,26.855,282.715
1532279691.505,30.273,20.508,25.879,21.484,103.516
1532279691.509,36.621,21.973,30.762,16.602,-214.355
1532279691.513,34.668,21.973,31.250,21.973,-113.770
1532279691.517,34.180,24.902,31.738,24.414,214.844
1532279691.521,35.156,25.391,34.668,26.855,210.938
1532279691.524,34.668,25.391,35.645,35.156,-141.602
1532279691.528,35.156,25.879,37.598,40.527,-206.543
1532279691.532,29.785,25.879,38.086,45.898,176.758
1532279691.536,17.578,26.855,35.645,41.016,293.945
1532279691.540,12.695,26.367,37.598,38.574,-41.016
1532279691.544,17.578,24.414,39.062,39.551,-219.238
1532279691.548,22.949,29.297,33.691,27.344,56.152
1532279691.552,26.367,33.203,35.156,25.879,269.531
1532279691.556,19.043,30.273,40.039,30.273,31.250
1532279691.560,18.066,31.738,38.574,27.344,-218.750
1532279691.564,29.297,32.227,38.574,37.109,-18.555
1532279691.567,40.527,32.715,39.551,38.574,259.766
1532279691.571,40.039,36.133,37.598,28.809,96.191
1532279691.575,28.809,37.598,37.598,32.227,-187.500
1532279691.579,28.809,35.645,38.574,32.715,-113.281
1532279691.583,34.180,34.180,36.621,26.855,220.215
1532279691.587,28.320,35.645,37.598,32.715,234.863
1532279691.591,27.344,37.109,37.598,30.273,-108.887
1532279691.595,30.273,34.668,35.156,18.555,-180.664
1532279691.599,28.320,33.691,35.156,26.855,143.555
1532279691.603,25.879,32.715,36.133,37.598,278.809
1532279691.607,28.320,33.691,36.621,22.949,-17.090
1532279691.610,27.832,33.203,38.086,11.719,-235.840
1532279691.614,23.926,29.297,37.109,27.344,1.953
1532279691.618,28.809,30.273,36.621,36.621,249.512
1532279691.622,39.062,30.762,38.574,36.621,60.547
1532279691.626,42.480,31.250,39.551,34.180,-227.051
1532279691.630,29.785,31.738,40.527,28.809,-76.660
1532279691.634,26.855,32.715,39.062,25.879,269.043
1532279691.638,39.551,37.598,36.621,24.902,186.035
1532279691.642,45.898,40.527,39.062,26.367,-168.457
1532279691.646,43.457,39.062,40.039,28.809,-149.902
1532279691.649,42.969,40.039,38.086,31.250,196.777
1532279691.653,41.016,40.039,39.062,29.297,237.793
1532279691.657,40.527,41.016,36.621,23.438,-98.145
1532279691.661,44.922,41.504,34.180,25.879,-179.688
1532279691.665,43.945,41.016,33.203,28.809,139.160
1532279691.669,38.086,42.480,30.273,19.043,265.625
1532279691.673,39.062,45.410,29.297,15.625,-17.578
1532279691.677,37.598,43.457,32.715,24.414,-212.402
1532279691.681,37.109,41.504,32.715,27.832,30.273
1532279691.685,34.180,40.039,33.203,21.973,276.855
1532279691.689,33.691,37.598,36.133,20.508,63.477
1532279691.692,42.480,40.527,38.086,23.438,-253.418
1532279691.696,40.527,39.062,40.527,26.367,-80.566
1532279691.700,41.992,36.133,39.551,30.762,287.109
1532279691.704,34.180,37.109,39.062,28.320,189.453
1532279691.708,31.250,39.551,39.551,22.461,-205.566
1532279691.712,37.598,39.062,40.039,25.391,-207.031
1532279691.716,34.668,34.668,40.527,37.598,151.367
1532279691.720,31.250,32.715,37.598,33.691,229.004
1532279691.724,31.738,33.691,34.180,18.555,-80.078
1532279691.728,36.133,36.133,34.668,19.531,-222.656
1532279691.731,38.574,39.062,36.133,28.320,91.309
1532279691.735,33.691,37.598,38.086,25.391,290.527
1532279691.739,31.250,35.156,42.480,24.414,15.137
1532279691.743,30.762,35.156,43.945,30.273,-236.328
1532279691.747,29.297,33.691,43.457,24.902,-29.785
1532279691.751,25.879,32.715,43.457,23.926,246.094
1532279691.755,29.785,35.645,39.062,21.484,97.656
1532279691.759,32.715,35.645,36.621,20.020,-209.473
1532279691.763,28.320,35.156,35.156,20.020,-125.488
1532279691.767,28.809,36.621,36.133,19.531,208.984
1532279691.771,24.414,35.645,40.039,22.949,187.500
1532279691.774,23.438,37.598,39.062,22.949,-149.414
1532279691.778,26.367,37.598,39.551,26.855,-174.805
1532279691.782,28.809,34.180,40.527,29.297,171.875
1532279691.786,30.273,36.621,37.598,20.996,238.281
1532279691.790,31.738,39.062,36.621,18.555,-83.008
1532279691.794,27.344,36.133,36.621,25.879,-224.609
1532279691.798,20.020,31.738,36.133,27.344,66.406
1532279691.802,23.926,32.715,32.715,24.902,299.805
1532279691.806,30.762,38.574,33.203,28.320,21.484
1532279691.810,34.668,38.574,34.668,27.832,-256.348
1532279691.814,31.250,36.621,32.227,25.879,-26.855
1532279691.817,31.250,36.621,32.227,26.855,287.109
1532279691.821,26.855,37.109,33.691,26.367,131.836
1532279691.825,20.508,36.621,33.691,24.902,-197.754
1532279691.829,30.762,37.598,31.250,26.367,-142.090
1532279691.833,35.645,39.551,30.273,28.809,199.707
1532279691.837,32.227,37.109,31.738,28.809,207.520
1532279691.841,29.297,37.598,29.785,25.391,-131.348
1532279691.845,30.273,40.039,27.832,25.391,-221.680
1532279691.849,27.344,37.598,30.762,30.762,87.891
1532279691.853,29.785,34.668,30.273,34.180,255.371
1532279691.856,39.062,35.645,31.250,36.133,-18.066
1532279691.860,41.016,36.133,31.250,37.598,-206.543
1532279691.864,40.527,37.598,28.809,41.504,45.410
1532279691.868,41.992,40.039,30.762,40.527,270.020
1532279691.872,40.039,41.504,31.250,37.109,63.477
1532279691.876,39.062,35.645,32.227,35.156,-207.031
1532279691.880,34.668,33.203,35.645,38.086,-63.965
1532279691.884,40.527,34.668,34.668,37.109,265.137
1532279691.888,47.363,32.227,33.203,35.645,156.738
1532279691.892,47.363,32.715,34.180,42.480,-184.570
1532279691.896,45.898,35.156,32.227,44.434,-156.250
1532279691.899,39.551,34.180,33.203,45.410,192.871
1532279691.903,36.621,31.738,35.645,46.387,264.160
1532279691.907,31.250,31.250,32.227,40.039,-96.680
1532279691.911,30.273,29.297,33.203,38.574,-230.469
1532279691.915,31.250,27.344,34.668,41.992,89.844
1532279691.919,32.715,28.809,34.668,38.086,262.695
1532279691.923,33.203,30.762,37.109,33.691,-18.555
1532279691.927,32.227,30.762,35.645,35.156,-248.047
1532279691.931,29.785,29.297,32.715,33.691,11.719
1532279691.935,27.344,27.832,31.738,31.250,276.855
1532279691.939,32.227,26.367,33.203,36.133,71.777
1532279691.942,34.180,26.855,35.645,42.969,-213.379
1532279691.946,33.691,29.297,34.668,36.621,-91.797
1532279691.950,32.227,31.250,28.809,27.344,213.379
1532279691.954,32.715,33.691,28.320,31.250,179.688
1532279691.958,35.645,35.645,30.273,32.227,-148.926
1532279691.962,32.227,33.691,28.320,34.180,-156.738
1532279691.966,31.250,33.691,29.297,35.645,171.387
1532279691.970,32.715,31.250,32.227,32.715,246.094
1532279691.974,33.203,29.297,33.691,35.156,-77.148
1532279691.978,34.180,29.785,35.156,37.109,-220.215
1532279691.981,33.691,28.320,34.180,38.574,111.328
1532279691.985,41.992,29.785,32.715,45.898,280.762
1532279691.989,45.410,33.203,32.715,41.992,-24.414
1532279691.993,40.527,32.715,31.738,35.156,-229.492
1532279691.997,44.922,31.738,34.180,44.434,-3.418
1532279692.001,43.945,30.762,31.250,43.945,284.668
1532279692.005,38.574,32.715,30.762,36.133,119.629
1532279692.009,39.551,34.668,34.180,38.086,-218.262
1532279692.013,40.039,33.203,33.203,45.898,-113.770
1532279692.017,41.016,34.180,30.273,46.875,230.469
1532279692.021,33.691,35.645,28.320,40.039,201.660
1532279692.024,25.879,35.156,28.809,30.273,-168.457
1532279692.028,27.344,34.180,28.320,26.367,-219.727
1532279692.032,33.203,31.738,26.367,38.086,140.137
1532279692.036,35.645,30.273,27.832,42.969,266.602
1532279692.040,33.691,28.809,33.203,36.133,-51.270
1532279692.044,38.086,24.902,33.691,41.016,-229.004
1532279692.048,42.480,25.391,34.668,48.340,33.691
1532279692.052,39.551,27.832,33.203,40.527,251.953
1532279692.056,38.086,28.809,29.785,36.621,34.180
1532279692.060,41.016,30.273,28.320,39.062,-217.285
1532279692.064,36.133,29.297,30.273,44.922,-29.785
1532279692.067,28.320,25.879,31.738,41.992,239.258
1532279692.071,30.762,22.949,29.785,35.156,92.773
1532279692.075,40.039,26.367,26.855,40.039,-214.844
1532279692.079,42.969,31.738,23.438,42.480,-125.977
1532279692.083,43.457,32.227,24.414,42.480,207.031
1532279692.087,39.062,34.180,25.879,33.691,166.016
1532279692.091,35.156,32.715,25.879,34.180,-157.227
1532279692.095,37.598,30.762,24.414,34.668,-200.195
1532279692.099,38.574,30.273,26.367,33.203,132.324
1532279692.103,32.227,29.297,27.832,36.133,267.578
1532279692.106,35.645,29.297,29.297,36.621,-58.105
1532279692.110,39.062,26.855,31.250,41.992,-236.328
1532279692.114,34.180,25.879,28.809,45.898,54.199
1532279692.118,29.297,27.832,27.344,42.480,315.918
1532279692.122,25.879,30.762,26.855,37.109,83.984
1532279692.126,37.598,32.715,29.297,41.016,-248.047
1532279692.130,43.945,31.738,30.273,49.316,-80.078
1532279692.134,45.410,28.320,30.273,50.781,266.113
1532279692.138,47.363,29.297,30.762,45.898,150.391
1532279692.142,43.945,31.738,30.762,43.457,-180.664
1532279692.146,42.969,31.738,31.738,44.922,-166.504
1532279692.149,40.527,28.809,33.203,53.711,155.273
1532279692.153,39.062,28.320,34.668,56.152,218.262
1532279692.157,36.621,27.832,36.133,52.734,-114.746
1532279692.161,41.016,28.320,35.156,55.176,-205.078
1532279692.165,41.504,31.250,35.645,54.688,124.512
1532279692.169,39.551,31.738,35.645,49.316,246.582
1532279692.173,38.086,32.227,32.715,47.852,-30.762
1532279692.177,38.086,33.203,30.762,45.898,-230.469
1532279692.181,43.457,32.227,32.227,50.781,22.461
1532279692.185,50.781,29.785,32.715,54.199,297.363
1532279692.188,43.457,28.320,32.227,48.340,76.660
1532279692.192,38.574,31.250,30.273,46.875,-222.168
1532279692.196,42.480,32.715,29.297,47.363,-76.660
1532279692.200,42.969,32.227,28.320,46.875,255.371
1532279692.204,44.434,32.227,31.250,45.898,203.125
1532279692.208,41.016,33.203,34.180,41.016,-166.016
1532279692.212,38.086,33.203,33.691,39.062,-181.641
1532279692.216,34.668,30.273,33.203,40.527,170.898
1532279692.220,37.598,33.203,34.668,39.062,250.488
1532279692.224,37.109,35.156,32.715,37.598,-63.965
1532279692.228,42.480,35.156,34.180,35.156,-229.004
1532279692.231,51.758,35.645,34.180,37.109,43.457
1532279692.235,47.852,33.203,33.691,36.621,252.930
1532279692.239,47.852,34.668,36.133,26.367,44.434
1532279692.243,47.852,37.598,35.645,28.320,-200.684
1532279692.247,47.852,35.645,33.691,39.551,-18.555
1532279692.251,44.922,32.227,34.180,43.945,283.691
1532279692.255,42.969,32.715,34.668,43.945,107.910
1532279692.259,36.621,28.320,34.180,43.457,-205.078
1532279692.263,27.344,26.855,32.227,41.016,-106.934
1532279692.267,28.320,28.320,31.738,38.574,200.684
1532279692.271,32.227,29.785,31.250,37.598,171.387
1532279692.274,29.297,30.273,29.297,38.086,-151.855
1532279692.278,31.738,26.855,31.738,40.039,-165.527
1532279692.282,31.250,24.902,33.203,40.039,161.621
1532279692.286,30.762,25.879,30.762,38.574,251.465
1532279692.290,37.109,26.855,29.785,37.109,-53.223
1532279692.294,37.109,28.320,30.762,37.109,-217.285
1532279692.298,31.250,26.367,32.715,39.062,70.312
1532279692.302,28.809,21.973,32.715,37.598,298.828
1532279692.306,28.809,23.926,32.227,34.668,37.598
1532279692.310,27.832,25.391,32.715,31.738,-269.043
1532279692.313,27.832,22.949,31.250,39.551,-28.320
1532279692.317,27.344,22.949,32.715,39.062,304.199
1532279692.321,26.855,20.996,30.273,32.715,140.625
1532279692.325,35.156,22.461,25.391,34.668,-194.824
1532279692.329,34.668,24.902,25.879,34.668,-128.418
1532279692.333,29.297,23.926,27.344,33.203,213.379
1532279692.337,31.738,21.973,26.855,34.180,208.008
1532279692.341,31.738,16.113,29.297,32.715,-145.508
1532279692.345,28.320,13.672,30.273,31.738,-207.031
1532279692.349,29.297,18.066,29.297,41.016,136.230
1532279692.353,36.133,18.555,26.855,44.922,277.344
1532279692.356,29.297,16.113,30.273,37.598,-14.648
1532279692.360,24.902,15.137,35.156,41.016,-208.984
1532279692.364,32.227,16.602,34.668,49.316,31.738
1532279692.368,40.039,22.949,30.762,47.363,269.043
1532279692.372,38.086,26.855,27.344,40.527,72.754
1532279692.376,35.645,26.367,26.855,39.062,-229.980
1532279692.380,35.156,23.438,27.344,38.574,-76.660
1532279692.384,30.762,22.949,26.367,40.039,245.117
1532279692.388,36.621,25.391,28.320,40.527,158.203
1532279692.392,42.480,23.926,32.715,35.645,-172.363
1532279692.396,34.180,19.043,33.691,39.062,-156.250
1532279692.399,31.250,18.555,32.715,45.410,180.176
1532279692.403,32.227,21.484,32.227,40.527,242.676
1532279692.407,32.715,19.531,32.227,32.227,-132.324
1532279692.411,38.574,17.578,32.715,33.691,-253.418
1532279692.415,40.527,20.508,31.738,41.016,102.539
1532279692.419,36.621,22.461,28.320,40.527,290.039
1532279692.423,32.715,22.461,26.855,35.645,6.348
1532279692.427,31.738,23.438,27.832,34.668,-218.262
1532279692.431,30.273,24.414,25.879,39.062,46.387
1532279692.435,32.227,25.391,25.879,35.156,314.941
1532279692.438,35.645,25.879,26.367,30.762,122.559
1532279692.442,39.551,25.879,26.367,35.156,-202.637
1532279692.446,35.645,23.438,27.344,31.250,-126.953
1532279692.450,31.250,21.973,27.832,29.297,213.867
1532279692.454,36.133,22.949,27.832,35.156,198.242
1532279692.458,41.016,24.902,28.320,35.156,-157.715
1532279692.462,42.969,23.438,27.832,41.992,-178.711
1532279692.466,43.457,21.484,27.832,43.945,156.250
1532279692.470,42.480,21.484,28.809,38.086,240.723
1532279692.474,43.457,22.949,28.320,40.039,-69.336
1532279692.478,39.062,22.461,27.832,39.551,-232.422
1532279692.481,36.621,19.043,31.738,43.945,80.566
1532279692.485,34.668,20.020,34.180,43.457,271.484
1532279692.489,33.203,21.973,34.180,39.062,-5.371
1532279692.493,41.016,20.020,34.668,46.875,-228.027
1532279692.497,39.551,21.973,30.273,45.898,-41.016
1532279692.501,32.227,24.902,26.855,40.527,260.742
1532279692.505,33.691,24.902,27.344,38.086,118.652
1532279692.509,35.156,27.832,26.855,31.738,-227.539
1532279692.513,40.527,28.320,28.809,39.551,-105.957
1532279692.517,38.574,22.949,32.227,46.875,245.605
1532279692.520,26.855,18.555,33.691,44.434,220.703
1532279692.524,32.715,19.531,34.668,46.875,-143.555
1532279692.528,43.457,20.508,32.715,48.340,-205.566
1532279692.532,40.527,18.066,32.715,49.805,156.738
1532279692.536,38.086,17.090,34.668,50.293,274.414
1532279692.540,33.691,16.602,35.645,43.945,-26.367
1532279692.544,32.715,15.137,35.156,44.434,-209.473
1532279692.548,34.180,17.578,36.133,47.363,32.227
1532279692.552,36.133,16.113,36.621,49.316,291.016
1532279692.556,34.180,10.742,34.668,49.316,65.430
1532279692.560,29.785,12.207,32.715,47.363,-226.074
1532279692.563,29.297,16.113,28.809,47.363,-32.715
1532279692.567,22.461,17.090,25.391,45.898,273.926
1532279692.571,18.555,18.555,26.855,41.504,156.250
1532279692.575,22.461,17.578,24.902,38.086,-180.176
1532279692.579,29.785,16.113,24.902,41.992,-144.043
1532279692.583,30.762,17.578,24.902,51.758,204.102
1532279692.587,34.668,19.531,22.949,49.805,182.617
1532279692.591,35.645,20.996,25.391,40.039,-167.969
1532279692.595,30.273,19.531,26.367,39.062,-188.477
1532279692.599,27.832,16.113,26.855,41.504,148.926
1532279692.603,30.273,16.602,26.855,39.551,269.531
1532279692.606,29.785,19.043,25.879,41.992,-25.391
1532279692.610,32.715,20.020,26.367,44.434,-211.914
1532279692.614,34.180,20.020,28.809,43.457,64.453
1532279692.618,32.715,19.043,32.715,44.434,297.852
1532279692.622,25.879,19.043,32.715,41.016,77.148
1532279692.626,20.996,18.066,29.297,40.039,-217.773
1532279692.630,23.438,17.090,28.809,45.410,-86.426
1532279692.634,26.367,18.555,30.273,44.434,263.184
1532279692.638,29.785,19.531,30.273,37.598,191.895
1532279692.642,29.297,18.066,26.855,34.180,-150.391
1532279692.645,27.344,19.043,23.438,33.691,-141.602
1532279692.649,24.414,20.996,24.414,34.180,187.500
1532279692.653,24.414,20.020,28.809,34.180,250.977
1532279692.657,23.926,20.020,29.297,33.203,-76.172
1532279692.661,30.762,21.484,26.855,35.645,-218.262
1532279692.665,39.551,24.414,25.391,41.016,99.609
1532279692.669,35.156,25.879,23.438,43.457,282.715
1532279692.673,28.809,27.832,20.508,33.691,7.324
1532279692.677,29.785,28.809,22.461,27.832,-231.445
1532279692.681,30.762,27.832,23.926,32.715,-13.672
1532279692.685,23.438,26.855,23.926,27.832,276.855
1532279692.688,19.043,25.391,27.344,20.996,83.496
1532279692.692,26.855,24.902,26.855,29.297,-214.355
1532279692.696,32.227,24.414,22.461,40.527,-72.266
1532279692.700,30.273,25.879,17.578,41.504,275.391
1532279692.704,31.250,31.250,15.625,34.668,207.031
1532279692.708,30.762,30.273,16.602,32.227,-188.477
1532279692.712,25.391,25.879,18.066,35.645,-206.055
1532279692.716,25.391,26.367,19.043,38.574,165.527
1532279692.720,25.879,26.855,19.531,39.062,254.883
1532279692.724,20.996,26.367,20.996,34.180,-75.195
1532279692.728,23.438,27.344,22.949,38.086,-220.215
1532279692.731,24.902,26.367,19.531,43.457,86.426
1532279692.735,18.066,25.391,13.672,36.133,281.250
1532279692.739,17.090,25.879,14.648,31.738,23.926
1532279692.743,18.555,25.879,20.020,34.180,-219.727
1532279692.747,20.020,26.855,21.484,37.598,-15.137
1532279692.751,22.461,26.367,19.043,37.598,290.039
1532279692.755,28.809,24.414,18.555,33.203,127.441
1532279692.759,33.203,25.391,18.555,29.785,-224.121
1532279692.763,29.785,27.832,15.625,37.109,-132.812
1532279692.767,27.832,28.320,14.160,36.621,229.492
1532279692.770,29.785,27.832,16.602,31.738,214.844
1532279692.774,33.203,29.297,16.113,32.227,-145.508
1532279692.778,39.062,31.738,13.672,41.016,-191.406
1532279692.782,37.598,31.250,13.672,48.828,164.062
1532279692.786,29.785,31.250,14.648,39.551,252.930
1532279692.790,22.949,29.297,19.043,31.738,-68.359
1532279692.794,16.602,26.855,20.996,36.133,-233.398
1532279692.798,17.090,25.391,19.043,39.551,42.969
1532279692.802,30.273,23.438,19.043,42.969,299.316
1532279692.806,30.273,22.949,21.973,40.527,47.363
1532279692.810,20.996,21.484,24.414,35.156,-231.934
1532279692.813,19.043,20.020,22.949,36.621,-37.109
1532279692.817,25.391,20.020,20.508,38.574,257.812
1532279692.821,32.227,21.973,18.066,38.086,150.879
1532279692.825,34.180,23.926,17.578,35.645,-214.355
1532279692.829,41.504,31.738,12.695,30.273,-167.969
1532279692.833,41.992,37.109,8.789,29.297,229.004
1532279692.837,36.621,33.203,14.648,29.297,250.000
1532279692.841,33.691,31.738,17.090,26.367,-91.797
1532279692.845,34.180,32.227,16.113,31.738,-177.734
1532279692.849,34.180,30.762,12.695,36.133,147.949
1532279692.853,31.738,30.762,11.719,31.250,291.504
1532279692.856,28.320,32.715,14.160,25.391,-22.461
1532279692.860,29.785,32.715,17.090,26.855,-215.820
1532279692.864,24.414,32.227,20.020,31.738,53.223
1532279692.868,20.508,29.785,20.020,31.738,294.922
1532279692.872,25.879,27.344,22.949,34.180,71.777
1532279692.876,25.391,29.297,23.438,33.691,-218.262
1532279692.880,24.414,32.227,20.996,36.133,-73.730
1532279692.884,26.367,33.691,19.043,41.016,262.207
1532279692.888,22.949,30.762,20.508,29.785,197.266
1532279692.892,15.625,26.855,23.926,22.949,-157.715
1532279692.895,18.555,28.320,25.391,31.738,-146.973
1532279692.899,24.902,27.832,23.926,36.133,217.285
1532279692.903,27.832,29.785,22.461,34.180,252.930
1532279692.907,33.691,33.203,21.484,29.297,-91.797
1532279692.911,25.879,32.715,20.508,24.902,-214.355
1532279692.915,21.484,29.297,22.949,24.902,99.609
1532279692.919,26.855,28.809,23.438,23.926,318.359
1532279692.923,31.250,32.715,19.531,27.832,39.551
1532279692.927,33.691,32.715,16.602,28.320,-250.488
1532279692.931,30.762,30.762,18.555,29.785,-39.551
1532279692.935,27.832,28.320,20.508,31.738,276.367
1532279692.938,25.879,28.320,22.461,27.344,114.746
1532279692.942,20.508,28.809,22.949,25.879,-202.148
1532279692.946,21.973,29.297,20.508,26.855,-84.473
1532279692.950,26.855,29.297,18.066,29.785,255.859
1532279692.954,29.297,33.203,17.090,32.227,192.871
1532279692.958,33.691,36.133,16.113,33.691,-170.898
1532279692.962,34.180,35.156,16.602,34.668,-177.246
1532279692.966,36.133,34.180,19.531,33.691,176.270
1532279692.970,42.969,35.156,20.508,25.879,260.742
1532279692.974,44.434,36.621,17.090,23.438,-59.570
1532279692.977,45.410,38.574,13.184,22.949,-212.402
1532279692.981,41.992,39.062,13.184,23.438,84.961
1532279692.985,30.762,36.133,16.602,20.508,300.781
1532279692.989,22.949,35.645,18.555,21.484,36.133
1532279692.993,20.996,38.086,14.648,25.391,-233.887
1532279692.997,24.902,35.645,15.625,28.809,-13.184
1532279693.001,29.785,33.691,19.043,32.715,305.176
1532279693.005,24.414,35.645,19.531,31.738,125.977
1532279693.009,18.555,36.133,21.484,28.809,-219.727
1532279693.013,27.832,35.645,19.531,39.062,-127.441
1532279693.017,34.180,34.180,16.113,45.410,244.141
1532279693.020,31.738,34.180,15.137,36.621,235.352
1532279693.024,29.785,35.645,14.160,29.297,-154.785
1532279693.028,30.762,38.574,16.602,33.691,-202.148
1532279693.032,38.086,40.039,19.043,40.039,160.156
1532279693.036,32.227,38.574,17.578,34.668,271.973
1532279693.040,22.461,36.133,18.066,27.832,-61.035
1532279693.044,24.902,33.203,20.020,30.762,-247.559
1532279693.048,27.344,35.645,18.066,32.227,57.129
1532279693.052,29.297,39.551,15.137,29.297,270.020
1532279693.056,26.855,37.598,15.137,22.461,14.648
1532279693.060,20.020,35.645,16.602,17.090,-253.418
1532279693.063,20.996,32.227,17.090,19.531,-51.270
1532279693.067,24.902,30.762,19.043,20.996,266.602
1532279693.071,28.320,30.273,20.020,19.531,121.582
1532279693.075,24.414,27.344,20.020,26.855,-201.172
1532279693.079,19.043,24.902,19.043,29.297,-137.207
1532279693.083,20.996,24.414,19.531,29.785,217.285
1532279693.087,25.391,24.414,21.973,31.738,240.234
1532279693.091,31.250,24.902,21.484,33.691,-109.375
1532279693.095,27.832,27.344,21.484,35.645,-208.984
1532279693.099,22.461,28.809,21.484,37.598,117.676
1532279693.102,22.461,29.297,19.531,36.621,267.090
1532279693.106,22.461,30.762,20.996,26.855,-49.805
1532279693.110,21.484,28.809,22.949,23.926,-247.559
1532279693.114,21.973,28.320,22.949,33.203,20.508
1532279693.118,26.855,28.809,24.414,34.668,261.230
1532279693.122,31.250,29.297,22.461,31.250,68.359
1532279693.126,26.855,32.715,19.531,23.438,-239.746
1532279693.130,28.320,33.203,18.555,22.949,-97.168
1532279693.134,30.273,32.715,13.184,24.902,268.066
1532279693.138,31.250,33.203,11.230,23.438,189.453
1532279693.142,31.250,33.203,17.090,25.391,-191.895
1532279693.145,30.762,33.691,19.531,25.391,-192.871
1532279693.149,35.156,35.156,19.043,31.250,155.762
1532279693.153,32.715,33.691,19.531,36.133,235.840
1532279693.157,29.297,31.738,22.461,31.250,-92.285
1532279693.161,29.297,32.715,26.367,33.203,-192.383
1532279693.165,34.668,33.203,23.926,39.551,116.699
1532279693.169,40.527,33.203,22.949,44.922,288.086
1532279693.173,42.969,33.203,23.926,45.410,26.367
1532279693.177,39.551,33.203,22.461,43.457,-239.258
1532279693.181,35.156,33.691,25.391,49.805,-3.418
1532279693.185,32.227,34.180,27.344,45.410,295.898
1532279693.188,30.273,34.668,24.414,35.156,104.004
1532279693.192,35.645,34.180,20.996,38.086,-228.027
1532279693.196,33.203,34.180,18.555,36.133,-101.074
1532279693.200,27.832,33.203,21.484,32.227,278.320
1532279693.204,26.855,33.691,21.973,30.762,221.191
1532279693.208,28.809,35.645,20.508,20.020,-162.109
1532279693.212,32.227,37.598,20.996,26.367,-178.223
1532279693.216,33.691,37.598,18.555,40.527,183.594
1532279693.220,33.203,38.574,17.578,37.109,292.969
1532279693.224,30.762,38.574,20.020,31.250,-53.223
1532279693.227,33.203,37.598,22.461,32.715,-232.910
1532279693.231,38.086,38.574,21.484,38.086,107.422
1532279693.235,31.738,38.086,21.484,41.016,326.660
1532279693.239,26.855,35.156,23.926,38.574,34.180
1532279693.243,25.879,32.715,25.879,37.598,-217.773
1532279693.247,32.715,34.180,26.367,42.480,-13.672
1532279693.251,35.645,34.668,25.391,41.992,268.555
1532279693.255,29.785,31.738,26.367,36.133,131.836
1532279693.259,27.344,28.320,26.855,37.598,-181.641
1532279693.263,29.785,25.391,25.879,45.410,-91.309
1532279693.267,31.738,25.879,25.879,41.504,238.770
1532279693.270,29.297,27.344,28.809,36.621,197.266
1532279693.274,21.973,26.367,28.809,33.203,-130.371
1532279693.278,22.461,25.879,28.809,36.621,-170.410
1532279693.282,26.855,26.855,27.832,44.922,157.715
1532279693.286,29.785,27.832,26.855,40.527,257.324
1532279693.290,32.715,29.297,29.785,35.156,-96.680
1532279693.294,31.738,31.738,29.297,37.109,-244.629
1532279693.298,33.203,31.738,26.855,43.457,79.102
1532279693.302,32.715,29.785,29.785,48.340,307.617
1532279693.306,27.832,29.297,31.250,40.527,41.992
1532279693.309,30.273,28.809,30.762,38.574,-246.094
1532279693.313,35.645,28.809,30.762,52.246,-44.434
1532279693.317,36.621,31.250,29.785,56.152,281.738
1532279693.321,30.273,31.250,30.762,46.387,179.688
1532279693.325,29.785,29.785,30.762,42.480,-179.688
1532279693.329,34.180,31.250,31.738,46.875,-133.301
1532279693.333,32.715,30.273,28.809,48.828,219.238
1532279693.337,34.180,30.273,28.320,47.363,227.051
1532279693.341,40.527,32.715,29.297,43.457,-106.934
1532279693.345,41.504,33.203,28.809,41.016,-205.566
1532279693.349,37.598,32.227,31.250,41.504,100.098
1532279693.352,34.180,30.273,31.250,39.062,262.207
1532279693.356,34.180,32.227,25.879,35.156,-20.020
1532279693.360,40.039,36.133,21.973,39.062,-217.285
1532279693.364,35.645,36.133,24.902,40.039,40.527
1532279693.368,25.879,33.691,25.391,30.762,283.691
1532279693.372,28.809,34.180,22.461,26.855,66.895
1532279693.376,30.273,33.203,22.949,27.832,-222.656
1532279693.380,25.879,30.273,25.391,31.250,-82.031
1532279693.384,22.949,30.762,26.367,31.738,246.094
1532279693.388,22.461,32.227,26.855,25.391,149.414
1532279693.392,24.902,30.762,25.879,25.391,-194.336
1532279693.395,29.785,27.832,26.855,31.250,-158.203
1532279693.399,31.250,27.344,27.832,38.086,182.617
1532279693.403,32.227,30.762,26.367,35.156,240.234
1532279693.407,32.715,33.203,23.926,30.273,-91.797
1532279693.411,29.785,30.273,23.438,34.668,-222.656
1532279693.415,25.391,27.832,26.367,35.156,111.816
1532279693.419,19.531,28.320,25.391,29.297,321.289
1532279693.423,25.391,28.809,22.949,28.320,27.344
1532279693.427,32.227,29.297,20.020,25.879,-252.441
1532279693.431,28.809,28.809,21.484,27.344,-20.996
1532279693.434,23.926,27.344,23.926,31.250,291.016
1532279693.438,20.508,25.879,24.902,28.809,102.051
1532279693.442,19.043,22.949,25.879,27.344,-222.168
1532279693.446,21.484,21.973,23.926,27.832,-125.977
1532279693.450,29.297,20.508,27.832,33.691,226.074
1532279693.454,30.762,18.066,33.203,35.645,205.078
1532279693.458,24.414,20.508,30.762,28.320,-169.434
1532279693.462,16.113,20.996,28.320,26.367,-180.664
1532279693.466,20.996,22.949,30.762,32.715,176.758
1532279693.470,26.855,22.949,31.738,35.156,266.602
1532279693.474,23.438,21.484,30.762,30.762,-50.293
1532279693.477,23.926,22.949,30.762,25.879,-213.867
1532279693.481,23.926,24.414,28.320,31.250,83.496
1532279693.485,21.484,25.391,26.855,32.227,274.902
1532279693.489,20.996,23.926,28.809,28.320,-3.906
1532279693.493,26.367,24.414,29.785,35.156,-250.000
1532279693.497,25.879,24.414,27.832,37.109,-34.180
1532279693.501,23.438,24.902,23.926,30.273,279.297
1532279693.505,20.508,26.855,23.438,23.438,134.277
1532279693.509,22.461,28.320,24.414,26.855,-229.492
1532279693.513,23.438,25.879,23.438,29.785,-144.531
1532279693.517,26.855,25.879,21.973,31.250,240.234
1532279693.520,35.156,29.785,21.973,34.180,227.051
1532279693.524,36.133,30.273,23.926,35.156,-140.137
1532279693.528,34.180,28.320,25.879,29.785,-223.633
1532279693.532,29.785,25.391,27.344,30.273,130.371
1532279693.536,32.227,25.391,28.320,36.621,301.270
1532279693.540,35.156,25.391,26.855,34.668,-33.203
1532279693.544,37.598,26.855,24.414,34.180,-243.652
1532279693.548,44.434,32.227,25.879,44.922,39.551
1532279693.552,40.039,30.762,22.949,44.434,289.062
1532279693.556,32.715,28.809,23.926,35.156,73.730
1532279693.559,32.715,29.785,25.879,38.574,-244.141
1532279693.563,35.645,26.855,23.926,44.434,-71.777
1532279693.567,35.156,25.391,24.414,44.434,256.348
1532279693.571,30.762,27.344,23.926,40.527,138.672
1532279693.575,27.344,28.809,21.484,36.133,-196.289
1532279693.579,26.367,26.855,20.508,32.715,-143.555
1532279693.583,24.414,26.855,20.996,32.227,233.887
1532279693.587,21.973,26.367,24.902,27.344,241.699
1532279693.591,18.555,24.902,27.832,20.996,-121.582
1532279693.595,23.438,23.926,26.367,29.297,-181.152
1532279693.599,31.738,25.391,23.926,36.133,121.582
1532279693.602,29.297,28.320,21.973,29.785,273.926
1532279693.606,20.996,28.809,20.508,25.879,-16.113
1532279693.610,16.113,28.320,23.438,25.879,-247.559
1532279693.614,19.043,25.879,28.320,31.738,15.625
1532279693.618,22.461,24.902,29.297,34.180,274.902
1532279693.622,25.879,25.879,27.344,33.203,67.871
1532279693.626,29.785,26.367,28.320,30.762,-254.883
1532279693.630,30.273,26.367,28.809,30.762,-115.723
1532279693.634,33.203,25.879,26.367,36.133,257.324
1532279693.638,36.621,27.344,24.902,36.133,187.988
1532279693.642,30.762,28.320,24.902,29.297,-182.129
1532279693.645,25.879,27.344,22.949,27.832,-180.176
1532279693.649,29.297,25.391,22.461,33.203,192.383
1532279693.653,30.273,24.414,23.438,36.621,248.535
1532279693.657,27.344,25.391,22.949,31.250,-108.398
1532279693.661,22.461,26.855,24.902,30.273,-236.328
1532279693.665,18.066,25.391,26.855,31.250,89.844
1532279693.669,18.555,23.926,26.367,29.785,285.156
1532279693.673,19.531,24.414,28.320,31.250,1.465
1532279693.677,22.461,24.902,26.367,35.156,-251.465
1532279693.681,22.461,22.949,22.461,38.574,-2.930
1532279693.684,21.484,23.926,23.926,33.691,287.598
1532279693.688,29.297,28.809,25.879,31.250,61.035
1532279693.692,35.156,29.297,26.855,38.574,-237.793
1532279693.696,30.273,25.879,28.320,41.504,-86.426
1532279693.700,31.250,23.438,29.785,44.922,258.789
1532279693.704,33.203,23.926,29.785,42.969,200.195
1532279693.708,35.156,24.414,27.832,33.203,-201.172
1532279693.712,37.109,25.391,27.832,32.715,-211.914
1532279693.716,37.109,24.414,27.832,35.156,205.078
1532279693.720,34.180,25.879,28.320,30.273,304.688
1532279693.724,32.715,29.785,25.391,20.508,-49.316
1532279693.727,42.969,31.250,24.902,20.508,-214.355
1532279693.731,49.316,33.203,25.391,31.250,80.078
1532279693.735,41.016,32.227,28.320,33.691,297.852
1532279693.739,34.180,29.297,31.738,33.203,36.621
1532279693.743,32.715,27.832,29.297,38.574,-253.418
1532279693.747,33.203,27.344,28.320,46.387,-58.594
1532279693.751,33.203,29.785,27.832,48.340,263.672
1532279693.755,28.320,30.273,29.297,43.945,132.812
1532279693.759,24.902,29.297,29.785,37.598,-208.008
1532279693.763,25.391,29.785,27.832,40.039,-117.188
1532279693.766,22.949,28.809,27.344,40.039,199.219
1532279693.770,22.949,29.297,29.785,34.180,176.270
1532279693.774,28.320,30.762,28.809,32.715,-148.926
1532279693.778,35.156,32.227,27.344,36.621,-209.961
1532279693.782,38.086,33.203,26.855,39.062,126.465
1532279693.786,35.645,32.227,27.832,36.621,239.258
1532279693.790,32.715,29.297,27.832,31.738,-49.316
1532279693.794,32.715,28.320,26.367,29.785,-209.961
1532279693.798,36.133,30.762,27.344,33.691,64.941
1532279693.802,36.133,33.691,23.926,34.180,291.016
1532279693.806,25.879,32.227,22.461,20.996,62.988
1532279693.809,20.020,30.273,25.879,15.137,-228.516
1532279693.813,20.996,28.809,26.367,24.414,-44.434
1532279693.817,18.555,29.785,23.438,23.926,311.035
1532279693.821,16.113,31.738,22.461,21.484,194.824
1532279693.825,19.531,30.762,24.414,22.949,-188.965
1532279693.829,20.996,29.785,22.461,21.973,-165.039
1532279693.833,20.020,27.344,23.438,23.438,173.828
1532279693.837,15.625,25.879,26.855,23.438,230.469
1532279693.841,17.090,26.855,25.879,23.926,-73.730
1532279693.845,29.785,26.367,28.809,31.250,-203.613
1532279693.849,32.227,24.902,28.809,37.109,104.004
1532279693.852,29.297,30.273,26.855,35.645,270.508
1532279693.856,27.832,33.203,26.367,31.250,0.488
1532279693.860,25.391,29.785,25.391,30.273,-225.586
1532279693.864,31.250,30.273,25.391,36.133,-11.230
1532279693.868,34.668,30.762,26.855,39.062,233.887
1532279693.872,29.785,30.762,29.785,38.086,46.387
1532279693.876,27.832,27.832,32.227,35.645,-224.121
1532279693.880,27.344,25.391,30.762,35.645,-72.266
1532279693.884,30.273,24.902,26.855,36.133,258.301
1532279693.888,31.738,27.344,26.855,29.785,173.828
1532279693.891,30.762,27.832,29.297,30.273,-188.477
1532279693.895,27.832,25.391,32.227,34.180,-171.875
1532279693.899,29.785,22.949,32.227,35.156,203.125
1532279693.903,34.180,22.461,26.855,32.715,244.141
1532279693.907,34.180,28.809,21.973,26.855,-138.672
1532279693.911,33.203,32.227,22.949,25.391,-267.090
1532279693.915,31.250,31.738,22.949,28.809,104.980
1532279693.919,31.738,32.227,25.391,29.297,313.477
1532279693.923,31.738,28.809,26.367,25.391,22.949
1532279693.927,30.762,25.391,26.367,21.484,-217.773
1532279693.931,30.273,22.949,25.391,26.855,17.578
1532279693.934,34.180,20.996,26.855,33.203,310.059
1532279693.938,35.645,23.438,28.809,29.785,134.766
1532279693.942,32.227,26.367,25.879,26.367,-199.707
1532279693.946,33.203,29.297,24.414,25.391,-128.418
1532279693.950,33.691,30.762,24.414,19.043,222.168
1532279693.954,31.250,29.297,26.367,20.508,210.938
1532279693.958,29.297,28.320,26.367,25.391,-147.949
1532279693.962,32.715,27.344,27.832,28.320,-174.805
1532279693.966,33.203,25.879,29.297,29.785,158.203
1532279693.970,33.691,26.855,28.809,30.762,245.117
1532279693.974,35.156,26.367,30.273,30.273,-55.176
1532279693.977,26.855,25.879,27.832,25.391,-213.867
1532279693.981,27.344,25.391,25.879,30.273,77.148
1532279693.985,34.180,23.926,26.855,32.227,304.199
1532279693.989,30.762,25.391,27.344,26.367,31.738
1532279693.993,31.738,25.391,27.344,25.391,-236.328
1532279693.997,38.574,24.902,25.879,31.250,-35.645
1532279694.001,36.621,26.855,27.832,33.203,273.438
1532279694.005,29.297,29.785,25.879,26.367,144.043
1532279694.009,28.809,30.762,24.902,20.996,-239.258
1532279694.013,29.785,26.855,27.344,25.879,-165.527
1532279694.016,30.273,23.438,26.367,32.227,206.055
1532279694.020,30.273,26.367,27.344,27.832,210.938
1532279694.024,24.414,26.367,31.250,26.367,-125.000
1532279694.028,28.809,26.855,29.785,32.227,-201.172
1532279694.032,31.738,25.391,26.855,34.668,153.320
1532279694.036,28.809,24.414,28.809,36.133,293.457
1532279694.040,30.762,27.344,32.227,36.621,-43.457
1532279694.044,31.250,30.273,30.273,33.691,-227.051
1532279694.048,34.180,31.738,25.879,30.762,47.363
1532279694.052,34.668,33.203,25.879,29.785,295.410
1532279694.056,32.227,31.738,27.832,31.738,78.613
1532279694.059,34.180,29.785,28.809,32.715,-210.938
1532279694.063,35.156,31.250,26.855,34.180,-46.875
1532279694.067,36.133,30.762,27.832,37.109,244.141
1532279694.071,35.645,30.273,31.738,33.691,148.926
1532279694.075,32.715,27.832,32.227,31.738,-190.430
1532279694.079,35.645,26.855,29.297,33.691,-164.062
1532279694.083,34.180,28.809,27.344,35.156,215.332
1532279694.087,31.250,29.297,26.367,30.762,220.215
1532279694.091,31.738,29.297,26.855,20.996,-153.809
1532279694.095,24.414,28.809,27.832,21.484,-209.961
1532279694.098,22.461,28.809,27.832,27.832,139.160
1532279694.102,25.879,29.785,25.391,27.832,262.207
1532279694.106,25.391,30.273,23.926,25.391,-41.504
1532279694.110,26.855,30.273,24.902,25.391,-232.910
1532279694.114,23.438,27.832,24.414,23.438,3.906
1532279694.118,20.996,26.367,23.438,23.438,268.066
1532279694.122,22.461,25.391,24.902,21.973,80.078
1532279694.126,25.391,25.879,28.809,22.461,-245.605
1532279694.130,24.902,24.902,26.855,25.391,-114.746
1532279694.134,22.461,24.902,22.461,24.902,264.648
1532279694.138,18.066,24.902,23.926,22.461,204.590
1532279694.141,19.531,25.391,23.926,18.066,-164.062
1532279694.145,29.297,27.344,22.949,21.484,-178.223
1532279694.149,28.320,28.320,23.926,25.879,158.691
1532279694.153,21.973,24.902,25.879,26.855,268.066
1532279694.157,22.949,21.973,27.344,26.855,-43.945
1532279694.161,31.250,20.508,24.902,31.738,-197.754
1532279694.165,40.039,22.949,23.438,37.109,106.445
1532279694.169,39.551,25.879,24.414,34.668,303.711
1532279694.173,32.715,24.414,25.879,29.297,48.340
1532279694.177,25.879,23.438,26.367,24.414,-210.938
1532279694.181,25.391,23.926,23.438,29.297,4.883
1532279694.184,29.297,21.484,21.484,29.297,304.199
1532279694.188,24.414,20.508,23.926,20.020,107.910
1532279694.192,26.367,21.973,26.367,26.367,-236.816
1532279694.196,33.203,22.949,25.391,37.598,-129.395
1532279694.200,33.203,23.926,24.414,36.621,232.422
1532279694.204,33.691,25.391,22.949,31.738,215.820
1532279694.208,34.668,26.367,23.926,24.902,-137.695
1532279694.212,35.645,27.344,23.926,27.344,-168.457
1532279694.216,29.785,26.367,23.926,31.250,178.223
1532279694.220,24.414,23.926,24.902,27.832,280.273
1532279694.223,26.855,23.438,23.438,27.832,-52.246
1532279694.227,28.809,22.949,26.367,23.926,-241.211
1532279694.231,31.250,21.973,24.414,25.879,56.641
1532279694.235,31.250,23.438,20.996,28.809,291.992
1532279694.239,27.344,26.367,24.902,26.367,15.625
1532279694.243,25.879,25.879,26.855,28.320,-236.816
1532279694.247,25.879,25.391,27.344,30.762,-22.461
1532279694.251,28.320,26.367,26.367,35.645,272.461
1532279694.255,26.367,24.902,27.832,34.180,145.508
1532279694.259,21.484,24.902,27.832,24.902,-211.426
1532279694.263,20.996,23.438,25.879,24.902,-126.953
1532279694.266,20.996,23.438,23.926,26.855,231.445
1532279694.270,20.996,23.438,23.438,25.879,215.820
1532279694.274,19.531,21.973,26.367,20.996,-109.863
1532279694.278,16.602,24.414,22.461,17.090,-200.195
1532279694.282,19.531,23.926,23.926,27.832,135.254
1532279694.286,28.320,25.391,28.809,29.297,280.273
1532279694.290,33.691,30.273,27.832,20.020,-61.523
1532279694.294,31.738,31.250,27.832,26.855,-229.004
1532279694.298,28.320,30.273,28.320,34.668,60.547
1532279694.302,25.879,29.785,32.227,36.133,308.594
1532279694.306,22.949,32.227,35.156,31.250,54.199
1532279694.309,30.273,34.180,36.133,33.203,-243.652
1532279694.313,36.621,35.156,37.109,40.527,-57.129
1532279694.317,38.086,37.109,38.086,44.434,258.301
1532279694.321,41.504,40.527,41.016,43.457,161.621
1532279694.325,43.457,42.969,41.992,41.504,-179.199
1532279694.329,51.758,45.898,43.457,47.852,-164.551
1532279694.333,53.711,46.875,44.922,46.875,194.824
1532279694.337,42.969,46.387,47.852,41.992,238.281
1532279694.341,40.527,47.852,50.781,47.852,-106.445
1532279694.345,47.363,50.293,50.293,51.270,-189.453
1532279694.348,52.734,49.805,48.340,55.664,118.164
1532279694.352,50.293,47.363,49.316,55.176,264.648
1532279694.356,48.340,47.852,52.734,51.270,-22.949
1532279694.360,50.781,46.875,51.270,53.711,-238.770
1532279694.364,52.246,45.410,50.781,55.664,3.906
1532279694.368,53.711,44.922,52.734,59.082,276.367
1532279694.372,54.199,44.434,53.711,57.617,79.102
1532279694.376,54.688,44.434,53.223,54.688,-236.328
1532279694.380,54.199,43.457,51.270,54.688,-80.078
1532279694.384,48.828,41.504,50.781,52.734,264.160
1532279694.388,45.410,40.527,52.734,48.828,170.898
1532279694.391,45.898,41.504,55.664,49.805,-209.473
1532279694.395,50.293,41.016,54.688,54.199,-193.848
1532279694.399,50.781,39.062,51.758,58.105,207.031
1532279694.403,47.852,40.039,52.246,58.594,289.062
1532279694.407,48.828,42.969,52.246,53.711,-61.035
1532279694.411,50.293,41.016,49.805,49.316,-190.430
1532279694.415,48.340,37.598,51.758,50.781,84.473
1532279694.419,47.852,39.551,52.734,51.758,267.578
1532279694.423,52.246,44.434,51.270,49.316,25.391
1532279694.427,47.852,43.457,50.781,45.410,-231.934
1532279694.431,42.969,41.016,50.781,42.969,-21.484
1532279694.434,42.969,40.039,49.805,48.828,280.762
1532279694.438,40.039,39.551,51.270,51.270,125.000
1532279694.442,45.410,41.016,53.711,52.734,-199.707
1532279694.446,53.223,39.551,53.711,56.641,-93.262
1532279694.450,56.641,36.621,53.223,60.059,268.555
1532279694.454,56.641,37.598,55.176,60.059,221.680
1532279694.458,55.176,38.574,54.199,53.223,-149.414
1532279694.462,53.223,38.574,52.734,55.176,-190.430
1532279694.466,47.363,38.086,52.246,57.617,172.852
1532279694.470,43.945,38.574,49.805,49.316,263.672
1532279694.473,43.945,40.039,47.852,48.828,-48.340
1532279694.477,43.457,41.504,48.340,51.270,-214.355
1532279694.481,43.945,41.504,47.852,53.223,80.078
1532279694.485,45.410,37.109,48.828,51.270,318.848
1532279694.489,45.410,34.668,49.316,42.480,36.133
1532279694.493,48.340,36.621,47.363,43.457,-240.234
1532279694.497,46.875,38.086,45.898,43.945,-31.250
1532279694.501,42.969,37.598,45.898,42.969,273.926
1532279694.505,45.410,39.062,45.410,39.062,131.348
1532279694.509,50.781,40.039,45.410,32.227,-221.680
1532279694.513,59.082,40.527,44.922,40.039,-126.465
1532279694.516,58.105,39.551,45.410,48.828,260.742
1532279694.520,47.363,37.598,45.898,48.340,243.652
1532279694.524,40.527,34.668,47.363,47.852,-111.816
1532279694.528,41.992,35.645,48.340,52.246,-179.688
1532279694.532,48.340,36.621,47.363,61.035,140.137
1532279694.536,46.875,35.156,49.805,61.035,277.832
1532279694.540,42.969,36.621,50.781,56.152,4.395
1532279694.544,44.434,36.133,50.781,55.664,-196.289
1532279694.548,41.016,36.133,51.758,55.176,51.758
1532279694.552,38.086,34.668,49.316,54.688,284.668
1532279694.555,41.016,35.156,47.852,52.734,46.387
1532279694.559,43.945,37.109,47.852,48.340,-247.559
1532279694.563,45.410,37.598,45.898,47.852,-56.641
1532279694.567,42.969,38.086,43.457,42.480,252.930
1532279694.571,40.039,39.062,43.457,38.086,134.277
1532279694.575,39.551,36.621,44.922,39.062,-197.754
1532279694.579,38.574,34.180,46.387,43.945,-173.828
1532279694.583,39.551,34.668,41.992,47.852,212.402
1532279694.587,42.969,37.598,40.039,46.387,259.766
1532279694.591,49.316,41.504,40.527,44.434,-112.793
1532279694.595,54.199,43.945,40.527,44.922,-191.406
1532279694.598,52.246,41.504,39.062,51.270,127.441
1532279694.602,46.387,40.039,38.574,48.828,281.250
1532279694.606,40.039,40.039,40.527,41.992,-4.395
1532279694.610,38.086,37.598,42.480,43.945,-224.121
1532279694.614,40.039,34.668,43.945,51.758,34.180
1532279694.618,36.133,32.715,44.434,47.363,299.316
1532279694.622,39.062,33.203,42.480,43.457,117.188
1532279694.626,43.945,34.668,41.992,43.457,-195.801
1532279694.630,44.922,34.668,42.480,38.086,-78.125
1532279694.634,45.410,37.109,41.992,39.551,276.855
1532279694.638,38.086,36.133,41.016,40.527,225.586
1532279694.641,31.738,32.715,41.992,37.598,-147.949
1532279694.645,32.227,31.738,41.504,38.574,-176.758
1532279694.649,41.992,31.738,40.039,44.434,171.387
1532279694.653,43.457,31.738,39.062,45.898,249.512
1532279694.657,40.527,34.180,35.156,42.480,-78.613
1532279694.661,41.016,37.598,36.133,42.480,-213.379
1532279694.665,43.945,36.621,38.574,44.434,82.520
1532279694.669,48.828,36.621,38.086,46.387,273.438
1532279694.673,50.781,35.645,38.086,45.410,3.418
1532279694.677,47.363,33.203,40.039,44.922,-244.141
1532279694.680,40.527,31.738,39.551,46.387,-12.695
1532279694.684,38.086,29.785,39.062,44.922,288.574
1532279694.688,34.668,32.715,40.527,39.062,92.773
1532279694.692,30.273,33.203,36.133,37.109,-260.742
1532279694.696,30.762,29.297,32.715,38.086,-135.254
1532279694.700,32.715,26.855,33.203,40.039,231.934
1532279694.704,27.344,23.926,29.297,36.133,225.098
1532279694.708,26.855,21.973,24.902,21.484,-177.734
1532279694.712,26.855,22.461,23.438,21.484,-233.398
1532279694.716,21.484,18.555,23.438,31.738,170.898
1532279694.720,20.020,15.625,22.949,27.832,265.625
1532279694.723,23.438,19.531,22.949,22.461,-58.594
1532279694.727,26.367,21.484,20.996,22.949,-217.285
1532279694.731,20.996,18.555,17.578,22.461,71.289
1532279694.735,20.020,18.066,17.090,19.043,272.949
1532279694.739,25.879,19.043,18.066,20.020,15.625
1532279694.743,27.344,15.625,19.043,25.879,-217.773
1532279694.747,30.273,15.625,16.113,29.297,-48.340
1532279694.751,25.391,16.602,14.160,23.926,234.863
1532279694.755,17.578,15.137,15.137,20.020,125.977
1532279694.759,21.973,16.602,17.578,21.973,-193.848
1532279694.763,31.738,17.090,18.066,27.344,-130.859
1532279694.766,32.715,17.578,17.090,28.809,229.004
1532279694.770,26.855,15.625,17.578,25.879,228.027
1532279694.774,23.926,14.160,15.625,22.461,-149.414
1532279694.778,26.367,17.578,12.207,22.949,-216.309
1532279694.782,26.855,19.043,11.230,22.461,141.113
1532279694.786,23.438,20.996,14.648,17.090,277.344
1532279694.790,23.926,22.461,17.090,14.648,-53.711
1532279694.794,24.414,20.996,17.090,20.996,-234.375
1532279694.798,19.531,20.020,14.648,19.531,41.992
1532279694.802,14.160,20.508,14.648,14.160,293.457
1532279694.805,6.348,19.531,16.602,8.789,65.430
1532279694.809,2.441,19.043,16.113,2.930,-257.324
1532279694.813,6.348,20.020,17.578,9.277,-78.125
1532279694.817,12.695,20.508,18.555,16.113,272.461
1532279694.821,9.277,20.996,15.625,11.719,161.621
1532279694.825,11.230,21.484,18.066,11.719,-209.961
1532279694.829,14.160,23.926,18.555,15.625,-158.203
1532279694.833,12.207,26.855,18.555,19.531,218.750
1532279694.837,12.695,27.832,17.090,20.508,237.793
1532279694.841,13.672,26.855,15.137,20.508,-115.234
1532279694.845,12.207,23.926,14.648,23.926,-200.195
1532279694.848,14.648,27.832,11.230,18.066,98.145
1532279694.852,19.531,28.809,6.348,15.625,260.254
1532279694.856,21.973,25.879,8.789,20.996,3.418
1532279694.860,20.020,25.391,12.695,17.578,-228.516
1532279694.864,19.043,24.414,13.184,17.578,12.207
1532279694.868,20.996,24.414,14.160,23.438,276.367
1532279694.872,24.414,27.832,12.207,22.461,89.844
1532279694.876,22.949,28.320,12.695,18.555,-234.375
1532279694.880,20.020,27.344,17.090,19.043,-102.539
1532279694.884,21.973,26.855,16.113,23.926,252.930
1532279694.887,25.879,27.344,16.113,19.531,172.363
1532279694.891,31.250,31.738,16.113,17.578,-196.289
1532279694.895,23.438,30.762,18.066,25.391,-170.898
1532279694.899,20.020,26.855,20.508,27.832,207.031
1532279694.903,22.461,27.344,19.043,24.902,250.977
1532279694.907,17.090,28.320,17.578,20.508,-93.262
1532279694.911,13.184,26.367,19.043,17.578,-201.660
1532279694.915,20.020,24.414,19.531,21.973,118.652
1532279694.919,26.367,25.391,15.625,23.438,292.969
1532279694.923,24.414,28.809,13.672,15.625,3.906
1532279694.927,23.438,26.855,16.113,12.695,-232.422
1532279694.930,26.367,24.902,16.602,21.484,1.465
1532279694.934,26.855,27.832,17.090,27.832,272.461
1532279694.938,25.879,29.297,17.578,24.902,94.727
1532279694.942,30.762,28.320,17.578,26.855,-208.984
1532279694.946,29.785,27.344,19.043,26.855,-115.723
1532279694.950,26.855,27.832,18.066,24.414,211.426
1532279694.954,27.344,28.809,16.602,26.367,176.270
1532279694.958,28.320,30.273,17.578,20.996,-144.531
1532279694.962,28.320,30.762,18.555,20.996,-159.180
1532279694.966,28.320,31.738,19.531,30.762,166.504
1532279694.970,24.902,29.297,24.902,28.809,278.320
1532279694.973,20.020,28.320,26.855,20.020,-32.715
1532279694.977,22.461,29.297,25.391,20.996,-211.426
1532279694.981,24.414,27.832,22.949,27.344,75.684
1532279694.985,23.438,26.855,22.461,21.973,271.484
1532279694.989,22.949,28.809,22.949,12.695,0.000
1532279694.993,18.555,30.762,23.926,18.066,-240.234
1532279694.997,17.090,29.297,21.973,20.508,-20.020
1532279695.001,21.973,31.250,20.508,20.508,288.574
1532279695.005,28.320,33.691,20.996,23.438,138.184
1532279695.009,27.832,32.715,21.973,20.020,-206.543
1532279695.012,26.855,33.203,20.020,20.996,-133.789
1532279695.016,27.832,34.668,17.578,24.414,209.473
1532279695.020,22.461,33.691,16.602,21.973,208.984
1532279695.024,24.414,31.738,19.043,20.996,-173.340
1532279695.028,31.250,31.738,20.020,20.020,-273.926
1532279695.032,29.297,31.738,18.066,22.949,119.629
1532279695.036,24.902,31.738,22.949,25.879,275.879
1532279695.040,21.484,30.762,26.855,26.367,-42.480
1532279695.044,21.973,30.762,22.461,25.391,-234.375
1532279695.048,24.902,33.691,21.484,27.832,23.438
1532279695.052,25.391,33.691,21.973,32.715,278.809
1532279695.055,27.832,32.715,22.461,29.297,70.312
1532279695.059,28.320,35.156,21.973,24.414,-208.496
1532279695.063,29.785,36.133,21.973,25.879,-55.176
1532279695.067,29.785,34.180,25.391,26.855,265.137
1532279695.071,23.926,34.180,24.414,20.508,163.574
1532279695.075,20.996,36.621,23.438,16.602,-193.359
1532279695.079,25.391,37.598,23.438,21.484,-146.484
1532279695.083,26.855,35.156,21.973,25.879,233.398
1532279695.087,27.344,35.156,22.461,23.926,244.141
1532279695.091,27.344,36.621,22.461,22.461,-131.348
1532279695.095,25.879,36.133,24.414,22.461,-222.656
1532279695.098,28.320,32.227,27.344,24.414,141.113
1532279695.102,30.273,30.273,27.344,24.414,288.086
1532279695.106,28.809,31.250,27.832,21.973,-19.043
1532279695.110,26.855,31.250,26.367,20.508,-216.797
1532279695.114,28.320,30.762,23.438,22.461,6.836
1532279695.118,31.250,31.250,22.949,27.832,288.086
1532279695.122,28.809,29.785,22.949,27.344,124.023
1532279695.126,29.785,32.227,23.438,24.414,-236.328
1532279695.130,31.738,33.691,21.973,24.902,-114.258
1532279695.134,33.203,31.250,21.973,30.273,243.652
1532279695.137,34.180,29.785,23.926,35.156,194.824
1532279695.141,28.809,29.785,25.879,35.156,-153.320
1532279695.145,28.320,28.320,27.832,32.227,-189.941
1532279695.149,30.762,28.320,25.391,33.203,153.320
1532279695.153,32.715,28.320,24.902,34.180,242.676
1532279695.157,29.297,28.809,25.391,25.879,-70.312
1532279695.161,25.391,30.273,21.484,22.461,-211.426
1532279695.165,30.273,32.715,20.996,24.414,76.660
1532279695.169,30.273,32.715,21.484,22.461,254.883
1532279695.173,27.832,33.203,21.973,23.926,9.766
1532279695.177,31.738,31.250,23.926,29.785,-240.234
1532279695.180,33.203,29.785,23.926,34.180,4.395
1532279695.184,34.668,33.203,23.438,34.668,329.590
1532279695.188,36.621,34.668,24.902,25.879,112.305
1532279695.192,35.156,31.738,27.832,24.414,-238.770
1532279695.196,32.227,26.855,29.785,32.227,-104.004
1532279695.200,29.297,25.879,27.344,31.250,250.000
1532279695.204,31.250,25.879,25.391,32.227,204.590
1532279695.208,32.227,26.855,24.902,30.762,-173.828
1532279695.212,33.203,30.273,23.438,29.297,-209.473
1532279695.216,31.738,33.203,24.414,33.691,149.414
1532279695.220,30.273,34.668,27.832,35.645,274.902
1532279695.223,36.621,32.227,29.297,36.621,-31.738
1532279695.227,39.062,33.203,28.809,31.250,-248.047
1532279695.231,37.109,33.691,29.785,29.785,20.020
1532279695.235,28.809,29.785,30.273,25.391,275.391
1532279695.239,23.438,28.320,29.785,19.043,31.738
1532279695.243,29.297,27.344,29.785,24.414,-257.324
1532279695.247,30.273,26.367,29.785,29.785,-60.059
1532279695.251,30.762,27.344,28.809,31.738,278.320
1532279695.255,30.762,27.344,31.738,30.762,133.301
1532279695.259,28.809,25.879,32.715,27.344,-225.586
1532279695.262,32.227,27.832,28.809,28.809,-139.160
1532279695.266,36.621,29.785,24.902,30.273,199.707
1532279695.270,37.109,29.297,23.926,26.855,179.688
1532279695.274,36.133,29.297,26.367,28.320,-147.949
1532279695.278,33.691,26.855,28.320,33.203,-209.961
1532279695.282,33.203,27.832,27.832,40.527,138.672
1532279695.286,38.086,28.809,25.391,40.039,276.367
1532279695.290,39.551,26.855,24.902,34.668,-32.227
1532279695.294,40.039,25.391,27.832,35.645,-207.520
1532279695.298,43.457,24.414,30.762,34.180,43.945
1532279695.302,44.922,26.855,32.227,32.715,276.855
1532279695.305,45.898,28.320,30.762,26.367,42.969
1532279695.309,45.898,27.832,27.344,18.066,-268.555
1532279695.313,42.480,28.320,25.391,29.297,-73.242
1532279695.317,35.156,28.809,26.855,36.133,273.926
1532279695.321,32.715,27.832,29.785,36.133,170.410
1532279695.325,32.227,26.855,29.785,35.156,-211.914
1532279695.329,36.133,26.367,28.809,38.086,-166.992
1532279695.333,36.133,26.855,29.297,46.387,220.215
1532279695.337,26.855,28.320,27.344,38.574,238.770
1532279695.341,24.902,28.809,29.785,33.203,-92.773
1532279695.344,24.414,27.832,33.691,35.156,-212.402
1532279695.348,21.484,30.273,32.715,32.227,103.027
1532279695.352,23.926,33.691,29.785,34.668,281.250
1532279695.356,30.762,34.180,29.297,36.133,-19.043
1532279695.360,31.738,32.227,29.297,30.273,-248.047
1532279695.364,28.320,31.250,27.832,30.762,2.930
1532279695.368,24.902,32.715,24.902,26.855,258.301
1532279695.372,29.297,32.715,25.879,23.926,76.660
1532279695.376,36.133,32.715,27.832,30.273,-202.637
1532279695.380,32.715,33.203,26.855,33.691,-86.914
1532279695.384,29.297,31.738,26.367,34.180,232.422
1532279695.387,29.785,33.691,26.855,32.227,174.805
1532279695.391,30.762,36.621,23.926,27.832,-163.574
1532279695.395,32.715,37.598,23.438,29.785,-158.203
1532279695.399,28.320,35.645,23.926,28.809,184.570
1532279695.403,28.320,34.668,21.973,30.273,252.441
1532279695.407,33.691,36.621,22.949,32.227,-81.543
1532279695.411,36.133,36.621,23.438,32.227,-224.121
1532279695.415,33.203,34.180,22.949,33.203,75.684
1532279695.419,31.738,34.180,23.926,30.762,260.254
1532279695.423,32.227,35.156,27.344,30.273,7.324
1532279695.427,28.809,32.715,27.344,24.902,-238.281
1532279695.430,32.715,29.297,25.391,28.809,-5.859
1532279695.434,34.180,28.809,23.926,36.621,308.594
1532279695.438,29.785,31.738,22.461,31.738,123.535
1532279695.442,27.832,33.203,23.926,29.297,-209.473
1532279695.446,23.926,31.738,22.949,28.320,-135.254
1532279695.450,28.320,29.297,24.902,27.344,191.895
1532279695.454,32.227,28.809,23.926,31.250,215.820
1532279695.458,35.645,29.297,20.020,32.227,-134.277
1532279695.462,37.109,31.738,20.508,32.715,-187.500
1532279695.466,29.785,33.203,20.508,35.156,158.691
1532279695.469,28.809,31.738,23.438,37.598,266.602
1532279695.473,33.691,30.762,24.902,35.156,-57.129
1532279695.477,31.250,29.297,24.414,31.738,-225.586
1532279695.481,30.273,28.809,24.414,35.645,52.246
1532279695.485,33.203,28.809,21.973,33.203,280.762
1532279695.489,33.691,28.320,19.531,28.809,36.133
1532279695.493,35.645,29.297,21.484,31.250,-222.656
1532279695.497,39.062,31.250,23.438,36.621,-36.133
1532279695.501,41.016,31.738,24.414,37.109,274.414
1532279695.505,40.039,32.715,23.926,35.156,151.367
1532279695.509,36.133,34.668,21.484,25.391,-243.652
1532279695.512,34.668,34.180,21.484,24.414,-171.875
1532279695.516,37.109,35.156,20.996,33.691,199.219
1532279695.520,31.738,35.645,21.973,32.227,209.473
1532279695.524,31.250,34.668,22.461,27.832,-119.141
1532279695.528,39.551,35.156,23.438,31.738,-205.078
1532279695.532,40.039,35.645,23.438,32.715,121.094
1532279695.536,30.762,34.180,22.949,27.344,249.512
1532279695.540,29.785,36.621,21.973,26.855,-48.828
1532279695.544,33.691,37.109,21.484,30.273,-231.445
1532279695.548,32.227,32.227,23.926,29.785,5.371
1532279695.552,38.086,31.738,22.949,31.250,248.047
1532279695.555,43.457,35.156,22.949,35.645,55.176
1532279695.559,38.086,37.109,24.414,29.785,-246.094
1532279695.563,35.645,37.109,23.926,30.762,-71.289
1532279695.567,38.086,39.551,23.926,36.133,260.742
1532279695.571,34.180,37.598,24.414,34.668,167.969
1532279695.575,33.203,35.645,25.879,26.855,-196.289
1532279695.579,32.715,36.133,25.879,23.926,-182.129
1532279695.583,32.227,36.621,25.391,30.762,179.688
1532279695.587,33.691,37.598,26.855,26.855,202.148
1532279695.591,29.297,38.574,28.320,18.066,-135.742
1532279695.594,29.297,35.645,26.367,25.391,-207.520
1532279695.598,30.273,36.133,26.367,31.738,87.402
1532279695.602,29.785,39.551,27.832,33.203,259.766
1532279695.606,33.691,41.016,27.344,32.715,-21.973
1532279695.610,37.109,43.457,26.367,30.762,-228.516
1532279695.614,35.156,43.945,22.949,30.762,47.852
1532279695.618,30.762,42.969,21.973,27.344,280.762
1532279695.622,26.367,36.621,25.391,22.949,90.820
1532279695.626,24.414,33.203,26.855,23.438,-192.383
1532279695.630,27.344,35.156,23.926,27.832,-74.707
1532279695.634,32.715,37.598,23.438,32.227,248.047
1532279695.637,32.715,38.574,23.926,29.785,167.480
1532279695.641,30.762,39.062,23.926,26.855,-184.570
1532279695.645,33.203,39.062,23.926,27.344,-192.383
1532279695.649,31.250,38.086,26.367,30.273,180.176
1532279695.653,31.250,36.133,30.762,36.133,256.836
1532279695.657,38.086,34.668,28.809,34.668,-88.867
1532279695.661,40.039,36.621,25.391,36.621,-203.125
1532279695.665,37.598,38.086,23.926,37.598,100.098
1532279695.669,35.645,37.109,25.879,32.715,292.969
1532279695.673,37.109,37.109,28.320,32.227,36.133
1532279695.676,37.598,35.645,26.367,34.668,-218.750
1532279695.680,40.039,34.668,26.855,41.016,-15.137
1532279695.684,43.457,35.156,29.297,44.922,256.836
1532279695.688,40.527,34.668,28.320,37.598,77.148
1532279695.692,40.039,36.621,26.855,33.203,-226.562
1532279695.696,41.504,36.133,26.367,36.621,-123.047
1532279695.700,44.434,38.086,25.391,39.062,228.027
1532279695.704,42.969,40.527,25.391,40.527,218.750
1532279695.708,35.156,38.574,27.344,37.598,-132.324
1532279695.712,34.180,37.109,29.785,36.621,-198.242
1532279695.716,43.457,37.109,31.250,42.480,156.738
1532279695.719,47.363,38.574,31.738,43.457,287.598
1532279695.723,42.480,38.574,30.762,37.109,-60.059
1532279695.727,36.621,39.551,31.738,31.738,-237.305
1532279695.731,33.691,37.598,32.715,26.855,45.410
1532279695.735,33.203,38.574,27.832,29.297,299.805
1532279695.739,36.133,41.504,26.855,36.133,62.012
1532279695.743,34.668,38.574,27.832,34.668,-229.492
1532279695.747,36.621,37.598,25.879,31.738,-53.223
1532279695.751,36.621,38.574,26.855,36.133,267.090
1532279695.755,36.133,38.574,26.367,37.109,164.551
1532279695.759,44.434,40.527,25.391,35.645,-170.410
1532279695.762,50.781,41.992,26.855,39.062,-116.211
1532279695.766,45.410,39.551,27.344,38.574,215.820
1532279695.770,41.504,37.109,28.809,35.156,213.379
1532279695.774,39.551,35.156,29.297,32.227,-142.090
1532279695.778,36.621,33.691,27.832,33.203,-232.422
1532279695.782,45.898,34.180,28.809,41.016,131.348
1532279695.786,46.875,36.621,27.832,37.109,281.738
1532279695.790,38.574,35.645,24.902,28.320,-35.156
1532279695.794,43.945,35.645,26.855,32.715,-205.566
1532279695.798,53.223,37.109,26.855,41.504,62.500
1532279695.801,51.758,35.645,25.391,46.875,314.941
1532279695.805,50.293,36.133,29.297,44.922,73.242
1532279695.809,48.828,33.203,31.738,39.062,-219.238
1532279695.813,44.434,31.738,30.273,41.992,-36.133
1532279695.817,41.016,34.668,29.297,43.457,294.434
1532279695.821,40.527,33.691,31.250,39.062,191.895
1532279695.825,43.457,32.715,30.273,38.086,-192.871
1532279695.829,46.387,36.133,26.855,40.527,-193.359
1532279695.833,47.363,37.109,25.879,40.039,168.457
1532279695.837,45.898,38.086,28.320,33.203,241.699
1532279695.841,41.992,37.109,29.785,26.367,-83.984
1532279695.844,42.480,36.133,28.320,28.809,-207.031
1532279695.848,44.434,36.133,28.809,36.621,109.375
1532279695.852,44.434,35.645,29.297,41.016,270.020
1532279695.856,41.504,37.598,29.785,37.109,-3.418
1532279695.860,35.645,36.621,29.297,29.297,-215.820
1532279695.864,38.574,36.133,28.320,32.227,5.859
1532279695.868,43.945,36.133,29.297,33.691,263.184
1532279695.872,42.969,34.180,27.344,26.855,69.336
1532279695.876,41.992,33.691,27.344,24.902,-211.914
1532279695.880,37.109,32.227,27.344,26.367,-70.801
1532279695.884,36.133,29.297,27.344,32.715,257.812
1532279695.887,41.016,33.203,28.809,27.832,168.945
1532279695.891,39.551,38.086,29.297,21.973,-188.477
1532279695.895,38.086,38.086,29.297,28.809,-172.363
1532279695.899,33.203,37.109,28.809,29.297,192.871
1532279695.903,29.297,36.133,30.762,27.832,270.508
1532279695.907,32.715,35.645,33.203,23.926,-57.617
1532279695.911,38.574,35.156,34.668,28.320,-205.078
1532279695.915,42.480,33.203,34.180,35.645,85.449
1532279695.919,40.039,32.715,33.203,31.738,300.781
1532279695.923,42.480,35.156,29.785,32.227,31.250
1532279695.926,45.410,35.645,28.809,30.273,-262.695
1532279695.930,37.598,36.133,30.273,25.879,-72.266
1532279695.934,30.273,36.133,32.715,28.320,265.137
1532279695.938,32.227,37.109,32.715,26.367,127.930
1532279695.942,30.762,39.551,24.902,22.949,-201.172
1532279695.946,26.367,40.527,23.438,20.996,-104.004
1532279695.950,27.344,38.574,24.902,21.973,254.883
1532279695.954,25.391,37.598,24.414,16.113,244.141
1532279695.958,24.902,39.551,27.344,13.184,-129.883
1532279695.962,32.227,41.016,27.344,24.414,-203.125
