timestamps,TP9,AF7,AF8,TP10,Right AUX
1532280390.479,47.852,36.621,27.832,36.621,-40.039
1532280390.483,48.828,34.668,30.762,40.527,-254.883
1532280390.487,50.781,35.645,32.227,43.945,68.359
1532280390.491,49.805,36.133,32.715,43.457,318.359
1532280390.495,45.898,35.156,32.715,36.133,45.898
1532280390.499,47.363,35.156,31.738,34.180,-281.250
1532280390.503,52.246,36.133,33.691,43.457,-69.336
1532280390.507,51.758,36.133,35.156,50.293,326.660
1532280390.511,52.246,35.645,35.645,44.922,166.992
1532280390.514,46.875,35.156,34.668,33.691,-292.969
1532280390.518,46.387,35.645,34.180,34.668,-180.664
1532280390.522,44.434,36.133,33.203,41.016,277.344
1532280390.526,45.898,37.109,31.738,37.109,267.090
1532280390.530,48.340,39.551,34.180,30.273,-163.574
1532280390.534,51.270,39.062,33.691,30.762,-246.094
1532280390.538,55.176,37.109,32.227,38.086,166.016
1532280390.542,46.387,35.645,33.203,39.062,311.523
1532280390.546,40.039,34.180,33.203,37.109,-64.941
1532280390.550,42.969,33.203,33.203,35.156,-304.688
1532280390.554,48.828,33.691,31.738,30.762,19.531
1532280390.557,42.969,34.180,32.227,31.738,345.703
1532280390.561,35.645,30.273,33.203,31.738,98.633
1532280390.565,36.621,29.297,32.715,28.320,-275.879
1532280390.569,38.086,30.762,30.762,29.785,-69.336
1532280390.573,44.922,34.668,31.738,31.250,311.523
1532280390.577,41.992,34.180,33.203,30.273,215.332
1532280390.581,38.574,32.227,31.738,30.762,-167.480
1532280390.585,40.527,30.762,31.250,35.645,-164.551
1532280390.589,38.574,30.273,32.227,40.527,240.723
1532280390.593,39.062,29.785,32.227,40.039,294.922
1532280390.597,37.109,28.809,32.227,35.156,-112.793
1532280390.600,42.480,32.227,32.715,35.156,-246.094
1532280390.604,50.293,33.203,32.715,35.645,125.488
1532280390.608,43.945,30.273,34.180,31.738,319.336
1532280390.612,33.203,30.762,34.668,24.414,-34.668
1532280390.616,33.691,31.738,35.156,24.902,-296.875
1532280390.620,38.574,34.668,37.109,32.227,16.113
1532280390.624,42.969,35.156,35.645,31.738,320.312
1532280390.628,39.551,32.715,33.691,27.344,102.051
1532280390.632,35.156,31.738,35.156,28.809,-263.184
1532280390.636,35.156,30.762,35.645,33.203,-93.750
1532280390.639,39.551,28.809,35.156,34.668,330.566
1532280390.643,40.527,28.320,37.109,31.738,218.262
1532280390.647,38.574,30.762,40.527,29.785,-199.219
1532280390.651,43.457,31.250,39.062,28.809,-225.586
1532280390.655,43.457,32.227,39.062,30.762,192.871
1532280390.659,44.434,34.180,40.527,27.832,302.246
1532280390.663,43.945,31.738,40.039,21.484,-115.234
1532280390.667,41.992,32.227,39.551,20.508,-264.160
1532280390.671,46.387,33.203,38.574,21.484,95.215
1532280390.675,48.828,29.785,41.992,30.273,322.266
1532280390.679,41.504,27.344,44.434,34.180,20.996
1532280390.682,38.086,29.785,43.457,30.762,-271.973
1532280390.686,36.133,30.762,37.598,35.156,1.953
1532280390.690,30.273,31.250,37.109,39.551,346.680
1532280390.694,26.855,34.668,41.992,28.809,138.672
1532280390.698,23.926,33.691,41.504,26.855,-255.859
1532280390.702,26.855,31.738,38.574,35.645,-125.977
1532280390.706,29.297,34.180,37.109,36.133,289.062
1532280390.710,32.227,34.180,38.086,31.738,238.281
1532280390.714,27.832,32.715,39.062,26.367,-169.434
1532280390.718,32.227,33.203,37.109,24.414,-210.449
1532280390.722,41.016,30.762,34.668,32.227,204.102
1532280390.725,35.645,27.832,35.156,29.297,340.332
1532280390.729,27.344,29.297,37.598,20.020,-71.289
1532280390.733,30.762,28.320,36.621,19.531,-300.293
1532280390.737,35.645,23.438,33.691,22.461,51.758
1532280390.741,36.133,22.949,30.273,22.949,337.891
1532280390.745,33.691,28.809,28.809,17.578,53.711
1532280390.749,30.273,29.297,32.715,14.648,-281.250
1532280390.753,28.320,25.879,32.715,13.672,-91.797
1532280390.757,31.738,23.438,31.738,17.090,295.410
1532280390.761,34.668,23.438,32.227,20.020,185.547
1532280390.764,30.273,28.320,29.785,11.230,-228.027
1532280390.768,30.762,31.250,27.344,11.230,-164.062
1532280390.772,23.438,27.832,28.320,11.719,256.836
1532280390.776,12.207,24.902,32.227,6.348,268.066
1532280390.780,13.184,27.832,30.273,6.348,-137.207
1532280390.784,18.066,28.320,27.344,10.254,-247.070
1532280390.788,20.020,25.879,27.832,14.160,137.695
1532280390.792,23.926,26.855,27.344,17.090,305.664
1532280390.796,19.531,27.344,28.320,11.719,-50.781
1532280390.800,22.949,29.297,25.391,10.742,-258.789
1532280390.804,29.785,30.762,22.949,21.484,43.457
1532280390.807,21.973,25.879,25.879,26.367,318.848
1532280390.811,20.996,24.414,26.855,18.555,70.801
1532280390.815,26.855,26.855,27.344,13.672,-264.648
1532280390.819,32.227,25.879,29.785,22.949,-60.547
1532280390.823,28.809,25.879,31.250,32.227,310.059
1532280390.827,28.809,26.367,28.320,25.879,170.410
1532280390.831,31.250,26.855,23.438,16.602,-233.398
1532280390.835,31.738,26.367,23.926,18.066,-200.684
1532280390.839,31.738,25.391,29.297,24.414,233.887
1532280390.843,26.855,24.414,31.738,25.391,297.363
1532280390.847,30.273,23.926,34.668,24.414,-143.555
1532280390.850,33.203,21.973,37.598,26.367,-273.438
1532280390.854,33.691,20.020,38.574,31.250,130.371
1532280390.858,44.434,23.438,36.133,32.227,326.660
1532280390.862,45.410,24.902,37.598,31.738,0.977
1532280390.866,38.086,24.902,40.039,34.668,-271.973
1532280390.870,33.691,24.902,40.039,35.156,5.371
1532280390.874,35.645,26.367,40.527,34.668,346.191
1532280390.878,41.992,28.809,40.527,35.645,127.441
1532280390.882,42.480,29.297,40.527,36.621,-226.074
1532280390.886,35.645,28.320,41.504,36.133,-75.684
1532280390.889,35.645,31.250,41.016,38.574,291.016
1532280390.893,38.574,33.691,42.480,31.738,184.082
1532280390.897,41.992,31.738,43.945,31.250,-198.242
1532280390.901,41.504,31.738,43.945,39.062,-180.664
1532280390.905,38.574,32.715,39.551,37.109,211.914
1532280390.909,46.387,33.691,40.527,36.621,289.551
1532280390.913,46.875,34.180,43.457,34.668,-114.746
1532280390.917,47.363,34.180,42.969,35.645,-269.531
1532280390.921,48.828,32.715,42.480,45.898,104.004
1532280390.925,51.758,33.203,40.527,46.387,349.609
1532280390.929,54.199,34.668,41.992,39.551,34.668
1532280390.932,48.828,35.645,41.016,36.621,-286.133
1532280390.936,44.434,33.203,38.574,37.109,-42.969
1532280390.940,39.551,31.738,38.086,36.621,339.844
1532280390.944,43.457,32.715,38.574,36.621,162.598
1532280390.948,50.293,34.668,38.086,35.156,-238.770
1532280390.952,53.711,35.156,38.086,40.039,-148.926
1532280390.956,52.246,36.133,41.504,48.828,263.672
1532280390.960,46.875,35.645,40.527,41.992,243.652
1532280390.964,49.805,34.668,39.551,38.574,-159.668
1532280390.968,55.664,37.598,40.527,43.945,-233.398
1532280390.971,52.734,37.109,41.992,44.922,143.555
1532280390.975,42.480,35.645,42.969,42.969,310.059
1532280390.979,42.969,37.109,41.504,40.527,-43.945
1532280390.983,44.434,36.621,42.480,38.574,-275.391
1532280390.987,38.574,36.133,43.945,44.922,64.453
1532280390.991,40.527,39.062,43.457,42.480,348.145
1532280390.995,45.410,40.527,44.434,31.738,54.199
1532280390.999,43.457,40.039,42.480,35.645,-265.137
1532280391.003,44.922,40.039,41.992,43.945,-53.223
1532280391.007,47.852,40.039,43.945,48.828,329.590
1532280391.011,44.922,43.457,42.969,43.945,183.105
1532280391.014,47.852,45.410,44.434,41.016,-219.727
1532280391.018,47.852,42.969,48.340,41.504,-170.898
1532280391.022,48.340,41.016,46.387,42.969,233.887
1532280391.026,50.781,42.480,44.922,41.016,257.324
1532280391.030,47.363,42.480,44.922,39.551,-159.668
1532280391.034,40.039,39.062,45.410,41.992,-256.348
1532280391.038,38.086,38.086,46.875,45.410,147.949
1532280391.042,40.527,38.574,44.922,48.828,316.895
1532280391.046,45.898,38.574,44.434,47.852,-42.969
1532280391.050,50.293,40.527,44.922,48.340,-282.715
1532280391.054,50.781,40.527,44.922,54.199,10.742
1532280391.057,46.875,40.527,46.387,53.711,310.547
1532280391.061,39.551,41.016,48.828,50.293,75.684
1532280391.065,39.551,39.062,47.852,43.457,-255.371
1532280391.069,46.875,37.598,46.387,45.410,-82.520
1532280391.073,51.270,39.551,46.387,49.805,292.480
1532280391.077,40.527,42.969,46.387,45.898,194.336
1532280391.081,36.621,43.457,46.875,41.992,-218.262
1532280391.085,39.062,41.504,49.316,46.387,-199.219
1532280391.089,36.133,41.016,50.293,50.781,221.680
1532280391.093,38.086,41.992,47.852,42.969,269.043
1532280391.096,40.527,41.504,47.852,39.551,-133.789
1532280391.100,43.457,41.504,48.340,41.016,-258.789
1532280391.104,50.293,42.480,47.363,45.898,92.773
1532280391.108,51.270,42.969,46.875,48.340,302.734
1532280391.112,50.781,45.410,48.340,43.945,-20.996
1532280391.116,52.246,44.922,53.711,43.945,-283.203
1532280391.120,52.246,41.016,54.688,51.270,4.883
1532280391.124,62.500,43.945,53.223,52.734,335.449
1532280391.128,66.895,47.852,55.664,49.316,142.578
1532280391.132,48.340,49.316,53.223,42.969,-246.094
1532280391.136,37.598,51.270,48.340,40.527,-130.371
1532280391.139,43.945,50.781,50.781,42.969,277.832
1532280391.143,46.875,48.340,53.223,41.504,232.910
1532280391.147,46.387,49.316,49.805,42.480,-177.734
1532280391.151,41.504,50.293,46.875,48.340,-196.777
1532280391.155,38.574,47.363,47.852,51.758,186.035
1532280391.159,42.969,44.922,47.363,48.340,266.113
1532280391.163,42.480,46.875,46.875,43.457,-98.633
1532280391.167,44.434,47.363,45.410,47.852,-270.020
1532280391.171,48.828,44.434,45.898,48.340,65.918
1532280391.175,47.363,44.434,49.316,40.039,288.574
1532280391.179,45.410,45.410,48.340,40.039,-4.883
1532280391.182,44.922,43.457,46.387,42.480,-274.414
1532280391.186,51.270,42.480,46.387,47.363,-17.578
1532280391.190,46.387,42.480,43.945,46.387,310.547
1532280391.194,43.457,43.945,44.922,41.504,136.230
1532280391.198,52.734,44.434,43.945,43.457,-245.117
1532280391.202,54.199,43.945,39.551,45.410,-171.387
1532280391.206,56.152,44.434,43.457,46.875,249.512
1532280391.210,53.711,46.387,47.363,41.016,247.559
1532280391.214,44.434,46.875,46.875,35.645,-193.848
1532280391.218,39.551,44.434,46.387,38.574,-274.414
1532280391.221,42.969,43.457,45.898,43.457,147.949
1532280391.225,49.805,44.922,45.410,44.434,330.566
1532280391.229,50.293,47.852,43.945,41.016,-19.531
1532280391.233,48.340,49.316,42.480,40.039,-252.441
1532280391.237,46.387,46.875,44.922,42.480,44.434
1532280391.241,42.969,48.340,46.875,43.457,338.379
1532280391.245,40.527,51.270,46.387,36.621,80.566
1532280391.249,38.086,48.828,45.410,29.297,-287.109
1532280391.253,36.621,45.898,46.875,29.297,-116.211
1532280391.257,36.133,46.387,45.898,29.785,269.531
1532280391.261,37.598,48.828,44.922,29.785,167.480
1532280391.264,39.062,47.852,47.363,27.344,-243.164
1532280391.268,33.691,44.922,48.340,25.879,-185.059
1532280391.272,36.621,44.434,46.875,32.227,241.211
1532280391.276,39.062,44.434,45.898,34.180,270.508
1532280391.280,34.668,43.457,45.898,28.809,-142.578
1532280391.284,30.762,41.992,47.852,34.180,-261.230
1532280391.288,31.250,39.551,48.340,35.645,148.926
1532280391.292,33.691,38.086,47.852,30.762,343.262
1532280391.296,40.527,40.527,44.922,26.367,-24.902
1532280391.300,39.551,39.551,44.922,28.320,-266.113
1532280391.304,34.668,36.133,44.922,33.203,20.508
1532280391.307,35.645,36.133,44.922,31.738,320.801
1532280391.311,44.922,37.109,48.340,25.879,88.379
1532280391.315,50.293,36.133,48.828,20.020,-272.461
1532280391.319,48.828,32.227,49.805,30.273,-92.773
1532280391.323,52.734,32.715,50.781,37.109,330.078
1532280391.327,52.734,38.086,46.387,31.738,260.254
1532280391.331,48.340,45.898,41.992,29.785,-174.316
1532280391.335,40.039,45.898,41.992,37.598,-187.012
1532280391.339,30.762,42.480,44.922,41.016,228.027
1532280391.343,30.762,41.016,48.340,33.691,320.801
1532280391.346,30.273,41.016,45.898,28.809,-75.195
1532280391.350,24.902,42.969,41.016,26.855,-259.277
1532280391.354,26.367,44.922,37.598,21.484,91.309
1532280391.358,30.762,47.852,31.738,17.090,326.660
1532280391.362,40.527,54.688,28.320,20.996,30.273
1532280391.366,37.109,53.223,32.227,25.391,-237.305
1532280391.370,29.297,45.410,38.574,25.391,17.578
1532280391.374,38.574,45.410,40.527,25.879,333.008
1532280391.378,40.527,46.387,40.039,28.809,143.066
1532280391.382,38.574,50.293,34.668,27.832,-235.840
1532280391.386,40.527,48.340,31.250,26.855,-119.629
1532280391.389,43.945,42.480,30.762,31.738,286.621
1532280391.393,40.039,42.480,32.227,27.344,205.566
1532280391.397,35.645,42.480,36.133,22.461,-218.750
1532280391.401,41.016,41.992,35.645,30.762,-214.355
1532280391.405,43.945,41.504,35.645,37.598,213.867
1532280391.409,34.180,39.551,36.133,30.762,317.383
1532280391.413,32.715,38.086,35.645,28.809,-83.008
1532280391.417,36.133,37.598,36.133,32.715,-275.879
1532280391.421,35.156,36.133,32.715,34.180,67.383
1532280391.425,30.273,35.645,32.715,32.227,339.844
1532280391.428,30.762,34.668,36.133,29.297,75.195
1532280391.432,33.203,33.203,36.133,29.297,-256.836
1532280391.436,33.691,33.691,34.668,32.227,-45.410
1532280391.440,38.574,33.691,34.668,34.180,345.215
1532280391.444,41.992,35.156,34.668,33.203,193.848
1532280391.448,40.527,36.621,34.180,34.668,-219.238
1532280391.452,41.504,36.621,38.086,34.180,-173.340
1532280391.456,48.340,35.645,38.574,38.574,230.469
1532280391.460,46.387,32.227,34.180,41.504,267.090
1532280391.464,43.945,31.250,34.180,39.062,-159.668
1532280391.468,40.527,33.691,34.180,38.086,-248.535
1532280391.471,42.969,36.621,37.109,37.109,173.340
1532280391.475,44.434,38.086,38.086,34.180,344.238
1532280391.479,32.715,36.621,37.598,27.832,-47.852
1532280391.483,32.227,36.621,38.086,28.809,-297.363
1532280391.487,37.598,37.598,38.574,32.227,44.434
1532280391.491,37.109,38.086,37.109,25.391,338.867
1532280391.495,34.180,37.109,38.574,23.438,39.551
1532280391.499,32.227,35.645,40.039,26.367,-296.387
1532280391.503,29.785,33.203,38.086,27.344,-62.988
1532280391.507,35.156,32.715,37.598,33.203,305.176
1532280391.511,41.504,31.738,37.598,31.738,146.484
1532280391.514,38.086,33.203,38.086,21.973,-240.723
1532280391.518,39.062,33.691,38.574,27.832,-170.410
1532280391.522,35.156,34.668,37.109,33.203,236.328
1532280391.526,31.250,39.062,37.109,27.344,281.738
1532280391.530,37.109,40.039,36.621,23.926,-144.531
1532280391.534,40.039,39.551,37.598,20.996,-283.691
1532280391.538,34.180,37.109,37.598,21.484,121.582
1532280391.542,28.809,34.180,38.086,25.391,326.660
1532280391.546,25.879,31.738,43.457,24.902,-7.324
1532280391.550,34.668,32.227,45.410,27.344,-280.762
1532280391.553,40.039,30.762,43.945,31.738,-6.348
1532280391.557,33.691,28.809,44.434,29.297,337.402
1532280391.561,33.203,28.809,44.922,25.879,103.516
1532280391.565,29.785,27.344,43.457,24.902,-247.070
1532280391.569,28.320,26.855,41.992,26.855,-100.586
1532280391.573,25.879,29.297,41.992,24.902,234.863
1532280391.577,27.344,31.738,44.922,22.461,183.105
1532280391.581,34.180,29.297,44.922,25.391,-200.684
1532280391.585,36.621,28.320,40.527,29.785,-198.242
1532280391.589,39.062,31.250,35.156,29.785,217.773
1532280391.593,38.574,33.203,33.691,26.367,282.227
1532280391.596,32.227,28.809,35.645,22.949,-89.355
1532280391.600,31.250,26.367,38.574,25.879,-244.629
1532280391.604,37.109,26.855,37.109,29.297,121.094
1532280391.608,38.574,26.367,32.715,30.273,361.328
1532280391.612,35.156,28.809,32.715,26.855,15.137
1532280391.616,32.715,30.762,34.180,21.973,-283.691
1532280391.620,32.227,29.785,32.715,26.367,-8.301
1532280391.624,34.668,31.250,33.203,33.203,322.754
1532280391.628,36.621,32.715,36.133,33.203,145.508
1532280391.632,36.133,33.691,35.645,21.973,-242.188
1532280391.636,35.645,34.180,35.156,23.926,-155.762
1532280391.639,36.133,34.668,33.691,37.598,265.137
1532280391.643,35.645,33.691,32.227,36.133,250.488
1532280391.647,40.039,35.156,33.203,32.715,-159.668
1532280391.651,42.480,35.645,34.668,38.574,-226.074
1532280391.655,40.527,36.621,33.691,44.434,155.762
1532280391.659,37.109,36.133,33.203,41.504,295.410
1532280391.663,36.133,34.668,33.691,35.645,-49.316
1532280391.667,45.410,35.645,35.645,35.645,-253.418
1532280391.671,50.293,33.691,35.156,38.086,33.691
1532280391.675,41.992,32.715,32.227,36.133,277.344
1532280391.678,35.645,32.227,35.156,33.203,24.414
1532280391.682,37.109,29.785,37.598,31.250,-294.922
1532280391.686,40.039,28.809,35.156,32.715,-65.918
1532280391.690,44.922,29.785,33.691,33.691,293.945
1532280391.694,44.922,29.297,36.133,32.715,134.277
1532280391.698,42.969,28.809,39.551,33.691,-241.699
1532280391.702,38.574,27.832,36.133,38.574,-151.367
1532280391.706,39.062,28.809,33.691,41.992,304.199
1532280391.710,41.992,31.738,35.156,39.062,298.340
1532280391.714,39.062,32.227,35.156,35.156,-167.969
1532280391.718,40.039,30.762,37.109,35.645,-256.836
1532280391.721,44.922,32.227,37.109,43.457,157.715
1532280391.725,41.504,31.738,38.086,48.828,340.332
1532280391.729,38.086,29.297,40.039,44.922,-40.527
1532280391.733,38.574,30.762,37.109,37.598,-340.332
1532280391.737,36.621,32.227,36.133,39.062,-17.578
1532280391.741,41.992,33.203,36.621,41.016,333.008
1532280391.745,45.898,34.180,34.668,36.133,96.680
1532280391.749,43.457,35.156,36.621,36.621,-265.137
1532280391.753,40.527,34.668,35.645,34.668,-109.863
1532280391.757,40.527,32.227,35.645,34.668,296.387
1532280391.760,40.527,30.273,38.086,34.668,214.844
1532280391.764,41.504,32.227,35.156,35.156,-187.012
1532280391.768,45.898,33.691,34.180,38.086,-172.363
1532280391.772,45.410,31.250,34.668,32.227,226.562
1532280391.776,43.457,31.250,35.156,28.320,277.344
1532280391.780,37.598,31.738,37.109,33.691,-103.027
1532280391.784,36.621,32.715,38.086,35.156,-219.238
1532280391.788,37.598,32.715,39.551,39.062,144.531
1532280391.792,35.645,31.250,40.039,38.574,341.309
1532280391.796,34.668,32.227,35.645,30.273,-8.789
1532280391.800,37.598,34.180,31.738,27.344,-290.039
1532280391.803,43.457,34.668,33.203,33.691,5.371
1532280391.807,45.898,35.156,31.738,36.133,305.664
1532280391.811,41.016,34.668,32.227,29.785,100.098
1532280391.815,42.480,35.156,34.668,29.297,-268.555
1532280391.819,44.434,34.668,32.227,37.598,-123.535
1532280391.823,42.480,34.180,31.738,39.551,297.363
1532280391.827,43.945,35.156,33.691,35.156,255.859
1532280391.831,44.922,35.645,34.180,30.273,-170.898
1532280391.835,42.969,35.156,34.180,37.109,-221.680
1532280391.839,38.086,32.715,34.180,41.992,191.895
1532280391.843,39.062,31.250,36.133,34.180,310.059
1532280391.846,36.133,30.762,35.156,32.715,-85.449
1532280391.850,31.738,30.273,33.203,40.039,-284.180
1532280391.854,35.645,29.297,33.203,42.969,73.242
1532280391.858,37.109,28.809,33.203,40.039,323.730
1532280391.862,38.574,27.344,33.691,34.668,16.602
1532280391.866,41.504,28.320,35.645,34.180,-279.297
1532280391.870,39.062,31.738,36.621,39.062,-50.781
1532280391.874,34.668,29.297,36.133,32.227,285.645
1532280391.878,33.691,26.855,34.668,27.344,136.230
1532280391.882,33.203,30.762,35.156,31.738,-255.371
1532280391.885,32.715,30.273,32.227,34.180,-158.691
1532280391.889,35.645,28.809,32.715,39.551,243.652
1532280391.893,42.480,29.785,37.109,39.062,230.469
1532280391.897,39.062,29.785,37.109,35.645,-165.039
1532280391.901,32.227,26.367,33.691,39.062,-239.258
1532280391.905,30.273,24.902,33.691,39.551,186.523
1532280391.909,35.645,28.809,35.156,40.039,338.379
1532280391.913,39.551,30.762,35.645,33.691,-83.984
1532280391.917,38.086,29.297,37.109,32.227,-311.523
1532280391.921,33.691,27.344,36.133,37.598,36.621
1532280391.925,36.621,23.926,33.203,36.133,334.961
1532280391.928,41.504,24.414,36.133,34.180,60.547
1532280391.932,35.645,26.367,38.086,31.738,-302.246
1532280391.936,31.738,25.879,36.621,33.691,-78.125
1532280391.940,25.879,24.902,37.109,35.645,326.660
1532280391.944,23.926,26.855,39.551,33.203,188.477
1532280391.948,31.250,27.832,41.504,31.738,-227.539
1532280391.952,31.250,28.320,41.016,34.668,-174.805
1532280391.956,30.762,27.832,39.551,36.133,240.723
1532280391.960,31.250,26.367,39.551,32.227,281.738
1532280391.964,34.668,28.320,40.527,25.879,-140.137
1532280391.968,38.086,29.297,39.062,23.926,-246.094
1532280391.971,38.086,28.320,36.133,26.855,148.438
1532280391.975,41.992,31.738,37.598,27.344,309.082
1532280391.979,46.875,33.203,37.598,29.785,-37.109
1532280391.983,48.340,31.250,38.574,35.156,-285.645
1532280391.987,50.293,31.250,42.480,43.457,16.113
1532280391.991,49.805,34.668,44.434,44.922,321.777
1532280391.995,42.969,36.621,45.410,42.969,97.656
1532280391.999,34.180,35.645,46.387,48.828,-253.906
1532280392.003,32.715,35.156,46.387,51.270,-99.609
1532280392.007,36.133,39.551,45.898,49.805,291.992
1532280392.010,37.598,41.992,45.410,44.434,197.754
1532280392.014,40.039,41.016,45.410,36.621,-213.379
1532280392.018,41.504,40.527,44.434,39.551,-189.941
1532280392.022,38.574,42.480,45.898,45.410,214.844
1532280392.026,39.551,44.922,47.363,40.039,270.508
1532280392.030,42.969,44.922,44.922,31.738,-112.305
1532280392.034,49.316,43.457,45.410,37.109,-262.695
1532280392.038,52.734,41.016,45.898,46.387,105.469
1532280392.042,45.898,38.574,43.945,44.434,334.961
1532280392.046,40.039,40.527,43.945,42.480,-6.836
1532280392.050,44.434,41.504,44.922,40.039,-307.129
1532280392.053,44.434,39.062,41.992,39.551,-11.230
1532280392.057,37.109,38.086,40.039,39.062,355.469
1532280392.061,34.668,39.551,41.016,32.227,143.555
1532280392.065,34.180,38.574,41.504,34.668,-248.047
1532280392.069,41.016,35.156,42.480,43.945,-125.977
1532280392.073,41.992,33.691,39.551,38.086,242.188
1532280392.077,35.156,35.156,38.574,31.738,226.562
1532280392.081,39.062,36.133,41.992,36.621,-149.902
1532280392.085,43.457,36.621,37.598,39.551,-205.566
1532280392.089,42.969,37.109,37.109,41.016,208.984
1532280392.093,44.922,37.109,40.039,42.480,328.613
1532280392.096,45.410,36.621,41.016,42.480,-79.590
1532280392.100,41.504,35.156,42.480,42.480,-262.695
1532280392.104,42.969,35.156,41.504,48.828,96.191
1532280392.108,47.852,37.598,41.992,46.387,337.402
1532280392.112,49.316,38.086,41.504,39.551,40.527
1532280392.116,53.223,36.621,41.016,35.645,-286.133
1532280392.120,55.176,37.109,41.992,42.480,-61.035
1532280392.124,59.082,39.062,41.992,49.316,350.098
1532280392.128,49.316,38.574,41.016,44.434,185.547
1532280392.132,38.574,40.527,40.039,41.504,-236.328
1532280392.135,37.598,38.574,41.016,43.945,-147.461
1532280392.139,38.086,36.621,39.551,48.828,251.465
1532280392.143,40.527,37.109,39.551,45.410,252.930
1532280392.147,41.016,34.668,41.504,41.992,-151.367
1532280392.151,41.992,33.691,42.480,41.504,-223.633
1532280392.155,42.969,34.668,41.992,42.969,159.668
1532280392.159,44.922,35.156,40.527,44.434,310.547
1532280392.163,44.922,34.668,40.039,42.480,-61.523
1532280392.167,47.363,32.715,37.598,47.852,-269.531
1532280392.171,50.293,32.715,35.156,49.316,25.391
1532280392.175,50.293,33.691,35.156,47.852,283.203
1532280392.178,49.805,31.738,32.227,46.387,70.801
1532280392.182,54.688,31.738,33.203,42.969,-256.348
1532280392.186,55.664,30.273,36.621,51.758,-77.637
1532280392.190,48.828,28.809,35.645,51.270,291.992
1532280392.194,46.387,30.273,32.227,33.203,171.387
1532280392.198,42.480,32.227,30.273,32.715,-197.266
1532280392.202,46.875,31.738,32.227,38.574,-156.250
1532280392.206,51.758,27.344,31.738,44.434,242.188
1532280392.210,54.688,29.297,32.715,46.875,292.480
1532280392.214,53.711,32.227,33.203,39.062,-118.652
1532280392.217,45.410,30.762,33.203,42.969,-251.953
1532280392.221,41.504,32.715,29.785,43.457,125.977
1532280392.225,43.457,31.738,27.832,38.574,346.680
1532280392.229,43.945,30.762,30.762,38.574,-3.906
1532280392.233,46.875,33.691,29.785,39.062,-279.297
1532280392.237,48.340,32.715,27.832,43.945,12.695
1532280392.241,43.457,29.785,27.344,41.992,331.543
1532280392.245,38.086,31.250,26.367,33.203,126.953
1532280392.249,37.109,33.691,26.367,35.645,-248.047
1532280392.253,35.645,34.668,27.832,39.551,-104.004
1532280392.257,33.691,33.203,27.344,40.039,294.434
1532280392.260,36.133,32.227,25.391,40.527,213.379
1532280392.264,40.039,35.645,26.855,38.574,-189.453
1532280392.268,43.945,37.109,29.297,45.898,-197.266
1532280392.272,43.945,36.621,28.809,50.293,192.871
1532280392.276,40.527,36.133,28.320,49.316,270.020
1532280392.280,43.457,35.156,29.785,43.945,-127.930
1532280392.284,48.828,36.133,30.762,39.551,-292.480
1532280392.288,46.875,38.086,28.809,48.828,79.102
1532280392.292,45.898,39.062,32.227,43.457,304.688
1532280392.296,44.434,38.574,35.156,35.156,-14.648
1532280392.300,41.992,38.086,33.203,39.551,-270.508
1532280392.303,39.551,35.645,32.715,43.457,4.395
1532280392.307,44.922,36.621,34.668,38.086,339.355
1532280392.311,47.363,37.109,33.691,36.133,132.324
1532280392.315,46.875,35.156,35.156,46.875,-249.512
1532280392.319,51.758,35.645,35.645,48.340,-140.625
1532280392.323,51.270,37.109,34.180,43.945,261.230
1532280392.327,45.898,37.109,34.180,43.945,236.328
1532280392.331,41.016,34.180,34.668,45.410,-195.312
1532280392.335,43.945,35.645,35.156,45.410,-259.277
1532280392.339,51.758,39.062,33.691,49.805,163.574
1532280392.342,48.828,39.551,31.738,44.434,297.363
1532280392.346,48.340,38.086,31.738,35.645,-74.707
1532280392.350,54.688,37.598,33.691,41.992,-260.742
1532280392.354,52.734,37.598,31.738,46.387,46.875
1532280392.358,41.504,37.598,31.250,42.480,319.336
1532280392.362,36.621,37.598,33.203,40.039,55.664
1532280392.366,41.016,37.109,32.227,40.527,-271.973
1532280392.370,43.945,37.598,30.762,44.434,-65.918
1532280392.374,47.852,37.109,29.297,45.898,311.523
1532280392.378,49.316,37.598,29.297,38.086,173.828
1532280392.382,50.781,35.645,29.297,35.645,-239.258
1532280392.385,51.270,32.715,26.855,40.527,-155.273
1532280392.389,45.898,34.180,29.785,44.922,254.883
1532280392.393,46.875,39.062,29.297,35.156,254.883
1532280392.397,46.875,41.016,27.832,27.344,-163.086
1532280392.401,45.410,40.527,28.809,30.762,-233.887
1532280392.405,48.828,41.016,26.855,36.621,157.227
1532280392.409,43.457,39.551,26.367,36.621,314.453
1532280392.413,41.016,39.551,29.297,35.645,-38.574
1532280392.417,45.410,37.109,29.297,40.039,-288.574
1532280392.421,41.504,34.180,26.367,41.016,31.250
1532280392.425,38.086,33.203,27.832,41.016,324.707
1532280392.428,41.016,31.738,30.762,41.992,102.539
1532280392.432,44.434,31.738,32.227,41.016,-250.977
1532280392.436,39.551,31.738,31.250,39.551,-96.680
1532280392.440,37.109,30.273,28.809,46.875,304.199
1532280392.444,39.062,28.320,25.391,41.992,186.035
1532280392.448,40.527,29.297,22.949,34.180,-214.355
1532280392.452,45.898,30.762,22.461,37.598,-180.176
1532280392.456,49.805,30.273,19.531,42.480,245.605
1532280392.460,49.316,31.738,19.043,40.039,302.734
1532280392.464,41.504,30.762,19.043,35.645,-100.098
1532280392.467,40.527,31.738,16.602,41.504,-233.887
1532280392.471,47.852,32.715,17.578,44.434,135.254
1532280392.475,52.246,33.203,16.113,36.133,328.125
1532280392.479,48.340,34.668,16.113,35.156,-9.766
1532280392.483,50.781,32.715,17.090,43.457,-273.926
1532280392.487,56.152,30.762,16.602,51.270,8.789
1532280392.491,53.223,31.250,14.160,48.828,328.125
1532280392.495,43.945,31.250,13.184,43.457,120.605
1532280392.499,36.133,30.273,19.043,38.574,-243.164
1532280392.503,37.109,27.832,22.949,41.016,-97.168
1532280392.507,40.039,27.344,22.461,44.434,293.945
1532280392.510,39.062,28.809,23.926,36.621,216.309
1532280392.514,39.551,29.297,25.391,33.691,-205.566
1532280392.518,42.969,29.297,27.832,43.945,-213.379
1532280392.522,41.016,29.785,27.344,46.387,206.543
1532280392.526,41.504,32.227,26.855,43.457,301.270
1532280392.530,44.434,34.180,29.785,41.992,-71.777
1532280392.534,44.922,33.691,29.297,34.180,-270.508
1532280392.538,45.898,32.715,28.809,36.621,96.680
1532280392.542,49.316,33.203,31.738,43.457,354.980
1532280392.546,48.828,33.203,32.715,37.109,7.812
1532280392.549,46.387,33.203,31.250,37.109,-293.457
1532280392.553,47.363,33.203,28.809,44.434,-32.227
1532280392.557,44.922,33.203,29.297,45.898,322.754
1532280392.561,44.922,34.180,32.715,43.457,151.367
1532280392.565,45.898,30.273,31.738,39.551,-229.004
1532280392.569,42.969,29.297,29.785,42.480,-123.535
1532280392.573,42.969,32.227,29.297,39.062,272.461
1532280392.577,40.039,33.691,29.785,28.320,228.516
1532280392.581,32.227,34.180,34.668,26.367,-182.617
1532280392.585,28.809,34.668,34.180,28.320,-219.727
1532280392.589,27.832,34.180,33.203,29.297,190.430
1532280392.592,29.297,32.715,35.645,28.809,291.992
1532280392.596,25.879,31.250,36.133,26.855,-62.012
1532280392.600,29.297,29.297,36.621,30.273,-262.207
1532280392.604,36.621,29.785,37.598,37.598,37.598
1532280392.608,32.715,31.738,39.551,38.574,336.426
1532280392.612,22.461,33.691,39.062,27.832,46.875
1532280392.616,18.066,34.668,39.062,20.020,-296.875
1532280392.620,21.484,33.691,40.039,32.227,-35.645
1532280392.624,26.367,35.156,37.109,34.668,330.078
1532280392.628,26.855,35.156,34.668,23.438,172.363
1532280392.632,22.949,35.645,36.621,19.043,-223.633
1532280392.635,33.203,37.109,38.574,23.926,-159.668
1532280392.639,44.434,37.109,36.621,27.344,262.695
1532280392.643,47.363,37.598,36.621,25.391,271.484
1532280392.647,42.969,38.086,37.598,23.926,-125.000
1532280392.651,33.691,38.574,35.645,22.949,-228.516
1532280392.655,30.762,39.551,32.227,22.461,131.348
1532280392.659,21.973,40.039,31.738,24.902,317.871
1532280392.663,18.555,38.574,36.621,25.391,-40.039
1532280392.667,16.602,35.645,40.039,23.926,-269.043
1532280392.671,19.043,35.156,40.527,31.250,25.879
1532280392.674,29.297,35.156,40.527,31.250,291.992
1532280392.678,29.785,35.156,40.039,30.273,69.336
1532280392.682,21.484,37.109,40.039,30.762,-262.207
1532280392.686,27.832,38.574,38.086,34.180,-55.664
1532280392.690,30.762,40.527,35.645,29.785,351.562
1532280392.694,25.391,39.551,38.086,26.855,238.281
1532280392.698,25.879,39.551,42.480,28.809,-187.012
1532280392.702,27.344,40.039,41.504,19.531,-181.152
1532280392.706,27.344,38.574,39.551,19.531,221.680
1532280392.710,21.973,38.086,38.574,20.020,286.621
1532280392.714,22.461,38.574,39.062,16.113,-132.324
1532280392.717,24.414,37.109,40.527,16.113,-252.441
1532280392.721,29.785,34.668,39.551,25.879,141.602
1532280392.725,39.551,36.621,38.086,30.762,344.727
1532280392.729,32.227,41.016,34.180,19.043,14.160
1532280392.733,22.949,37.109,34.180,17.090,-293.457
1532280392.737,26.855,29.297,35.645,23.438,-8.301
1532280392.741,22.949,29.297,37.109,29.297,354.492
1532280392.745,14.160,30.273,40.527,30.273,130.859
1532280392.749,24.902,29.785,39.062,32.715,-248.047
1532280392.753,31.250,31.738,34.180,31.250,-131.836
1532280392.757,31.738,28.320,33.203,29.297,233.398
1532280392.760,29.785,29.297,32.227,31.250,192.383
1532280392.764,31.250,32.715,30.762,33.203,-203.125
1532280392.768,39.062,28.809,30.762,39.062,-207.520
1532280392.772,37.109,26.855,32.715,46.387,207.520
1532280392.776,37.598,27.344,34.180,47.363,299.316
1532280392.780,41.992,28.809,30.273,44.922,-74.707
1532280392.784,47.363,28.809,31.250,50.293,-260.254
1532280392.788,53.223,26.855,33.203,56.641,92.285
1532280392.792,56.152,31.250,32.227,57.129,330.078
1532280392.796,53.223,32.715,34.668,54.199,3.418
1532280392.799,50.293,30.762,36.133,45.898,-295.898
1532280392.803,46.875,27.344,33.691,40.527,-24.902
1532280392.807,40.527,27.832,32.227,44.434,320.801
1532280392.811,41.504,30.762,35.156,37.109,127.441
1532280392.815,45.898,30.762,35.156,26.855,-282.715
1532280392.819,45.410,27.832,33.691,41.504,-163.086
1532280392.823,54.199,27.344,35.156,53.711,246.582
1532280392.827,60.547,28.809,36.133,46.387,242.676
1532280392.831,51.758,28.809,36.133,41.504,-145.020
1532280392.835,49.316,28.320,32.227,44.922,-227.051
1532280392.839,51.270,29.785,30.273,48.828,162.598
1532280392.842,54.199,32.227,34.180,53.223,298.828
1532280392.846,55.664,32.227,34.668,50.781,-54.688
1532280392.850,58.594,32.227,31.250,47.852,-267.090
1532280392.854,57.617,34.180,31.250,51.270,22.949
1532280392.858,50.781,35.645,30.762,50.293,321.289
1532280392.862,47.852,32.715,30.762,42.969,56.641
1532280392.866,44.922,33.691,32.227,37.109,-284.180
1532280392.870,40.039,30.762,31.738,38.574,-76.172
1532280392.874,41.504,26.367,30.762,39.062,282.715
1532280392.878,46.875,30.273,28.320,36.133,151.367
1532280392.882,44.434,31.738,29.297,36.621,-212.402
1532280392.885,37.598,31.250,27.344,37.109,-120.117
1532280392.889,40.527,32.715,22.461,41.504,265.137
1532280392.893,46.387,30.273,24.414,38.086,261.230
1532280392.897,49.805,30.273,28.809,33.691,-145.508
1532280392.901,52.734,32.227,28.320,39.062,-240.723
1532280392.905,58.105,30.273,25.879,38.574,183.105
1532280392.909,51.758,31.738,25.391,39.062,358.887
1532280392.913,49.805,34.668,26.855,39.062,-6.836
1532280392.917,47.852,32.715,26.367,38.574,-265.625
1532280392.921,37.109,31.250,24.414,42.969,32.715
1532280392.924,42.480,32.715,24.414,46.875,343.750
1532280392.928,46.875,32.715,23.926,42.969,107.422
1532280392.932,45.410,30.762,23.926,36.621,-245.117
1532280392.936,46.387,29.297,24.414,41.504,-83.008
1532280392.940,47.363,28.320,24.902,43.457,310.547
1532280392.944,45.898,27.344,23.438,32.227,238.281
1532280392.948,36.621,24.414,23.926,31.250,-159.668
1532280392.952,35.156,25.391,23.926,30.762,-183.105
1532280392.956,45.410,26.855,24.902,36.133,194.824
1532280392.960,46.387,26.855,23.926,37.598,303.711
1532280392.964,38.086,27.344,24.414,26.367,-83.008
1532280392.967,36.621,26.367,27.344,29.297,-243.652
1532280392.971,38.574,26.855,24.414,37.598,132.324
1532280392.975,35.645,28.320,24.414,38.086,329.102
1532280392.979,38.574,29.297,28.809,37.109,8.301
1532280392.983,42.480,30.273,27.344,38.574,-266.602
1532280392.987,36.621,29.785,23.438,36.133,-0.977
1532280392.991,37.109,27.344,22.949,31.738,321.777
1532280392.995,38.086,25.391,24.902,22.461,103.027
1532280392.999,34.668,23.438,25.879,23.926,-252.930
1532280393.003,36.621,21.973,26.367,27.344,-127.930
1532280393.006,35.156,20.020,29.297,30.273,264.648
1532280393.010,38.574,19.043,32.715,29.785,246.094
1532280393.014,36.621,20.020,32.227,22.949,-183.105
1532280393.018,32.227,20.996,32.227,30.273,-232.422
1532280393.022,41.016,20.508,31.250,38.086,173.340
1532280393.026,39.062,20.508,29.785,37.598,279.297
1532280393.030,38.086,19.531,28.320,33.203,-99.609
1532280393.034,40.039,17.578,26.367,35.156,-272.461
1532280393.038,40.039,17.090,25.879,39.551,83.984
1532280393.042,39.551,19.531,26.855,30.273,336.426
1532280393.046,42.480,20.996,27.832,25.879,32.227
1532280393.049,44.922,18.066,27.344,29.785,-267.090
1532280393.053,40.039,16.602,27.832,27.832,-47.852
1532280393.057,30.273,17.090,30.762,29.785,304.688
1532280393.061,25.391,14.160,29.785,28.809,179.688
1532280393.065,23.926,10.742,31.250,28.809,-210.938
1532280393.069,23.926,6.836,33.203,33.691,-126.465
1532280393.073,29.785,5.371,32.715,33.691,275.879
1532280393.077,31.738,5.859,35.645,27.832,258.789
1532280393.081,32.227,4.883,36.621,25.879,-154.297
1532280393.085,33.691,5.371,33.203,28.809,-225.586
1532280393.089,34.668,0.977,34.180,31.738,181.641
1532280393.092,37.109,0.488,39.551,32.227,316.406
1532280393.096,32.715,2.441,40.039,26.855,-63.477
1532280393.100,35.156,2.441,37.109,28.320,-265.137
1532280393.104,42.480,3.906,37.598,38.086,52.734
1532280393.108,43.457,2.930,40.527,43.945,341.797
1532280393.112,47.363,2.930,39.062,42.969,95.215
1532280393.116,51.758,4.883,38.574,39.062,-253.906
1532280393.120,50.781,4.883,41.016,41.992,-61.523
1532280393.124,47.852,4.395,43.457,48.340,319.824
1532280393.128,45.410,6.348,44.434,42.480,199.219
1532280393.131,41.504,5.859,44.922,35.645,-204.590
1532280393.135,39.062,5.371,42.969,37.598,-173.340
1532280393.139,44.434,7.324,40.527,39.062,241.211
1532280393.143,42.969,7.324,38.574,36.621,292.969
1532280393.147,37.598,9.277,38.574,34.668,-105.957
1532280393.151,36.621,9.277,39.062,32.715,-245.605
1532280393.155,37.598,7.324,39.551,37.598,134.766
1532280393.159,36.133,8.301,36.133,38.086,340.332
1532280393.163,40.039,8.301,34.180,33.691,18.555
1532280393.167,40.527,8.789,36.133,34.668,-261.230
1532280393.171,41.016,10.742,36.621,39.062,18.066
1532280393.174,48.828,13.672,37.598,36.621,322.266
1532280393.178,42.480,15.137,38.086,32.715,83.008
1532280393.182,41.016,14.648,37.109,33.203,-271.973
1532280393.186,45.898,14.160,34.668,34.668,-95.215
1532280393.190,42.969,13.672,36.133,38.574,288.574
1532280393.194,42.969,14.648,38.086,38.086,203.613
1532280393.198,42.480,16.602,36.621,34.180,-154.297
1532280393.202,39.062,17.578,35.156,38.086,-152.832
1532280393.206,39.551,17.578,30.762,40.039,215.332
1532280393.210,38.086,14.648,32.227,35.645,289.551
1532280393.214,34.180,13.184,36.133,33.203,-92.773
1532280393.217,40.527,15.137,35.156,36.621,-268.555
1532280393.221,43.457,16.113,35.645,40.527,115.234
1532280393.225,40.039,15.137,34.668,36.133,353.516
1532280393.229,40.527,16.602,36.621,35.645,16.113
1532280393.233,39.062,18.066,38.086,31.738,-282.227
1532280393.237,42.480,17.578,32.715,30.762,-13.184
1532280393.241,46.387,19.531,33.691,39.062,331.543
1532280393.245,44.434,20.508,37.109,36.621,140.137
1532280393.249,50.293,18.066,38.086,35.645,-216.797
1532280393.253,50.293,18.066,36.621,39.062,-107.910
1532280393.256,42.969,19.531,36.621,42.480,282.715
1532280393.260,43.457,19.531,39.062,41.992,260.742
1532280393.264,43.457,20.020,39.062,35.645,-159.668
1532280393.268,44.434,20.508,38.574,38.574,-231.445
1532280393.272,49.805,20.020,38.574,45.898,146.973
1532280393.276,45.410,20.020,38.574,42.480,277.832
1532280393.280,41.504,19.043,35.645,37.598,-69.336
1532280393.284,42.969,18.066,33.691,36.133,-262.695
1532280393.288,42.969,18.555,32.715,41.016,85.449
1532280393.292,47.852,19.043,32.227,40.039,351.562
1532280393.296,51.758,17.578,32.227,34.180,52.734
1532280393.299,47.363,17.578,31.738,34.180,-280.762
1532280393.303,57.617,20.020,33.691,40.039,-46.875
1532280393.307,60.547,19.531,34.180,41.504,323.242
1532280393.311,53.711,19.043,32.227,36.621,146.484
1532280393.315,59.082,19.043,34.180,35.156,-270.020
1532280393.319,55.176,16.602,34.668,41.992,-152.832
1532280393.323,49.316,16.113,33.203,51.270,300.781
1532280393.327,44.922,17.090,34.668,56.152,287.109
1532280393.331,41.992,15.625,38.086,54.199,-134.277
1532280393.335,43.457,15.137,38.086,55.664,-223.145
1532280393.339,45.410,13.672,36.133,60.547,159.668
1532280393.342,46.875,15.137,40.039,54.688,321.289
1532280393.346,45.410,17.090,44.434,47.852,-41.504
1532280393.350,47.852,18.066,44.434,48.340,-275.391
1532280393.354,50.781,18.066,42.969,49.805,46.875
1532280393.358,54.199,16.602,42.969,46.875,321.777
1532280393.362,54.199,19.043,43.457,46.387,54.688
1532280393.366,49.316,19.531,43.945,51.758,-272.949
1532280393.370,53.223,20.020,43.945,50.781,-97.168
1532280393.374,56.152,21.484,39.551,42.969,257.324
1532280393.378,48.828,19.043,41.016,41.016,185.547
1532280393.381,47.852,19.531,43.945,45.898,-192.871
1532280393.385,46.387,20.508,44.434,50.293,-195.312
1532280393.389,44.922,18.555,46.875,55.664,232.422
1532280393.393,47.852,20.996,46.875,54.199,291.992
1532280393.397,50.781,23.438,43.457,49.805,-120.117
1532280393.401,54.199,23.926,41.992,49.805,-259.766
1532280393.405,55.176,23.438,41.504,51.270,115.234
1532280393.409,52.734,20.996,41.016,51.758,335.449
1532280393.413,48.828,19.531,41.016,41.992,-37.109
1532280393.417,55.664,21.484,42.480,36.133,-312.012
1532280393.421,55.176,20.996,40.039,47.363,2.930
1532280393.424,41.992,20.996,39.062,48.828,339.844
1532280393.428,44.922,22.461,41.504,41.992,127.441
1532280393.432,52.734,22.461,39.551,39.551,-253.906
1532280393.436,53.711,20.508,38.574,45.898,-107.910
1532280393.440,52.246,19.531,37.598,43.945,300.293
1532280393.444,49.805,20.996,38.574,43.457,226.562
1532280393.448,47.363,21.484,41.016,44.434,-170.898
1532280393.452,49.316,20.996,38.086,41.992,-208.496
1532280393.456,50.293,18.555,35.645,39.062,184.570
1532280393.460,48.828,17.090,36.621,36.133,293.945
1532280393.463,46.875,17.578,36.133,38.086,-71.777
1532280393.467,42.480,17.578,37.598,41.504,-242.676
1532280393.471,40.527,18.066,38.086,41.016,95.215
1532280393.475,46.387,17.090,37.598,43.457,355.469
1532280393.479,51.758,18.555,37.109,45.410,68.848
1532280393.483,49.805,19.043,36.133,38.086,-257.812
1532280393.487,47.852,18.555,37.598,41.992,-21.973
1532280393.491,50.781,20.996,40.039,46.387,332.520
1532280393.495,50.293,21.973,39.551,40.039,145.508
1532280393.499,44.434,19.531,39.551,35.645,-268.555
1532280393.503,43.457,20.020,42.969,42.969,-161.621
1532280393.506,39.551,21.484,41.992,47.363,284.668
1532280393.510,37.109,25.391,40.039,39.062,252.930
1532280393.514,42.480,26.367,41.992,29.785,-187.012
1532280393.518,45.898,23.438,43.457,36.133,-221.680
1532280393.522,41.504,20.508,44.434,42.480,183.105
1532280393.526,37.598,21.484,45.410,37.109,326.660
1532280393.530,34.180,22.461,42.969,26.367,-42.969
1532280393.534,33.203,22.949,41.992,20.508,-280.273
1532280393.538,30.762,23.438,40.039,25.391,61.035
1532280393.542,28.809,21.973,39.551,29.785,353.516
1532280393.546,30.762,23.438,41.992,27.344,43.945
1532280393.549,32.715,22.949,44.434,27.832,-296.387
1532280393.553,35.156,23.438,43.945,29.785,-46.875
1532280393.557,36.621,25.391,41.016,31.250,330.078
1532280393.561,30.273,22.949,42.969,31.250,174.805
1532280393.565,25.879,23.438,44.434,33.691,-220.215
1532280393.569,31.738,23.438,42.480,31.250,-156.738
1532280393.573,33.691,22.461,41.992,31.250,231.934
1532280393.577,34.180,23.926,43.457,32.715,270.996
1532280393.581,33.691,22.949,41.992,30.273,-129.883
1532280393.585,32.227,23.926,41.992,36.621,-257.324
1532280393.588,36.621,25.391,43.945,38.574,124.023
1532280393.592,35.156,23.926,44.434,32.227,302.734
1532280393.596,31.738,25.391,44.922,30.762,-39.551
1532280393.600,36.621,25.879,43.457,34.668,-264.648
1532280393.604,42.480,24.414,40.527,42.480,37.598
1532280393.608,44.922,22.949,38.086,43.945,323.242
1532280393.612,39.062,23.926,37.598,35.645,92.773
1532280393.616,35.645,25.879,35.645,31.250,-248.535
1532280393.620,39.551,25.879,33.691,38.574,-75.195
1532280393.624,38.086,22.949,34.668,41.504,303.711
1532280393.628,38.574,19.531,32.715,37.598,201.660
1532280393.631,41.016,18.066,30.762,38.086,-207.031
1532280393.635,39.551,17.090,33.203,42.480,-177.246
1532280393.639,41.016,17.090,34.180,49.316,228.027
1532280393.643,41.992,17.090,33.203,48.828,268.066
1532280393.647,44.434,18.066,34.668,42.969,-130.371
1532280393.651,52.734,21.484,33.203,38.574,-301.270
1532280393.655,51.270,20.996,31.738,37.109,76.172
1532280393.659,39.551,20.020,30.273,40.039,328.125
1532280393.663,38.086,20.020,31.250,44.922,-26.855
1532280393.667,43.457,20.996,29.785,42.969,-310.547
1532280393.671,51.270,21.484,30.273,46.875,7.324
1532280393.674,53.223,18.555,33.203,50.781,340.820
1532280393.678,47.363,19.043,32.227,46.875,114.746
1532280393.682,42.969,19.531,32.227,42.969,-244.629
1532280393.686,41.016,17.578,30.762,43.457,-116.699
1532280393.690,38.086,18.555,32.227,47.363,242.676
1532280393.694,41.992,18.555,34.180,40.527,194.824
1532280393.698,45.410,19.531,34.180,40.039,-184.570
1532280393.702,42.969,22.461,33.691,46.875,-215.820
1532280393.706,45.410,23.438,33.691,52.734,209.961
1532280393.710,46.387,24.902,31.738,51.758,312.012
1532280393.713,47.852,26.855,31.738,42.969,-100.586
1532280393.717,51.758,24.902,33.691,46.875,-272.949
1532280393.721,55.664,23.926,32.227,53.223,93.262
1532280393.725,54.688,24.902,30.762,50.781,356.445
1532280393.729,53.223,25.879,30.273,47.363,38.574
1532280393.733,57.617,23.438,30.762,47.852,-296.875
1532280393.737,56.152,20.996,28.320,49.805,-62.012
1532280393.741,48.828,20.996,26.855,45.410,327.637
1532280393.745,44.434,20.020,31.250,45.410,165.527
1532280393.749,42.969,20.020,31.250,44.434,-232.422
1532280393.753,41.992,20.996,29.297,44.922,-157.227
1532280393.756,46.387,22.461,28.809,46.387,242.188
1532280393.760,48.340,25.391,29.297,45.898,267.578
1532280393.764,50.781,25.879,29.785,46.387,-169.434
1532280393.768,51.758,24.414,27.344,47.363,-233.398
1532280393.772,49.805,22.949,24.902,48.340,180.664
1532280393.776,51.758,20.508,28.320,47.363,312.500
1532280393.780,50.781,22.461,29.785,45.898,-79.102
1532280393.784,50.781,22.949,30.762,46.875,-295.410
1532280393.788,50.293,20.508,32.715,53.223,57.129
1532280393.792,48.828,22.461,32.227,53.711,329.590
1532280393.795,47.852,24.414,34.180,46.875,47.363
1532280393.799,50.293,24.414,32.715,42.480,-275.879
1532280393.803,51.758,25.391,28.809,46.387,-61.523
1532280393.807,47.852,25.391,28.320,46.387,324.707
1532280393.811,41.992,24.902,30.273,42.480,188.477
1532280393.815,37.598,24.414,29.297,35.645,-219.238
1532280393.819,37.598,21.973,28.809,34.668,-175.781
1532280393.823,40.527,20.996,28.809,41.504,216.309
1532280393.827,41.016,23.926,30.273,42.969,251.465
1532280393.831,39.551,22.461,31.738,39.551,-159.180
1532280393.835,37.109,20.996,30.273,28.320,-279.785
1532280393.838,40.039,21.973,30.273,31.250,125.000
1532280393.842,44.922,21.973,33.203,39.062,311.523
1532280393.846,41.992,22.949,30.762,36.133,-33.691
1532280393.850,39.062,24.414,31.250,37.598,-270.020
1532280393.854,39.551,23.926,32.227,35.156,11.719
1532280393.858,35.156,24.902,29.785,29.785,327.637
1532280393.862,32.715,26.855,30.762,23.438,81.543
1532280393.866,31.738,24.902,31.250,22.949,-287.598
1532280393.870,28.809,20.996,31.250,24.902,-97.656
1532280393.874,27.832,22.949,32.227,20.996,311.523
1532280393.878,25.391,24.414,33.203,14.648,213.867
1532280393.881,20.508,25.391,33.691,8.301,-197.266
1532280393.885,16.602,26.855,37.109,10.742,-171.875
1532280393.889,15.137,23.926,39.551,21.973,211.914
1532280393.893,17.578,23.438,40.039,17.090,255.859
1532280393.897,20.996,25.391,41.992,12.695,-108.398
1532280393.901,20.508,27.832,41.504,16.602,-253.418
1532280393.905,19.531,32.227,39.062,13.184,87.402
1532280393.909,14.160,33.691,41.992,9.766,335.449
1532280393.913,10.742,32.715,43.945,4.395,8.301
1532280393.917,11.230,34.180,43.945,-0.977,-292.969
1532280393.920,6.348,34.668,41.504,-0.977,-23.438
1532280393.924,-3.418,33.691,41.016,0.000,306.641
1532280393.928,-8.301,32.715,42.969,-7.324,121.094
1532280393.932,-9.277,34.668,44.434,-13.184,-262.207
1532280393.936,-9.766,38.574,45.410,-11.230,-158.203
1532280393.940,-9.277,39.551,43.457,-9.277,263.672
1532280393.944,-14.160,36.133,45.410,-8.789,232.422
1532280393.948,-14.648,35.156,49.805,-9.277,-187.988
1532280393.952,-10.254,36.621,51.270,-6.348,-244.629
1532280393.956,-11.230,34.668,50.293,-1.465,190.918
1532280393.960,-7.812,36.621,46.387,-6.836,293.457
1532280393.963,-5.859,40.527,45.410,-16.602,-106.934
1532280393.967,-9.277,39.551,46.387,-18.066,-253.418
1532280393.971,-8.301,39.062,45.410,-20.020,58.105
1532280393.975,-7.324,38.574,45.410,-26.855,297.852
1532280393.979,-11.719,38.086,47.363,-26.855,39.062
1532280393.983,-11.230,40.039,47.363,-22.949,-273.926
1532280393.987,-7.324,39.551,47.363,-11.230,-31.738
1532280393.991,-10.742,35.645,50.293,-6.836,317.871
1532280393.995,-13.672,34.668,50.293,-11.719,123.047
1532280393.999,-13.672,36.621,47.852,-9.766,-254.883
1532280394.003,-13.184,36.133,49.316,0.977,-124.023
1532280394.006,-10.254,33.691,50.781,1.953,282.715
1532280394.010,-12.207,34.180,47.852,-5.859,264.160
1532280394.014,-12.207,35.645,44.434,-7.812,-137.695
1532280394.018,-9.277,35.645,44.434,-2.441,-216.797
1532280394.022,-10.254,32.715,44.922,0.977,182.617
1532280394.026,-8.789,32.227,41.992,-2.441,350.098
1532280394.030,-2.441,35.156,44.434,-2.930,-41.504
1532280394.034,7.324,34.668,44.434,0.977,-325.684
1532280394.038,11.230,33.203,39.551,5.371,5.371
1532280394.042,10.254,33.691,38.086,5.859,334.961
1532280394.045,12.695,34.668,38.574,4.395,63.965
1532280394.049,16.113,33.691,41.016,9.766,-294.434
1532280394.053,20.020,31.250,39.551,11.719,-86.426
1532280394.057,24.902,27.832,36.621,7.812,292.969
1532280394.061,16.113,31.250,36.133,3.906,176.758
1532280394.065,12.695,36.133,37.109,2.441,-231.934
1532280394.069,21.973,36.621,37.598,7.812,-177.734
1532280394.073,16.602,34.668,37.598,6.348,242.188
1532280394.077,11.719,34.180,39.551,5.371,273.438
1532280394.081,14.648,35.156,41.016,8.789,-137.695
1532280394.085,20.508,35.645,42.480,13.184,-267.578
1532280394.088,23.926,35.645,40.527,19.531,140.137
1532280394.092,25.391,35.156,35.645,12.207,328.613
1532280394.096,22.949,33.691,34.180,5.371,-19.531
1532280394.100,23.926,33.691,33.203,14.160,-265.137
1532280394.104,26.855,36.621,28.809,19.043,2.930
1532280394.108,29.785,35.645,28.320,21.973,318.848
1532280394.112,32.715,34.668,26.367,13.672,80.078
1532280394.116,26.367,33.203,27.344,7.324,-299.805
1532280394.120,24.414,27.344,26.855,16.602,-118.652
1532280394.124,21.973,26.367,23.438,23.438,301.758
1532280394.128,21.484,28.809,23.926,20.508,228.027
1532280394.131,24.902,28.809,23.438,18.555,-195.801
1532280394.135,26.855,28.809,20.996,23.438,-194.336
1532280394.139,33.691,26.367,19.043,29.785,229.004
1532280394.143,35.156,22.461,17.578,31.250,305.664
1532280394.147,34.668,21.484,19.531,31.250,-84.473
1532280394.151,33.203,19.043,20.020,31.738,-258.301
1532280394.155,30.762,14.160,18.066,30.762,76.660
1532280394.159,32.715,11.230,20.020,24.902,324.707
1532280394.163,34.180,8.789,21.484,19.043,15.137
1532280394.167,33.203,5.859,20.996,19.531,-289.062
1532280394.170,29.785,2.930,22.461,20.996,-14.160
1532280394.174,29.785,1.953,23.438,21.484,293.457
1532280394.178,27.832,1.465,24.902,23.438,119.141
1532280394.182,31.250,1.465,26.367,20.996,-249.023
1532280394.186,36.133,0.977,27.344,22.461,-128.906
1532280394.190,38.574,0.488,26.367,25.879,308.105
1532280394.194,32.715,0.000,29.785,21.973,241.211
1532280394.198,27.344,1.465,35.645,24.902,-181.641
1532280394.202,35.156,5.859,32.715,27.832,-227.539
1532280394.206,33.203,8.301,29.785,26.855,185.059
1532280394.210,30.273,4.883,30.762,25.391,322.754
1532280394.213,32.227,5.859,32.227,21.973,-81.055
1532280394.217,39.062,8.789,33.691,28.320,-290.039
1532280394.221,41.504,6.348,32.715,38.574,66.895
1532280394.225,38.574,3.906,32.227,37.598,331.543
1532280394.229,47.852,6.348,34.668,40.527,38.574
1532280394.233,52.246,9.277,37.109,44.434,-287.109
1532280394.237,46.875,11.719,34.180,45.898,-54.199
1532280394.241,49.805,10.254,33.203,46.875,327.637
1532280394.245,55.664,10.742,35.156,48.340,178.711
1532280394.249,55.664,13.672,36.133,48.340,-227.539
1532280394.252,45.410,13.672,36.621,44.922,-185.547
1532280394.256,36.133,16.602,36.621,40.527,228.516
1532280394.260,38.086,19.043,34.668,39.551,276.367
1532280394.264,39.551,18.555,34.668,37.109,-133.301
1532280394.268,41.504,19.043,35.156,39.551,-222.656
1532280394.272,46.875,20.020,37.109,44.434,176.758
1532280394.276,49.316,19.043,37.598,44.922,325.195
1532280394.280,48.340,20.996,36.133,41.992,-48.340
1532280394.284,45.410,22.949,35.156,43.457,-280.273
1532280394.288,39.551,20.020,34.668,46.875,42.969
1532280394.292,42.480,21.973,34.180,43.945,336.914
1532280394.295,45.410,23.926,35.156,39.551,62.500
1532280394.299,43.457,23.926,37.109,41.992,-286.621
1532280394.303,48.340,26.367,34.668,46.387,-100.098
1532280394.307,52.734,27.344,33.691,51.758,295.410
1532280394.311,49.316,31.250,35.156,50.293,189.941
1532280394.315,42.969,31.738,35.645,40.527,-237.793
1532280394.319,40.039,28.809,33.691,40.527,-192.383
1532280394.323,42.480,27.344,34.180,48.340,234.375
1532280394.327,45.410,28.320,33.691,48.340,299.316
1532280394.331,45.898,29.297,33.691,41.016,-111.816
1532280394.335,39.062,28.809,35.645,41.504,-254.395
1532280394.338,35.156,27.832,36.621,44.922,144.531
1532280394.342,39.062,25.391,36.133,43.457,349.121
1532280394.346,44.434,25.879,31.250,39.551,17.090
1532280394.350,45.898,25.879,29.785,36.621,-251.465
1532280394.354,43.457,28.320,30.762,39.551,-15.137
1532280394.358,46.387,29.785,32.227,46.875,302.734
1532280394.362,45.898,26.367,33.691,46.387,131.836
1532280394.366,42.480,25.391,32.715,41.992,-220.703
1532280394.370,43.457,26.367,33.691,44.434,-97.168
1532280394.374,43.457,26.855,33.203,46.387,290.527
1532280394.377,40.527,26.855,33.203,45.898,231.445
1532280394.381,38.574,29.785,36.133,45.898,-176.758
1532280394.385,39.551,32.227,35.156,48.828,-174.316
1532280394.389,43.457,32.715,35.156,50.293,232.910
1532280394.393,47.363,35.156,36.133,41.992,301.270
1532280394.397,48.828,36.133,36.621,40.527,-105.469
1532280394.401,51.270,37.109,35.645,47.363,-256.836
1532280394.405,50.781,37.109,32.715,46.387,111.328
1532280394.409,47.852,39.062,31.738,46.875,337.891
1532280394.413,49.805,41.992,33.691,48.828,20.020
1532280394.417,49.805,41.992,33.691,48.340,-260.254
1532280394.420,44.434,41.504,33.691,47.363,-0.488
1532280394.424,41.016,39.062,34.668,45.898,347.656
1532280394.428,41.016,39.062,33.203,41.992,155.273
1532280394.432,42.480,41.504,35.156,39.551,-239.258
1532280394.436,44.922,41.016,36.621,41.504,-127.441
1532280394.440,44.922,42.480,35.156,42.969,281.250
1532280394.444,44.922,43.945,33.203,38.086,260.254
1532280394.448,39.551,42.969,31.250,36.621,-170.898
1532280394.452,34.180,43.457,34.180,40.527,-260.254
1532280394.456,35.645,41.992,35.645,41.504,166.016
1532280394.460,38.574,40.039,34.180,42.969,340.332
1532280394.463,39.062,39.062,33.691,39.062,-29.785
1532280394.467,36.133,37.598,32.715,34.180,-239.258
1532280394.471,37.598,36.133,28.809,35.645,79.590
1532280394.475,46.875,37.109,27.832,40.039,334.961
1532280394.479,51.758,37.598,32.227,41.504,46.875
1532280394.483,49.316,37.109,29.785,39.062,-270.020
1532280394.487,44.434,36.621,26.855,40.039,-51.270
1532280394.491,42.480,35.156,28.809,43.945,301.758
1532280394.495,45.898,35.156,28.320,39.062,144.531
1532280394.499,46.387,35.156,25.391,36.133,-234.375
1532280394.502,47.852,34.668,25.391,44.434,-163.574
1532280394.506,47.852,32.715,25.391,43.457,228.027
1532280394.510,38.086,29.785,26.367,39.551,268.066
1532280394.514,34.180,28.809,27.344,41.992,-126.953
1532280394.518,41.016,27.832,28.320,43.457,-240.234
1532280394.522,41.992,27.832,29.297,45.898,154.297
1532280394.526,35.156,28.809,27.832,41.992,326.172
1532280394.530,28.320,30.273,25.879,35.645,-50.293
1532280394.534,32.715,29.785,28.809,36.133,-317.383
1532280394.538,37.109,27.832,28.320,38.574,-10.254
1532280394.542,35.645,28.809,26.367,41.504,317.871
1532280394.545,35.156,27.832,28.320,38.086,73.730
1532280394.549,39.062,28.809,27.344,36.621,-270.996
1532280394.553,41.504,28.320,24.902,41.016,-105.469
1532280394.557,40.527,28.320,28.320,47.363,297.852
1532280394.561,40.527,28.809,26.367,45.898,194.824
1532280394.565,41.504,28.809,25.391,41.992,-236.816
1532280394.569,43.945,27.344,28.320,48.340,-205.566
1532280394.573,47.363,27.832,24.902,52.246,221.191
1532280394.577,46.875,29.297,24.414,50.293,280.273
1532280394.581,42.480,29.297,27.344,47.363,-104.980
1532280394.584,45.898,29.297,27.832,46.387,-256.836
1532280394.588,45.410,27.832,26.855,48.828,120.117
1532280394.592,44.434,29.297,26.367,41.992,338.379
1532280394.596,48.340,29.785,30.273,35.156,-11.719
1532280394.600,50.293,28.320,27.832,39.062,-266.113
1532280394.604,52.734,30.273,25.879,46.875,-5.371
1532280394.608,60.059,30.762,28.809,52.734,313.477
1532280394.612,61.035,29.785,28.809,50.293,121.582
1532280394.616,54.199,30.273,28.320,47.363,-256.348
1532280394.620,53.711,28.809,29.297,48.828,-108.398
1532280394.624,52.246,29.785,30.762,49.316,287.598
1532280394.627,43.457,30.762,29.297,45.898,234.863
1532280394.631,38.086,28.809,30.762,39.062,-193.359
1532280394.635,43.457,27.344,31.738,39.062,-239.258
1532280394.639,47.852,28.809,30.762,45.410,192.383
1532280394.643,37.598,28.809,32.227,39.062,295.410
1532280394.647,35.156,27.344,33.203,37.109,-85.938
1532280394.651,43.457,28.320,36.133,41.504,-251.465
1532280394.655,46.387,27.832,37.109,43.945,94.238
1532280394.659,49.805,26.855,34.180,47.363,376.465
1532280394.663,51.758,27.832,33.691,46.875,71.289
1532280394.667,53.711,29.785,31.738,44.922,-277.344
1532280394.670,58.105,29.785,27.344,43.945,-30.273
1532280394.674,61.523,30.273,26.855,38.086,310.059
1532280394.678,59.082,33.203,29.785,36.133,139.160
1532280394.682,52.734,31.250,31.250,39.551,-243.652
1532280394.686,50.293,28.320,29.297,41.992,-156.738
1532280394.690,48.340,27.344,28.320,46.387,261.230
1532280394.694,49.805,27.832,32.715,50.781,261.719
1532280394.698,52.246,29.297,36.133,51.270,-141.602
1532280394.702,47.363,28.809,34.668,49.316,-230.957
1532280394.706,45.898,25.391,35.645,56.641,144.043
1532280394.709,47.852,23.438,37.109,55.176,287.109
1532280394.713,49.316,23.438,35.645,43.457,-94.238
1532280394.717,42.969,22.949,33.691,41.504,-295.410
1532280394.721,34.668,20.996,33.203,46.875,54.199
1532280394.725,34.180,21.484,34.668,47.852,343.262
1532280394.729,36.133,21.973,33.203,45.898,80.566
1532280394.733,37.109,21.973,31.250,40.039,-285.156
1532280394.737,41.992,21.484,32.227,39.062,-87.891
1532280394.741,39.551,19.531,32.715,42.480,326.660
1532280394.745,38.086,22.461,32.227,42.480,214.355
1532280394.749,42.969,23.438,33.203,43.945,-219.727
1532280394.752,45.410,21.484,36.621,50.781,-192.383
1532280394.756,50.293,20.996,33.691,49.316,252.441
1532280394.760,52.734,21.973,32.715,45.898,300.781
1532280394.764,47.852,21.484,36.133,46.875,-129.883
1532280394.768,45.898,20.508,35.156,46.387,-237.305
1532280394.772,47.852,18.555,35.645,50.781,145.020
1532280394.776,43.945,17.090,38.574,49.805,337.891
1532280394.780,45.898,18.066,36.621,44.434,18.555
1532280394.784,53.223,19.043,34.180,41.504,-264.160
1532280394.788,52.246,18.555,32.227,45.898,35.156
1532280394.792,52.246,18.555,31.738,48.828,331.055
1532280394.795,50.781,19.043,31.250,45.410,65.918
1532280394.799,43.457,20.020,28.809,41.016,-281.738
1532280394.803,44.434,20.020,28.809,44.434,-94.238
1532280394.807,51.270,19.531,29.785,48.340,306.641
1532280394.811,46.387,19.043,32.715,41.016,171.387
1532280394.815,39.062,17.090,33.203,34.668,-232.422
1532280394.819,36.621,16.113,32.227,39.062,-202.148
1532280394.823,34.180,16.602,34.180,40.527,187.988
1532280394.827,36.621,15.625,35.156,39.062,261.230
1532280394.831,41.992,17.090,36.621,38.574,-122.559
1532280394.834,40.527,19.531,39.062,35.156,-269.043
1532280394.838,41.016,21.973,38.086,36.133,118.164
1532280394.842,43.945,23.438,38.574,42.480,371.094
1532280394.846,44.434,25.879,38.086,39.062,23.926
1532280394.850,49.316,25.879,38.574,37.598,-293.945
1532280394.854,44.434,23.438,39.062,44.922,-14.160
1532280394.858,44.434,23.926,40.527,45.410,330.566
1532280394.862,50.781,25.879,42.480,43.457,130.371
1532280394.866,44.922,26.367,40.527,41.504,-250.977
1532280394.870,41.992,25.391,39.062,41.016,-125.488
1532280394.874,40.039,26.855,39.062,39.551,256.836
1532280394.877,40.527,29.297,39.551,38.086,190.430
1532280394.881,44.922,29.785,37.598,36.621,-184.082
1532280394.885,44.922,27.832,36.133,37.109,-224.121
1532280394.889,45.410,30.762,38.086,38.574,183.594
1532280394.893,42.969,33.203,39.551,32.227,299.316
1532280394.897,40.527,33.691,42.969,30.762,-64.941
1532280394.901,41.016,33.691,41.504,36.621,-251.953
1532280394.905,39.551,34.668,40.527,39.062,64.941
1532280394.909,35.645,37.109,41.992,34.668,333.008
1532280394.913,36.133,40.527,41.016,24.414,18.066
1532280394.917,31.250,39.551,39.551,18.555,-306.641
1532280394.920,30.273,36.133,39.062,25.391,-28.320
1532280394.924,32.715,38.086,37.109,30.762,331.543
1532280394.928,34.180,39.062,36.621,30.762,113.281
1532280394.932,35.645,37.598,37.598,31.250,-268.066
1532280394.936,40.039,36.621,38.574,40.039,-163.086
1532280394.940,39.551,36.621,39.551,44.922,248.535
1532280394.944,34.668,39.062,41.504,40.039,246.094
1532280394.948,37.598,39.551,42.480,33.691,-167.480
1532280394.952,38.574,37.598,41.992,33.203,-262.695
1532280394.956,37.598,39.062,41.504,37.109,137.207
1532280394.959,33.203,40.039,40.527,34.180,319.336
1532280394.963,28.320,40.039,39.551,26.367,-36.133
1532280394.967,31.738,38.574,39.062,26.855,-248.047
1532280394.971,31.250,36.621,39.551,30.762,45.898
1532280394.975,27.344,39.551,41.504,29.297,323.242
1532280394.979,27.344,40.039,43.457,27.832,94.727
1532280394.983,27.344,35.156,43.457,26.367,-253.906
1532280394.987,32.227,34.668,43.945,31.738,-65.918
1532280394.991,36.133,39.062,39.551,30.762,305.176
1532280394.995,35.645,42.480,37.598,27.344,175.781
1532280394.999,41.016,42.480,40.039,31.738,-227.539
1532280395.002,38.574,39.551,38.574,34.180,-188.477
1532280395.006,29.785,39.062,36.133,39.062,241.211
1532280395.010,28.320,38.086,35.645,37.109,273.438
1532280395.014,33.691,37.109,35.645,25.879,-161.621
1532280395.018,38.086,37.109,35.645,27.832,-289.062
1532280395.022,38.574,36.621,35.645,37.598,101.562
1532280395.026,43.457,36.621,35.156,37.109,295.898
1532280395.030,45.410,37.598,36.621,37.598,-22.461
1532280395.034,40.039,38.574,35.645,38.086,-289.551
1532280395.038,41.016,36.621,34.668,39.551,8.789
1532280395.041,42.480,37.598,35.156,37.598,346.680
1532280395.045,43.457,38.086,33.691,34.180,107.422
1532280395.049,46.875,37.598,33.691,35.645,-264.160
1532280395.053,46.875,37.109,33.203,31.738,-126.953
1532280395.057,41.016,38.574,33.203,35.156,276.367
1532280395.061,35.156,40.039,35.156,39.551,210.449
1532280395.065,37.598,39.551,37.598,39.551,-177.734
1532280395.069,37.598,39.551,35.156,42.480,-199.219
1532280395.073,35.156,38.574,32.715,39.551,187.500
1532280395.077,35.645,36.133,34.180,35.156,308.594
1532280395.081,38.086,37.109,34.668,30.762,-93.750
1532280395.084,37.109,35.645,35.156,31.250,-288.574
1532280395.088,38.086,33.691,35.645,36.133,72.266
1532280395.092,39.551,35.645,34.180,37.598,307.129
1532280395.096,37.109,36.133,35.156,36.621,5.859
1532280395.100,41.992,37.109,34.668,35.156,-277.832
1532280395.104,49.316,39.551,32.715,41.504,-23.438
1532280395.108,51.270,37.598,32.227,43.457,333.496
1532280395.112,46.875,38.086,31.250,36.621,93.750
1532280395.116,40.527,40.527,32.227,33.691,-307.617
1532280395.120,44.434,41.016,31.250,41.016,-138.184
1532280395.124,50.781,41.992,31.738,43.945,263.184
1532280395.127,52.734,39.551,31.738,39.551,234.375
1532280395.131,45.898,40.039,28.809,34.180,-184.570
1532280395.135,42.969,40.527,30.762,38.086,-233.887
1532280395.139,54.688,39.062,32.715,42.480,161.133
1532280395.143,45.898,41.504,28.320,37.109,297.852
1532280395.147,37.109,43.945,27.832,34.180,-55.176
1532280395.151,43.945,43.945,31.250,34.668,-297.363
1532280395.155,41.504,43.457,31.250,35.645,46.875
1532280395.159,41.992,44.434,29.297,40.527,345.703
1532280395.163,44.434,46.875,29.785,41.992,57.129
1532280395.166,42.969,46.387,29.297,41.016,-259.277
1532280395.170,46.387,46.875,28.320,45.898,-30.762
1532280395.174,48.340,47.363,30.762,48.828,341.309
1532280395.178,39.062,45.410,29.785,43.457,157.715
1532280395.182,37.109,45.898,28.809,40.039,-250.000
1532280395.186,41.992,46.875,32.715,45.410,-185.059
1532280395.190,41.992,46.875,31.250,47.852,228.516
1532280395.194,36.621,49.316,30.273,41.504,266.113
1532280395.198,36.621,50.781,32.227,32.715,-141.602
1532280395.202,36.621,49.316,30.762,28.809,-239.746
1532280395.206,35.156,46.387,30.273,36.621,159.668
1532280395.209,37.109,44.434,31.250,39.062,337.402
1532280395.213,34.180,43.945,28.809,29.785,-52.246
1532280395.217,33.691,44.434,27.832,29.785,-331.543
1532280395.221,36.133,43.457,30.273,34.668,-2.441
1532280395.225,32.715,42.480,29.297,35.156,328.125
1532280395.229,35.645,45.898,27.344,33.203,78.125
1532280395.233,36.621,46.387,25.391,28.320,-248.047
1532280395.237,32.227,45.410,23.926,31.738,-75.684
1532280395.241,32.227,45.410,26.855,36.133,298.340
1532280395.245,32.715,44.922,29.297,33.691,176.758
1532280395.249,32.227,46.387,32.227,34.668,-223.145
1532280395.252,37.109,46.387,32.715,39.551,-199.219
1532280395.256,43.945,45.898,29.297,40.039,178.223
1532280395.260,39.062,44.434,28.809,37.109,278.320
1532280395.264,33.691,42.480,31.250,35.156,-108.887
1532280395.268,37.109,43.945,32.715,38.086,-258.789
1532280395.272,37.598,43.945,33.203,38.574,123.535
1532280395.276,35.645,45.410,31.738,34.180,325.684
1532280395.280,39.062,48.828,33.203,31.738,-34.668
1532280395.284,36.621,46.387,35.645,30.762,-292.480
1532280395.288,31.250,45.410,35.645,31.738,4.883
1532280395.291,28.809,43.945,35.156,28.320,319.824
1532280395.295,29.297,42.969,34.180,20.996,84.473
1532280395.299,34.180,45.898,34.180,26.855,-274.902
1532280395.303,35.645,44.434,34.668,39.062,-109.863
1532280395.307,36.621,43.457,37.109,43.457,300.781
1532280395.311,33.203,44.434,36.133,34.668,237.793
1532280395.315,29.785,45.410,35.645,28.320,-192.871
1532280395.319,35.645,45.410,38.086,30.273,-218.750
1532280395.323,37.598,42.480,37.598,31.250,183.105
1532280395.327,34.668,41.504,35.645,28.809,288.574
1532280395.331,32.227,44.922,35.645,29.297,-99.121
1532280395.334,32.715,44.922,38.086,28.809,-301.270
1532280395.338,35.645,43.945,40.527,34.668,66.895
1532280395.342,36.133,43.945,38.574,37.598,321.777
1532280395.346,32.715,44.922,36.621,29.785,18.066
1532280395.350,34.180,46.387,37.109,26.855,-259.277
1532280395.354,41.016,45.410,38.574,33.203,-26.855
1532280395.358,37.109,41.992,36.133,35.645,312.012
1532280395.362,33.203,42.969,33.203,28.809,137.207
1532280395.366,39.062,42.969,33.691,27.344,-265.625
1532280395.370,44.434,38.574,32.715,30.762,-132.324
1532280395.374,48.340,38.086,31.738,27.832,269.531
1532280395.377,49.805,40.527,31.738,24.414,200.684
1532280395.381,51.758,39.062,30.762,24.902,-199.707
1532280395.385,43.457,37.109,30.273,28.809,-222.168
1532280395.389,35.156,35.645,33.691,37.598,178.223
1532280395.393,27.832,34.668,33.691,37.109,291.016
1532280395.397,22.461,34.668,31.250,34.668,-83.496
1532280395.401,25.391,34.668,32.715,35.645,-308.105
1532280395.405,23.438,32.715,31.738,39.062,29.785
1532280395.409,20.508,31.738,29.785,38.086,342.285
1532280395.413,25.879,37.598,31.250,32.715,55.664
1532280395.416,26.855,38.574,32.715,36.621,-276.367
1532280395.420,23.926,35.156,32.715,37.109,-66.406
1532280395.424,26.855,33.691,33.691,34.668,289.062
1532280395.428,29.785,34.180,34.180,32.227,169.434
1532280395.432,29.785,35.156,31.250,27.832,-239.258
1532280395.436,26.367,33.203,31.738,28.320,-177.734
1532280395.440,23.438,31.250,33.203,32.227,242.676
1532280395.444,25.879,32.715,33.691,31.250,269.043
1532280395.448,29.785,37.109,33.691,27.344,-103.516
1532280395.452,32.227,39.551,34.180,29.785,-250.000
1532280395.456,35.645,38.574,36.133,37.109,124.023
1532280395.459,37.598,38.086,34.668,37.109,338.379
1532280395.463,33.203,38.574,32.227,30.762,-27.344
1532280395.467,32.715,40.039,32.227,29.785,-271.973
1532280395.471,36.621,39.062,32.715,34.180,42.480
1532280395.475,36.621,36.621,31.250,28.809,310.547
1532280395.479,36.621,39.062,31.250,23.438,44.434
1532280395.483,38.574,41.504,32.715,32.715,-282.227
1532280395.487,35.156,39.551,31.738,38.574,-70.312
1532280395.491,29.297,36.621,29.785,37.598,306.641
1532280395.495,30.762,38.086,30.273,36.133,190.430
1532280395.498,37.109,38.574,30.273,32.227,-204.102
1532280395.502,36.621,34.668,28.809,33.691,-169.922
1532280395.506,31.250,35.645,28.809,37.109,242.188
1532280395.510,33.203,38.086,29.785,35.645,295.898
1532280395.514,36.133,37.109,29.785,34.668,-120.605
1532280395.518,37.598,36.621,31.250,40.039,-263.672
1532280395.522,40.527,38.574,32.715,44.434,101.074
1532280395.526,36.133,38.574,32.715,37.109,330.566
1532280395.530,32.715,38.574,34.668,34.180,20.996
1532280395.534,34.668,39.551,36.133,32.715,-301.758
1532280395.538,36.621,39.551,36.133,34.180,-33.203
1532280395.541,40.039,38.574,34.180,37.598,324.707
1532280395.545,39.551,38.086,33.203,35.156,120.605
1532280395.549,40.527,38.086,36.133,34.180,-257.324
1532280395.553,40.039,38.086,34.180,35.156,-126.465
1532280395.557,36.133,37.598,32.715,31.738,290.527
1532280395.561,37.109,38.574,32.715,28.320,218.262
1532280395.565,36.133,40.527,31.738,26.367,-194.824
1532280395.569,35.156,41.504,31.250,28.320,-171.875
1532280395.573,37.109,40.527,32.227,32.227,205.078
1532280395.577,33.691,38.086,32.715,28.320,271.484
1532280395.581,31.250,36.621,31.250,26.855,-86.426
1532280395.584,32.227,33.691,34.180,29.297,-244.141
1532280395.588,30.762,32.715,31.738,33.691,109.375
1532280395.592,31.250,35.156,27.832,32.715,338.379
1532280395.596,41.992,34.668,30.762,31.250,48.828
1532280395.600,40.527,32.715,32.715,29.785,-257.324
1532280395.604,30.762,32.715,31.250,31.250,-29.785
1532280395.608,34.668,34.668,30.762,31.250,320.312
1532280395.612,37.109,37.109,32.227,23.438,151.855
1532280395.616,39.551,34.668,35.645,20.996,-245.117
1532280395.620,38.574,33.203,35.156,28.320,-130.859
1532280395.623,33.691,36.621,31.738,27.344,312.012
1532280395.627,29.297,36.133,32.715,23.438,290.039
1532280395.631,29.297,34.180,34.180,21.973,-163.574
1532280395.635,28.809,32.227,36.133,21.973,-256.836
1532280395.639,24.902,29.785,35.645,23.438,168.457
1532280395.643,18.555,28.320,36.133,22.949,303.223
1532280395.647,20.020,27.832,41.016,28.320,-62.500
1532280395.651,30.762,29.785,39.551,28.809,-283.691
1532280395.655,27.344,34.668,30.273,19.531,30.273
1532280395.659,17.578,39.551,29.297,12.207,328.613
1532280395.663,17.578,44.922,29.297,5.859,75.195
1532280395.666,16.602,46.875,26.855,2.930,-254.395
1532280395.670,18.066,45.410,27.832,7.812,-86.914
1532280395.674,17.090,49.316,26.855,6.348,261.719
1532280395.678,13.672,51.758,23.926,0.977,168.457
1532280395.682,16.602,47.852,24.902,1.953,-215.820
1532280395.686,19.043,45.410,26.855,5.371,-160.156
1532280395.690,20.996,48.340,25.879,12.695,229.980
1532280395.694,22.461,50.781,29.297,16.113,273.926
1532280395.698,22.949,48.828,31.250,13.672,-114.258
1532280395.702,26.855,46.387,28.809,16.602,-267.090
1532280395.706,32.227,46.387,28.320,22.461,123.047
1532280395.709,24.414,44.922,27.832,22.949,339.844
1532280395.713,20.020,44.922,27.832,18.066,-37.109
1532280395.717,25.879,44.922,26.367,18.555,-291.504
1532280395.721,23.926,41.992,24.414,21.973,34.668
1532280395.725,21.973,39.551,24.414,21.973,345.215
1532280395.729,27.344,39.551,26.367,19.043,107.422
1532280395.733,30.762,39.062,26.367,19.531,-275.391
1532280395.737,33.691,38.086,22.949,21.973,-104.980
1532280395.741,36.133,37.109,23.926,26.855,310.547
1532280395.745,34.668,35.156,26.367,23.926,207.031
1532280395.748,31.738,34.668,26.855,22.461,-208.008
1532280395.752,28.320,33.691,29.297,22.949,-196.289
1532280395.756,30.762,35.156,32.227,22.461,213.867
1532280395.760,31.738,35.645,33.203,26.855,287.109
1532280395.764,26.855,37.109,31.738,23.926,-93.750
1532280395.768,30.273,37.109,31.250,23.438,-236.816
1532280395.772,35.156,38.574,31.738,26.855,117.188
1532280395.776,41.016,41.992,34.180,28.320,316.895
1532280395.780,41.504,41.016,37.598,27.344,-2.441
1532280395.784,34.668,42.480,34.668,27.832,-279.297
1532280395.788,37.598,44.434,32.715,33.203,-8.789
1532280395.791,37.598,44.922,35.645,37.598,321.777
1532280395.795,34.668,44.434,38.086,37.598,118.652
1532280395.799,35.645,43.457,39.062,37.109,-248.047
1532280395.803,37.598,42.480,37.598,40.039,-110.840
1532280395.807,44.922,42.969,37.598,41.504,299.316
1532280395.811,47.852,42.969,41.504,36.621,236.328
1532280395.815,41.992,41.992,41.992,31.738,-214.355
1532280395.819,33.691,42.969,39.551,34.180,-248.535
1532280395.823,31.250,41.504,37.109,39.551,186.523
1532280395.827,35.156,41.016,34.668,39.062,322.754
1532280395.830,36.621,42.969,36.133,32.715,-83.008
1532280395.834,41.992,41.992,35.645,32.227,-293.457
1532280395.838,49.805,40.527,34.180,39.551,82.520
1532280395.842,47.363,38.574,35.645,40.039,340.820
1532280395.846,37.598,37.109,36.621,33.203,46.875
1532280395.850,36.621,35.645,38.086,35.645,-260.254
1532280395.854,38.086,36.133,38.574,39.062,-75.195
1532280395.858,36.621,39.062,36.133,36.133,306.641
1532280395.862,36.133,40.039,36.621,35.156,177.246
1532280395.866,33.203,37.109,36.133,32.227,-229.980
1532280395.870,35.156,38.086,35.645,36.133,-138.184
1532280395.873,40.527,37.598,35.156,40.039,269.043
1532280395.877,39.062,35.156,34.180,35.156,255.371
1532280395.881,35.645,34.180,36.621,30.273,-126.953
1532280395.885,34.180,33.203,35.645,30.273,-198.730
1532280395.889,31.738,34.180,32.715,35.156,172.363
1532280395.893,30.762,37.109,32.715,28.809,297.852
1532280395.897,30.762,36.621,32.227,21.484,-75.195
1532280395.901,26.855,35.156,30.273,28.809,-264.648
1532280395.905,27.344,35.645,32.715,35.156,37.109
1532280395.909,29.297,35.156,37.109,36.133,320.801
1532280395.913,31.738,35.645,37.109,36.133,63.477
1532280395.916,32.227,34.180,36.621,39.551,-264.648
1532280395.920,33.203,33.203,33.691,43.945,-72.266
1532280395.924,37.598,34.668,31.738,43.457,301.270
1532280395.928,42.480,34.668,31.738,38.574,221.191
1532280395.932,39.551,36.133,26.367,36.133,-193.848
1532280395.936,31.250,37.109,22.461,36.133,-179.199
1532280395.940,30.762,35.645,22.461,39.062,237.793
1532280395.944,32.227,35.156,19.531,34.668,274.902
1532280395.948,29.785,34.180,19.531,28.320,-137.695
1532280395.952,32.715,32.227,21.484,28.320,-259.277
1532280395.955,33.203,32.715,20.020,25.879,113.770
1532280395.959,32.715,32.227,19.531,29.785,312.012
1532280395.963,33.691,33.691,19.531,33.691,-10.254
1532280395.967,35.156,33.691,20.020,32.715,-258.789
1532280395.971,36.133,33.203,22.461,38.574,15.625
1532280395.975,36.621,34.668,25.391,39.551,346.191
1532280395.979,33.691,34.668,26.367,33.691,108.887
1532280395.983,34.180,36.133,27.344,30.273,-291.992
1532280395.987,37.598,36.621,30.273,34.180,-104.004
1532280395.991,36.133,35.156,31.250,35.156,281.738
1532280395.995,34.668,36.621,32.715,29.785,173.340
1532280395.998,36.133,39.551,34.668,29.785,-223.145
1532280396.002,39.062,38.574,34.180,36.133,-210.938
1532280396.006,42.969,39.551,34.668,40.527,203.613
1532280396.010,43.457,42.480,37.109,39.062,274.902
1532280396.014,45.898,42.480,37.598,37.598,-125.000
1532280396.018,46.387,41.992,39.062,39.062,-265.137
1532280396.022,46.387,40.527,41.992,44.434,103.027
1532280396.026,47.852,38.086,39.062,43.945,329.102
1532280396.030,45.410,38.574,37.598,40.527,-3.418
1532280396.034,42.969,40.527,40.039,35.645,-303.223
1532280396.038,43.945,40.039,38.086,41.016,-19.043
1532280396.041,34.668,38.574,36.133,45.898,340.332
1532280396.045,31.250,38.086,37.109,39.062,152.344
1532280396.049,40.039,39.062,37.598,36.621,-239.258
1532280396.053,41.504,37.109,33.691,36.133,-118.164
1532280396.057,38.574,35.645,34.180,37.598,301.758
1532280396.061,40.527,36.133,37.109,33.691,259.766
1532280396.065,45.898,36.133,36.621,30.762,-151.367
1532280396.069,47.363,39.062,36.621,32.227,-222.656
1532280396.073,49.805,41.016,35.645,33.691,167.480
1532280396.077,57.617,42.480,35.645,32.715,315.430
1532280396.080,57.129,42.969,33.691,28.809,-52.246
1532280396.084,52.246,42.480,30.762,35.156,-268.555
1532280396.088,46.875,41.016,33.691,47.852,59.570
1532280396.092,43.945,39.062,38.086,51.270,306.641
1532280396.096,42.480,40.039,39.551,47.852,23.438
1532280396.100,38.086,40.527,38.574,45.898,-288.574
1532280396.104,31.250,40.527,39.062,48.340,-49.805
1532280396.108,26.855,41.992,36.133,45.410,356.934
1532280396.112,28.809,45.410,34.180,36.621,176.758
1532280396.116,33.691,47.363,37.598,38.086,-256.348
1532280396.120,34.668,48.828,38.574,43.457,-169.922
1532280396.123,34.668,51.270,37.598,43.945,222.168
1532280396.127,37.109,52.246,38.086,43.457,238.281
1532280396.131,37.109,53.223,37.598,39.551,-136.719
1532280396.135,41.016,52.246,38.086,41.016,-246.094
1532280396.139,38.086,49.316,39.551,43.457,147.461
1532280396.143,32.715,48.828,38.574,38.574,325.195
1532280396.147,32.715,48.340,38.574,34.668,-50.781
1532280396.151,32.715,47.852,40.039,36.133,-275.879
1532280396.155,35.645,50.781,38.574,39.551,17.578
1532280396.159,33.691,50.781,38.574,39.551,317.383
1532280396.163,29.785,48.340,40.039,35.645,84.961
1532280396.166,35.645,48.828,40.039,37.109,-261.719
1532280396.170,37.598,49.316,40.039,41.504,-90.820
1532280396.174,32.715,47.852,38.574,39.062,280.762
1532280396.178,33.203,48.340,35.156,35.156,202.148
1532280396.182,30.762,49.805,33.203,31.250,-207.031
1532280396.186,31.738,48.828,33.691,32.715,-179.199
1532280396.190,35.645,49.316,34.668,37.598,248.535
1532280396.194,37.109,51.758,37.598,33.203,288.574
1532280396.198,40.039,49.805,37.109,27.832,-100.586
1532280396.202,40.039,49.316,37.109,32.227,-222.168
1532280396.205,36.621,51.758,37.109,36.621,137.695
1532280396.209,32.227,52.246,35.156,34.180,338.867
1532280396.213,35.156,50.781,36.621,31.250,5.371
1532280396.217,41.016,53.223,38.086,33.203,-284.668
1532280396.221,39.062,53.223,37.109,37.109,-9.277
1532280396.225,34.180,51.270,36.133,37.598,331.543
1532280396.229,38.086,49.316,36.133,34.180,107.910
1532280396.233,40.527,49.316,37.598,24.414,-289.062
1532280396.237,43.457,49.316,38.086,23.438,-135.254
1532280396.241,43.457,49.316,35.156,30.762,278.320
1532280396.245,39.062,48.340,34.668,32.227,202.148
1532280396.248,41.504,43.457,38.086,30.273,-193.359
1532280396.252,41.992,42.480,38.086,31.738,-224.609
1532280396.256,39.551,41.992,36.621,39.062,184.082
1532280396.260,36.621,40.527,39.551,42.969,315.918
1532280396.264,35.156,37.598,40.039,37.109,-115.723
1532280396.268,40.039,36.621,38.086,37.109,-288.086
1532280396.272,42.969,35.156,37.598,41.504,75.684
1532280396.276,40.527,33.691,39.062,35.156,310.547
1532280396.280,41.504,34.180,37.598,31.250,35.645
1532280396.284,47.852,35.156,37.598,33.691,-275.391
1532280396.287,47.852,35.645,39.062,36.133,-5.859
1532280396.291,47.363,35.645,37.598,39.551,338.379
1532280396.295,47.363,35.645,38.574,40.527,146.484
1532280396.299,41.016,35.645,41.016,40.527,-235.840
1532280396.303,42.480,37.598,37.598,39.062,-132.812
1532280396.307,47.852,38.574,37.598,41.016,277.344
1532280396.311,44.922,39.551,41.992,41.016,230.469
1532280396.315,39.551,40.527,41.016,28.320,-214.844
1532280396.319,40.039,38.574,38.574,33.203,-249.512
1532280396.323,43.945,34.668,38.086,44.434,187.500
1532280396.327,46.875,32.227,38.574,38.574,330.566
1532280396.330,43.945,31.738,38.086,31.738,-61.035
1532280396.334,40.527,30.273,38.086,34.668,-252.930
1532280396.338,40.527,28.809,37.109,39.062,86.914
1532280396.342,36.621,26.367,36.621,38.086,347.168
1532280396.346,37.109,23.926,37.598,38.574,62.988
1532280396.350,41.992,22.949,37.598,37.109,-293.457
1532280396.354,40.527,22.461,35.645,39.551,-89.355
1532280396.358,36.133,20.508,35.645,45.898,292.969
1532280396.362,39.062,18.066,37.109,45.410,187.988
1532280396.366,42.969,19.531,36.621,40.527,-224.121
1532280396.370,41.992,20.508,35.645,42.480,-175.293
1532280396.373,44.922,22.461,36.621,43.457,224.609
1532280396.377,44.434,25.879,37.598,43.457,251.953
1532280396.381,35.645,21.973,36.133,45.410,-106.445
1532280396.385,34.668,15.137,34.668,44.434,-225.586
1532280396.389,35.645,11.719,34.180,47.363,157.227
1532280396.393,32.715,10.742,36.133,44.434,347.168
1532280396.397,32.715,7.812,37.598,38.086,-12.207
1532280396.401,35.645,6.836,37.109,38.574,-263.184
1532280396.405,38.574,7.812,36.133,44.434,18.555
1532280396.409,36.133,7.324,35.156,44.922,339.844
1532280396.412,31.250,10.254,34.668,35.645,78.613
1532280396.416,31.250,11.719,34.668,32.227,-275.879
1532280396.420,35.156,9.766,32.715,38.574,-79.102
1532280396.424,34.180,10.254,30.762,41.016,294.922
1532280396.428,33.203,10.254,31.738,37.598,198.242
1532280396.432,33.203,9.277,32.715,34.668,-222.656
1532280396.436,37.109,8.789,32.227,38.086,-185.059
1532280396.440,41.992,7.324,34.180,43.457,225.586
1532280396.444,40.039,6.836,34.668,43.945,271.484
1532280396.448,39.062,7.812,36.621,41.504,-114.746
1532280396.452,35.645,9.277,37.598,40.039,-263.184
1532280396.455,30.273,8.301,35.156,41.016,101.074
1532280396.459,28.320,9.277,34.180,42.480,335.938
1532280396.463,28.320,10.254,35.645,40.039,19.531
1532280396.467,33.203,10.742,35.156,40.039,-270.508
1532280396.471,39.062,13.184,36.621,44.434,-8.301
1532280396.475,44.434,13.672,36.621,44.434,332.031
1532280396.479,51.758,16.602,36.621,43.945,128.906
1532280396.483,50.293,21.973,39.062,48.340,-250.977
1532280396.487,43.457,22.949,36.133,53.223,-95.703
1532280396.491,43.457,22.949,33.691,50.293,289.551
1532280396.495,45.898,25.391,37.109,44.434,231.445
1532280396.498,46.875,24.902,38.574,43.457,-174.316
1532280396.502,45.898,23.926,37.109,43.945,-230.469
1532280396.506,43.945,25.879,36.621,45.410,181.152
1532280396.510,40.527,28.320,38.574,43.945,287.598
1532280396.514,40.039,30.273,38.574,36.621,-103.516
1532280396.518,44.922,33.691,33.691,39.551,-272.461
1532280396.522,44.922,34.668,34.668,47.363,86.426
1532280396.526,45.898,35.156,36.621,46.387,347.168
1532280396.530,45.898,35.645,36.621,44.434,35.645
1532280396.534,47.363,36.133,38.086,44.434,-271.484
1532280396.537,52.246,36.621,38.086,49.805,-37.598
1532280396.541,52.734,36.133,38.574,48.340,302.734
1532280396.545,48.340,34.668,39.062,42.969,147.461
1532280396.549,41.504,37.109,40.527,46.387,-232.910
1532280396.553,42.969,39.062,40.039,46.875,-142.090
1532280396.557,49.805,41.992,39.551,47.363,251.953
1532280396.561,43.457,41.504,39.062,45.898,254.395
1532280396.565,37.109,41.992,37.109,38.574,-171.875
1532280396.569,38.574,44.434,36.621,38.086,-235.352
1532280396.573,46.387,46.875,35.645,40.527,172.363
1532280396.577,43.945,48.340,35.645,39.062,314.941
1532280396.580,37.109,47.363,37.109,33.203,-20.508
1532280396.584,40.527,48.340,37.109,28.809,-250.000
1532280396.588,36.621,45.410,36.621,29.297,61.523
1532280396.592,38.086,44.434,36.621,34.668,333.008
1532280396.596,38.574,44.434,38.086,33.203,45.898
1532280396.600,33.691,42.480,38.086,28.809,-279.785
1532280396.604,34.180,44.434,35.645,32.715,-64.453
1532280396.608,38.574,45.898,34.668,36.133,319.824
1532280396.612,42.480,48.340,34.668,30.273,178.223
1532280396.616,40.039,48.828,35.645,25.879,-226.562
1532280396.619,35.645,45.410,36.133,25.391,-141.602
1532280396.623,35.156,42.480,34.668,25.391,265.625
1532280396.627,33.691,39.551,33.691,26.855,279.785
1532280396.631,34.668,40.527,35.645,24.902,-146.973
1532280396.635,33.691,41.504,34.668,25.879,-263.184
1532280396.639,32.715,39.551,33.691,36.133,137.207
1532280396.643,32.715,39.062,33.691,37.109,311.523
1532280396.647,29.297,39.551,33.691,35.645,-16.602
1532280396.651,32.715,39.551,37.598,35.156,-257.324
1532280396.655,37.598,39.551,38.086,30.762,7.324
1532280396.659,35.645,39.062,36.621,33.203,336.426
1532280396.662,19.043,39.551,38.086,33.691,128.906
1532280396.666,16.113,38.574,39.062,32.715,-227.539
1532280396.670,22.949,36.133,37.598,34.180,-99.121
1532280396.674,21.973,34.668,37.598,33.691,269.531
1532280396.678,28.320,33.691,37.598,32.715,201.660
1532280396.682,34.668,33.203,37.598,33.203,-207.520
1532280396.686,33.203,34.180,37.109,36.133,-202.637
1532280396.690,26.855,35.645,38.086,37.109,227.051
1532280396.694,24.414,35.156,38.574,33.203,295.898
1532280396.698,27.832,34.668,38.086,31.738,-102.051
1532280396.702,31.738,34.180,41.016,36.621,-265.137
1532280396.705,34.180,32.715,41.992,44.434,106.934
1532280396.709,37.109,34.180,40.039,46.875,353.516
1532280396.713,36.133,38.086,39.062,39.551,20.508
1532280396.717,34.180,41.016,38.574,37.109,-289.062
1532280396.721,32.715,41.992,39.062,39.551,-27.832
1532280396.725,33.691,41.016,39.551,38.574,333.496
1532280396.729,41.016,41.992,39.551,35.645,150.391
1532280396.733,43.945,42.480,39.551,36.133,-255.371
1532280396.737,37.598,39.551,39.551,40.527,-140.625
1532280396.741,34.180,37.109,40.039,45.410,290.527
1532280396.744,36.133,37.598,41.504,43.457,249.023
1532280396.748,36.621,37.598,42.480,38.574,-185.547
1532280396.752,41.992,38.086,40.527,37.109,-237.793
1532280396.756,48.828,39.062,39.551,39.062,162.109
1532280396.760,48.340,40.527,39.551,37.598,313.477
1532280396.764,41.992,43.945,39.551,32.227,-62.500
1532280396.768,40.039,43.945,37.109,29.297,-265.137
1532280396.772,44.922,41.016,38.086,30.762,71.777
1532280396.776,45.898,42.480,37.109,32.227,307.129
1532280396.780,45.898,44.922,35.645,39.062,24.414
1532280396.784,39.551,42.969,39.551,42.969,-283.203
1532280396.787,35.645,40.527,41.992,46.875,-36.621
1532280396.791,36.133,41.016,40.527,51.758,332.031
1532280396.795,34.180,39.551,38.574,47.363,126.953
1532280396.799,31.250,34.668,38.574,42.969,-290.527
1532280396.803,34.180,34.180,38.086,46.387,-172.852
1532280396.807,35.156,34.668,39.551,50.781,246.094
1532280396.811,36.621,36.621,39.062,44.922,251.465
1532280396.815,40.527,39.551,36.621,39.551,-135.742
1532280396.819,38.086,38.086,37.598,41.016,-214.844
1532280396.823,32.227,35.645,35.645,38.574,153.320
1532280396.827,27.832,33.203,36.133,34.668,301.758
1532280396.830,30.273,33.203,40.039,31.738,-35.156
1532280396.834,31.250,30.762,39.062,28.320,-284.668
1532280396.838,31.250,28.320,39.062,35.156,29.297
1532280396.842,37.598,30.273,39.062,39.551,359.375
1532280396.846,36.621,32.227,38.574,31.738,95.703
1532280396.850,27.832,29.785,37.109,32.227,-246.094
1532280396.854,25.391,29.785,38.574,39.062,-74.219
1532280396.858,33.691,33.203,40.039,41.016,294.434
1532280396.862,37.109,31.738,39.062,38.086,186.035
1532280396.866,35.645,31.250,39.062,40.039,-218.262
1532280396.869,34.668,31.250,40.039,47.363,-163.574
1532280396.873,34.180,30.273,37.598,47.363,238.281
1532280396.877,36.133,30.762,36.133,39.551,266.113
1532280396.881,36.133,32.715,35.645,35.156,-138.672
1532280396.885,35.156,32.227,35.156,37.598,-254.883
1532280396.889,38.574,31.738,34.668,40.527,155.762
1532280396.893,41.504,32.715,35.645,38.574,322.754
1532280396.897,43.457,31.738,36.133,34.180,-53.711
1532280396.901,44.434,32.715,37.598,35.645,-299.805
1532280396.905,47.363,34.180,38.574,45.410,6.348
1532280396.909,46.387,32.227,37.598,46.875,312.988
1532280396.912,43.945,33.203,37.109,37.598,97.656
1532280396.916,44.434,32.227,35.645,32.227,-243.652
1532280396.920,43.945,30.762,34.180,34.180,-90.820
1532280396.924,42.480,33.691,33.691,34.668,287.598
1532280396.928,35.156,33.691,34.668,30.762,230.469
1532280396.932,29.785,32.715,33.203,25.879,-176.270
1532280396.936,31.250,31.738,31.738,30.273,-227.051
1532280396.940,35.156,30.273,34.180,41.992,215.820
1532280396.944,33.691,30.762,36.621,41.992,314.453
1532280396.948,35.156,31.250,35.156,37.109,-82.520
1532280396.952,41.992,30.273,35.156,37.598,-247.559
1532280396.955,42.480,31.738,34.180,41.016,84.961
1532280396.959,41.992,32.227,32.715,41.016,330.566
1532280396.963,43.945,32.715,34.180,34.668,28.809
1532280396.967,45.898,34.668,32.227,31.738,-267.090
1532280396.971,45.898,34.180,27.832,36.621,-46.875
1532280396.975,44.434,33.203,29.297,31.738,261.719
1532280396.979,38.574,33.691,30.273,26.855,109.375
1532280396.983,35.645,33.691,28.320,29.297,-256.836
1532280396.987,40.527,34.180,26.367,32.715,-141.602
1532280396.991,42.969,33.691,26.367,35.645,276.367
1532280396.994,42.480,33.203,30.273,33.691,249.512
1532280396.998,42.480,32.227,30.273,32.715,-145.996
1532280397.002,41.992,32.227,29.785,32.715,-199.707
1532280397.006,41.016,32.715,32.227,32.227,200.684
1532280397.010,41.016,33.203,32.227,32.227,311.035
1532280397.014,40.039,33.691,33.203,32.715,-97.168
1532280397.018,37.109,32.715,35.645,31.738,-295.898
1532280397.022,37.598,32.227,35.156,35.645,60.059
1532280397.026,38.086,34.668,33.691,37.109,355.469
1532280397.030,41.016,33.203,32.227,33.691,66.406
1532280397.034,46.875,32.715,28.809,33.691,-273.926
1532280397.037,46.875,34.668,29.297,38.574,-34.180
1532280397.041,39.062,32.715,31.250,41.992,322.266
1532280397.045,37.598,34.180,34.180,38.086,166.992
1532280397.049,40.039,35.156,32.227,35.156,-216.309
1532280397.053,41.504,36.133,31.250,32.227,-163.086
1532280397.057,40.527,37.109,32.715,33.691,217.773
1532280397.061,36.133,36.621,31.250,33.203,232.910
1532280397.065,37.109,35.156,31.738,32.227,-152.832
1532280397.069,38.574,36.133,32.227,38.574,-226.074
1532280397.073,36.133,38.086,28.809,32.227,138.184
1532280397.076,31.738,37.598,27.832,23.438,299.316
1532280397.080,28.809,38.086,28.809,25.391,-23.438
1532280397.084,27.344,38.574,28.320,27.344,-251.465
1532280397.088,26.855,35.156,30.273,28.320,52.734
1532280397.092,26.855,34.668,32.227,30.762,364.258
1532280397.096,29.297,36.621,32.715,29.297,119.629
1532280397.100,30.762,35.156,33.691,27.832,-245.117
1532280397.104,28.320,33.203,33.691,30.273,-61.035
1532280397.108,23.926,30.762,32.227,32.715,331.543
1532280397.112,23.438,32.227,29.785,25.879,198.730
1532280397.116,25.879,33.203,31.250,20.020,-247.070
1532280397.119,25.879,34.180,31.250,28.320,-196.777
1532280397.123,28.809,35.156,28.320,34.668,233.398
1532280397.127,27.344,33.691,28.320,28.809,295.410
1532280397.131,26.855,36.621,30.273,24.902,-143.066
1532280397.135,29.785,37.598,29.297,30.273,-307.129
1532280397.139,30.762,37.109,28.320,35.156,131.348
1532280397.143,32.227,37.109,31.250,38.086,343.262
1532280397.147,33.203,38.086,32.715,39.062,-19.531
1532280397.151,37.109,38.086,33.691,37.109,-292.480
1532280397.155,35.645,37.109,34.668,40.039,-17.578
1532280397.159,34.668,41.016,33.691,43.457,329.590
1532280397.162,37.598,41.504,33.203,42.480,136.230
1532280397.166,38.086,40.527,33.203,41.016,-254.395
1532280397.170,39.062,41.504,33.203,45.410,-137.695
1532280397.174,39.551,43.945,34.180,43.945,245.117
1532280397.178,38.574,44.434,33.691,38.086,201.172
1532280397.182,41.504,41.016,35.156,38.574,-208.008
1532280397.186,41.016,38.574,34.668,40.527,-223.633
1532280397.190,32.715,36.621,33.691,43.945,186.523
1532280397.194,29.297,36.621,36.621,41.992,249.512
1532280397.198,30.273,38.574,35.645,40.527,-126.465
1532280397.201,31.738,39.551,34.180,40.039,-288.086
1532280397.205,32.715,38.574,33.203,41.992,66.895
1532280397.209,34.180,39.551,31.738,43.457,332.031
1532280397.213,32.715,40.039,30.762,30.762,10.254
1532280397.217,38.086,40.039,31.250,25.391,-312.500
1532280397.221,44.922,42.480,29.297,34.180,-33.203
1532280397.225,37.598,40.039,29.785,36.621,339.355
1532280397.229,32.227,36.133,32.227,35.156,163.574
1532280397.233,29.785,37.598,32.715,33.691,-243.164
1532280397.237,31.250,37.598,33.691,38.574,-168.457
1532280397.241,36.621,34.668,34.668,38.574,282.715
1532280397.244,35.645,34.180,34.668,37.109,270.508
1532280397.248,32.715,36.621,33.203,39.062,-172.363
1532280397.252,30.762,36.621,34.180,37.598,-242.188
1532280397.256,32.227,34.180,35.645,37.109,159.668
1532280397.260,33.691,34.180,31.250,41.016,321.289
1532280397.264,34.180,35.156,28.320,39.551,-64.453
1532280397.268,34.668,33.203,27.832,37.109,-269.531
1532280397.272,33.691,31.738,26.855,38.574,49.805
1532280397.276,34.668,31.738,27.344,37.109,302.246
1532280397.280,35.156,31.738,27.344,33.691,36.621
1532280397.284,28.320,29.297,26.855,33.691,-274.414
1532280397.287,26.367,28.320,25.391,37.598,-45.898
1532280397.291,33.203,31.250,26.855,39.551,314.453
1532280397.295,34.180,34.668,25.391,35.156,163.086
1532280397.299,31.738,36.621,22.461,32.715,-230.469
1532280397.303,36.621,35.156,22.949,39.062,-160.156
1532280397.307,41.016,35.156,25.391,43.945,253.418
1532280397.311,39.062,35.156,26.367,39.062,275.391
1532280397.315,39.062,33.691,25.391,32.715,-154.785
1532280397.319,40.527,33.203,24.414,34.180,-269.531
1532280397.323,41.992,33.691,25.879,40.527,163.086
1532280397.326,45.898,34.668,28.809,40.527,336.426
1532280397.330,40.039,35.645,28.809,33.203,-53.711
1532280397.334,36.621,36.133,28.320,32.715,-286.621
1532280397.338,42.480,35.645,29.785,40.527,40.039
1532280397.342,47.363,33.691,28.320,40.527,329.590
1532280397.346,45.898,34.668,27.344,37.109,101.074
1532280397.350,40.039,35.156,30.762,37.109,-250.977
1532280397.354,38.086,33.691,29.297,37.109,-111.328
1532280397.358,33.691,29.785,26.855,37.109,287.109
1532280397.362,29.785,31.250,27.832,33.203,219.238
1532280397.366,28.320,34.668,30.273,28.320,-179.199
1532280397.369,27.344,34.180,30.762,29.297,-187.500
1532280397.373,28.320,34.668,29.297,29.785,194.336
1532280397.377,25.879,34.180,27.832,29.785,288.086
1532280397.381,28.320,36.133,24.902,30.273,-85.449
1532280397.385,34.668,37.109,26.855,33.691,-254.395
1532280397.389,36.133,35.645,27.344,38.086,114.258
1532280397.393,36.133,34.668,26.367,31.738,323.242
1532280397.397,33.691,34.668,28.320,26.367,-4.883
1532280397.401,36.621,33.691,27.344,31.738,-259.766
1532280397.405,40.527,34.180,26.855,36.621,19.531
1532280397.409,37.109,33.203,26.367,33.691,352.539
1532280397.412,35.645,32.715,24.902,31.738,155.762
1532280397.416,33.203,31.250,22.461,31.738,-235.840
1532280397.420,37.598,31.738,22.461,35.156,-105.957
1532280397.424,41.992,30.762,22.461,40.527,275.391
1532280397.428,42.969,31.738,20.508,38.574,190.918
1532280397.432,40.039,34.668,20.020,31.738,-221.680
1532280397.436,39.551,32.715,20.020,35.645,-248.535
1532280397.440,42.969,30.273,20.508,40.527,163.574
1532280397.444,39.062,30.273,21.973,38.086,279.785
1532280397.448,37.598,31.250,24.414,35.156,-80.566
1532280397.451,35.156,32.227,24.414,30.273,-283.203
1532280397.455,34.668,33.691,27.344,32.227,70.801
1532280397.459,35.645,35.156,28.809,34.180,349.121
1532280397.463,35.645,34.668,30.273,25.391,53.711
1532280397.467,40.039,37.109,31.250,20.996,-267.090
1532280397.471,41.992,40.527,31.250,25.879,-45.410
1532280397.475,40.527,39.062,32.227,25.391,303.223
1532280397.479,40.527,35.156,32.715,21.973,163.086
1532280397.483,41.992,35.645,33.691,22.461,-216.797
1532280397.487,41.504,36.621,34.180,29.297,-146.484
1532280397.491,35.156,34.668,34.668,37.598,263.672
1532280397.494,23.926,33.203,36.133,35.645,246.094
1532280397.498,15.137,32.227,37.598,32.227,-189.453
1532280397.502,13.184,28.809,35.156,38.086,-244.141
1532280397.506,21.484,28.809,34.180,44.922,171.387
1532280397.510,24.902,30.762,37.109,44.434,304.199
1532280397.514,28.320,29.785,39.551,40.527,-73.242
1532280397.518,33.203,29.785,38.574,41.016,-280.762
1532280397.522,32.715,30.762,34.180,42.969,53.711
1532280397.526,34.180,32.227,36.133,41.016,339.355
1532280397.530,35.645,32.715,37.109,35.645,61.035
1532280397.533,34.668,31.738,35.156,26.367,-298.828
1532280397.537,35.156,29.297,34.668,25.391,-101.562
1532280397.541,37.109,28.809,34.180,36.133,302.734
1532280397.545,36.133,31.250,36.133,35.156,179.688
1532280397.549,35.156,33.691,37.109,32.715,-235.352
1532280397.553,35.156,32.715,38.086,36.133,-172.852
1532280397.557,35.645,29.785,40.039,39.551,255.371
1532280397.561,36.621,29.785,38.086,37.109,292.969
1532280397.565,33.691,32.227,37.109,33.203,-117.676
1532280397.569,31.250,31.738,38.086,33.203,-236.816
1532280397.573,32.227,28.320,36.621,36.621,121.582
1532280397.576,35.156,27.832,36.621,37.109,312.012
1532280397.580,33.203,28.809,37.598,36.133,-3.906
1532280397.584,31.250,26.855,39.551,37.598,-265.625
1532280397.588,33.691,25.391,40.039,42.480,30.762
1532280397.592,33.203,26.367,39.062,41.992,313.965
1532280397.596,27.832,27.344,38.086,32.227,61.523
1532280397.600,29.297,28.809,37.109,31.250,-276.367
1532280397.604,35.156,30.762,36.621,36.133,-108.887
1532280397.608,36.621,30.273,37.109,35.156,294.922
1532280397.612,35.645,28.809,38.574,32.715,216.309
1532280397.616,35.156,29.785,39.062,36.133,-207.520
1532280397.619,41.992,32.715,37.109,40.527,-201.660
1532280397.623,49.316,33.203,36.133,44.922,214.355
1532280397.627,45.898,31.250,38.086,42.969,282.715
1532280397.631,39.551,31.738,38.574,36.133,-114.746
1532280397.635,40.527,31.250,36.621,34.668,-280.762
1532280397.639,37.598,28.320,35.156,36.621,102.539
1532280397.643,32.227,29.297,32.715,36.621,327.637
1532280397.647,34.668,31.250,30.762,29.785,15.137
1532280397.651,39.551,33.691,34.180,25.879,-281.738
1532280397.655,40.527,33.691,35.156,33.691,-32.715
1532280397.658,38.574,33.203,33.691,42.480,345.215
1532280397.662,40.039,33.203,36.621,41.992,141.113
1532280397.666,39.062,33.691,37.598,40.527,-261.719
1532280397.670,41.992,35.645,35.156,42.480,-137.695
1532280397.674,44.434,33.691,34.668,36.621,245.605
1532280397.678,42.480,29.785,35.645,34.668,198.730
1532280397.682,36.621,29.785,35.645,34.180,-180.664
1532280397.686,31.738,28.320,33.203,31.250,-185.547
1532280397.690,33.203,27.344,33.203,36.621,203.613
1532280397.694,32.227,26.855,32.715,31.738,301.270
1532280397.698,26.855,26.367,32.715,23.438,-67.871
1532280397.701,27.832,24.414,33.691,27.832,-275.391
1532280397.705,31.738,21.484,31.738,33.691,71.777
1532280397.709,35.156,22.949,31.250,36.133,360.840
1532280397.713,31.738,23.926,31.738,34.180,54.199
1532280397.717,33.203,21.973,33.691,34.180,-272.949
1532280397.721,37.598,22.949,35.645,42.480,-38.574
1532280397.725,34.180,23.438,33.203,42.480,314.453
1532280397.729,34.668,21.484,33.691,38.574,152.832
1532280397.733,34.180,22.949,36.133,32.715,-272.949
1532280397.737,33.691,24.414,34.668,28.809,-215.332
1532280397.741,35.645,24.414,29.297,28.809,223.633
1532280397.744,35.156,25.391,30.273,27.344,235.840
1532280397.748,34.668,25.391,34.180,30.273,-145.508
1532280397.752,35.645,27.344,30.762,35.156,-227.051
1532280397.756,34.180,30.273,27.832,37.598,183.594
1532280397.760,31.250,29.785,29.785,37.109,374.023
1532280397.764,30.273,28.809,33.203,34.180,-35.156
1532280397.768,32.227,29.785,32.227,32.715,-288.086
1532280397.772,31.738,29.785,31.250,33.203,36.133
1532280397.776,28.320,29.297,31.250,29.785,322.754
1532280397.780,27.344,29.785,30.762,29.297,89.355
1532280397.783,27.344,29.297,31.250,33.203,-251.953
1532280397.787,29.297,28.320,32.227,37.109,-59.570
1532280397.791,31.250,31.250,33.203,36.133,315.430
1532280397.795,27.344,30.273,31.738,30.762,189.453
1532280397.799,26.367,28.320,29.785,31.738,-203.613
1532280397.803,32.227,30.273,31.250,36.621,-174.805
1532280397.807,33.203,27.832,32.227,42.480,245.117
1532280397.811,33.691,26.367,36.133,41.992,286.621
1532280397.815,30.273,27.344,37.598,32.227,-123.535
1532280397.819,29.297,25.879,35.156,32.715,-224.121
1532280397.823,32.227,25.391,32.227,36.621,165.039
1532280397.826,24.414,26.367,32.715,32.715,360.840
1532280397.830,19.043,26.855,31.250,25.391,-5.371
1532280397.834,24.414,28.809,29.297,21.973,-281.738
1532280397.838,24.902,29.297,29.785,24.414,32.227
1532280397.842,24.414,28.809,30.273,22.461,339.355
1532280397.846,24.414,30.762,33.691,22.949,91.309
1532280397.850,28.320,33.691,34.668,27.832,-280.762
1532280397.854,35.156,33.203,33.691,31.250,-120.605
1532280397.858,36.133,32.227,32.715,32.715,276.367
1532280397.862,33.203,31.250,31.250,29.297,210.938
1532280397.865,30.762,31.250,32.227,23.926,-191.406
1532280397.869,29.297,32.227,31.738,29.785,-201.172
1532280397.873,26.855,33.203,30.762,31.250,172.852
1532280397.877,23.926,36.133,31.738,24.414,262.207
1532280397.881,23.926,39.062,35.645,27.344,-71.289
1532280397.885,28.809,41.504,37.109,31.738,-243.652
1532280397.889,33.691,43.457,37.598,34.180,102.051
1532280397.893,34.668,41.016,36.621,31.738,360.352
1532280397.897,33.203,41.992,37.109,27.832,37.109
1532280397.901,32.227,42.480,39.551,30.762,-276.367
1532280397.905,29.785,41.992,37.109,34.668,-19.043
1532280397.908,28.320,41.016,33.203,36.133,303.711
1532280397.912,28.809,40.039,36.621,33.691,121.582
1532280397.916,28.809,41.016,39.062,33.203,-235.352
1532280397.920,31.738,38.086,37.598,40.527,-135.254
1532280397.924,33.691,34.668,37.598,41.992,245.605
1532280397.928,29.785,33.691,38.574,36.133,232.422
1532280397.932,28.809,35.645,37.598,31.250,-159.180
1532280397.936,29.785,33.691,37.109,31.250,-229.492
1532280397.940,29.785,32.227,38.086,36.621,165.527
1532280397.944,32.715,31.738,38.574,36.133,302.246
1532280397.948,34.668,30.273,38.574,30.273,-81.543
1532280397.951,31.738,29.297,34.668,27.832,-296.875
1532280397.955,32.715,30.273,36.621,31.738,41.504
1532280397.959,36.621,31.738,39.551,35.645,320.312
1532280397.963,37.109,33.203,38.574,30.273,46.387
1532280397.967,36.621,33.691,37.109,29.297,-278.320
1532280397.971,36.621,33.203,33.691,31.250,-46.387
1532280397.975,39.551,32.227,32.715,28.809,320.312
1532280397.979,37.598,33.203,32.227,28.809,164.062
1532280397.983,33.203,34.180,32.227,30.762,-215.820
1532280397.987,32.715,33.203,33.203,36.133,-148.926
1532280397.990,29.785,31.738,33.691,39.551,231.445
1532280397.994,30.273,29.785,33.691,31.250,233.398
1532280397.998,26.855,28.809,34.180,27.344,-178.223
1532280398.002,22.949,28.809,33.691,28.809,-263.184
1532280398.006,24.414,25.879,31.738,32.227,163.086
1532280398.010,24.414,25.391,31.738,31.250,331.543
1532280398.014,27.832,28.320,30.273,20.996,-67.383
1532280398.018,29.785,27.344,29.297,20.020,-290.039
1532280398.022,32.715,24.902,29.785,30.762,58.594
1532280398.026,37.598,25.391,29.297,33.203,344.727
1532280398.030,32.715,25.391,27.832,25.879,68.359
1532280398.033,32.227,25.391,30.762,26.367,-265.625
1532280398.037,38.574,26.855,33.203,36.133,-37.109
1532280398.041,37.598,25.879,32.227,37.109,350.586
1532280398.045,37.109,20.508,34.668,34.180,208.008
1532280398.049,34.668,21.973,34.668,27.832,-235.352
1532280398.053,22.949,27.344,28.320,16.113,-233.398
1532280398.057,18.066,29.785,24.414,12.207,198.730
1532280398.061,16.602,34.668,24.414,10.254,295.898
1532280398.065,18.555,36.133,24.902,6.836,-116.211
1532280398.069,20.020,34.180,26.855,8.789,-242.676
1532280398.073,16.113,33.203,26.367,12.207,145.020
1532280398.076,16.113,35.645,26.367,10.742,326.660
1532280398.080,17.090,36.133,28.320,5.859,9.766
1532280398.084,12.695,34.180,31.738,-0.977,-279.785
1532280398.088,6.836,33.691,31.250,0.000,15.137
1532280398.092,3.906,34.180,31.738,-1.953,336.426
1532280398.096,1.465,36.133,31.250,-13.184,96.680
1532280398.100,4.883,35.645,27.344,-10.742,-248.047
1532280398.104,5.371,32.715,26.367,-5.371,-109.375
1532280398.108,0.977,29.785,27.344,-2.441,297.363
1532280398.112,0.977,32.715,31.250,0.977,225.098
1532280398.115,2.930,34.180,32.227,-5.371,-197.266
1532280398.119,3.906,32.227,31.250,-4.395,-190.918
1532280398.123,6.348,32.227,30.762,6.348,208.008
1532280398.127,9.277,32.715,33.203,5.859,286.621
1532280398.131,7.324,32.715,35.645,-0.977,-105.957
1532280398.135,3.418,32.715,32.715,-3.418,-275.391
1532280398.139,3.906,32.227,33.203,0.977,102.051
1532280398.143,5.371,33.203,36.133,2.930,319.824
1532280398.147,-0.488,33.203,36.133,0.000,-14.648
1532280398.151,-6.348,33.203,36.133,-3.418,-289.551
1532280398.155,-1.953,35.156,34.668,-3.418,-53.223
1532280398.158,1.953,36.133,32.715,-7.812,301.758
1532280398.162,-3.418,38.086,33.691,-10.742,150.391
1532280398.166,-0.488,38.086,36.621,-9.766,-233.398
1532280398.170,3.418,38.086,36.133,-10.742,-137.207
1532280398.174,-1.465,39.062,33.691,-10.742,274.414
1532280398.178,-1.465,40.527,36.133,-12.207,250.000
1532280398.182,0.000,41.504,36.621,-14.160,-156.250
1532280398.186,5.371,40.527,36.133,-11.230,-217.773
1532280398.190,10.742,39.551,40.527,-3.906,152.832
1532280398.194,16.602,40.527,41.992,-3.906,281.250
1532280398.198,18.066,40.527,41.992,-5.859,-75.684
1532280398.201,16.113,40.527,42.969,4.883,-261.719
1532280398.205,17.578,42.480,41.992,12.695,68.359
1532280398.209,15.625,41.992,41.016,14.648,342.773
1532280398.213,8.789,41.992,40.039,14.160,63.477
1532280398.217,0.977,42.969,39.062,9.277,-270.020
1532280398.221,0.488,41.992,36.621,9.277,-63.477
1532280398.225,0.488,40.527,35.156,9.277,311.523
1532280398.229,-1.953,39.551,35.156,2.441,190.918
1532280398.233,-0.977,40.527,36.133,-3.418,-231.934
1532280398.237,6.836,42.480,36.133,-1.465,-197.754
1532280398.240,12.207,45.410,37.109,6.836,239.746
1532280398.244,11.230,46.875,37.598,7.812,281.738
1532280398.248,8.301,43.457,38.574,7.812,-127.441
1532280398.252,7.324,38.086,37.598,7.812,-246.582
1532280398.256,11.719,39.551,37.109,6.348,132.324
1532280398.260,11.230,42.969,38.086,9.766,321.777
1532280398.264,9.766,41.504,36.621,10.254,-21.484
1532280398.268,12.695,38.574,34.668,9.766,-261.719
1532280398.272,14.160,39.062,33.203,14.160,16.113
1532280398.276,15.625,40.039,34.668,17.578,303.223
1532280398.280,16.113,39.062,38.086,12.207,54.199
1532280398.283,19.531,38.574,39.551,13.672,-279.785
1532280398.287,22.461,35.156,36.621,18.066,-92.773
1532280398.291,22.949,34.180,35.645,17.090,260.254
1532280398.295,23.438,33.691,37.598,17.090,150.879
1532280398.299,24.902,30.762,35.645,15.137,-225.586
1532280398.303,26.855,31.250,34.180,17.090,-196.289
1532280398.307,24.414,32.227,33.203,21.973,228.027
1532280398.311,19.043,30.273,31.250,18.066,277.832
1532280398.315,17.578,27.832,34.180,15.137,-125.000
1532280398.319,20.508,27.832,36.133,20.020,-248.047
1532280398.322,28.809,29.297,33.203,21.484,123.535
1532280398.326,34.180,28.809,31.738,19.043,309.082
1532280398.330,31.738,30.273,35.156,21.484,-29.297
1532280398.334,30.273,27.344,36.621,21.484,-309.082
1532280398.338,25.391,22.949,36.133,23.438,-30.273
1532280398.342,21.973,26.367,36.133,26.367,321.777
1532280398.346,21.484,27.832,36.133,21.484,126.465
1532280398.350,20.996,27.344,37.109,20.508,-232.910
1532280398.354,24.414,26.855,36.621,21.484,-119.141
1532280398.358,30.273,26.855,33.691,22.949,270.996
1532280398.362,26.855,26.367,31.738,19.043,240.234
1532280398.365,19.043,28.809,31.250,14.160,-159.668
1532280398.369,18.066,31.250,33.691,19.531,-199.219
1532280398.373,18.066,29.785,33.203,19.043,177.734
1532280398.377,19.531,28.320,30.762,17.578,282.715
1532280398.381,25.391,29.297,31.738,22.949,-102.051
1532280398.385,24.902,29.297,30.762,23.926,-299.316
1532280398.389,25.391,27.344,29.785,24.902,80.078
1532280398.393,25.391,28.809,30.273,20.996,337.402
1532280398.397,23.438,30.273,28.320,18.066,28.809
1532280398.401,24.902,28.809,30.762,23.926,-286.133
1532280398.405,27.832,27.832,34.668,29.297,-33.203
1532280398.408,29.785,26.367,35.156,29.785,331.543
1532280398.412,26.855,26.855,37.109,25.879,136.719
1532280398.416,24.902,26.367,34.668,21.973,-254.883
1532280398.420,21.973,24.414,32.715,19.043,-158.203
1532280398.424,21.973,26.855,32.227,22.949,265.137
1532280398.428,21.484,27.832,29.785,22.949,274.414
1532280398.432,20.996,26.855,30.273,18.066,-126.953
1532280398.436,20.020,24.902,30.273,16.113,-212.402
1532280398.440,19.043,22.461,29.785,21.973,165.527
1532280398.444,27.344,23.926,31.250,26.367,337.891
1532280398.447,28.809,25.391,31.250,22.949,-32.715
1532280398.451,23.438,24.414,30.762,19.043,-263.184
1532280398.455,23.438,22.949,29.785,20.508,57.129
1532280398.459,22.461,21.484,30.762,22.949,328.613
1532280398.463,22.949,23.438,34.180,19.043,82.031
1532280398.467,24.414,27.832,31.738,16.113,-246.582
1532280398.471,25.391,29.297,27.344,18.066,-64.941
1532280398.475,22.949,28.809,27.832,16.602,294.434
1532280398.479,17.578,26.367,29.297,13.672,177.246
1532280398.483,18.555,23.438,29.785,13.672,-206.055
1532280398.487,22.461,24.414,29.785,16.602,-172.363
1532280398.490,23.926,25.391,31.738,22.461,224.609
1532280398.494,23.926,26.855,30.273,22.461,263.184
1532280398.498,27.832,26.855,30.273,20.996,-142.578
1532280398.502,29.297,25.879,32.715,24.414,-251.953
1532280398.506,23.926,27.344,31.250,30.273,140.137
1532280398.510,21.973,28.809,29.785,23.438,302.246
1532280398.514,20.996,30.273,28.809,16.113,-38.574
1532280398.518,17.090,28.320,30.762,17.578,-258.789
1532280398.522,15.137,26.367,31.250,21.484,41.016
1532280398.526,20.020,28.809,30.273,21.973,330.566
1532280398.530,18.555,31.250,28.320,17.090,94.727
1532280398.533,17.578,31.738,28.320,14.648,-269.531
1532280398.537,20.020,31.738,29.785,15.625,-117.676
1532280398.541,16.113,30.273,32.227,18.555,277.344
1532280398.545,19.531,29.785,34.668,16.113,186.035
1532280398.549,21.973,29.297,33.203,12.207,-181.152
1532280398.553,19.531,29.785,32.715,15.625,-179.688
1532280398.557,20.020,32.227,33.203,21.973,213.867
1532280398.561,19.531,32.227,33.691,20.996,299.316
1532280398.565,22.461,31.738,35.156,16.602,-112.305
1532280398.569,27.344,29.785,34.180,19.531,-243.652
1532280398.572,24.902,28.809,31.738,22.461,107.422
1532280398.576,22.949,30.273,28.809,20.020,291.992
1532280398.580,22.949,29.785,30.273,18.066,8.789
1532280398.584,22.949,29.785,32.715,19.531,-269.043
1532280398.588,26.367,30.762,33.203,27.832,-13.672
1532280398.592,25.391,30.273,34.180,29.297,348.145
1532280398.596,25.391,30.762,36.621,24.902,148.438
1532280398.600,25.391,31.738,40.527,27.344,-257.812
1532280398.604,25.879,32.227,41.992,34.180,-129.395
1532280398.608,29.297,31.250,39.062,37.109,281.250
1532280398.612,33.203,31.738,38.574,33.691,229.980
1532280398.615,31.738,32.227,40.039,26.855,-222.168
1532280398.619,29.297,32.715,39.551,25.879,-232.910
1532280398.623,32.227,35.645,40.527,31.738,199.219
1532280398.627,33.691,34.180,40.039,32.227,309.570
1532280398.631,36.621,31.250,38.574,28.809,-41.992
1532280398.635,41.504,30.273,38.574,29.297,-239.746
1532280398.639,38.086,30.273,39.551,32.715,83.496
1532280398.643,28.320,30.762,37.598,29.297,325.684
1532280398.647,24.902,33.203,35.156,22.461,31.250
1532280398.651,26.367,32.715,35.645,20.020,-259.277
1532280398.654,27.832,31.250,33.203,23.438,-15.137
1532280398.658,26.855,31.250,34.180,25.391,334.961
1532280398.662,21.973,33.203,35.156,23.926,166.504
1532280398.666,24.414,32.715,35.645,22.949,-221.191
1532280398.670,31.250,30.762,36.621,28.809,-150.391
1532280398.674,33.691,31.250,37.598,34.180,218.262
1532280398.678,36.621,34.180,38.086,32.715,238.770
1532280398.682,40.039,34.668,36.133,31.250,-131.836
1532280398.686,40.039,34.180,36.133,28.809,-226.074
1532280398.690,35.645,34.668,32.715,28.809,165.039
1532280398.694,33.691,36.133,28.809,27.832,320.312
1532280398.697,34.180,36.621,31.250,24.902,-39.551
1532280398.701,34.180,36.133,29.297,23.438,-260.254
1532280398.705,30.762,34.180,28.320,26.367,34.668
1532280398.709,29.297,33.203,31.250,28.809,334.473
1532280398.713,33.691,35.156,32.227,20.508,62.988
1532280398.717,33.691,35.645,30.762,17.090,-292.969
1532280398.721,33.691,33.203,29.785,29.297,-57.129
1532280398.725,36.133,33.203,29.297,32.715,315.918
1532280398.729,33.203,33.203,28.320,25.879,174.805
1532280398.733,29.297,33.203,28.809,21.484,-228.516
1532280398.737,30.762,34.180,26.367,24.414,-173.828
1532280398.740,34.668,31.738,26.367,29.785,263.672
1532280398.744,29.297,29.297,28.320,26.855,312.500
1532280398.748,23.438,27.832,29.785,27.344,-113.281
1532280398.752,27.344,28.809,29.297,27.832,-249.512
1532280398.756,33.203,29.785,26.855,28.320,149.902
1532280398.760,31.250,27.832,26.855,30.273,349.609
1532280398.764,24.902,27.344,26.367,26.855,-30.273
1532280398.768,22.949,29.297,26.855,30.273,-282.715
1532280398.772,19.043,26.367,27.832,32.227,7.812
1532280398.776,18.555,27.832,26.855,26.367,312.988
1532280398.779,19.531,30.762,27.344,19.531,81.055
1532280398.783,18.066,28.320,27.832,20.020,-252.930
1532280398.787,24.414,27.832,28.320,28.809,-98.145
1532280398.791,32.715,30.273,27.832,32.227,260.254
1532280398.795,34.180,32.227,28.320,30.273,165.039
1532280398.799,29.785,32.715,28.320,29.785,-231.445
1532280398.803,30.273,33.203,29.297,32.715,-207.031
1532280398.807,31.250,32.227,28.809,40.039,233.398
1532280398.811,30.762,31.250,28.320,38.086,304.199
1532280398.815,31.250,30.762,29.297,30.273,-123.047
1532280398.819,28.809,31.250,31.250,29.297,-255.371
1532280398.822,28.809,30.273,29.297,31.738,141.602
1532280398.826,29.297,28.320,26.367,31.738,354.980
1532280398.830,27.344,27.344,28.809,29.297,4.395
1532280398.834,29.785,28.809,31.250,27.832,-299.805
1532280398.838,28.809,29.297,29.297,33.203,-30.762
1532280398.842,27.832,28.320,29.297,35.645,317.383
1532280398.846,28.809,28.809,29.785,29.785,107.422
1532280398.850,26.855,29.297,31.250,29.785,-284.180
1532280398.854,24.414,28.809,32.715,31.250,-146.973
1532280398.858,22.461,27.832,30.273,28.809,253.906
1532280398.862,23.438,29.297,29.785,31.250,237.793
1532280398.865,25.391,28.320,30.273,27.832,-157.227
1532280398.869,28.809,28.809,30.273,29.785,-221.191
1532280398.873,30.273,31.738,30.762,37.109,169.434
1532280398.877,31.738,30.762,30.273,35.645,290.527
1532280398.881,31.250,29.297,27.832,29.785,-75.684
1532280398.885,30.273,27.344,28.320,26.367,-256.348
1532280398.889,32.715,24.902,26.855,30.762,55.176
1532280398.893,36.621,24.902,26.855,26.367,294.922
1532280398.897,37.109,26.367,29.297,16.113,23.438
1532280398.901,35.645,25.391,28.320,18.555,-263.672
1532280398.904,38.086,25.391,27.344,22.949,-45.410
1532280398.908,41.992,25.391,27.832,24.414,310.547
1532280398.912,42.969,23.926,27.344,22.949,169.922
1532280398.916,36.133,22.461,27.344,26.855,-202.148
1532280398.920,30.273,20.020,28.320,34.180,-137.207
1532280398.924,25.879,20.508,28.320,37.109,234.375
1532280398.928,19.531,22.461,29.785,39.551,266.113
1532280398.932,17.090,23.438,31.738,33.691,-130.859
1532280398.936,16.602,24.414,33.203,28.809,-250.977
1532280398.940,18.066,23.926,31.250,30.762,160.645
1532280398.944,22.461,25.391,29.785,29.785,338.379
1532280398.947,24.902,27.344,30.762,24.414,-35.645
1532280398.951,23.438,26.855,33.203,21.973,-291.992
1532280398.955,24.414,26.367,34.180,26.367,26.367
1532280398.959,23.926,25.391,35.156,27.832,341.309
1532280398.963,25.879,28.320,37.109,27.832,85.449
1532280398.967,27.344,29.785,37.598,28.809,-260.742
1532280398.971,23.438,26.367,38.086,28.320,-91.309
1532280398.975,25.391,24.414,39.551,27.344,288.574
1532280398.979,29.297,28.320,38.574,25.879,197.266
1532280398.983,28.320,30.273,38.574,23.926,-208.008
1532280398.987,27.344,30.762,37.109,25.391,-179.199
1532280398.990,29.297,31.250,34.180,26.855,229.492
1532280398.994,32.715,32.715,33.691,20.020,268.066
1532280398.998,30.762,36.133,35.645,15.625,-144.531
1532280399.002,26.855,36.621,36.621,23.926,-271.973
1532280399.006,29.297,34.668,36.621,32.227,120.605
1532280399.010,26.855,35.156,36.621,30.762,337.402
1532280399.014,27.832,35.645,38.086,31.250,-8.301
1532280399.018,29.297,32.715,35.645,33.203,-277.344
1532280399.022,26.367,32.227,33.691,35.156,23.926
1532280399.026,24.902,33.203,36.621,36.133,340.332
1532280399.029,25.391,34.180,37.109,30.762,107.910
1532280399.033,30.273,36.133,37.109,27.344,-277.344
1532280399.037,33.691,37.109,38.574,31.738,-126.953
1532280399.041,37.109,40.527,37.109,38.086,315.918
1532280399.045,38.574,42.969,38.086,35.156,241.699
1532280399.049,35.156,41.016,36.133,31.738,-175.293
1532280399.053,31.250,39.062,33.203,31.738,-187.988
1532280399.057,28.320,38.086,33.691,34.668,212.402
1532280399.061,31.250,36.621,35.645,31.738,294.922
1532280399.065,32.715,35.645,35.645,25.391,-73.242
1532280399.069,31.250,31.738,34.668,28.320,-238.770
1532280399.072,33.203,29.297,36.133,34.180,75.195
1532280399.076,36.133,29.297,35.645,33.691,311.035
1532280399.080,38.086,29.297,30.273,29.785,3.906
1532280399.084,34.180,30.273,26.367,27.832,-288.574
1532280399.088,33.203,30.762,24.902,31.738,-17.578
1532280399.092,32.715,29.297,22.461,31.250,325.195
1532280399.096,28.809,26.855,19.043,23.926,136.230
1532280399.100,28.809,26.367,20.020,22.461,-246.094
1532280399.104,28.320,25.879,22.461,26.855,-149.414
1532280399.108,28.320,22.461,22.461,30.273,257.324
1532280399.111,28.809,22.461,22.949,26.855,231.934
1532280399.115,32.227,24.902,23.438,25.391,-183.594
1532280399.119,32.715,26.367,23.438,26.367,-217.285
1532280399.123,31.738,25.879,26.367,28.320,175.781
1532280399.127,36.133,25.879,27.344,29.297,295.898
1532280399.131,36.621,27.832,26.367,22.461,-89.355
1532280399.135,31.738,29.297,29.297,19.043,-296.387
1532280399.139,30.762,30.762,30.273,24.414,62.988
1532280399.143,29.785,29.785,29.785,22.949,324.707
1532280399.147,30.273,23.438,30.762,20.996,40.527
1532280399.151,36.133,18.555,31.738,24.414,-265.625
1532280399.154,35.645,18.066,30.273,20.996,-69.336
1532280399.158,34.180,16.602,29.297,21.973,290.527
1532280399.162,37.598,14.648,30.273,26.367,167.480
1532280399.166,37.598,12.695,30.762,25.391,-230.469
1532280399.170,35.645,10.254,28.809,28.809,-154.297
1532280399.174,32.715,6.836,30.762,27.832,229.492
1532280399.178,28.320,2.930,34.668,22.949,243.652
1532280399.182,27.832,0.488,36.621,23.926,-114.258
1532280399.186,28.809,-2.441,36.621,25.391,-220.215
1532280399.190,29.297,0.000,38.574,28.320,132.324
1532280399.194,27.344,3.418,41.016,28.320,319.824
1532280399.197,25.879,3.418,39.062,24.414,-17.578
1532280399.201,27.832,6.836,36.133,23.926,-284.668
1532280399.205,27.344,8.789,35.156,28.809,32.715
1532280399.209,26.855,9.277,34.668,30.762,329.590
1532280399.213,27.832,14.648,33.691,23.926,77.148
1532280399.217,25.391,17.578,33.691,22.949,-261.719
1532280399.221,19.043,17.578,31.250,25.879,-75.684
1532280399.225,19.531,20.508,30.273,23.926,319.336
1532280399.229,22.949,24.902,32.227,24.902,198.242
1532280399.233,27.832,27.344,34.668,27.832,-247.559
1532280399.236,29.785,26.855,36.133,26.855,-212.891
1532280399.240,29.297,29.785,33.203,27.832,219.727
1532280399.244,27.832,33.203,33.203,28.809,287.598
1532280399.248,30.762,33.203,36.133,28.320,-126.465
1532280399.252,31.738,35.156,34.180,26.367,-278.809
1532280399.256,27.344,34.668,35.156,27.344,109.863
1532280399.260,25.879,36.133,37.109,27.344,317.871
1532280399.264,28.320,38.574,35.156,22.949,-9.277
1532280399.268,33.203,39.551,36.621,24.902,-278.320
1532280399.272,30.762,40.039,35.156,28.809,-10.254
1532280399.276,23.438,38.574,33.691,27.344,313.965
1532280399.279,21.484,37.598,36.621,26.855,128.906
1532280399.283,21.484,36.133,38.086,26.367,-246.582
1532280399.287,18.066,35.645,33.691,29.297,-111.816
1532280399.291,12.695,34.668,33.203,31.250,292.969
1532280399.295,13.672,34.668,37.109,21.484,223.145
1532280399.299,18.066,34.668,39.551,20.020,-180.176
1532280399.303,22.461,33.691,39.551,28.809,-195.801
1532280399.307,23.926,33.203,36.133,33.203,209.473
1532280399.311,22.461,32.715,35.645,32.227,306.641
1532280399.315,21.973,33.203,37.598,23.926,-94.727
1532280399.319,24.902,33.203,37.109,26.367,-277.832
1532280399.322,30.273,32.715,36.133,36.133,84.473
1532280399.326,30.273,32.227,37.598,35.156,324.707
1532280399.330,27.832,30.762,39.062,33.203,7.812
1532280399.334,25.391,30.273,38.086,31.250,-273.438
1532280399.338,20.508,29.785,39.062,32.715,-2.441
1532280399.342,20.996,32.227,37.109,32.227,330.566
1532280399.346,21.973,35.156,32.227,26.367,134.766
1532280399.350,22.949,35.645,28.809,26.367,-240.723
1532280399.354,25.391,36.133,30.762,33.203,-141.602
1532280399.358,29.297,37.598,32.715,35.156,257.324
1532280399.361,28.809,35.645,32.715,29.785,258.789
1532280399.365,29.785,33.203,32.715,29.297,-148.926
1532280399.369,36.621,36.621,30.273,32.715,-233.398
1532280399.373,31.738,38.086,28.809,31.738,146.973
1532280399.377,27.344,34.180,31.250,29.297,302.734
1532280399.381,29.297,35.156,32.227,29.785,-49.316
1532280399.385,28.320,35.645,30.762,30.762,-276.367
1532280399.389,26.855,34.180,31.250,32.227,57.617
1532280399.393,29.297,33.691,30.762,29.785,333.008
1532280399.397,29.297,33.691,29.297,27.344,58.105
1532280399.401,29.785,35.645,30.273,30.273,-258.789
1532280399.404,38.086,36.133,30.273,36.133,-74.707
1532280399.408,37.598,34.668,27.832,39.062,283.691
1532280399.412,34.180,34.180,23.926,37.109,136.719
1532280399.416,39.551,37.109,24.414,36.621,-259.277
1532280399.420,40.527,38.574,23.926,39.062,-195.312
1532280399.424,36.621,37.598,22.461,40.039,210.449
1532280399.428,37.109,38.574,22.949,38.086,256.348
1532280399.432,39.062,37.598,20.020,29.297,-146.973
1532280399.436,36.133,36.133,19.531,26.367,-253.418
1532280399.440,32.715,33.691,20.508,29.785,139.160
1532280399.444,34.668,30.273,19.531,27.344,342.285
1532280399.447,35.645,33.691,19.043,22.461,-19.043
1532280399.451,30.273,34.180,16.602,16.113,-290.527
