timestamps,TP9,AF7,AF8,TP10,Right AUX
1532281384.952,29.785,41.992,21.484,24.902,-77.148
1532281384.956,28.809,40.527,21.973,30.273,-63.965
1532281384.960,29.785,39.062,26.367,31.250,115.234
1532281384.963,23.926,38.574,26.855,22.461,118.164
1532281384.967,25.879,39.062,24.902,23.438,-50.781
1532281384.971,32.715,41.016,22.949,26.855,-81.055
1532281384.975,27.344,46.387,20.996,21.973,107.422
1532281384.979,21.973,45.410,20.996,19.043,196.289
1532281384.983,25.879,40.039,24.414,14.648,-29.297
1532281384.987,28.809,37.109,25.391,15.625,-145.996
1532281384.991,28.809,36.133,24.902,24.414,31.738
1532281384.995,26.855,41.016,24.902,25.879,168.945
1532281384.999,25.879,45.410,24.414,23.438,79.590
1532281385.002,30.762,46.387,26.367,23.438,-92.773
1532281385.006,32.715,45.410,26.367,27.344,-26.367
1532281385.010,28.320,41.504,27.344,29.785,151.367
1532281385.014,24.902,39.551,30.273,26.855,90.332
1532281385.018,26.855,39.062,30.273,24.902,-100.098
1532281385.022,26.855,39.062,27.344,24.414,-99.121
1532281385.026,28.320,36.133,28.809,29.297,98.633
1532281385.030,31.250,33.691,34.668,32.227,153.809
1532281385.034,27.832,36.621,36.621,30.273,-29.297
1532281385.038,27.832,39.551,32.227,31.250,-104.492
1532281385.042,34.668,37.109,32.227,33.203,66.406
1532281385.045,37.598,36.621,34.180,33.203,145.996
1532281385.049,43.457,37.109,33.203,39.062,-20.996
1532281385.053,44.922,36.621,33.203,39.062,-111.816
1532281385.057,39.062,38.574,31.738,32.227,37.109
1532281385.061,33.691,36.133,33.203,32.715,153.809
1532281385.065,32.715,32.715,37.109,35.645,49.316
1532281385.069,36.133,32.227,37.109,39.551,-89.844
1532281385.073,35.645,35.156,33.691,35.156,-16.602
1532281385.077,32.715,35.156,33.203,31.250,166.016
1532281385.081,26.855,33.203,31.250,25.879,119.141
1532281385.085,28.809,38.574,28.809,19.531,-111.328
1532281385.088,35.645,37.598,27.832,24.414,-95.703
1532281385.092,32.715,31.250,29.785,26.855,132.812
1532281385.096,28.809,26.367,35.156,26.367,198.730
1532281385.100,29.297,25.391,35.645,27.344,1.953
1532281385.104,31.250,30.762,31.738,26.367,-95.215
1532281385.108,35.156,36.133,30.273,29.785,91.797
1532281385.112,41.504,38.086,30.273,36.133,202.637
1532281385.116,39.062,33.203,32.227,39.551,54.688
1532281385.120,32.715,28.809,33.691,36.133,-92.285
1532281385.124,32.227,29.785,34.180,28.320,20.508
1532281385.127,32.227,31.738,33.203,28.320,173.340
1532281385.131,35.156,30.273,32.227,33.203,106.934
1532281385.135,35.156,25.391,34.180,35.156,-88.379
1532281385.139,31.738,24.414,32.715,37.598,-67.383
1532281385.143,31.250,27.344,33.203,33.691,146.484
1532281385.147,33.691,26.367,35.645,34.180,134.766
1532281385.151,33.691,25.879,36.133,33.691,-57.129
1532281385.155,34.180,30.762,34.180,31.738,-89.355
1532281385.159,38.574,33.203,33.203,35.645,92.285
1532281385.163,33.691,30.762,33.691,25.879,145.996
1532281385.167,33.203,28.809,31.738,21.973,-33.203
1532281385.170,38.086,29.785,33.203,34.180,-110.840
1532281385.174,34.668,29.297,34.668,33.691,66.406
1532281385.178,31.738,29.297,33.203,28.320,199.707
1532281385.182,30.273,29.297,37.109,26.367,62.012
1532281385.186,33.203,27.344,39.062,26.855,-108.398
1532281385.190,39.062,26.367,37.598,32.715,-5.859
1532281385.194,37.598,26.855,39.062,32.715,186.035
1532281385.198,37.598,27.832,39.062,34.668,110.352
1532281385.202,35.156,29.297,40.527,34.668,-99.121
1532281385.206,29.297,32.715,38.574,29.297,-85.938
1532281385.209,24.902,32.227,35.645,28.320,111.816
1532281385.213,22.949,27.344,37.109,26.855,120.117
1532281385.217,26.855,28.809,35.156,28.809,-69.824
1532281385.221,31.738,30.762,35.156,32.227,-130.859
1532281385.225,26.855,32.227,39.551,30.762,52.246
1532281385.229,23.438,28.809,42.480,31.250,167.969
1532281385.233,31.738,29.785,40.039,36.621,10.742
1532281385.237,36.621,33.203,37.109,38.086,-114.746
1532281385.241,34.668,32.715,37.598,36.621,16.602
1532281385.245,37.598,35.156,36.621,36.621,172.852
1532281385.249,42.480,36.133,36.621,37.109,62.012
1532281385.252,40.527,36.621,34.668,38.574,-121.582
1532281385.256,37.109,37.109,33.691,38.574,-32.715
1532281385.260,35.645,34.668,37.598,36.621,183.105
1532281385.264,38.574,34.180,39.062,27.832,99.121
1532281385.268,40.039,35.645,33.203,27.344,-116.699
1532281385.272,40.527,36.133,32.227,39.551,-49.805
1532281385.276,43.945,37.598,32.715,42.480,160.156
1532281385.280,41.992,38.086,32.715,39.062,167.969
1532281385.284,43.457,39.062,37.598,38.086,-44.922
1532281385.288,48.340,37.598,38.086,41.504,-96.191
1532281385.292,45.410,35.645,36.621,41.992,78.613
1532281385.295,43.457,38.574,37.109,37.598,203.125
1532281385.299,45.898,39.062,38.574,43.945,61.523
1532281385.303,45.898,36.621,40.527,42.969,-97.168
1532281385.307,47.852,40.039,37.598,42.969,12.695
1532281385.311,47.852,41.016,36.621,46.387,198.730
1532281385.315,42.969,41.504,34.180,40.039,106.934
1532281385.319,40.039,43.945,32.227,36.133,-91.797
1532281385.323,41.992,44.922,32.227,37.109,-35.645
1532281385.327,46.875,42.480,35.156,42.480,176.758
1532281385.331,40.039,37.109,40.527,43.457,175.781
1532281385.334,36.133,35.645,42.480,41.016,-64.941
1532281385.338,46.387,36.133,41.992,45.898,-85.938
1532281385.342,49.316,35.645,42.969,49.805,106.445
1532281385.346,48.828,38.574,41.504,47.852,148.438
1532281385.350,50.293,42.480,38.574,42.480,13.672
1532281385.354,48.340,41.016,37.109,37.598,-79.590
1532281385.358,47.363,40.039,35.156,35.645,54.688
1532281385.362,49.316,39.062,36.133,30.762,184.570
1532281385.366,49.316,38.574,40.039,25.391,56.152
1532281385.370,50.781,39.062,41.016,27.344,-89.355
1532281385.374,49.316,41.016,37.598,37.109,20.996
1532281385.377,45.410,41.016,34.180,41.992,182.129
1532281385.381,41.016,38.574,37.109,42.969,71.289
1532281385.385,33.691,37.598,39.062,42.480,-112.793
1532281385.389,31.738,38.086,38.574,46.387,-40.527
1532281385.393,33.203,38.574,38.574,48.828,156.738
1532281385.397,30.273,37.598,34.668,42.969,145.996
1532281385.401,29.785,40.527,33.691,36.133,-60.059
1532281385.405,28.809,41.992,35.156,29.785,-126.465
1532281385.409,29.785,41.016,35.645,33.203,95.215
1532281385.413,32.227,42.480,36.133,40.039,208.008
1532281385.417,30.273,42.480,37.109,34.180,22.461
1532281385.420,29.297,42.969,36.621,31.738,-105.957
1532281385.424,28.809,43.945,37.598,33.203,47.363
1532281385.428,27.344,41.016,38.086,30.762,204.590
1532281385.432,27.344,40.527,35.156,26.367,54.199
1532281385.436,28.320,42.969,36.133,25.879,-132.324
1532281385.440,28.320,42.969,39.062,28.809,-19.043
1532281385.444,26.367,40.039,37.598,23.926,158.691
1532281385.448,27.832,40.039,37.598,21.484,116.211
1532281385.452,32.715,41.016,39.551,27.832,-76.660
1532281385.456,36.133,37.109,37.598,33.691,-52.734
1532281385.459,36.621,36.133,36.621,36.621,120.605
1532281385.463,32.227,40.039,39.551,31.250,99.609
1532281385.467,30.762,38.574,41.504,26.855,-71.289
1532281385.471,30.762,33.203,39.062,29.785,-109.863
1532281385.475,28.320,34.180,34.180,29.785,59.082
1532281385.479,27.344,39.062,31.738,24.902,155.273
1532281385.483,24.414,41.016,30.762,19.531,7.812
1532281385.487,22.461,41.504,31.250,20.020,-120.117
1532281385.491,22.461,41.504,32.715,24.414,-1.465
1532281385.495,24.902,41.504,35.156,27.832,145.996
1532281385.499,23.438,38.086,37.598,28.320,90.332
1532281385.502,25.391,35.645,39.551,27.344,-99.609
1532281385.506,31.738,38.574,44.922,28.809,-76.172
1532281385.510,32.227,39.062,43.457,32.227,150.391
1532281385.514,27.344,41.504,40.527,29.297,142.578
1532281385.518,24.902,42.480,42.480,24.902,-77.637
1532281385.522,26.855,39.551,41.992,26.855,-93.262
1532281385.526,21.484,34.668,41.016,27.344,114.258
1532281385.530,21.973,27.832,42.480,26.367,153.809
1532281385.534,25.391,24.902,42.969,27.344,-48.828
1532281385.538,26.855,22.949,41.504,27.344,-125.977
1532281385.541,30.273,23.438,40.527,28.320,60.059
1532281385.545,29.785,24.902,40.039,24.414,165.039
1532281385.549,28.320,21.973,41.992,20.020,25.391
1532281385.553,30.762,19.531,42.969,21.973,-114.258
1532281385.557,30.273,19.531,43.457,26.367,5.859
1532281385.561,28.809,20.020,46.875,25.879,142.578
1532281385.565,26.367,18.555,44.922,21.973,48.340
1532281385.569,28.320,17.090,41.992,27.344,-107.422
1532281385.573,30.273,14.648,42.969,30.273,-56.152
1532281385.577,26.367,14.160,41.992,27.832,149.902
1532281385.581,24.902,12.207,44.922,25.391,140.625
1532281385.584,27.344,12.207,47.852,22.949,-69.336
1532281385.588,29.297,14.160,46.875,27.832,-107.422
1532281385.592,29.785,12.207,47.363,31.738,93.262
1532281385.596,29.785,12.695,45.898,31.738,161.133
1532281385.600,29.785,14.648,41.504,30.273,-16.602
1532281385.604,30.273,15.625,41.504,31.250,-114.746
1532281385.608,28.809,17.578,41.992,32.227,27.344
1532281385.612,30.273,17.090,41.992,32.715,178.223
1532281385.616,31.250,16.113,44.434,32.715,49.805
1532281385.620,27.344,15.625,44.922,28.809,-136.719
1532281385.624,25.879,13.184,42.969,24.902,-24.902
1532281385.627,30.273,15.625,42.480,27.832,168.945
1532281385.631,31.738,19.043,41.016,30.762,76.172
1532281385.635,32.227,18.555,43.945,31.738,-115.234
1532281385.639,35.645,17.578,42.969,35.156,-50.293
1532281385.643,34.668,20.996,43.945,34.668,132.324
1532281385.647,27.832,25.879,46.387,29.297,144.043
1532281385.651,21.973,24.414,44.922,26.367,-27.344
1532281385.655,20.508,24.414,45.898,28.320,-85.938
1532281385.659,16.602,26.367,46.387,28.320,102.051
1532281385.663,17.578,26.855,48.828,29.297,182.129
1532281385.666,22.461,28.809,50.293,31.250,21.484
1532281385.670,23.438,29.785,46.387,32.715,-114.746
1532281385.674,26.367,30.762,48.828,34.668,1.465
1532281385.678,27.344,33.691,49.805,33.691,167.969
1532281385.682,28.320,36.133,48.340,33.691,48.340
1532281385.686,30.273,35.156,47.363,31.250,-114.258
1532281385.690,28.809,35.156,48.340,31.250,-17.090
1532281385.694,27.344,34.668,49.805,31.738,167.480
1532281385.698,30.273,34.668,49.316,32.227,140.625
1532281385.702,28.320,37.598,47.852,27.832,-98.145
1532281385.706,24.414,38.086,45.410,21.484,-104.980
1532281385.709,23.926,39.062,45.410,27.832,140.625
1532281385.713,26.855,38.574,49.805,34.668,164.551
1532281385.717,30.273,36.133,54.688,39.551,-28.809
1532281385.721,26.367,34.180,51.758,36.133,-109.863
1532281385.725,25.391,34.180,49.805,26.855,27.344
1532281385.729,33.203,39.062,50.293,34.668,155.273
1532281385.733,36.133,39.551,48.340,39.551,21.973
1532281385.737,33.691,37.598,48.828,38.086,-109.863
1532281385.741,33.203,35.645,51.270,36.621,18.066
1532281385.745,30.762,36.621,49.316,33.691,171.387
1532281385.749,31.250,36.133,45.898,33.691,83.984
1532281385.752,32.227,35.645,46.875,33.691,-107.910
1532281385.756,30.762,34.180,45.410,34.180,-40.039
1532281385.760,31.250,31.250,45.410,36.133,143.066
1532281385.764,34.668,32.715,46.875,37.598,118.652
1532281385.768,38.086,32.715,47.852,37.598,-72.754
1532281385.772,39.062,28.809,48.340,41.016,-118.652
1532281385.776,35.645,24.902,48.340,43.945,73.242
1532281385.780,32.715,24.902,49.316,38.574,160.645
1532281385.784,33.203,26.855,52.246,31.250,-50.781
1532281385.788,32.227,25.879,51.270,31.738,-173.828
1532281385.791,29.785,26.855,48.828,33.691,25.879
1532281385.795,29.785,23.926,50.781,29.785,157.715
1532281385.799,30.273,24.414,49.316,29.297,22.949
1532281385.803,31.738,29.297,46.387,31.250,-137.695
1532281385.807,34.668,28.809,49.316,35.645,-31.738
1532281385.811,29.297,27.832,52.246,36.133,191.406
1532281385.815,23.926,27.832,52.734,30.762,121.582
1532281385.819,26.855,27.344,49.316,30.762,-89.844
1532281385.823,31.738,28.320,45.898,35.645,-84.473
1532281385.827,31.738,27.344,47.363,37.109,117.188
1532281385.831,31.250,28.320,45.410,34.180,151.367
1532281385.834,30.273,30.273,43.457,30.762,-62.500
1532281385.838,25.879,27.832,42.969,30.762,-95.215
1532281385.842,28.320,28.809,42.969,29.785,86.426
1532281385.846,29.785,30.762,44.434,27.344,140.137
1532281385.850,25.391,27.344,44.434,29.297,-21.484
1532281385.854,24.902,25.391,45.410,31.250,-125.488
1532281385.858,25.879,25.879,43.945,32.227,33.203
1532281385.862,25.879,25.879,41.504,25.391,154.297
1532281385.866,29.297,25.879,41.016,23.926,39.062
1532281385.870,30.762,25.391,41.016,32.227,-116.211
1532281385.873,28.320,24.902,42.480,33.691,-11.719
1532281385.877,32.715,24.414,43.945,36.621,188.477
1532281385.881,34.180,23.438,41.992,35.156,97.656
1532281385.885,32.227,23.926,41.992,30.762,-99.121
1532281385.889,36.133,25.879,42.969,35.645,-70.801
1532281385.893,38.574,26.367,41.504,36.621,140.625
1532281385.897,36.621,28.809,39.062,33.203,163.086
1532281385.901,37.109,31.738,38.574,30.762,-22.461
1532281385.905,35.156,31.250,39.551,28.320,-84.961
1532281385.909,32.715,31.738,38.574,31.738,64.941
1532281385.913,31.250,29.785,38.574,32.715,173.340
1532281385.916,31.250,29.297,43.945,32.715,20.508
1532281385.920,31.738,29.297,47.363,34.668,-115.723
1532281385.924,28.809,25.391,45.410,29.297,10.742
1532281385.928,32.227,25.391,45.898,30.273,175.293
1532281385.932,30.762,25.879,47.363,34.668,84.961
1532281385.936,28.320,27.344,46.387,28.809,-95.215
1532281385.940,34.180,29.785,48.828,30.762,-32.227
1532281385.944,31.250,29.297,49.805,35.156,166.016
1532281385.948,35.645,32.715,48.340,35.156,125.000
1532281385.952,40.039,34.180,48.828,32.715,-91.309
1532281385.956,32.715,30.273,50.781,31.738,-82.031
1532281385.959,28.809,28.320,52.734,30.762,108.398
1532281385.963,29.785,31.250,52.246,26.367,125.000
1532281385.967,26.855,32.227,51.758,23.438,-72.754
1532281385.971,23.926,28.809,51.758,28.809,-109.375
1532281385.975,27.344,26.367,53.223,36.133,76.660
1532281385.979,30.762,29.297,53.711,38.086,177.734
1532281385.983,34.180,31.738,54.199,34.668,37.598
1532281385.987,33.203,28.809,53.711,32.715,-109.375
1532281385.991,31.250,26.855,50.781,35.156,-2.441
1532281385.995,29.785,30.273,54.199,35.645,172.852
1532281385.998,26.855,32.715,57.129,33.691,107.910
1532281386.002,25.391,31.250,54.688,29.297,-91.797
1532281386.006,25.879,29.785,53.223,28.809,-51.758
1532281386.010,24.414,31.250,51.270,27.832,134.766
1532281386.014,22.949,32.715,51.758,26.855,114.746
1532281386.018,27.344,29.785,50.293,31.250,-74.219
1532281386.022,32.227,30.273,49.805,32.227,-128.418
1532281386.026,33.691,32.715,52.734,29.785,39.551
1532281386.030,31.738,32.715,49.316,31.738,147.461
1532281386.034,32.227,31.250,49.316,34.668,-41.016
1532281386.038,28.809,29.785,50.781,36.621,-144.043
1532281386.041,26.367,26.855,49.316,36.621,37.598
1532281386.045,31.250,26.855,52.246,36.133,175.293
1532281386.049,34.180,31.250,52.734,35.156,41.016
1532281386.053,31.738,32.715,50.781,31.250,-147.461
1532281386.057,30.273,32.227,49.805,32.715,-25.879
1532281386.061,32.715,32.715,49.805,34.180,166.504
1532281386.065,30.762,34.180,51.758,25.391,77.637
1532281386.069,27.344,32.715,49.316,21.973,-109.863
1532281386.073,27.832,29.785,45.898,25.879,-69.336
1532281386.077,31.250,29.785,46.387,31.250,129.395
1532281386.081,31.738,30.762,45.898,31.250,147.461
1532281386.084,27.832,30.273,45.898,24.902,-36.133
1532281386.088,24.902,30.762,44.922,23.438,-96.191
1532281386.092,24.902,30.273,43.945,27.832,63.965
1532281386.096,23.926,30.273,43.457,25.879,159.180
1532281386.100,23.926,31.250,42.480,24.902,11.230
1532281386.104,25.391,31.250,44.434,21.484,-152.344
1532281386.108,26.855,29.297,47.363,20.508,-10.254
1532281386.112,28.809,28.809,49.316,27.832,187.012
1532281386.116,29.297,29.785,48.828,30.762,74.219
1532281386.120,29.297,29.297,47.363,28.320,-106.445
1532281386.123,27.832,28.809,49.805,28.320,-41.992
1532281386.127,27.832,28.809,48.828,32.715,164.551
1532281386.131,28.809,30.273,47.852,31.738,141.113
1532281386.135,25.879,29.297,48.828,28.320,-70.312
1532281386.139,22.949,27.344,46.387,27.832,-77.148
1532281386.143,22.461,24.902,47.363,28.320,115.723
1532281386.147,23.926,23.926,49.805,25.879,168.945
1532281386.151,30.273,28.809,47.363,27.344,-29.785
1532281386.155,35.645,33.691,45.410,31.250,-112.305
1532281386.159,39.551,31.738,45.410,31.738,77.637
1532281386.163,38.086,29.785,42.480,22.461,167.969
1532281386.166,35.156,30.762,43.457,12.207,-2.441
1532281386.170,39.551,30.273,43.945,16.602,-114.746
1532281386.174,41.016,30.273,40.039,21.973,30.762
1532281386.178,37.109,29.297,37.598,24.414,197.754
1532281386.182,32.715,29.785,41.992,26.855,83.984
1532281386.186,27.344,28.809,44.434,29.297,-115.723
1532281386.190,22.949,25.391,41.992,34.668,-46.875
1532281386.194,21.973,26.367,42.969,37.109,145.020
1532281386.198,21.973,25.879,41.992,34.180,145.020
1532281386.202,24.902,25.391,41.992,32.227,-64.941
1532281386.205,26.367,26.855,40.039,30.762,-119.141
1532281386.209,24.414,26.855,39.062,30.762,104.492
1532281386.213,26.367,25.391,41.504,33.203,175.781
1532281386.217,27.344,26.855,42.969,33.691,-30.273
1532281386.221,24.902,32.227,44.434,31.738,-112.305
1532281386.225,21.484,33.203,43.945,27.344,90.332
1532281386.229,19.043,27.344,40.039,26.367,201.172
1532281386.233,20.020,27.832,40.527,23.926,36.621
1532281386.237,19.043,31.738,41.992,19.043,-92.285
1532281386.241,18.066,30.762,41.504,19.531,3.418
1532281386.245,25.391,32.227,38.574,22.461,124.023
1532281386.248,30.273,33.203,33.203,25.879,83.984
1532281386.252,24.902,33.203,34.668,26.367,-81.055
1532281386.256,22.461,35.156,37.109,22.461,-54.688
1532281386.260,20.996,35.156,38.086,22.461,154.297
1532281386.264,18.555,34.180,41.016,20.996,143.066
1532281386.268,20.996,35.156,42.480,18.555,-69.336
1532281386.272,23.438,33.203,41.504,20.020,-107.422
1532281386.276,26.367,34.180,40.039,22.949,87.891
1532281386.280,26.855,36.621,39.551,24.902,165.527
1532281386.284,22.949,34.668,41.016,22.949,-18.555
1532281386.288,23.926,35.645,41.504,21.484,-132.812
1532281386.291,29.297,36.621,39.062,24.902,34.668
1532281386.295,29.785,36.133,37.598,27.832,170.410
1532281386.299,23.926,35.156,38.574,24.902,28.809
1532281386.303,23.926,36.133,42.969,19.531,-154.297
1532281386.307,28.320,41.504,41.992,23.926,-52.734
1532281386.311,30.762,41.016,37.109,28.320,163.086
1532281386.315,29.297,36.621,37.109,27.344,104.004
1532281386.319,22.461,36.621,39.551,24.414,-83.008
1532281386.323,21.973,36.621,38.574,18.555,-90.332
1532281386.327,23.438,34.180,40.039,15.625,86.914
1532281386.330,20.020,33.203,41.016,19.531,161.133
1532281386.334,26.855,35.156,37.109,23.438,-19.531
1532281386.338,32.715,34.180,33.203,27.832,-99.609
1532281386.342,28.809,35.156,35.156,27.344,50.293
1532281386.346,28.320,37.109,38.086,24.414,144.531
1532281386.350,22.949,35.156,39.551,24.414,18.066
1532281386.354,18.066,32.227,40.527,26.367,-97.656
1532281386.358,24.414,33.203,39.062,30.273,40.039
1532281386.362,31.250,36.133,38.574,31.738,182.129
1532281386.366,29.297,38.574,38.574,29.297,72.266
1532281386.370,26.367,38.086,39.551,27.832,-100.098
1532281386.373,23.926,33.203,38.574,25.391,6.348
1532281386.377,23.438,33.203,36.133,26.855,189.453
1532281386.381,28.809,35.645,36.133,28.809,127.441
1532281386.385,31.250,34.668,36.133,23.926,-113.770
1532281386.389,27.832,38.086,33.203,26.367,-107.422
1532281386.393,27.832,40.527,31.250,30.762,147.949
1532281386.397,27.832,34.180,33.203,28.809,173.828
1532281386.401,28.320,36.133,32.715,26.367,-30.762
1532281386.405,32.227,39.062,30.762,30.273,-104.492
1532281386.409,32.227,35.645,30.273,34.668,65.918
1532281386.413,30.273,35.645,32.227,31.738,186.523
1532281386.416,27.832,35.156,33.691,26.855,60.059
1532281386.420,24.414,35.645,30.273,25.391,-109.375
1532281386.424,25.391,39.551,28.320,24.902,-20.996
1532281386.428,25.879,39.551,29.785,22.949,163.574
1532281386.432,25.879,38.574,32.227,21.973,89.844
1532281386.436,27.832,38.086,32.715,21.484,-119.629
1532281386.440,26.855,38.574,30.762,24.414,-72.266
1532281386.444,25.879,39.551,32.227,20.508,115.723
1532281386.448,28.320,38.574,34.180,20.996,112.305
1532281386.452,28.320,37.598,33.691,32.227,-43.457
1532281386.455,31.250,34.668,32.715,36.133,-82.520
1532281386.459,29.785,32.715,33.691,38.086,106.934
1532281386.463,23.926,32.715,35.156,34.180,166.504
1532281386.467,21.973,34.180,34.668,28.320,-22.949
1532281386.471,22.461,33.203,35.156,30.762,-133.789
1532281386.475,25.879,32.227,34.180,34.180,37.598
1532281386.479,27.832,35.156,32.715,31.738,181.641
1532281386.483,25.391,35.645,34.668,25.391,20.996
1532281386.487,25.391,34.180,36.133,23.438,-130.859
1532281386.491,24.902,31.738,37.598,27.344,10.742
1532281386.495,25.391,30.762,39.062,30.762,176.270
1532281386.498,23.926,30.273,38.574,30.762,100.098
1532281386.502,25.391,32.715,38.574,27.832,-95.703
1532281386.506,27.832,31.250,38.574,29.297,-92.773
1532281386.510,28.809,26.367,37.598,36.133,125.000
1532281386.514,34.668,27.832,37.109,36.133,166.992
1532281386.518,33.691,31.250,37.109,33.203,-42.969
1532281386.522,27.832,31.738,37.598,28.320,-154.297
1532281386.526,27.832,31.250,36.133,26.367,9.766
1532281386.530,25.879,29.297,34.180,30.762,151.855
1532281386.534,22.461,27.344,36.621,27.344,-25.879
1532281386.538,24.902,29.785,38.574,26.367,-130.859
1532281386.541,31.250,32.227,38.086,31.738,26.855
1532281386.545,35.156,36.621,36.621,32.227,177.246
1532281386.549,34.668,41.016,35.156,29.297,76.660
1532281386.553,26.855,37.109,34.668,27.832,-105.469
1532281386.557,27.344,34.180,33.691,28.809,1.465
1532281386.561,31.738,34.180,34.180,31.738,171.387
1532281386.565,26.855,32.227,34.180,28.320,117.676
1532281386.569,24.414,33.691,34.180,23.926,-62.012
1532281386.573,28.320,36.133,33.691,25.391,-73.730
1532281386.577,28.320,31.738,32.715,28.320,106.445
1532281386.580,23.438,27.832,34.668,26.367,139.160
1532281386.584,23.438,30.273,37.109,17.578,-61.035
1532281386.588,22.461,30.273,37.109,18.066,-122.559
1532281386.592,23.438,29.297,38.086,25.879,91.309
1532281386.596,27.832,27.344,39.062,31.738,191.895
1532281386.600,27.832,29.785,32.227,28.320,8.789
1532281386.604,25.391,35.645,26.855,21.484,-113.770
1532281386.608,22.461,34.668,27.832,21.484,6.836
1532281386.612,15.137,33.203,28.809,18.555,166.992
1532281386.616,13.672,31.738,31.738,16.602,101.074
1532281386.620,12.695,31.738,31.738,16.113,-98.145
1532281386.623,6.836,31.738,30.762,10.742,-89.355
1532281386.627,9.766,30.273,30.762,11.719,109.375
1532281386.631,12.207,30.273,32.715,18.066,128.418
1532281386.635,15.625,31.738,33.691,20.508,-71.289
1532281386.639,22.949,32.715,31.250,24.414,-90.820
1532281386.643,24.902,31.738,28.320,24.414,93.750
1532281386.647,25.879,34.180,26.855,20.996,155.273
1532281386.651,22.949,34.180,28.320,19.531,6.836
1532281386.655,20.508,31.250,31.250,19.531,-85.449
1532281386.659,27.344,31.738,33.203,25.879,50.781
1532281386.662,26.367,31.250,32.715,25.879,173.340
1532281386.666,19.531,30.762,32.715,17.090,41.504
1532281386.670,16.113,30.762,34.180,16.602,-118.652
1532281386.674,18.555,33.691,34.180,24.902,-12.207
1532281386.678,26.855,33.203,32.227,30.762,155.273
1532281386.682,23.926,32.715,32.715,23.926,60.547
1532281386.686,20.508,33.203,34.180,17.090,-124.512
1532281386.690,20.508,31.250,34.180,21.484,-57.129
1532281386.694,19.531,32.715,31.250,25.879,136.230
1532281386.698,21.484,35.645,28.320,24.902,156.250
1532281386.702,22.461,37.109,28.320,21.973,-29.297
1532281386.705,20.020,37.109,27.832,18.555,-99.609
1532281386.709,20.508,36.133,30.273,19.531,110.352
1532281386.713,23.438,36.621,31.250,21.973,208.984
1532281386.717,22.949,40.039,29.297,20.020,9.766
1532281386.721,23.438,41.504,27.344,20.508,-125.000
1532281386.725,23.926,40.527,31.738,21.973,4.395
1532281386.729,19.531,38.086,38.086,22.949,182.129
1532281386.733,18.066,35.645,37.109,22.949,71.777
1532281386.737,17.578,35.645,38.574,20.996,-113.281
1532281386.741,17.090,33.203,39.062,21.973,-28.320
1532281386.745,22.461,31.738,39.062,24.902,149.414
1532281386.748,26.367,35.645,37.598,20.996,147.461
1532281386.752,26.367,38.086,33.203,19.043,-58.594
1532281386.756,26.855,38.574,34.180,25.391,-64.941
1532281386.760,25.391,37.109,36.621,28.320,127.930
1532281386.764,25.391,33.691,35.156,21.484,151.855
1532281386.768,25.391,34.668,35.156,19.043,-28.320
1532281386.772,28.809,34.180,34.180,27.344,-96.680
1532281386.776,30.762,34.180,31.738,27.832,83.984
1532281386.780,29.785,35.645,32.715,26.855,194.336
1532281386.784,25.391,33.691,35.645,23.438,14.648
1532281386.787,26.855,31.738,34.668,24.414,-124.023
1532281386.791,35.156,32.715,34.180,33.691,32.715
1532281386.795,34.668,33.203,33.691,35.645,195.801
1532281386.799,32.227,33.203,31.250,34.180,92.773
1532281386.803,26.367,34.180,33.203,27.832,-105.957
1532281386.807,25.391,33.203,30.762,23.926,-58.594
1532281386.811,27.832,28.809,29.785,29.297,146.973
1532281386.815,24.414,27.832,30.762,27.832,151.855
1532281386.819,23.438,26.367,28.809,24.414,-55.176
1532281386.823,23.926,24.902,31.738,25.879,-78.125
1532281386.827,26.367,28.320,31.250,30.762,135.742
1532281386.830,29.785,29.297,27.832,30.273,150.391
1532281386.834,31.250,26.367,31.250,30.273,-53.223
1532281386.838,32.715,23.438,30.762,30.762,-113.281
1532281386.842,29.785,26.855,28.320,27.832,45.898
1532281386.846,29.785,27.832,25.879,26.855,173.340
1532281386.850,31.738,23.926,25.391,28.809,41.504
1532281386.854,31.738,24.902,29.297,32.227,-104.004
1532281386.858,32.227,28.320,27.344,32.227,40.527
1532281386.862,34.180,27.344,28.809,32.227,198.242
1532281386.866,36.133,27.344,32.227,31.250,59.082
1532281386.870,35.156,27.344,31.250,29.785,-146.973
1532281386.873,33.203,26.367,31.738,31.250,-66.406
1532281386.877,28.320,24.902,32.227,27.832,154.785
1532281386.881,27.344,25.391,31.250,23.926,140.137
1532281386.885,31.738,24.414,28.809,23.926,-67.383
1532281386.889,33.691,20.020,33.203,30.762,-71.289
1532281386.893,34.668,20.020,34.180,39.551,103.027
1532281386.897,35.156,23.926,29.785,39.062,155.273
1532281386.901,37.109,26.855,29.785,35.645,-13.184
1532281386.905,38.574,27.832,32.715,29.785,-143.555
1532281386.909,34.180,27.344,32.227,29.297,41.016
1532281386.912,32.715,27.344,28.809,32.715,201.660
1532281386.916,33.691,26.855,28.320,31.738,48.828
1532281386.920,35.645,30.273,28.320,29.297,-122.070
1532281386.924,38.574,30.762,29.785,27.832,-33.691
1532281386.928,31.250,26.367,31.738,29.785,168.457
1532281386.932,23.926,25.391,30.762,27.832,126.465
1532281386.936,24.902,25.391,32.227,24.902,-79.590
1532281386.940,31.250,24.902,33.203,30.762,-80.566
1532281386.944,36.133,26.367,31.250,34.668,87.402
1532281386.948,31.250,26.367,31.250,30.762,134.277
1532281386.952,28.809,25.879,32.715,27.344,-41.016
1532281386.955,31.738,25.391,32.715,25.391,-113.281
1532281386.959,36.621,24.902,30.762,22.949,69.824
1532281386.963,44.922,26.367,29.785,19.043,174.805
1532281386.967,46.387,25.879,28.320,14.648,14.160
1532281386.971,45.410,26.367,30.273,16.602,-121.094
1532281386.975,46.387,29.785,32.715,25.879,16.602
1532281386.979,41.504,29.297,35.156,34.668,187.500
1532281386.983,33.203,27.344,38.086,36.621,61.523
1532281386.987,28.809,29.297,39.551,37.598,-129.395
1532281386.991,28.809,33.691,40.527,40.039,-21.973
1532281386.994,28.320,34.180,38.086,39.062,164.062
1532281386.998,26.855,34.180,42.480,39.551,111.816
1532281387.002,26.367,36.621,45.410,38.574,-102.539
1532281387.006,24.902,36.133,43.945,35.645,-123.047
1532281387.010,28.320,37.109,44.434,38.574,107.910
1532281387.014,35.156,39.062,45.898,41.992,157.227
1532281387.018,41.992,40.527,46.875,45.898,-24.414
1532281387.022,40.527,40.527,49.805,42.480,-86.914
1532281387.026,39.062,39.551,50.293,35.645,77.637
1532281387.030,40.039,41.016,48.340,35.645,169.434
1532281387.034,39.551,40.527,48.828,36.133,10.742
1532281387.037,40.039,41.504,50.293,35.645,-115.723
1532281387.041,36.133,41.504,50.781,31.738,-10.742
1532281387.045,35.156,40.527,47.852,20.996,127.930
1532281387.049,39.062,41.992,47.852,26.367,31.738
1532281387.053,42.480,42.480,51.270,38.574,-124.512
1532281387.057,45.410,41.992,51.758,42.969,-44.922
1532281387.061,46.387,43.945,52.734,47.363,127.441
1532281387.065,50.781,46.875,55.176,46.875,125.977
1532281387.069,50.293,47.363,53.223,39.062,-49.805
1532281387.073,44.434,48.340,51.270,36.621,-79.590
1532281387.077,41.504,47.363,53.711,36.133,103.516
1532281387.080,40.039,46.875,55.664,34.668,150.879
1532281387.084,38.086,48.828,55.664,30.273,-57.129
1532281387.088,36.133,46.387,54.199,27.832,-134.277
1532281387.092,41.016,45.898,52.734,36.621,76.172
1532281387.096,48.828,48.828,52.734,43.945,201.660
1532281387.100,47.852,47.852,54.199,42.969,43.457
1532281387.104,47.852,48.340,52.734,44.922,-133.789
1532281387.108,54.688,48.828,51.758,53.711,-2.930
1532281387.112,50.781,46.387,50.293,50.293,187.988
1532281387.116,44.434,46.387,49.805,41.992,113.281
1532281387.119,43.945,49.805,52.246,40.527,-88.867
1532281387.123,40.039,47.852,52.246,40.039,-84.473
1532281387.127,39.062,44.922,50.781,39.062,115.723
1532281387.131,41.992,46.875,52.246,40.527,139.648
1532281387.135,42.480,45.410,53.223,38.574,-58.105
1532281387.139,40.039,43.945,51.758,39.551,-101.074
1532281387.143,36.621,46.387,50.781,38.086,71.777
1532281387.147,38.086,50.293,49.316,35.156,138.672
1532281387.151,43.457,47.363,47.852,41.016,-24.414
1532281387.155,49.316,44.922,49.316,47.852,-129.883
1532281387.159,50.293,46.387,47.363,47.852,33.203
1532281387.162,47.363,46.875,46.875,43.457,171.387
1532281387.166,44.922,46.875,46.875,40.039,28.320
1532281387.170,44.434,46.387,44.434,39.551,-144.043
1532281387.174,41.992,47.363,45.410,37.109,-42.480
1532281387.178,39.551,47.363,45.898,37.109,175.293
1532281387.182,38.574,51.270,44.434,32.715,96.191
1532281387.186,43.457,50.293,44.434,29.297,-108.398
1532281387.190,44.922,47.363,43.457,34.668,-41.992
1532281387.194,38.574,45.898,43.457,36.133,161.621
1532281387.198,39.551,43.945,42.480,38.574,163.086
1532281387.202,49.316,44.922,41.504,42.969,-35.156
1532281387.205,52.734,45.410,43.457,46.875,-78.613
1532281387.209,48.340,42.969,41.504,45.410,69.824
1532281387.213,45.410,40.527,39.551,41.504,151.367
1532281387.217,46.387,39.062,42.480,41.504,22.461
1532281387.221,46.875,39.551,41.992,41.504,-107.910
1532281387.225,42.480,40.527,40.039,34.180,-6.348
1532281387.229,39.551,43.457,37.598,32.227,145.020
1532281387.233,38.086,45.410,36.621,35.156,71.777
1532281387.237,38.574,41.016,37.598,33.203,-93.750
1532281387.241,37.598,38.574,39.551,33.691,-56.152
1532281387.244,35.156,40.039,40.527,33.691,135.254
1532281387.248,32.715,39.062,38.574,31.738,120.117
1532281387.252,31.738,37.109,39.062,31.250,-75.684
1532281387.256,32.227,36.621,41.992,33.203,-63.965
1532281387.260,36.133,38.574,43.457,43.457,122.559
1532281387.264,36.621,41.992,43.945,44.922,142.090
1532281387.268,38.086,44.434,42.969,44.922,-33.203
1532281387.272,41.992,41.992,41.016,48.340,-123.535
1532281387.276,39.062,40.039,38.086,44.922,40.039
1532281387.280,38.574,39.551,38.574,44.922,197.754
1532281387.284,40.039,39.551,39.551,42.969,37.109
1532281387.287,40.039,41.016,40.527,39.062,-109.863
1532281387.291,37.109,39.551,38.574,41.992,17.090
1532281387.295,33.203,38.574,38.086,43.945,192.383
1532281387.299,37.598,39.551,40.039,46.387,139.648
1532281387.303,39.551,41.504,40.039,46.387,-73.242
1532281387.307,34.668,41.504,38.574,40.527,-43.457
1532281387.311,35.645,40.039,37.109,39.551,149.902
1532281387.315,39.062,41.016,37.109,41.992,125.977
1532281387.319,40.527,41.016,37.109,42.969,-49.316
1532281387.323,39.062,39.551,34.668,34.668,-85.449
1532281387.326,38.086,41.016,37.109,31.250,93.750
1532281387.330,37.598,39.551,39.551,38.574,166.016
1532281387.334,36.621,34.180,36.133,38.086,20.508
1532281387.338,37.109,33.203,33.203,37.598,-63.965
1532281387.342,38.574,33.691,32.227,38.086,51.270
1532281387.346,36.133,33.691,29.297,36.133,161.621
1532281387.350,34.180,32.715,27.344,35.156,54.199
1532281387.354,34.180,31.738,26.367,33.691,-104.004
1532281387.358,32.715,30.273,25.391,33.691,-20.508
1532281387.362,31.250,31.250,26.855,32.227,159.180
1532281387.366,27.344,31.738,27.344,23.438,80.078
1532281387.369,26.367,30.762,24.902,23.926,-99.121
1532281387.373,26.855,28.320,23.926,29.785,-83.984
1532281387.377,25.391,24.902,23.926,28.809,117.676
1532281387.381,22.949,24.414,22.461,20.996,143.555
1532281387.385,21.973,25.879,23.926,17.578,-62.500
1532281387.389,24.902,25.879,22.949,23.438,-110.352
1532281387.393,25.879,25.879,20.508,25.391,56.641
1532281387.397,24.902,28.320,20.996,24.902,141.602
1532281387.401,24.414,28.320,23.438,22.461,-20.020
1532281387.405,23.438,28.809,22.949,19.531,-156.250
1532281387.409,22.949,30.273,21.484,21.973,3.418
1532281387.412,19.043,27.832,22.949,21.973,168.945
1532281387.416,18.066,25.879,23.926,20.020,82.520
1532281387.420,23.926,28.320,23.438,21.973,-95.215
1532281387.424,24.414,28.320,20.996,21.484,-71.777
1532281387.428,23.438,26.855,19.531,22.461,123.535
1532281387.432,24.414,25.391,22.949,25.879,111.816
1532281387.436,23.926,26.367,23.926,23.926,-65.430
1532281387.440,27.344,28.320,23.926,29.297,-53.711
1532281387.444,27.344,29.297,21.484,30.762,111.816
1532281387.448,25.391,28.320,19.531,23.438,147.949
1532281387.451,24.414,26.855,19.531,20.508,-20.508
1532281387.455,24.414,29.297,19.043,22.949,-132.812
1532281387.459,30.273,29.785,20.020,27.344,56.641
1532281387.463,29.297,29.297,18.555,22.949,165.527
1532281387.467,24.414,29.297,18.066,18.066,-16.113
1532281387.471,21.484,28.809,19.531,20.020,-129.883
1532281387.475,20.996,30.273,20.508,21.973,0.000
1532281387.479,23.926,28.809,18.555,22.949,188.477
1532281387.483,22.949,29.785,17.090,21.973,100.098
1532281387.487,19.531,31.738,19.043,23.926,-83.984
1532281387.491,23.926,33.203,17.090,27.832,-27.832
1532281387.494,32.227,34.668,18.555,29.297,155.273
1532281387.498,34.668,32.715,19.531,28.809,129.883
1532281387.502,33.203,30.273,18.066,25.391,-77.637
1532281387.506,35.156,29.785,20.508,26.855,-98.633
1532281387.510,33.691,29.297,21.484,30.762,100.586
1532281387.514,30.762,28.809,22.461,28.809,160.645
1532281387.518,31.250,28.809,24.414,28.320,-8.301
1532281387.522,33.691,31.738,24.414,30.762,-119.629
1532281387.526,32.715,31.738,23.438,24.902,9.766
1532281387.530,31.738,32.715,19.531,21.973,164.062
1532281387.534,30.273,37.109,17.090,23.926,41.992
1532281387.537,32.715,36.621,17.578,25.391,-92.285
1532281387.541,38.086,35.645,17.578,27.344,13.184
1532281387.545,35.156,34.668,19.043,22.949,162.598
1532281387.549,33.203,31.738,22.949,23.438,94.727
1532281387.553,34.668,32.715,26.855,25.391,-118.652
1532281387.557,38.086,31.250,27.832,25.879,-83.008
1532281387.561,38.086,28.809,25.879,28.809,129.395
1532281387.565,38.574,29.785,27.344,27.832,108.398
1532281387.569,38.086,34.180,28.809,27.832,-85.938
1532281387.573,36.133,39.062,28.320,30.762,-88.867
1532281387.576,37.598,35.645,29.297,31.738,102.539
1532281387.580,37.109,33.691,29.785,31.738,182.617
1532281387.584,34.668,33.691,29.785,25.879,10.254
1532281387.588,35.156,31.738,29.297,24.902,-101.562
1532281387.592,35.645,31.250,27.832,27.344,45.898
1532281387.596,34.180,29.297,27.832,24.414,172.852
1532281387.600,34.180,26.367,27.832,26.367,63.477
1532281387.604,39.062,27.832,29.785,28.809,-109.863
1532281387.608,38.574,30.273,31.250,29.785,-20.996
1532281387.612,36.621,30.762,27.832,35.156,145.996
1532281387.616,37.598,32.715,27.344,36.621,92.773
1532281387.619,40.527,34.668,30.273,37.109,-77.637
1532281387.623,43.945,34.180,32.715,39.551,-70.801
1532281387.627,41.016,35.156,30.273,40.039,122.559
1532281387.631,40.039,34.668,29.785,40.527,135.254
1532281387.635,40.039,34.180,29.785,37.598,-41.016
1532281387.639,38.574,31.738,28.809,33.203,-89.355
1532281387.643,40.527,31.250,27.832,36.621,51.758
1532281387.647,42.480,34.668,27.832,41.504,159.180
1532281387.651,37.109,37.598,31.738,38.086,24.902
1532281387.655,37.598,37.598,32.227,34.668,-105.469
1532281387.658,42.480,32.715,30.762,40.039,40.039
1532281387.662,42.969,32.227,30.273,41.992,168.945
1532281387.666,38.086,33.203,29.297,39.062,47.363
1532281387.670,34.668,32.715,28.320,36.621,-104.980
1532281387.674,33.691,33.691,28.809,34.668,-26.367
1532281387.678,35.645,32.715,30.762,38.086,162.598
1532281387.682,36.621,33.203,31.738,36.621,118.164
1532281387.686,35.645,34.668,32.227,32.715,-83.984
1532281387.690,36.621,33.691,31.738,34.180,-85.449
1532281387.694,36.621,37.109,29.297,35.156,110.352
1532281387.698,35.156,40.527,27.832,36.133,157.715
1532281387.701,35.645,40.527,28.320,35.156,-32.715
1532281387.705,34.668,40.039,29.297,31.738,-131.836
1532281387.709,34.180,39.062,26.855,37.598,66.406
1532281387.713,34.668,39.062,26.367,39.551,200.195
1532281387.717,37.109,37.598,28.320,40.039,42.480
1532281387.721,38.574,35.156,25.879,37.109,-118.164
1532281387.725,38.086,36.621,24.902,31.738,-1.953
1532281387.729,38.574,39.062,25.391,31.738,188.965
1532281387.733,41.504,41.992,22.949,27.832,95.215
1532281387.737,38.574,42.969,23.926,23.438,-110.352
1532281387.741,34.180,41.016,25.391,23.926,-65.918
1532281387.744,40.527,41.992,24.902,24.902,109.375
1532281387.748,50.781,43.457,26.367,26.367,122.070
1532281387.752,53.711,42.480,25.879,27.344,-42.969
1532281387.756,52.734,42.480,27.832,26.367,-73.242
1532281387.760,55.664,39.551,30.273,31.250,106.934
1532281387.764,53.223,37.109,27.344,36.621,158.691
1532281387.768,46.875,38.086,26.367,37.598,-4.883
1532281387.772,40.527,39.551,30.762,38.574,-105.469
1532281387.776,35.645,39.062,29.297,39.062,62.012
1532281387.780,31.250,37.109,23.926,36.621,208.984
1532281387.783,27.832,38.574,25.391,33.203,38.086
1532281387.787,29.297,38.574,27.344,34.180,-145.996
1532281387.791,31.250,37.598,26.855,38.086,-15.137
1532281387.795,31.738,37.598,27.832,37.598,173.340
1532281387.799,34.180,38.086,26.855,40.527,120.117
1532281387.803,35.156,36.621,25.879,36.133,-107.422
1532281387.807,35.645,32.715,28.809,29.785,-140.137
1532281387.811,34.180,32.227,31.738,34.668,117.676
1532281387.815,33.203,36.133,31.250,34.180,151.855
1532281387.819,33.203,38.574,30.273,28.809,-51.270
1532281387.823,35.156,36.133,31.738,28.320,-92.773
1532281387.826,38.574,35.645,33.203,33.691,83.496
1532281387.830,36.621,34.180,29.785,34.180,165.039
1532281387.834,40.527,32.715,28.320,34.180,13.672
1532281387.838,43.457,34.180,26.367,35.156,-119.141
1532281387.842,41.016,34.180,25.879,34.668,17.578
1532281387.846,40.039,32.227,32.227,36.621,159.668
1532281387.850,36.621,29.785,33.691,36.621,49.805
1532281387.854,36.133,29.297,32.227,36.133,-87.402
1532281387.858,37.109,29.785,32.715,39.551,-28.809
1532281387.862,33.203,30.273,29.297,35.156,133.789
1532281387.866,28.809,30.273,27.832,27.344,114.258
1532281387.869,27.832,27.832,30.273,26.855,-77.637
1532281387.873,25.391,28.809,29.297,25.391,-99.609
1532281387.877,24.902,29.785,25.879,23.438,94.727
1532281387.881,29.297,32.715,26.367,22.949,148.926
1532281387.885,29.297,34.668,25.391,18.066,-38.574
1532281387.889,30.273,31.738,25.391,19.531,-115.723
1532281387.893,32.715,28.809,27.344,23.926,76.660
1532281387.897,33.203,29.785,26.855,27.344,188.477
1532281387.901,36.621,31.250,27.832,32.227,22.949
1532281387.905,37.598,32.715,26.855,31.738,-110.840
1532281387.908,37.598,32.715,25.879,32.227,33.691
1532281387.912,38.086,31.738,27.344,34.668,205.566
1532281387.916,34.180,33.691,25.391,27.832,82.031
1532281387.920,32.227,33.691,24.902,24.902,-135.254
1532281387.924,31.250,33.203,26.855,25.879,-65.430
1532281387.928,29.785,30.273,26.367,25.391,152.344
1532281387.932,28.809,32.715,27.344,26.855,151.855
1532281387.936,32.227,35.156,27.832,30.273,-42.480
1532281387.940,33.203,31.738,26.367,32.227,-76.660
1532281387.944,34.180,31.250,26.367,29.297,93.750
1532281387.948,34.180,32.715,27.344,26.855,176.270
1532281387.951,34.668,35.156,27.832,29.297,2.930
1532281387.955,36.133,36.133,27.832,26.367,-114.258
1532281387.959,33.203,34.180,26.367,24.902,61.523
1532281387.963,35.156,35.645,27.832,27.344,168.945
1532281387.967,37.598,36.621,30.273,29.297,29.297
1532281387.971,36.133,35.156,28.320,28.809,-99.609
1532281387.975,38.574,36.133,25.879,29.297,3.418
1532281387.979,40.039,37.598,23.438,32.227,164.062
1532281387.983,37.598,37.598,22.949,29.297,71.777
1532281387.987,37.109,37.598,25.879,23.926,-133.789
1532281387.990,40.039,38.086,27.344,28.320,-72.266
1532281387.994,40.527,38.086,27.832,31.250,138.184
1532281387.998,39.551,37.598,29.297,31.738,131.836
1532281388.002,39.062,36.621,27.832,29.785,-86.426
1532281388.006,39.062,36.621,26.367,28.809,-114.746
1532281388.010,40.039,36.133,27.832,33.203,104.980
1532281388.014,41.504,35.645,28.320,34.180,164.062
1532281388.018,42.480,35.645,29.297,33.691,-12.207
1532281388.022,36.133,33.691,30.273,33.691,-114.258
1532281388.026,33.691,33.203,29.785,32.715,16.113
1532281388.030,34.180,34.668,28.809,34.180,176.270
1532281388.033,30.273,34.668,30.762,29.297,46.875
1532281388.037,30.762,38.086,30.273,28.320,-135.742
1532281388.041,33.691,36.621,28.809,31.738,-56.152
1532281388.045,35.645,34.180,30.273,32.715,138.184
1532281388.049,35.645,34.180,30.762,33.691,112.305
1532281388.053,32.227,32.715,28.809,31.738,-89.355
1532281388.057,34.180,35.645,28.320,32.227,-65.430
1532281388.061,38.574,39.551,31.250,35.645,137.207
1532281388.065,38.086,38.574,31.738,35.645,158.203
1532281388.069,36.621,38.086,32.227,34.180,-70.312
1532281388.073,32.715,37.109,32.715,34.180,-118.164
1532281388.076,29.297,35.645,31.250,31.738,83.984
1532281388.080,28.809,35.156,35.156,33.691,168.457
1532281388.084,30.273,35.645,38.574,28.320,-30.762
1532281388.088,28.320,34.668,34.180,28.320,-150.391
1532281388.092,26.367,32.715,33.691,38.086,22.461
1532281388.096,27.832,33.203,37.109,35.156,178.223
1532281388.100,26.855,32.227,37.598,33.691,81.055
1532281388.104,29.297,33.203,35.156,33.691,-101.074
1532281388.108,33.691,35.156,32.715,35.156,-28.320
1532281388.112,34.668,34.180,37.109,37.109,160.645
1532281388.115,30.762,32.715,39.551,31.250,118.652
1532281388.119,23.926,32.715,36.621,25.879,-71.289
1532281388.123,23.438,34.180,31.738,18.555,-98.145
1532281388.127,26.367,33.691,31.738,18.555,69.824
1532281388.131,28.320,30.762,31.250,24.902,139.160
1532281388.135,29.297,30.762,30.273,26.367,-20.996
1532281388.139,27.832,29.297,33.691,27.832,-111.816
1532281388.143,30.273,27.344,31.738,30.273,56.641
1532281388.147,33.691,29.785,28.809,35.156,178.711
1532281388.151,31.250,32.715,27.344,33.691,44.922
1532281388.155,30.273,31.250,27.344,29.785,-94.727
1532281388.158,35.645,31.250,28.320,34.180,-8.301
1532281388.162,37.598,31.738,26.855,32.227,152.344
1532281388.166,33.203,29.785,24.902,26.855,53.711
1532281388.170,31.250,29.785,27.344,32.715,-131.836
1532281388.174,35.156,31.738,31.250,37.598,-70.312
1532281388.178,37.598,33.203,28.809,38.574,115.723
1532281388.182,37.598,34.668,28.320,39.062,138.184
1532281388.186,32.715,32.715,28.320,38.574,-49.805
1532281388.190,30.762,30.273,26.367,37.109,-95.703
1532281388.194,33.203,30.273,27.832,39.062,107.422
1532281388.198,33.691,32.227,30.273,40.039,172.852
1532281388.201,38.086,33.691,30.762,39.062,-10.254
1532281388.205,41.504,35.645,29.297,40.527,-109.375
1532281388.209,39.551,37.598,27.832,41.992,33.691
1532281388.213,34.668,36.133,25.879,40.527,152.344
1532281388.217,32.227,35.156,26.367,37.109,33.203
1532281388.221,33.691,33.691,30.273,38.086,-126.953
1532281388.225,34.668,32.715,28.320,36.621,-35.645
1532281388.229,30.762,32.227,26.367,29.785,187.988
1532281388.233,25.391,32.715,26.855,28.320,117.188
1532281388.237,27.344,35.156,25.879,29.297,-100.586
1532281388.240,28.809,36.133,23.926,30.273,-59.570
1532281388.244,28.809,36.621,23.926,29.785,130.859
1532281388.248,26.855,37.598,25.391,28.809,149.414
1532281388.252,28.809,37.109,21.484,29.785,-54.199
1532281388.256,32.227,37.109,20.020,33.691,-111.328
1532281388.260,31.738,37.109,20.996,39.062,78.613
1532281388.264,31.738,36.621,20.020,33.203,162.598
1532281388.268,33.691,34.668,21.484,31.250,-23.926
1532281388.272,38.086,35.645,25.391,45.410,-129.395
1532281388.276,40.039,39.062,24.902,47.363,26.855
1532281388.280,38.574,40.527,20.996,41.504,201.660
1532281388.283,35.156,41.504,17.578,38.086,62.988
1532281388.287,34.180,42.480,19.043,37.109,-126.465
1532281388.291,35.156,41.016,24.414,40.527,-21.484
1532281388.295,31.738,37.598,22.949,40.527,164.551
1532281388.299,26.855,35.645,20.508,36.133,126.953
1532281388.303,29.297,36.621,21.973,35.156,-68.359
1532281388.307,38.574,36.621,21.973,38.574,-65.430
1532281388.311,40.527,33.691,21.973,42.480,123.535
1532281388.315,37.598,32.227,25.391,41.504,146.973
1532281388.319,37.109,31.738,29.297,38.574,-13.184
1532281388.322,37.598,32.227,27.344,33.203,-85.938
1532281388.326,36.621,30.273,24.414,31.738,62.500
1532281388.330,38.086,31.738,26.855,37.598,177.246
1532281388.334,39.551,34.180,28.320,37.109,40.527
1532281388.338,38.574,33.691,27.832,35.156,-93.750
1532281388.342,39.551,32.227,27.832,35.156,-18.066
1532281388.346,42.480,32.715,27.832,34.668,136.230
1532281388.350,41.016,33.691,27.832,33.691,107.910
1532281388.354,36.621,34.180,26.367,34.668,-60.059
1532281388.358,38.086,34.180,27.832,40.527,-37.598
1532281388.362,42.480,30.273,28.320,41.992,142.578
1532281388.365,41.504,32.227,25.879,35.156,137.207
1532281388.369,41.016,35.645,28.320,38.574,-62.500
1532281388.373,41.992,34.668,29.297,42.480,-74.219
1532281388.377,45.410,34.180,25.879,43.457,121.582
1532281388.381,46.875,35.156,27.344,40.527,160.645
1532281388.385,41.992,37.109,26.855,35.645,-3.418
1532281388.389,44.434,38.086,23.926,36.621,-100.586
1532281388.393,46.387,37.598,22.461,38.086,31.250
1532281388.397,41.504,35.645,25.879,38.574,170.898
1532281388.401,40.039,32.715,28.809,34.668,50.293
1532281388.405,42.969,31.738,27.832,27.344,-133.301
1532281388.408,41.016,31.738,27.832,27.344,-21.973
1532281388.412,40.527,32.715,27.344,33.691,176.758
1532281388.416,43.457,34.180,27.344,35.645,99.121
1532281388.420,44.922,35.156,30.762,36.621,-107.910
1532281388.424,44.434,36.133,31.738,41.504,-89.355
1532281388.428,40.527,32.227,32.715,43.945,134.766
1532281388.432,38.574,32.227,35.156,41.504,142.578
1532281388.436,41.992,34.668,35.156,41.016,-68.848
1532281388.440,45.410,33.691,33.691,44.922,-97.656
1532281388.444,47.363,35.156,32.227,41.992,85.449
1532281388.447,46.875,36.621,33.691,37.109,138.184
1532281388.451,42.969,32.227,36.133,37.598,-34.668
1532281388.455,40.039,30.762,36.133,37.109,-142.578
1532281388.459,41.992,32.715,37.109,39.551,19.043
1532281388.463,38.086,29.297,37.109,36.621,183.594
1532281388.467,37.598,28.320,35.645,34.180,28.809
1532281388.471,45.410,31.250,35.156,40.039,-134.766
1532281388.475,41.504,30.762,35.156,42.969,-18.066
1532281388.479,39.551,30.762,36.133,41.992,145.020
1532281388.483,42.969,32.227,38.086,42.480,107.422
1532281388.487,37.598,33.691,37.598,38.086,-91.797
1532281388.490,36.133,35.156,33.203,35.645,-86.914
1532281388.494,43.457,32.715,33.691,40.527,120.117
1532281388.498,44.922,29.297,37.598,43.945,177.246
1532281388.502,41.016,28.809,37.598,40.527,-23.926
1532281388.506,38.574,31.250,36.621,37.598,-129.395
1532281388.510,37.598,30.762,37.109,40.527,71.777
1532281388.514,38.086,32.227,37.598,39.062,177.246
1532281388.518,35.645,30.273,38.086,36.133,21.973
1532281388.522,35.156,25.879,38.086,36.621,-83.984
1532281388.526,37.109,25.391,38.574,35.645,42.969
1532281388.530,38.574,25.391,39.551,37.598,184.082
1532281388.533,37.598,26.367,41.016,39.551,82.520
1532281388.537,39.062,26.855,41.504,41.504,-79.102
1532281388.541,41.504,27.832,40.039,41.504,-13.672
1532281388.545,40.527,29.297,41.016,34.668,161.133
1532281388.549,40.527,30.273,41.504,33.691,141.602
1532281388.553,40.527,31.738,41.016,36.133,-61.035
1532281388.557,45.898,32.227,40.039,36.133,-74.707
1532281388.561,51.270,32.715,40.039,37.109,120.117
1532281388.565,48.828,32.227,39.062,34.668,184.570
1532281388.569,49.316,31.250,36.133,29.785,0.000
1532281388.572,50.293,30.273,35.645,27.344,-89.844
1532281388.576,51.270,26.367,37.109,31.250,73.730
1532281388.580,50.293,28.320,41.992,38.574,177.246
1532281388.584,40.527,29.297,45.898,32.227,6.348
1532281388.588,32.227,25.879,44.922,26.855,-135.742
1532281388.592,25.879,25.879,42.480,34.180,9.277
1532281388.596,25.391,27.832,41.504,38.086,169.434
1532281388.600,29.785,29.297,38.086,39.551,85.938
1532281388.604,32.715,30.762,35.156,42.480,-101.562
1532281388.608,32.227,28.809,36.621,40.527,-46.387
1532281388.612,29.785,28.809,38.086,35.645,139.648
1532281388.615,27.832,29.297,37.598,30.762,156.738
1532281388.619,28.320,26.855,37.598,25.879,-28.320
1532281388.623,33.691,27.832,38.086,25.391,-83.496
1532281388.627,33.691,28.809,37.109,28.320,101.074
1532281388.631,32.715,29.785,37.109,30.762,169.922
1532281388.635,32.227,33.203,43.457,31.250,-15.137
1532281388.639,31.738,32.715,41.992,30.273,-108.887
1532281388.643,37.598,32.227,38.574,34.668,24.902
1532281388.647,39.062,32.715,40.527,35.156,125.488
1532281388.651,37.109,32.715,41.016,35.156,37.598
1532281388.654,38.086,32.715,39.551,34.668,-92.773
1532281388.658,39.062,34.668,41.016,39.062,9.766
1532281388.662,38.574,35.645,41.504,43.945,175.781
1532281388.666,43.457,37.109,40.527,40.527,103.516
1532281388.670,46.387,37.598,40.527,41.504,-101.074
1532281388.674,43.945,35.645,41.504,42.480,-106.934
1532281388.678,41.992,34.668,45.410,44.922,104.004
1532281388.682,40.527,35.645,47.363,42.969,147.949
1532281388.686,38.574,34.668,46.387,34.668,-45.410
1532281388.690,37.109,31.250,41.504,33.691,-109.375
1532281388.694,37.109,30.762,41.992,35.645,81.543
1532281388.697,31.250,31.738,42.969,32.227,166.504
1532281388.701,28.809,32.227,40.527,29.297,18.555
1532281388.705,32.227,33.691,40.527,33.203,-107.910
1532281388.709,34.668,31.250,40.527,38.574,9.277
1532281388.713,37.598,32.715,41.016,38.574,173.340
1532281388.717,38.086,35.645,41.504,36.621,74.219
1532281388.721,38.574,34.668,38.574,36.621,-112.793
1532281388.725,39.551,36.133,36.621,30.762,-38.574
1532281388.729,36.621,34.180,36.621,31.250,149.414
1532281388.733,40.039,32.715,38.574,37.109,121.094
1532281388.737,41.016,36.133,38.574,36.133,-79.590
1532281388.740,36.621,34.668,37.109,36.133,-95.215
1532281388.744,35.156,33.691,37.109,37.109,81.543
1532281388.748,34.180,37.109,36.621,37.598,130.371
1532281388.752,35.645,37.109,37.109,37.598,-29.785
1532281388.756,38.574,37.109,37.109,37.109,-96.191
1532281388.760,35.156,38.574,36.621,39.062,85.938
1532281388.764,31.738,37.109,36.621,36.133,165.039
1532281388.768,32.227,36.621,37.109,34.668,20.996
1532281388.772,35.156,37.109,36.133,38.574,-99.609
1532281388.776,37.598,38.086,36.133,38.086,11.719
1532281388.779,33.691,37.598,36.133,34.180,191.895
1532281388.783,28.809,36.133,35.645,28.809,101.074
1532281388.787,30.273,39.551,35.156,23.926,-94.238
1532281388.791,32.227,38.086,32.227,28.320,-25.391
1532281388.795,31.738,37.109,33.203,32.227,128.906
1532281388.799,24.414,36.621,37.598,28.809,105.957
1532281388.803,20.020,34.180,38.574,24.902,-80.078
1532281388.807,22.949,34.668,35.645,26.367,-115.234
1532281388.811,22.949,33.203,36.133,29.297,108.398
1532281388.815,27.344,32.227,38.086,29.785,172.852
1532281388.819,31.738,30.762,38.086,28.809,2.930
1532281388.822,31.250,28.809,35.645,26.855,-85.449
1532281388.826,34.180,30.273,33.203,24.414,23.926
1532281388.830,35.645,28.809,33.691,28.809,163.574
1532281388.834,32.715,25.391,32.715,29.785,60.059
1532281388.838,32.227,25.879,35.156,28.320,-89.355
1532281388.842,32.715,23.438,38.086,31.250,15.625
1532281388.846,30.273,19.043,36.621,30.762,172.363
1532281388.850,31.738,20.508,37.109,29.297,98.633
1532281388.854,31.738,20.996,36.621,29.785,-92.285
1532281388.858,32.715,19.043,37.598,33.691,-62.500
1532281388.862,35.156,19.043,40.527,34.180,140.137
1532281388.865,32.227,18.066,39.551,31.738,152.832
1532281388.869,26.367,16.602,38.086,27.832,-31.250
1532281388.873,24.902,19.043,39.062,29.297,-91.797
1532281388.877,26.855,20.996,40.527,36.133,75.684
1532281388.881,30.273,20.996,39.551,38.086,168.945
1532281388.885,32.227,22.949,42.480,33.691,-23.438
1532281388.889,29.785,22.461,40.527,32.715,-137.695
1532281388.893,29.297,20.020,39.062,39.551,25.879
1532281388.897,30.273,17.090,40.039,38.574,190.918
1532281388.901,28.809,17.578,40.527,34.668,74.219
1532281388.904,27.832,19.531,41.992,34.668,-100.098
1532281388.908,31.250,19.531,42.969,34.668,-22.461
1532281388.912,36.133,19.043,40.039,36.621,136.230
1532281388.916,37.109,21.973,37.598,37.109,105.957
1532281388.920,34.668,22.949,39.551,38.086,-76.660
1532281388.924,31.738,20.020,41.016,37.598,-109.375
1532281388.928,27.344,17.090,41.016,31.738,85.938
1532281388.932,28.320,20.020,40.527,31.250,144.043
1532281388.936,32.227,21.484,41.016,33.691,-59.082
1532281388.940,33.203,20.508,40.527,34.180,-102.051
1532281388.944,37.598,22.461,39.062,37.598,81.543
1532281388.947,38.086,22.949,39.062,38.574,180.664
1532281388.951,33.691,22.461,41.016,36.621,20.020
1532281388.955,33.691,23.438,43.457,36.621,-127.441
1532281388.959,31.250,24.414,42.969,38.574,6.348
1532281388.963,30.762,24.414,43.945,33.203,152.344
1532281388.967,28.320,25.391,44.922,27.832,57.617
1532281388.971,24.414,27.832,42.969,34.180,-91.797
1532281388.975,24.902,25.391,42.969,35.156,-42.480
1532281388.979,27.344,22.949,42.480,37.598,145.508
1532281388.983,29.785,25.391,42.969,36.621,135.742
1532281388.986,30.762,28.320,41.504,33.691,-73.730
1532281388.990,32.715,29.785,37.109,35.645,-82.031
1532281388.994,35.645,30.762,35.156,35.156,121.094
1532281388.998,34.668,29.785,37.109,34.668,165.527
1532281389.002,38.086,30.762,40.039,33.203,-29.297
1532281389.006,39.062,31.738,39.062,29.785,-128.418
1532281389.010,35.156,29.297,37.598,35.156,48.828
1532281389.014,36.621,27.832,39.551,36.621,172.852
1532281389.018,38.574,27.832,40.527,35.156,42.969
1532281389.022,34.180,27.344,36.621,34.180,-125.977
1532281389.026,35.156,30.273,35.156,32.715,-28.320
1532281389.029,39.551,31.250,38.086,38.574,176.758
1532281389.033,37.109,28.320,37.598,39.551,95.215
1532281389.037,38.086,27.832,36.133,39.062,-112.305
1532281389.041,40.527,28.320,38.086,41.992,-63.965
1532281389.045,38.574,27.832,39.551,39.551,152.344
1532281389.049,39.062,25.879,40.039,39.062,154.297
1532281389.053,37.598,25.879,39.062,34.668,-63.477
1532281389.057,34.668,26.367,34.180,30.273,-93.750
1532281389.061,37.598,25.391,34.668,36.621,84.473
1532281389.065,41.016,27.344,38.086,37.109,140.625
1532281389.069,41.992,28.809,36.621,35.156,-7.812
1532281389.072,46.875,29.785,34.180,41.016,-98.633
1532281389.076,49.805,30.273,34.180,42.969,25.879
1532281389.080,47.363,28.320,35.156,45.898,174.316
1532281389.084,47.363,27.832,36.621,45.410,74.707
1532281389.088,48.340,27.344,35.156,45.898,-109.863
1532281389.092,49.316,30.273,33.691,48.828,-16.113
1532281389.096,49.805,32.227,33.691,47.363,171.387
1532281389.100,46.387,31.250,32.227,45.898,112.305
1532281389.104,42.480,31.738,31.738,38.086,-99.121
1532281389.108,41.016,33.203,31.250,33.691,-77.148
1532281389.111,43.457,34.668,31.738,43.945,129.395
1532281389.115,46.875,33.203,32.227,45.898,154.297
1532281389.119,44.434,31.250,32.227,41.016,-41.992
1532281389.123,40.527,33.203,32.715,42.969,-120.605
1532281389.127,39.551,33.691,33.691,44.922,73.730
1532281389.131,39.062,34.180,31.250,41.504,176.758
1532281389.135,40.527,36.133,28.320,36.133,20.020
1532281389.139,45.898,39.062,26.855,37.109,-96.680
1532281389.143,44.922,40.527,23.926,33.691,29.297
1532281389.147,41.992,39.062,22.949,30.273,153.320
1532281389.151,42.480,39.551,25.391,34.668,71.289
1532281389.154,43.457,39.062,26.367,34.180,-103.027
1532281389.158,43.457,39.062,24.902,36.133,-19.531
1532281389.162,40.039,40.039,23.438,33.203,172.363
1532281389.166,38.086,39.551,25.391,30.273,93.262
1532281389.170,43.457,38.086,28.320,35.156,-82.520
1532281389.174,44.434,37.598,28.320,35.645,-76.660
1532281389.178,41.504,36.133,25.879,34.668,111.328
1532281389.182,40.527,37.598,26.855,35.156,176.758
1532281389.186,41.504,41.016,29.297,33.203,-21.973
1532281389.190,44.922,41.504,26.855,35.156,-120.117
1532281389.194,43.457,42.480,25.879,37.598,66.895
1532281389.197,38.574,43.945,30.273,34.180,201.660
1532281389.201,38.086,41.016,29.297,30.273,25.391
1532281389.205,40.039,44.434,33.203,27.344,-161.133
1532281389.209,38.574,45.898,34.668,26.855,-15.625
1532281389.213,36.621,43.945,31.738,28.320,188.965
1532281389.217,36.133,45.898,31.738,27.832,109.863
1532281389.221,38.086,49.805,34.668,25.391,-84.473
1532281389.225,41.992,50.293,35.156,25.391,-56.641
1532281389.229,43.945,47.363,32.715,29.297,120.605
1532281389.233,42.969,49.805,33.203,29.785,144.531
1532281389.236,44.434,53.711,33.203,28.320,-50.293
1532281389.240,43.945,52.246,33.691,33.203,-114.258
1532281389.244,36.621,49.805,36.133,29.785,71.777
1532281389.248,33.203,47.852,38.574,24.902,157.227
1532281389.252,31.738,44.922,40.527,28.809,-17.090
1532281389.256,30.762,45.410,39.062,29.785,-114.746
1532281389.260,35.645,44.922,38.086,32.715,73.242
1532281389.264,36.621,48.340,34.180,32.715,182.617
1532281389.268,38.574,51.270,33.203,30.762,39.551
1532281389.272,37.598,47.852,34.180,29.297,-108.398
1532281389.276,35.156,45.898,33.203,31.738,-30.762
1532281389.279,34.668,43.945,33.691,37.109,176.758
1532281389.283,32.715,42.480,32.715,33.691,124.512
1532281389.287,29.785,42.480,32.227,25.879,-111.816
1532281389.291,29.297,41.992,29.297,32.715,-82.031
1532281389.295,30.762,43.457,25.879,37.109,146.484
1532281389.299,30.762,42.480,24.414,36.621,142.090
1532281389.303,33.691,44.922,25.391,41.016,-56.152
1532281389.307,33.203,44.922,26.367,41.992,-112.793
1532281389.311,34.180,44.922,23.926,40.039,76.660
1532281389.315,38.574,48.340,24.414,38.574,185.547
1532281389.319,39.062,45.410,24.902,38.086,-0.488
1532281389.322,38.086,43.457,26.367,35.645,-144.043
1532281389.326,35.645,41.016,27.344,32.227,1.465
1532281389.330,31.250,38.574,25.879,29.297,172.852
1532281389.334,31.738,40.039,26.367,27.832,60.547
1532281389.338,33.203,39.551,26.855,26.367,-115.723
1532281389.342,31.250,40.527,30.273,23.926,-54.199
1532281389.346,32.715,44.434,31.738,20.996,123.535
1532281389.350,35.156,44.434,31.250,22.949,84.473
1532281389.354,37.109,41.504,32.715,28.320,-104.004
1532281389.358,39.062,41.016,32.715,32.227,-86.426
1532281389.361,37.109,40.039,33.691,33.203,92.285
1532281389.365,34.180,37.109,34.180,30.762,133.789
1532281389.369,38.086,37.109,35.645,32.227,-35.156
1532281389.373,36.133,36.621,36.621,30.273,-119.141
1532281389.377,32.715,35.156,38.574,28.809,65.430
1532281389.381,36.621,34.668,40.039,32.715,188.965
1532281389.385,39.551,34.668,39.551,29.785,-5.859
1532281389.389,37.598,32.715,37.598,25.391,-140.625
1532281389.393,33.691,31.738,35.645,25.879,25.879
1532281389.397,40.527,31.250,36.133,24.902,181.152
1532281389.401,48.828,32.715,38.086,25.391,73.730
1532281389.404,51.270,36.133,39.062,21.973,-134.277
1532281389.408,48.828,35.645,40.039,23.926,-83.984
1532281389.412,46.387,35.156,39.062,30.762,145.996
1532281389.416,44.922,35.645,39.551,34.668,147.461
1532281389.420,34.668,32.227,39.062,35.645,-51.270
1532281389.424,23.926,29.785,40.527,32.227,-114.746
1532281389.428,20.508,28.809,41.016,32.227,69.336
1532281389.432,21.484,27.344,39.551,32.227,188.965
1532281389.436,21.973,29.297,41.992,32.715,-11.230
1532281389.440,22.461,31.250,41.992,36.133,-97.656
1532281389.443,23.926,28.320,38.086,32.715,81.543
1532281389.447,26.855,27.832,39.551,29.785,182.129
1532281389.451,25.391,30.762,40.527,31.250,50.293
1532281389.455,25.879,31.738,34.668,29.297,-98.633
1532281389.459,31.250,32.715,33.203,31.738,25.391
1532281389.463,32.715,32.715,33.691,30.762,161.133
1532281389.467,26.855,30.273,35.156,24.902,77.148
1532281389.471,23.926,29.785,34.668,24.902,-76.660
1532281389.475,27.832,28.320,32.715,29.297,-56.152
1532281389.479,33.691,28.320,34.668,33.691,142.578
1532281389.483,32.715,26.855,37.109,31.250,138.672
1532281389.486,26.855,23.438,37.109,27.832,-83.984
1532281389.490,27.832,24.902,37.598,33.691,-111.816
1532281389.494,35.156,27.344,38.086,38.086,88.867
1532281389.498,33.203,25.879,37.109,37.109,180.176
1532281389.502,30.273,26.855,35.156,29.785,-14.160
1532281389.506,30.273,29.785,33.203,28.320,-143.555
1532281389.510,27.344,29.297,33.203,31.738,20.020
1532281389.514,26.855,27.832,36.621,31.250,180.664
1532281389.518,27.344,29.785,38.574,30.273,42.969
1532281389.522,25.391,28.809,38.574,28.320,-143.555
1532281389.526,27.832,26.367,40.527,27.344,-32.715
1532281389.529,33.691,29.785,37.598,31.250,180.664
1532281389.533,36.133,32.715,36.621,33.203,127.930
1532281389.537,38.086,31.738,40.527,32.715,-59.082
1532281389.541,39.062,31.250,41.504,33.691,-37.109
1532281389.545,36.133,30.762,40.527,28.809,121.094
1532281389.549,33.691,28.809,40.039,28.320,153.809
1532281389.553,35.645,29.297,39.062,30.762,-24.902
1532281389.557,36.621,30.762,38.086,33.203,-108.398
1532281389.561,33.691,29.297,36.621,35.645,74.219
1532281389.565,32.227,28.320,37.598,33.203,164.551
1532281389.568,28.320,30.762,35.156,31.250,3.418
1532281389.572,30.273,32.715,33.691,30.273,-112.305
1532281389.576,33.203,32.227,34.180,32.227,9.277
1532281389.580,30.762,31.250,32.227,33.203,168.457
1532281389.584,31.250,33.203,32.227,26.367,59.570
1532281389.588,31.250,35.645,30.762,24.414,-118.164
1532281389.592,31.738,35.645,30.762,31.738,-15.137
1532281389.596,28.320,37.109,27.832,33.691,157.715
1532281389.600,29.785,37.109,25.391,32.227,128.418
1532281389.604,32.715,38.574,26.855,33.203,-59.570
1532281389.608,31.738,40.039,25.391,34.180,-75.195
1532281389.611,31.738,37.109,20.508,31.738,113.770
1532281389.615,33.691,39.551,20.996,30.273,145.020
1532281389.619,36.621,43.457,26.855,32.227,-32.227
1532281389.623,35.156,45.410,26.855,29.785,-114.746
1532281389.627,32.227,42.480,22.949,24.902,44.922
1532281389.631,30.273,41.992,20.508,23.438,162.109
1532281389.635,28.320,44.434,20.508,24.414,24.902
1532281389.639,28.809,41.016,20.508,27.344,-115.234
1532281389.643,33.203,38.086,21.484,30.762,-9.277
1532281389.647,37.109,39.551,24.902,34.180,158.691
1532281389.651,35.156,38.086,24.902,30.762,75.684
1532281389.654,34.180,35.645,24.902,32.227,-114.258
1532281389.658,41.016,36.621,24.414,42.480,-57.129
1532281389.662,41.992,37.598,22.949,43.945,170.898
1532281389.666,37.109,37.598,20.508,37.109,130.859
1532281389.670,33.203,37.598,20.020,32.715,-89.355
1532281389.674,33.203,40.039,21.484,33.691,-90.332
1532281389.678,35.156,39.551,19.043,35.156,111.816
1532281389.682,35.156,38.574,18.555,33.203,179.199
1532281389.686,33.691,40.039,20.020,31.250,-20.508
1532281389.690,30.762,37.598,20.508,29.297,-132.324
1532281389.693,29.785,36.133,22.949,29.297,43.457
1532281389.697,31.250,35.156,23.438,34.668,179.688
1532281389.701,32.227,32.715,22.461,36.621,48.828
1532281389.705,27.344,35.645,21.484,25.879,-122.070
1532281389.709,26.855,35.156,20.996,26.855,-26.855
1532281389.713,28.809,31.250,19.043,34.668,169.434
1532281389.717,25.879,30.273,19.531,30.273,109.863
1532281389.721,22.461,30.762,21.484,25.391,-87.891
1532281389.725,23.926,31.250,23.438,27.832,-60.059
1532281389.729,23.926,31.738,22.949,29.297,167.969
1532281389.733,21.973,32.715,20.996,27.344,172.363
1532281389.736,24.902,33.691,21.484,28.809,-44.434
1532281389.740,26.367,31.738,21.484,29.297,-116.211
1532281389.744,26.367,27.344,22.949,28.809,73.730
1532281389.748,24.414,26.367,21.973,29.297,199.219
1532281389.752,23.926,27.832,22.461,30.762,19.043
1532281389.756,28.320,26.855,24.414,32.227,-115.723
1532281389.760,32.227,24.414,24.414,36.621,36.133
1532281389.764,32.715,25.391,25.879,37.598,171.387
1532281389.768,33.203,26.367,26.367,35.156,69.336
1532281389.772,32.715,24.902,23.926,35.156,-77.637
1532281389.775,32.227,26.855,23.438,32.227,1.953
1532281389.779,36.133,32.227,24.902,31.738,202.637
1532281389.783,36.621,37.109,25.391,26.367,118.652
1532281389.787,31.738,35.645,21.484,19.531,-115.234
1532281389.791,30.762,31.738,20.996,25.391,-95.703
1532281389.795,29.297,29.297,23.926,28.320,103.027
1532281389.799,24.902,26.367,24.414,28.320,140.137
1532281389.803,24.902,25.391,23.438,24.902,-53.223
1532281389.807,28.320,24.902,23.438,24.902,-117.188
1532281389.811,32.715,24.414,21.973,32.715,70.801
1532281389.815,33.691,27.344,19.531,32.715,194.824
1532281389.818,30.273,28.320,19.531,26.367,32.227
1532281389.822,33.203,26.367,20.020,25.391,-130.371
1532281389.826,34.668,26.855,19.531,27.344,13.672
1532281389.830,33.691,26.855,20.996,29.785,177.246
1532281389.834,31.738,25.391,24.902,29.785,76.172
1532281389.838,32.227,26.367,24.902,29.297,-87.891
1532281389.842,39.551,26.855,22.949,33.203,-37.109
1532281389.846,43.457,27.344,22.461,35.645,165.527
1532281389.850,41.016,26.367,23.438,36.621,144.043
1532281389.854,36.621,24.414,22.949,32.227,-62.500
1532281389.858,37.109,26.855,20.508,30.273,-64.453
1532281389.861,36.133,28.320,21.484,27.832,115.723
1532281389.865,33.691,26.367,21.484,24.414,148.926
1532281389.869,34.180,26.367,20.508,26.855,-29.785
1532281389.873,29.785,28.320,19.531,25.391,-99.121
1532281389.877,31.738,27.344,19.043,24.414,73.730
1532281389.881,36.133,30.273,19.043,27.832,192.871
1532281389.885,32.715,28.809,21.973,24.414,28.809
1532281389.889,32.227,24.414,18.555,25.391,-141.602
1532281389.893,32.715,26.367,15.625,29.297,-27.832
1532281389.897,30.273,28.809,16.602,26.855,175.781
1532281389.900,30.273,28.809,18.066,27.832,88.867
1532281389.904,29.297,27.832,17.090,23.438,-146.484
1532281389.908,29.297,25.391,17.578,22.949,-86.914
1532281389.912,27.344,21.973,20.020,26.855,130.859
1532281389.916,24.414,20.020,20.508,24.902,132.812
1532281389.920,24.902,19.531,21.484,22.949,-31.738
1532281389.924,29.785,19.531,20.508,24.902,-58.594
1532281389.928,35.156,18.555,20.996,30.762,102.539
1532281389.932,33.203,18.066,20.020,30.273,172.852
1532281389.936,31.250,16.113,19.531,28.320,23.438
1532281389.940,35.156,19.043,17.578,29.785,-116.699
1532281389.943,38.086,22.949,16.113,27.832,-13.184
1532281389.947,33.203,20.508,18.066,21.973,141.602
1532281389.951,31.738,19.043,20.020,22.949,49.805
1532281389.955,33.203,19.043,18.555,26.367,-121.094
1532281389.959,33.203,18.555,16.113,28.809,-36.133
1532281389.963,33.691,19.531,15.137,31.738,147.949
1532281389.967,31.250,17.578,16.113,28.320,103.027
1532281389.971,31.738,17.090,17.090,26.855,-99.121
1532281389.975,34.180,19.043,16.602,29.785,-83.496
1532281389.979,32.715,20.020,17.090,28.809,122.070
1532281389.983,33.203,20.996,19.043,30.273,144.531
1532281389.986,29.785,20.996,20.020,26.367,-72.754
1532281389.990,26.367,20.996,17.578,24.414,-131.836
1532281389.994,27.832,20.020,16.113,28.320,43.457
1532281389.998,28.320,20.996,17.578,27.344,129.395
1532281390.002,27.832,21.484,18.066,21.973,0.488
1532281390.006,28.320,20.508,17.578,15.625,-149.902
1532281390.010,29.297,20.020,18.066,20.996,-2.441
1532281390.014,27.832,20.996,16.113,24.414,171.875
1532281390.018,24.414,23.926,16.113,22.461,62.012
1532281390.022,23.926,25.879,18.066,20.508,-102.539
1532281390.025,28.809,25.391,17.578,21.973,-37.109
1532281390.029,29.785,22.461,16.113,27.344,138.184
1532281390.033,28.320,21.973,18.555,26.367,102.539
1532281390.037,28.809,24.414,19.043,25.391,-107.910
1532281390.041,26.367,23.438,16.113,25.879,-118.164
1532281390.045,25.391,22.949,15.137,21.484,80.078
1532281390.049,29.297,27.344,15.137,24.414,134.766
1532281390.053,30.273,26.367,12.695,27.832,-19.531
1532281390.057,26.367,22.461,11.719,24.414,-93.750
1532281390.061,25.391,23.438,11.719,22.949,73.242
1532281390.065,26.367,26.367,10.742,20.020,171.875
1532281390.068,26.855,25.391,9.766,21.484,23.438
1532281390.072,22.949,21.484,10.254,21.484,-108.887
1532281390.076,21.484,20.996,10.254,20.508,26.855
1532281390.080,20.996,19.531,13.184,21.484,172.852
1532281390.084,20.020,18.066,14.648,15.625,64.453
1532281390.088,21.973,20.996,12.207,14.160,-113.770
1532281390.092,20.996,22.949,11.230,18.066,-55.176
1532281390.096,21.973,22.949,10.742,19.531,151.367
1532281390.100,23.438,23.438,11.719,19.043,150.879
1532281390.104,22.461,25.391,11.719,15.137,-65.918
1532281390.107,20.508,24.902,11.719,16.113,-110.840
1532281390.111,17.090,23.926,11.719,16.602,88.867
1532281390.115,15.625,24.414,10.742,14.160,164.551
1532281390.119,17.578,26.855,11.719,16.113,-23.438
1532281390.123,19.043,28.320,11.719,16.602,-127.441
1532281390.127,18.066,25.879,10.742,15.625,34.180
1532281390.131,19.531,24.902,14.160,20.020,166.992
1532281390.135,21.973,25.879,15.625,21.973,35.156
1532281390.139,21.484,24.414,13.672,22.949,-121.094
1532281390.143,22.461,22.949,14.648,22.461,-10.254
1532281390.147,27.344,25.391,13.672,23.438,158.691
1532281390.150,28.809,29.785,11.719,25.391,108.887
1532281390.154,25.391,31.250,13.184,24.902,-85.938
1532281390.158,24.902,27.344,15.625,26.855,-57.129
1532281390.162,24.414,26.855,16.113,21.484,137.207
1532281390.166,20.508,29.297,15.137,13.672,133.301
1532281390.170,20.020,28.320,14.160,13.184,-68.848
1532281390.174,19.531,29.297,13.672,12.207,-124.023
1532281390.178,13.672,28.320,15.137,12.207,65.430
1532281390.182,13.672,26.367,18.066,13.184,145.996
1532281390.186,18.066,25.879,18.066,13.672,-38.574
1532281390.190,18.066,27.344,16.113,15.137,-126.953
1532281390.193,16.602,25.879,17.090,16.602,39.551
1532281390.197,17.090,25.391,19.043,18.066,189.941
1532281390.201,18.066,26.367,17.090,15.137,81.055
1532281390.205,21.484,27.832,17.090,12.695,-105.957
1532281390.209,21.973,29.785,19.531,17.090,-17.578
1532281390.213,23.438,30.762,21.484,19.531,168.457
1532281390.217,24.414,26.855,20.996,12.695,138.672
1532281390.221,24.902,24.902,21.484,10.254,-47.363
1532281390.225,32.227,28.320,23.438,8.301,-71.777
1532281390.229,36.621,28.809,22.461,7.324,119.141
1532281390.232,40.527,27.832,22.461,11.230,149.902
1532281390.236,43.457,30.273,20.508,16.113,-26.855
1532281390.240,41.504,31.738,20.508,23.438,-83.496
1532281390.244,36.621,28.809,22.949,28.320,52.734
1532281390.248,30.273,25.879,23.438,34.180,159.180
1532281390.252,25.879,27.344,23.926,39.062,27.832
1532281390.256,21.973,28.320,26.855,35.156,-104.004
1532281390.260,19.043,26.855,26.367,30.273,34.180
1532281390.264,20.996,26.855,24.414,29.785,208.496
1532281390.268,24.902,29.785,24.902,33.203,80.566
1532281390.272,23.438,30.273,27.344,35.156,-119.141
1532281390.275,24.414,29.297,27.832,30.273,-25.879
1532281390.279,24.902,30.762,26.855,25.391,175.781
1532281390.283,23.438,33.203,27.344,19.531,137.207
1532281390.287,28.809,36.133,25.879,17.578,-112.305
1532281390.291,33.691,35.156,26.855,28.320,-124.512
1532281390.295,31.250,32.227,32.227,33.691,95.703
1532281390.299,30.762,28.809,33.203,32.227,143.555
1532281390.303,33.691,27.832,33.203,36.133,-52.734
1532281390.307,34.668,29.297,35.645,37.109,-111.816
1532281390.311,38.574,32.227,35.645,38.574,73.730
1532281390.315,45.410,34.180,34.180,44.434,208.496
1532281390.318,46.875,36.133,31.250,42.480,53.711
1532281390.322,44.434,35.156,32.715,34.668,-129.883
1532281390.326,42.480,33.691,34.180,30.762,-37.598
1532281390.330,39.551,31.738,33.691,39.551,154.297
1532281390.334,40.527,31.250,35.156,44.434,91.797
1532281390.338,40.527,35.156,34.668,43.945,-92.773
1532281390.342,37.109,31.250,32.715,42.480,-49.316
1532281390.346,39.551,29.297,31.250,41.992,132.812
1532281390.350,39.551,27.832,30.273,40.039,160.156
1532281390.354,41.504,23.926,32.715,39.062,-53.223
1532281390.357,44.922,23.926,34.180,41.016,-134.766
1532281390.361,41.504,24.414,31.738,39.551,68.359
1532281390.365,39.551,25.879,32.227,29.785,137.207
1532281390.369,38.574,25.879,30.273,23.926,-33.691
1532281390.373,36.621,24.902,29.785,29.785,-114.258
1532281390.377,36.133,24.902,34.668,35.645,20.020
1532281390.381,40.039,25.879,36.133,36.621,180.664
1532281390.385,41.992,24.414,33.691,33.203,63.477
1532281390.389,41.504,20.996,33.691,32.227,-118.164
1532281390.393,42.480,23.926,34.180,36.133,-20.508
1532281390.397,47.852,28.809,34.180,43.945,154.785
1532281390.400,46.875,28.809,33.203,42.969,90.820
1532281390.404,40.527,25.879,31.738,36.133,-109.375
1532281390.408,41.504,24.414,31.250,37.598,-87.402
1532281390.412,41.016,24.414,31.738,39.062,115.234
1532281390.416,37.598,23.926,32.715,37.109,139.160
1532281390.420,37.598,23.438,32.227,38.086,-44.434
1532281390.424,41.016,22.949,31.738,38.574,-116.699
1532281390.428,46.387,25.391,33.691,38.574,41.504
1532281390.432,49.805,25.391,32.227,37.598,140.137
1532281390.436,44.922,22.461,31.738,35.645,2.441
1532281390.439,41.992,24.414,32.715,38.086,-114.746
1532281390.443,40.527,26.855,31.738,36.621,-12.207
1532281390.447,39.551,25.391,31.738,35.156,171.875
1532281390.451,40.039,24.414,33.691,34.668,76.660
1532281390.455,38.574,23.926,32.715,33.691,-130.371
1532281390.459,35.156,21.973,30.762,32.715,-41.016
1532281390.463,36.621,20.996,32.715,28.320,153.320
1532281390.467,39.062,23.926,32.227,22.949,120.117
1532281390.471,39.062,26.367,30.273,26.367,-86.426
1532281390.475,39.062,22.949,30.273,31.250,-85.938
1532281390.479,39.551,20.996,31.250,32.227,133.301
1532281390.482,38.574,20.020,30.273,32.227,165.527
1532281390.486,41.016,21.484,30.762,33.691,-19.531
1532281390.490,43.457,23.926,33.203,37.598,-100.098
1532281390.494,40.039,22.949,33.203,37.109,49.805
1532281390.498,38.574,20.996,33.203,35.156,178.223
1532281390.502,36.621,20.996,34.180,30.273,9.277
1532281390.506,31.738,23.438,34.668,26.855,-169.434
1532281390.510,30.762,25.391,35.156,31.250,-23.926
1532281390.514,33.203,24.414,37.109,34.180,159.180
1532281390.518,34.180,24.414,40.527,32.715,83.496
1532281390.522,28.320,24.414,41.992,31.738,-96.680
1532281390.525,26.367,20.996,40.527,30.762,-54.688
1532281390.529,29.297,21.973,40.039,34.180,137.695
1532281390.533,28.320,23.438,42.480,36.621,118.652
1532281390.537,23.926,23.926,45.898,32.715,-51.758
1532281390.541,19.531,23.926,44.434,28.320,-83.008
1532281390.545,16.113,20.508,41.504,26.367,103.516
1532281390.549,16.602,19.531,41.016,24.414,185.547
1532281390.553,15.137,20.996,42.480,20.996,-34.668
1532281390.557,13.672,20.996,43.457,18.066,-153.809
1532281390.561,19.531,19.531,40.527,18.555,19.531
1532281390.564,22.461,19.531,41.504,17.578,143.066
1532281390.568,20.996,24.414,41.504,18.066,27.832
1532281390.572,20.996,25.391,38.086,19.531,-124.512
1532281390.576,19.043,22.949,39.551,20.996,-22.949
1532281390.580,20.020,25.391,39.062,25.879,168.457
1532281390.584,21.973,25.879,39.062,24.414,92.773
1532281390.588,21.484,24.414,38.086,22.461,-74.707
1532281390.592,20.996,24.414,37.109,26.367,-69.824
1532281390.596,22.949,25.391,41.504,27.832,97.168
1532281390.600,21.484,23.438,42.480,29.297,131.836
1532281390.604,20.020,22.949,42.480,22.461,-67.383
1532281390.607,16.113,23.438,45.410,14.648,-135.254
1532281390.611,14.160,20.508,42.969,21.484,82.520
1532281390.615,16.602,22.949,39.551,21.484,195.312
1532281390.619,17.578,26.367,40.527,18.555,15.625
1532281390.623,20.996,25.879,39.062,20.020,-109.375
1532281390.627,24.414,25.391,38.574,18.555,41.504
1532281390.631,22.949,26.367,41.504,15.137,178.223
1532281390.635,21.973,28.809,41.504,14.648,67.383
1532281390.639,25.391,29.785,40.527,20.996,-91.309
1532281390.643,27.832,27.832,41.504,25.391,-20.020
1532281390.647,28.320,28.320,44.434,27.344,140.137
1532281390.650,23.926,25.879,44.922,27.832,89.844
1532281390.654,25.391,25.391,41.992,27.344,-72.754
1532281390.658,28.809,27.344,39.551,29.297,-39.062
1532281390.662,31.738,26.855,40.527,30.273,135.742
1532281390.666,34.180,30.273,39.062,34.180,147.461
1532281390.670,31.250,32.715,40.527,31.738,-27.832
1532281390.674,34.180,30.273,41.016,30.273,-95.215
1532281390.678,35.156,29.297,41.992,31.738,57.129
1532281390.682,29.297,29.297,44.434,28.320,170.410
1532281390.686,28.320,29.297,43.945,24.902,46.875
1532281390.689,29.297,27.832,42.969,25.391,-94.238
1532281390.693,28.320,26.367,41.992,25.879,16.113
1532281390.697,26.367,28.320,42.969,26.367,185.059
1532281390.701,23.438,28.320,43.457,24.902,76.172
1532281390.705,23.926,29.297,41.016,22.461,-150.391
1532281390.709,26.855,30.273,41.016,27.832,-57.617
1532281390.713,28.320,30.273,42.969,36.621,150.391
1532281390.717,32.227,31.738,43.457,39.062,111.816
1532281390.721,35.645,33.203,43.945,37.598,-68.359
1532281390.725,34.668,33.203,44.434,35.645,-82.520
1532281390.729,30.762,30.273,44.434,36.621,95.215
1532281390.732,31.738,27.832,41.992,32.227,148.438
1532281390.736,34.668,30.273,42.969,27.832,-39.551
1532281390.740,31.738,32.715,44.434,28.320,-121.582
1532281390.744,29.785,30.762,46.875,26.855,23.438
1532281390.748,33.691,29.785,48.340,29.297,123.535
1532281390.752,35.645,29.785,48.340,34.668,37.598
1532281390.756,34.668,28.809,48.340,34.180,-110.352
1532281390.760,31.250,26.855,48.340,37.109,4.883
1532281390.764,27.832,26.367,47.363,33.203,173.828
1532281390.768,25.391,24.414,43.457,27.832,76.660
1532281390.771,24.414,20.508,43.945,31.250,-74.707
1532281390.775,26.855,20.508,44.434,33.203,-33.691
1532281390.779,25.879,22.949,41.504,28.320,140.137
1532281390.783,23.438,24.414,41.016,25.879,140.625
1532281390.787,23.438,22.949,42.480,23.926,-65.430
1532281390.791,22.949,20.996,41.992,20.996,-103.027
1532281390.795,20.996,22.461,43.945,23.438,108.398
1532281390.799,22.461,23.438,42.480,20.508,190.430
1532281390.803,25.391,20.020,39.062,13.672,-20.020
1532281390.807,26.367,21.973,37.598,18.066,-142.578
1532281390.811,23.926,22.461,36.621,22.461,31.738
1532281390.814,27.832,19.531,40.527,21.484,189.453
1532281390.818,35.156,20.020,42.480,25.391,62.500
1532281390.822,33.203,21.484,40.039,23.926,-121.582
1532281390.826,35.156,21.973,41.992,22.461,-49.805
1532281390.830,32.715,20.020,42.480,23.926,162.598
1532281390.834,27.344,17.578,38.574,23.438,119.629
1532281390.838,26.855,18.066,38.574,23.438,-78.613
1532281390.842,26.367,16.602,37.109,22.949,-78.125
1532281390.846,27.832,17.090,35.645,22.949,113.281
1532281390.850,27.344,17.090,36.621,24.414,158.691
1532281390.854,26.855,17.578,37.598,23.926,-54.199
1532281390.857,24.902,18.066,37.598,22.461,-103.027
1532281390.861,23.438,19.043,37.598,21.973,70.801
1532281390.865,22.949,18.555,38.574,19.043,159.668
1532281390.869,16.602,16.113,38.574,16.113,43.457
1532281390.873,15.625,19.531,37.598,17.578,-107.910
1532281390.877,23.438,20.508,41.016,22.461,3.906
1532281390.881,21.973,15.137,40.039,23.926,179.199
1532281390.885,19.531,14.160,39.551,12.695,52.734
1532281390.889,22.461,20.508,41.016,10.742,-124.512
1532281390.893,24.414,20.996,39.551,22.461,-25.879
1532281390.896,23.438,19.531,38.574,24.414,171.387
1532281390.900,24.414,21.484,38.086,23.926,151.855
1532281390.904,22.461,21.973,37.598,21.484,-49.805
1532281390.908,19.531,20.996,38.086,16.602,-55.664
1532281390.912,23.926,20.508,39.551,20.508,132.812
1532281390.916,26.367,20.996,38.574,22.949,169.922
1532281390.920,27.832,20.996,40.039,22.949,-32.227
1532281390.924,27.832,19.531,43.457,24.414,-124.023
1532281390.928,28.320,20.996,42.969,26.367,65.918
1532281390.932,32.227,25.391,41.992,29.785,187.988
1532281390.936,33.691,28.320,42.480,29.297,33.691
1532281390.939,33.203,29.297,41.992,29.785,-125.488
1532281390.943,31.250,28.809,41.016,24.902,-31.738
1532281390.947,29.785,26.367,39.551,21.484,129.883
1532281390.951,27.344,25.391,39.551,25.879,77.148
1532281390.955,26.367,24.414,41.016,25.879,-100.098
1532281390.959,26.855,24.414,41.992,25.879,-82.520
1532281390.963,24.902,25.391,40.039,26.855,131.348
1532281390.967,27.344,24.414,41.016,27.832,133.301
1532281390.971,28.320,25.391,41.992,26.367,-89.355
1532281390.975,26.855,25.879,40.527,24.414,-124.023
1532281390.979,27.344,23.926,38.574,26.855,90.332
1532281390.982,23.438,22.461,38.574,26.367,166.504
1532281390.986,23.438,24.414,40.527,22.461,-25.879
1532281390.990,28.320,25.879,39.551,26.855,-108.887
1532281390.994,29.297,25.391,34.668,30.273,59.082
1532281390.998,28.320,23.438,35.156,32.227,198.242
1532281391.002,24.414,21.484,35.156,30.762,47.852
1532281391.006,25.391,22.461,33.691,27.344,-122.559
1532281391.010,28.809,23.926,32.715,27.344,-8.301
1532281391.014,26.367,22.461,32.715,26.367,169.922
1532281391.018,26.367,21.973,34.668,27.344,102.539
1532281391.021,27.344,25.391,35.645,26.855,-122.070
1532281391.025,27.344,25.391,38.086,23.438,-98.145
1532281391.029,31.738,26.367,38.086,27.344,136.719
1532281391.033,28.809,26.367,37.109,27.832,145.996
1532281391.037,23.926,23.438,39.062,23.438,-43.457
1532281391.041,27.344,24.414,38.574,25.391,-101.562
1532281391.045,28.809,25.391,36.133,26.367,70.801
1532281391.049,30.273,27.832,34.668,24.902,173.828
1532281391.053,35.645,28.320,35.156,26.367,5.859
1532281391.057,37.598,28.809,37.109,26.855,-124.512
1532281391.061,42.480,28.320,36.133,24.902,20.020
1532281391.064,45.898,28.809,34.180,21.484,155.762
1532281391.068,47.852,31.250,35.156,23.438,64.941
1532281391.072,45.898,27.832,35.645,28.809,-85.449
1532281391.076,40.039,27.344,34.668,32.715,-3.906
1532281391.080,35.156,27.832,37.598,36.133,175.293
1532281391.084,30.273,28.320,40.039,36.621,117.188
1532281391.088,32.715,32.715,39.551,35.645,-58.594
1532281391.092,33.691,36.133,38.086,39.551,-64.941
1532281391.096,25.391,33.203,39.062,37.109,121.094
1532281391.100,23.438,32.227,42.480,36.133,186.035
1532281391.103,30.762,36.133,43.457,39.551,-0.977
1532281391.107,30.273,36.621,39.062,38.086,-105.957
1532281391.111,28.809,35.156,38.574,35.645,61.523
1532281391.115,29.297,34.668,41.992,33.691,177.246
1532281391.119,30.273,35.156,43.945,34.180,29.785
1532281391.123,29.785,35.156,45.410,34.668,-126.953
1532281391.127,30.273,35.156,42.969,28.809,-24.414
1532281391.131,31.738,37.109,41.504,29.785,165.039
1532281391.135,27.832,39.062,41.504,28.809,101.074
1532281391.139,30.273,39.551,43.945,29.297,-101.074
1532281391.143,32.227,37.109,42.480,32.715,-54.199
1532281391.146,28.809,33.203,41.016,29.297,145.020
1532281391.150,27.832,36.133,41.992,25.879,111.816
1532281391.154,27.832,38.086,41.016,24.902,-93.750
1532281391.158,30.273,35.645,41.504,26.855,-105.469
1532281391.162,31.738,37.109,40.527,28.320,58.105
1532281391.166,28.320,40.527,41.504,22.461,138.672
1532281391.170,29.785,38.086,45.898,24.414,-20.020
1532281391.174,28.320,38.086,46.875,28.320,-122.070
1532281391.178,23.926,39.551,43.945,25.391,55.664
1532281391.182,23.926,37.109,42.480,23.438,177.734
1532281391.186,28.320,39.062,43.945,22.461,61.035
1532281391.189,28.320,41.504,46.875,25.391,-89.844
1532281391.193,24.414,41.992,44.922,25.391,31.738
1532281391.197,26.855,40.527,42.969,24.414,197.754
1532281391.201,29.297,40.527,43.945,19.043,97.168
1532281391.205,29.785,41.016,43.457,15.625,-92.285
1532281391.209,27.344,35.156,39.062,13.672,-67.871
1532281391.213,24.414,32.227,39.551,10.742,126.953
1532281391.217,23.438,37.598,40.527,14.648,158.203
1532281391.221,23.438,36.621,39.551,19.531,-32.715
1532281391.225,24.414,34.668,40.039,16.602,-120.605
1532281391.228,20.508,34.180,43.457,18.555,69.824
1532281391.232,19.043,30.273,45.898,24.902,168.457
1532281391.236,27.832,32.227,44.434,26.367,6.348
1532281391.240,32.227,35.645,41.016,25.879,-89.355
1532281391.244,30.762,36.621,37.598,23.926,34.668
1532281391.248,31.738,39.062,37.109,21.973,162.598
1532281391.252,31.738,36.621,39.551,20.996,47.852
1532281391.256,28.809,37.109,40.039,17.090,-110.352
1532281391.260,27.344,37.598,37.109,14.648,-6.348
1532281391.264,30.762,35.156,35.156,12.695,149.902
1532281391.268,32.227,34.180,35.645,10.254,70.801
1532281391.271,33.203,35.156,37.598,16.602,-106.445
1532281391.275,36.621,35.156,37.598,23.926,-83.008
1532281391.279,36.133,34.668,37.598,25.391,110.352
1532281391.283,35.645,36.133,40.527,24.902,152.832
1532281391.287,37.598,36.621,38.574,24.902,-25.879
1532281391.291,38.086,35.156,36.133,24.902,-113.281
1532281391.295,37.109,34.668,39.062,27.832,74.707
1532281391.299,35.156,33.691,39.062,26.855,182.129
1532281391.303,33.203,33.691,40.527,22.461,33.203
1532281391.307,36.133,33.203,44.922,20.996,-135.742
1532281391.311,36.133,33.203,44.434,24.414,-0.977
1532281391.314,34.180,32.227,41.992,27.832,176.758
1532281391.318,32.227,29.785,41.016,25.391,55.664
1532281391.322,30.762,33.691,39.551,25.391,-117.188
1532281391.326,29.297,36.133,39.551,26.367,-37.109
1532281391.330,26.367,32.227,41.992,25.391,171.387
1532281391.334,25.391,30.762,41.504,24.414,123.047
1532281391.338,24.902,33.691,41.016,24.414,-83.496
1532281391.342,20.020,31.738,41.016,20.508,-92.285
1532281391.346,16.113,28.320,39.551,17.090,82.520
1532281391.350,21.484,32.715,39.551,21.484,135.254
1532281391.353,22.461,33.691,41.504,23.438,-18.555
1532281391.357,18.555,28.809,43.457,23.438,-105.469
1532281391.361,14.160,26.367,42.480,22.461,46.875
1532281391.365,15.137,30.273,39.551,15.137,150.391
1532281391.369,19.531,32.227,40.039,15.137,-5.859
1532281391.373,21.484,33.203,42.969,20.508,-128.906
1532281391.377,24.902,33.203,42.480,26.367,-5.371
1532281391.381,26.367,30.273,39.551,31.738,142.578
1532281391.385,25.391,31.250,41.016,31.250,61.523
1532281391.389,27.344,32.227,42.480,31.250,-115.723
1532281391.393,25.391,30.762,38.086,29.297,-72.754
1532281391.396,23.926,32.227,36.621,26.367,152.344
1532281391.400,26.855,35.645,37.598,23.926,164.551
1532281391.404,27.832,36.133,39.062,20.508,-45.898
1532281391.408,27.832,34.668,40.039,22.461,-99.609
1532281391.412,29.785,29.785,41.016,30.273,87.891
1532281391.416,29.785,29.297,40.527,32.227,167.480
1532281391.420,28.320,30.762,39.551,29.297,-9.766
1532281391.424,28.320,33.203,39.551,28.320,-125.000
1532281391.428,31.738,35.156,37.598,34.180,26.367
1532281391.432,36.621,34.180,35.645,36.621,173.828
1532281391.435,38.086,33.691,36.133,34.668,70.312
1532281391.439,38.086,34.668,36.621,33.203,-110.840
1532281391.443,32.715,33.203,35.156,27.344,-35.645
1532281391.447,28.320,29.785,34.180,27.344,160.645
1532281391.451,28.320,27.832,35.156,28.809,118.164
1532281391.455,29.297,30.273,34.668,28.320,-74.707
1532281391.459,32.227,32.227,35.645,33.203,-65.430
1532281391.463,30.762,28.320,37.109,32.227,113.770
1532281391.467,31.738,28.809,36.621,27.344,125.977
1532281391.471,34.180,29.785,38.086,28.809,-35.645
1532281391.475,35.156,30.273,37.598,32.227,-105.469
1532281391.478,35.156,31.738,33.691,37.598,86.426
1532281391.482,38.086,29.297,34.180,35.645,187.012
1532281391.486,38.086,27.832,35.156,30.273,5.371
1532281391.490,35.645,28.809,33.203,28.320,-105.469
1532281391.494,34.668,28.809,32.715,26.367,22.461
1532281391.498,33.691,28.320,34.180,28.809,170.410
1532281391.502,32.715,27.832,36.621,23.926,75.195
1532281391.506,34.180,31.250,38.574,18.555,-114.258
1532281391.510,37.109,32.227,38.574,27.344,-41.992
1532281391.514,41.016,33.691,35.156,33.691,166.992
1532281391.518,42.480,34.180,36.133,33.691,147.949
1532281391.521,43.457,31.250,37.598,35.156,-60.059
1532281391.525,45.410,31.738,37.109,37.598,-104.004
1532281391.529,42.480,31.250,38.086,41.016,118.652
1532281391.533,39.062,29.785,39.062,41.504,182.129
1532281391.537,42.480,30.273,39.551,38.086,-21.484
1532281391.541,40.527,28.809,38.574,36.133,-108.887
1532281391.545,36.133,28.320,37.598,29.785,26.855
1532281391.549,37.598,30.762,38.574,29.297,158.203
1532281391.553,38.086,30.273,39.551,32.715,41.504
1532281391.557,37.598,29.785,39.062,31.738,-117.676
1532281391.560,37.109,27.832,38.086,35.645,0.488
1532281391.564,42.480,29.785,35.156,38.574,170.898
1532281391.568,48.340,32.227,38.086,41.504,93.750
1532281391.572,47.363,33.203,40.527,42.480,-100.586
1532281391.576,48.340,32.715,42.480,45.410,-48.340
1532281391.580,48.340,32.715,41.992,45.410,148.926
1532281391.584,43.945,32.715,41.504,40.527,114.746
1532281391.588,40.039,32.715,44.434,30.762,-101.074
1532281391.592,39.551,35.645,43.457,30.273,-80.566
1532281391.596,38.086,34.668,44.434,38.086,125.000
1532281391.600,33.691,36.621,43.457,36.621,148.438
1532281391.603,31.250,38.574,43.945,31.250,-1.953
1532281391.607,28.809,34.668,45.410,32.227,-107.910
1532281391.611,30.273,37.598,45.898,39.551,32.715
1532281391.615,34.180,39.551,49.805,44.922,182.617
1532281391.619,35.645,31.738,51.270,44.922,67.871
1532281391.623,40.039,31.250,49.316,45.410,-92.773
1532281391.627,40.039,35.156,46.387,45.898,-7.812
1532281391.631,37.109,37.109,45.898,42.969,181.152
1532281391.635,33.691,40.039,43.457,36.621,127.441
1532281391.639,35.645,41.992,41.016,31.738,-80.078
1532281391.643,35.156,41.992,41.016,23.926,-69.824
1532281391.646,30.273,42.969,39.551,17.578,102.539
1532281391.650,30.762,43.457,37.109,21.973,143.066
1532281391.654,32.715,41.992,40.527,23.926,-15.137
1532281391.658,31.738,43.457,42.480,23.438,-71.777
1532281391.662,31.250,45.898,41.992,23.438,118.164
1532281391.666,29.297,41.016,43.945,21.484,203.125
1532281391.670,29.297,40.527,41.992,22.461,19.531
1532281391.674,29.297,41.992,42.480,22.461,-106.445
1532281391.678,26.855,40.527,44.922,20.996,30.273
1532281391.682,25.391,41.504,46.387,17.578,166.016
1532281391.685,23.438,41.992,46.387,10.254,61.523
1532281391.689,20.020,40.039,46.387,11.230,-114.746
1532281391.693,18.555,40.039,42.480,13.672,-45.898
1532281391.697,20.996,39.062,41.016,15.137,153.320
1532281391.701,15.625,37.598,43.457,17.090,136.230
1532281391.705,17.090,38.086,44.922,16.113,-73.730
1532281391.709,20.996,38.086,45.410,16.113,-76.660
1532281391.713,19.531,41.016,44.434,17.578,133.301
1532281391.717,18.555,42.480,41.504,14.648,156.738
1532281391.721,18.555,39.062,40.039,13.672,-41.992
1532281391.725,15.137,39.062,40.527,8.301,-137.695
1532281391.728,11.719,37.598,39.551,3.906,70.801
1532281391.732,13.672,35.156,40.039,9.766,197.266
1532281391.736,14.160,35.156,40.527,11.230,16.113
1532281391.740,16.113,36.621,40.527,10.742,-86.914
1532281391.744,20.508,41.504,41.016,11.719,34.668
1532281391.748,22.949,42.969,41.992,12.207,180.664
1532281391.752,25.879,41.992,42.969,17.090,100.098
1532281391.756,29.297,43.945,42.969,22.949,-81.543
1532281391.760,25.391,41.504,42.969,25.391,-26.367
1532281391.764,22.461,40.527,41.504,24.414,153.320
1532281391.768,20.508,41.992,41.992,22.949,114.258
1532281391.771,21.973,41.504,46.387,23.926,-78.125
1532281391.775,24.414,42.480,46.387,24.902,-78.125
1532281391.779,22.949,40.527,44.434,22.949,125.488
1532281391.783,24.414,41.016,48.828,18.555,149.414
1532281391.787,24.902,45.410,50.781,12.695,-54.199
1532281391.791,22.949,43.457,47.363,16.602,-107.422
1532281391.795,26.855,39.551,46.387,23.926,54.688
1532281391.799,31.250,40.039,43.457,25.391,172.852
1532281391.803,32.715,42.480,43.945,24.414,16.113
1532281391.807,33.203,44.434,43.945,24.902,-143.066
1532281391.810,31.738,43.945,40.527,27.832,-10.742
1532281391.814,36.133,46.875,41.992,31.250,155.273
1532281391.818,39.551,47.852,43.945,33.691,100.098
1532281391.822,38.574,42.480,45.898,33.691,-103.516
1532281391.826,36.133,41.992,48.828,27.344,-115.723
1532281391.830,33.691,45.410,48.828,28.809,94.238
1532281391.834,32.227,43.945,45.898,30.273,142.578
1532281391.838,28.809,43.945,41.992,26.855,-30.762
1532281391.842,32.715,44.434,44.922,31.250,-107.422
1532281391.846,36.133,44.434,45.410,30.273,65.430
1532281391.850,35.156,46.387,41.504,25.391,169.922
1532281391.853,32.715,45.410,39.551,23.438,-9.277
1532281391.857,32.715,44.434,37.598,22.949,-107.422
1532281391.861,34.180,42.480,37.109,21.973,56.641
1532281391.865,36.133,41.504,39.062,19.531,171.875
1532281391.869,37.109,42.969,39.551,19.531,47.852
1532281391.873,38.086,42.480,40.527,19.043,-115.234
1532281391.877,42.480,41.016,38.086,20.508,-46.387
1532281391.881,46.875,42.480,37.109,23.438,137.207
1532281391.885,44.922,45.898,39.062,23.438,68.359
1532281391.889,40.527,42.480,40.527,28.320,-105.957
1532281391.892,41.992,40.039,41.992,38.574,-63.477
1532281391.896,42.969,41.992,42.480,46.875,133.789
1532281391.900,38.086,41.992,41.016,45.898,170.410
1532281391.904,35.156,44.434,39.062,39.551,-47.852
1532281391.908,35.156,44.922,38.574,38.574,-114.746
1532281391.912,35.645,46.875,39.062,41.016,94.238
1532281391.916,36.621,48.340,39.062,42.969,181.152
1532281391.920,32.715,46.387,39.551,39.551,18.066
1532281391.924,33.203,49.316,41.016,32.715,-136.230
1532281391.928,36.621,46.875,40.527,34.668,-10.742
1532281391.932,39.551,43.457,42.480,41.992,180.176
1532281391.935,38.086,43.457,43.457,37.598,65.430
1532281391.939,36.133,42.969,41.992,33.691,-107.422
1532281391.943,39.062,44.434,41.016,33.691,-41.992
1532281391.947,39.062,44.922,41.992,36.133,150.391
1532281391.951,42.480,46.875,44.922,39.062,140.137
1532281391.955,44.922,48.828,45.898,35.156,-52.734
1532281391.959,43.945,45.898,45.410,38.574,-60.547
1532281391.963,41.992,45.898,43.457,36.133,119.141
1532281391.967,40.039,45.410,42.969,28.809,145.020
1532281391.971,42.480,42.969,45.410,33.203,-29.297
1532281391.975,41.504,41.992,44.922,37.109,-91.797
1532281391.978,38.086,42.969,44.922,40.527,94.238
1532281391.982,41.504,44.922,43.457,42.969,212.891
1532281391.986,43.457,44.922,42.480,42.480,15.137
1532281391.990,42.969,46.387,42.969,41.016,-136.719
1532281391.994,44.922,48.828,41.992,43.457,0.977
1532281391.998,44.922,47.363,43.457,42.969,158.691
1532281392.002,40.039,46.387,42.480,39.551,75.195
1532281392.006,37.598,45.898,40.527,33.203,-142.578
1532281392.010,37.598,44.434,42.969,35.645,-67.383
1532281392.014,41.504,43.945,45.898,43.945,169.922
1532281392.017,40.527,42.969,45.410,42.480,142.090
1532281392.021,37.109,42.480,43.457,38.086,-62.988
1532281392.025,41.504,44.922,42.969,37.598,-94.238
1532281392.029,40.527,40.527,42.480,41.016,107.422
1532281392.033,37.109,36.133,41.016,41.992,168.945
1532281392.037,38.086,36.133,38.086,36.621,-5.859
1532281392.041,34.668,40.039,36.133,34.180,-112.793
1532281392.045,33.691,39.062,37.598,35.156,41.016
1532281392.049,32.715,34.668,38.086,37.109,176.270
1532281392.053,36.133,33.203,41.016,39.551,32.227
1532281392.057,40.527,29.785,41.992,40.039,-135.254
1532281392.060,41.016,30.762,39.551,41.992,-25.391
1532281392.064,44.434,36.133,38.574,40.039,145.508
1532281392.068,43.945,36.133,38.574,40.039,89.355
1532281392.072,42.480,37.109,39.062,42.480,-83.008
1532281392.076,42.480,37.109,41.016,41.016,-75.684
1532281392.080,40.039,36.133,43.945,41.016,132.812
1532281392.084,36.133,36.133,43.457,36.621,160.645
1532281392.088,36.133,34.180,39.551,32.715,-49.805
1532281392.092,36.133,35.645,37.598,31.738,-116.211
1532281392.096,36.621,35.156,39.551,32.715,59.570
1532281392.100,38.574,35.645,41.504,36.133,156.250
1532281392.103,41.016,38.574,41.504,28.809,13.672
1532281392.107,44.434,39.551,40.039,24.414,-140.137
1532281392.111,45.410,40.527,36.621,30.762,0.488
1532281392.115,43.945,40.527,36.133,31.250,201.172
1532281392.119,45.898,40.527,38.574,34.180,87.402
1532281392.123,49.316,41.016,41.016,39.551,-100.586
1532281392.127,47.852,39.551,42.969,41.016,-21.484
1532281392.131,44.922,39.062,42.969,40.527,182.617
1532281392.135,43.945,40.039,41.504,33.691,150.391
1532281392.139,42.480,41.992,39.062,29.785,-48.828
1532281392.142,42.480,41.992,38.086,36.621,-73.242
1532281392.146,41.504,41.016,38.574,40.039,113.281
1532281392.150,39.551,41.992,36.621,39.551,160.156
1532281392.154,37.598,42.969,40.039,42.480,-6.348
1532281392.158,34.668,41.016,41.016,39.551,-68.359
1532281392.162,36.133,39.551,36.133,36.621,77.148
1532281392.166,39.551,40.527,34.668,38.086,174.805
1532281392.170,40.527,42.969,35.645,36.621,18.555
1532281392.174,40.527,42.969,36.621,34.180,-129.395
1532281392.178,41.992,41.992,38.574,37.109,5.371
1532281392.182,39.062,39.062,41.016,36.133,167.969
1532281392.185,33.691,38.086,41.016,30.762,75.195
1532281392.189,37.109,40.527,40.039,32.227,-91.797
1532281392.193,41.504,41.992,40.039,35.156,-55.176
1532281392.197,41.504,41.504,42.969,40.527,127.441
1532281392.201,42.480,42.480,42.969,40.527,111.816
1532281392.205,35.645,41.992,41.992,32.227,-97.656
1532281392.209,34.668,41.016,41.992,34.668,-89.355
1532281392.213,39.551,41.504,42.480,39.062,102.539
1532281392.217,37.598,40.039,42.480,38.086,156.738
1532281392.221,39.551,40.039,41.504,36.621,-18.066
1532281392.224,41.016,43.457,40.527,29.297,-117.676
1532281392.228,36.133,41.992,37.109,29.297,48.828
1532281392.232,37.109,39.551,36.133,36.621,194.336
1532281392.236,41.504,40.527,38.574,34.180,42.969
1532281392.240,41.992,40.039,37.109,31.250,-141.113
1532281392.244,42.480,41.016,34.668,25.391,-32.227
1532281392.248,41.992,41.992,34.668,25.391,149.414
1532281392.252,41.016,39.551,34.668,33.691,103.027
1532281392.256,38.086,37.598,33.691,33.691,-74.707
1532281392.260,35.156,36.621,32.227,36.621,-58.105
1532281392.264,38.574,36.621,32.715,41.016,147.461
1532281392.267,40.527,35.156,34.180,40.527,165.527
1532281392.271,36.621,32.715,33.203,36.133,-41.016
1532281392.275,32.715,33.691,33.203,32.227,-72.266
1532281392.279,32.715,34.180,32.227,35.645,98.145
1532281392.283,35.156,30.273,33.203,33.691,139.648
1532281392.287,38.574,27.832,35.645,30.273,-7.324
1532281392.291,39.551,26.855,33.691,30.762,-95.703
1532281392.295,37.598,25.879,31.250,27.344,42.480
1532281392.299,39.551,25.879,31.738,28.809,191.895
1532281392.303,37.598,25.391,33.203,28.809,65.918
1532281392.307,35.156,26.367,31.250,25.391,-127.441
1532281392.310,35.645,22.461,31.250,29.785,-11.230
1532281392.314,35.156,20.508,33.203,32.715,215.820
1532281392.318,36.133,22.949,33.203,33.203,136.230
1532281392.322,36.621,21.484,34.180,30.762,-69.336
1532281392.326,39.062,21.484,35.645,31.738,-63.477
1532281392.330,41.016,22.461,36.621,37.598,107.422
1532281392.334,34.668,20.508,38.086,29.785,133.301
1532281392.338,33.203,20.508,37.109,27.344,-40.039
1532281392.342,39.551,21.973,39.062,34.668,-100.098
1532281392.346,40.527,20.020,37.598,32.227,52.734
1532281392.349,42.969,21.973,34.180,33.203,171.875
1532281392.353,44.922,24.414,34.668,35.645,18.555
1532281392.357,40.039,22.949,31.250,32.715,-139.648
1532281392.361,39.551,21.484,32.227,35.156,-9.766
1532281392.365,42.480,22.949,36.133,38.086,163.086
1532281392.369,41.504,23.926,37.109,37.598,79.102
1532281392.373,40.527,23.926,38.086,37.598,-104.004
1532281392.377,44.922,23.926,38.086,39.551,-47.363
1532281392.381,46.387,23.438,36.621,42.969,156.738
1532281392.385,46.875,28.809,36.133,37.598,132.812
1532281392.389,45.898,33.203,35.156,30.762,-54.199
1532281392.392,44.434,30.762,33.203,36.133,-77.637
1532281392.396,46.387,30.273,33.691,41.016,113.770
1532281392.400,44.434,31.738,33.691,40.039,154.297
1532281392.404,43.945,30.762,36.133,39.551,-31.250
1532281392.408,45.410,32.715,40.039,39.551,-81.543
1532281392.412,46.387,36.133,38.086,40.527,62.988
1532281392.416,47.852,38.086,33.691,41.504,161.621
1532281392.420,45.898,40.039,34.668,40.039,52.734
1532281392.424,42.480,40.039,35.645,34.180,-123.535
1532281392.428,38.086,39.551,35.645,31.738,-22.949
1532281392.432,35.645,40.039,35.645,39.551,166.504
1532281392.435,41.504,44.434,38.574,43.945,100.098
1532281392.439,44.922,44.922,40.527,43.945,-73.730
1532281392.443,45.898,42.969,38.574,41.504,-54.688
1532281392.447,47.363,44.434,38.086,40.527,124.023
1532281392.451,47.363,46.387,37.109,40.527,146.484
1532281392.455,46.387,47.852,37.598,39.551,-53.223
1532281392.459,45.898,48.828,37.598,41.504,-86.914
1532281392.463,49.316,51.270,37.598,43.945,113.281
1532281392.467,48.340,50.781,36.133,46.387,182.617
1532281392.471,48.340,50.781,39.551,48.340,-16.602
1532281392.474,46.387,48.340,42.969,45.898,-146.484
1532281392.478,44.434,43.945,41.992,45.410,38.086
1532281392.482,44.434,43.457,40.527,43.457,175.781
1532281392.486,44.434,46.875,38.574,40.039,25.879
1532281392.490,46.875,46.875,37.598,42.969,-133.789
1532281392.494,50.293,48.340,35.645,47.852,-15.137
1532281392.498,48.340,49.316,36.621,50.293,192.383
1532281392.502,45.410,44.434,38.574,48.828,114.746
1532281392.506,43.945,42.480,40.039,43.945,-108.887
1532281392.510,42.969,43.457,38.086,43.457,-93.750
1532281392.514,44.922,42.480,36.621,43.457,105.957
1532281392.517,46.875,43.945,35.645,42.480,127.441
1532281392.521,49.316,47.363,37.109,40.527,-41.504
1532281392.525,49.805,46.387,41.016,33.691,-108.887
1532281392.529,46.875,41.016,40.527,38.086,81.543
1532281392.533,46.875,42.480,39.551,42.969,190.918
1532281392.537,45.898,44.922,39.551,39.062,17.578
1532281392.541,46.875,43.457,38.086,36.621,-120.117
1532281392.545,48.828,41.992,37.109,33.203,0.977
1532281392.549,47.363,42.969,37.598,34.180,183.105
1532281392.553,47.852,45.898,37.598,36.621,88.867
1532281392.556,45.410,45.410,40.527,36.621,-105.957
1532281392.560,43.945,44.922,39.062,40.039,-26.367
1532281392.564,45.410,43.945,39.551,42.969,163.574
1532281392.568,43.457,42.480,41.016,41.992,145.020
1532281392.572,42.969,41.504,44.434,41.504,-55.176
1532281392.576,43.945,42.480,45.410,41.504,-76.660
1532281392.580,42.480,43.945,43.945,43.945,130.859
1532281392.584,40.527,44.922,44.922,40.039,145.508
1532281392.588,40.527,46.875,46.875,33.691,-54.688
1532281392.592,43.945,44.922,48.828,41.504,-106.934
1532281392.596,48.340,42.969,45.410,46.387,65.430
1532281392.599,51.758,42.969,43.945,45.898,199.707
1532281392.603,52.246,41.992,48.828,45.898,34.180
1532281392.607,51.758,41.016,47.852,45.410,-119.629
1532281392.611,52.734,39.551,46.875,46.875,7.812
1532281392.615,50.781,43.457,47.852,47.852,175.293
1532281392.619,47.363,44.434,46.875,42.480,102.051
1532281392.623,48.340,43.945,46.875,38.086,-115.234
1532281392.627,45.410,44.922,49.805,35.645,-76.172
1532281392.631,44.434,44.922,49.316,38.086,147.461
1532281392.635,52.246,47.363,50.293,44.922,129.395
1532281392.639,54.688,46.387,52.734,47.852,-71.289
1532281392.642,55.664,46.387,51.758,49.316,-87.402
1532281392.646,59.570,46.387,52.246,53.711,86.914
1532281392.650,58.105,43.945,54.688,55.176,149.414
1532281392.654,57.129,43.945,55.176,52.246,-37.109
1532281392.658,57.129,44.922,51.758,51.758,-148.926
1532281392.662,53.223,41.504,50.293,52.734,23.926
1532281392.666,53.223,37.109,52.246,43.457,143.066
1532281392.670,52.246,39.551,52.734,43.945,23.438
1532281392.674,46.875,36.133,52.734,49.805,-96.191
1532281392.678,45.898,33.691,53.711,49.805,12.207
1532281392.681,48.340,36.133,55.176,48.340,154.785
1532281392.685,49.316,35.645,54.688,44.922,81.055
1532281392.689,49.805,35.156,54.688,46.387,-92.773
1532281392.693,53.711,36.621,55.664,48.828,-67.871
1532281392.697,59.570,38.086,54.199,50.293,153.320
1532281392.701,61.035,37.598,52.734,47.363,158.691
1532281392.705,65.918,38.574,52.246,45.898,-54.688
1532281392.709,68.359,38.574,53.711,47.852,-88.867
1532281392.713,62.988,32.715,53.223,51.758,80.566
1532281392.717,55.664,28.320,52.734,54.199,159.668
1532281392.721,49.805,28.809,54.199,57.129,14.160
1532281392.724,45.410,27.832,52.734,61.035,-96.191
1532281392.728,41.504,26.855,53.223,62.500,45.898
1532281392.732,40.527,25.879,54.199,60.059,165.527
1532281392.736,41.992,26.367,53.223,58.105,44.434
1532281392.740,41.992,25.879,53.711,62.012,-97.656
1532281392.744,40.527,25.391,53.223,56.152,-33.691
1532281392.748,40.039,25.391,52.734,50.781,125.488
1532281392.752,43.457,24.414,53.711,55.664,99.609
1532281392.756,44.922,25.391,53.223,54.199,-90.332
1532281392.760,42.480,27.344,53.223,51.270,-51.758
1532281392.764,41.992,26.367,53.711,49.316,127.441
1532281392.767,40.039,24.414,53.223,44.922,132.324
1532281392.771,37.598,24.414,52.734,42.969,-27.832
1532281392.775,37.598,22.949,51.758,44.922,-76.660
1532281392.779,41.504,23.926,51.758,48.340,89.844
1532281392.783,45.898,23.438,53.223,50.293,169.434
1532281392.787,51.758,24.414,55.664,54.199,-0.977
1532281392.791,52.734,27.344,54.199,56.641,-142.090
1532281392.795,46.875,21.973,50.781,55.176,-26.367
1532281392.799,43.945,21.484,53.711,55.176,147.949
1532281392.803,43.457,24.414,54.199,52.246,59.082
1532281392.806,41.016,21.484,52.246,47.363,-128.418
1532281392.810,42.480,19.531,53.223,53.711,-29.297
1532281392.814,41.992,18.555,51.758,56.641,167.969
1532281392.818,39.551,19.531,49.316,53.711,125.977
1532281392.822,39.551,22.949,50.293,55.176,-93.750
1532281392.826,40.527,22.949,53.711,55.664,-116.699
1532281392.830,40.527,20.020,52.246,51.758,95.215
1532281392.834,41.992,18.066,49.316,48.340,164.551
1532281392.838,41.992,19.531,49.805,49.805,-6.836
1532281392.842,43.945,20.020,51.758,50.781,-116.211
1532281392.846,45.898,20.508,52.246,50.293,39.062
1532281392.849,45.898,22.949,51.758,54.688,188.477
1532281392.853,48.340,24.902,51.270,54.688,67.871
1532281392.857,51.758,23.438,48.340,54.199,-100.098
1532281392.861,53.711,21.484,46.875,59.570,-14.648
1532281392.865,49.316,23.438,48.340,55.664,158.203
1532281392.869,43.457,20.996,47.363,48.828,76.660
1532281392.873,43.945,20.508,44.434,48.828,-99.121
1532281392.877,41.992,21.973,45.410,45.898,-32.715
1532281392.881,40.039,22.461,47.363,43.457,182.617
1532281392.885,42.969,23.926,46.387,45.410,175.293
1532281392.888,45.410,24.414,45.898,46.875,-57.617
1532281392.892,47.852,25.391,45.410,50.293,-100.098
1532281392.896,47.363,21.484,44.434,55.664,95.703
1532281392.900,42.969,19.531,44.922,55.176,177.246
1532281392.904,42.480,20.020,46.387,47.852,-13.672
1532281392.908,45.898,20.996,48.340,43.945,-152.344
1532281392.912,50.781,22.949,49.316,52.734,40.527
1532281392.916,50.781,23.926,47.852,54.688,174.805
1532281392.920,44.922,21.484,45.898,45.898,52.734
1532281392.924,41.016,18.066,45.898,43.457,-87.891
1532281392.928,40.039,19.043,45.410,46.387,-13.184
1532281392.931,42.480,20.508,42.480,47.852,154.785
1532281392.935,46.875,20.020,43.945,49.316,117.676
1532281392.939,47.363,22.461,44.434,47.363,-68.848
1532281392.943,47.852,25.879,43.457,48.340,-83.496
1532281392.947,50.781,26.367,42.480,50.781,124.512
1532281392.951,52.246,24.414,44.922,50.781,167.969
1532281392.955,53.223,22.949,47.852,50.293,-37.109
1532281392.959,53.223,22.949,46.387,51.758,-84.473
1532281392.963,47.363,20.508,46.387,45.410,94.727
1532281392.967,40.527,19.043,46.875,38.086,173.340
1532281392.971,44.922,21.973,45.410,43.457,20.020
1532281392.974,48.340,23.438,41.504,46.387,-107.422
1532281392.978,45.410,22.461,39.062,46.387,34.668
1532281392.982,48.340,24.902,38.086,47.852,202.148
1532281392.986,50.781,24.902,37.598,49.316,73.730
1532281392.990,47.852,24.414,37.109,49.805,-116.211
1532281392.994,47.363,24.414,38.086,50.293,-16.602
1532281392.998,49.805,25.391,39.551,54.199,160.645
1532281393.002,45.898,27.832,38.086,50.293,130.859
1532281393.006,42.969,28.320,37.109,37.598,-95.215
1532281393.010,47.363,28.320,37.109,39.551,-134.766
1532281393.013,47.363,27.832,35.645,46.875,105.957
1532281393.017,45.410,30.273,34.180,47.363,173.828
1532281393.021,48.828,31.738,33.691,49.316,-11.719
1532281393.025,51.758,31.738,36.621,54.199,-88.867
1532281393.029,47.852,28.320,39.062,57.129,62.500
1532281393.033,41.992,26.367,40.039,55.664,172.852
1532281393.037,41.016,27.832,39.551,52.734,61.035
1532281393.041,43.457,27.832,35.645,53.223,-77.148
1532281393.045,44.434,25.391,34.668,49.316,25.879
1532281393.049,43.945,27.832,35.156,48.340,201.660
1532281393.053,41.992,30.273,34.668,52.246,96.191
1532281393.056,41.992,32.227,31.738,52.734,-103.027
1532281393.060,41.504,33.203,31.738,52.246,-17.090
1532281393.064,40.527,29.297,31.738,47.363,148.926
1532281393.068,37.598,26.367,32.227,43.945,124.512
1532281393.072,40.039,28.809,34.180,46.387,-44.922
1532281393.076,43.457,30.762,33.691,47.363,-79.590
1532281393.080,40.039,27.832,33.203,48.340,112.305
1532281393.084,39.062,26.855,33.203,44.922,148.438
1532281393.088,36.621,28.320,33.691,40.039,-46.875
1532281393.092,32.227,25.391,34.180,41.016,-117.188
1532281393.096,33.691,25.879,33.203,43.945,41.992
1532281393.099,40.039,32.227,32.715,50.293,160.645
1532281393.103,40.039,32.715,33.203,47.363,25.391
1532281393.107,36.133,31.250,30.762,41.992,-141.113
1532281393.111,36.621,29.297,29.297,43.945,-29.785
1532281393.115,40.039,28.320,29.297,47.852,165.527
1532281393.119,39.551,31.250,27.344,45.898,111.816
1532281393.123,40.527,31.738,27.344,41.992,-89.844
1532281393.127,40.039,31.250,29.785,40.527,-60.059
1532281393.131,36.133,33.203,28.809,40.527,121.094
1532281393.135,36.621,34.180,28.320,37.598,117.676
1532281393.138,38.086,35.156,31.250,36.133,-38.086
1532281393.142,37.109,35.156,30.762,36.621,-89.355
1532281393.146,37.109,33.203,31.250,33.691,33.203
1532281393.150,36.133,35.156,32.715,35.156,120.117
1532281393.154,33.691,37.109,30.762,32.227,9.277
1532281393.158,34.668,37.109,30.273,33.691,-79.102
1532281393.162,38.086,36.133,31.738,39.551,56.641
1532281393.166,37.109,36.621,35.156,39.551,191.406
1532281393.170,31.250,38.574,36.621,37.598,73.730
1532281393.174,30.762,39.062,36.133,37.598,-108.398
1532281393.178,33.691,38.574,35.645,36.133,-32.227
1532281393.181,30.762,35.156,37.109,32.715,162.598
1532281393.185,29.297,34.668,38.574,26.855,84.473
1532281393.189,31.250,36.621,38.574,26.367,-118.652
1532281393.193,32.715,34.668,37.598,30.273,-87.891
1532281393.197,33.203,34.180,34.180,35.156,116.699
1532281393.201,32.227,33.691,32.715,39.062,172.852
1532281393.205,34.668,35.156,33.691,38.086,-24.414
1532281393.209,32.715,36.621,34.180,40.039,-105.957
1532281393.213,28.320,37.109,35.156,38.086,57.617
1532281393.217,24.414,34.668,34.668,33.691,151.855
1532281393.220,19.043,35.156,34.180,29.785,14.648
1532281393.224,22.949,36.621,36.133,28.809,-142.578
1532281393.228,27.344,36.621,34.668,31.738,-33.203
1532281393.232,25.879,37.109,34.180,35.156,163.574
1532281393.236,25.391,38.574,34.668,33.691,64.453
1532281393.240,25.879,38.086,33.203,32.227,-124.023
1532281393.244,24.414,36.621,32.227,30.762,-49.316
1532281393.248,21.973,35.156,32.715,28.809,144.531
1532281393.252,26.367,36.133,34.668,31.738,124.512
1532281393.256,30.762,36.621,31.250,33.203,-67.383
1532281393.260,31.738,34.180,31.250,34.668,-93.750
1532281393.263,30.762,33.691,33.203,36.621,90.332
1532281393.267,24.414,29.297,33.691,31.738,166.504
1532281393.271,25.391,27.832,36.133,30.762,-5.371
1532281393.275,31.250,27.832,36.621,32.227,-89.355
1532281393.279,35.645,28.320,34.668,36.133,68.359
1532281393.283,33.691,29.297,36.133,31.250,186.523
1532281393.287,31.738,30.273,36.621,22.949,48.340
1532281393.291,36.133,32.227,34.668,28.809,-100.098
1532281393.295,36.133,33.691,33.203,33.691,13.672
1532281393.299,35.156,34.180,35.156,35.645,195.312
1532281393.303,37.109,35.156,39.551,34.180,109.375
1532281393.306,35.156,34.668,36.621,31.250,-93.262
1532281393.310,32.227,32.227,34.180,36.621,-47.363
1532281393.314,33.203,34.668,36.133,38.086,135.742
1532281393.318,32.227,33.691,36.621,32.715,112.305
1532281393.322,34.180,31.738,37.598,31.250,-72.754
1532281393.326,36.621,35.645,35.645,25.879,-117.676
1532281393.330,39.551,36.133,34.180,27.832,67.871
1532281393.334,40.039,36.621,37.598,33.691,178.711
1532281393.338,36.133,41.992,37.598,29.785,16.602
1532281393.342,33.691,42.480,35.156,24.414,-126.953
1532281393.345,32.227,40.527,37.598,27.832,19.531
1532281393.349,33.203,39.062,37.598,30.273,184.082
1532281393.353,36.621,37.109,34.180,29.785,62.500
1532281393.357,36.621,38.574,36.133,33.203,-113.281
1532281393.361,33.691,38.086,34.668,31.250,-21.973
1532281393.365,34.668,37.109,34.668,27.832,135.254
1532281393.369,40.039,37.598,38.086,29.785,83.984
1532281393.373,40.527,38.574,35.645,33.203,-75.195
1532281393.377,41.016,41.016,36.133,33.691,-46.875
1532281393.381,41.504,40.039,38.086,34.180,130.859
1532281393.385,41.504,37.598,38.086,31.250,139.648
1532281393.388,39.551,38.086,38.574,28.320,-46.875
1532281393.392,41.016,39.551,36.133,29.297,-101.074
1532281393.396,40.039,37.598,35.156,30.273,64.941
1532281393.400,35.156,36.133,34.180,29.297,159.180
1532281393.404,38.574,38.574,35.645,25.391,20.020
1532281393.408,42.480,40.039,35.645,26.855,-128.418
1532281393.412,41.016,40.039,32.227,31.250,-6.836
1532281393.416,39.062,41.504,29.785,30.273,165.527
1532281393.420,37.598,40.527,32.715,28.809,68.848
1532281393.424,39.062,39.551,35.156,26.367,-139.160
1532281393.428,41.016,41.016,31.738,24.902,-88.867
1532281393.431,38.574,41.016,31.250,29.785,139.160
1532281393.435,34.668,41.016,30.762,28.809,132.812
1532281393.439,33.691,41.016,28.320,24.414,-66.895
1532281393.443,37.598,40.527,29.785,27.344,-94.238
1532281393.447,37.598,40.039,29.785,28.320,104.492
1532281393.451,32.715,39.551,29.297,28.809,146.484
1532281393.455,32.715,38.086,30.762,28.320,-41.504
1532281393.459,35.156,40.039,30.762,30.762,-115.234
1532281393.463,36.133,40.527,29.297,31.738,28.320
1532281393.467,33.691,38.086,26.855,24.902,142.578
1532281393.470,29.297,36.621,28.320,23.438,27.832
1532281393.474,30.273,35.156,28.320,24.902,-121.582
1532281393.478,33.691,35.156,26.855,26.855,2.930
1532281393.482,33.691,38.086,30.762,28.320,171.387
1532281393.486,32.227,37.598,28.809,23.926,69.824
1532281393.490,31.738,37.598,25.879,23.438,-104.980
1532281393.494,32.715,38.086,27.344,23.926,-48.828
1532281393.498,39.551,36.621,28.809,29.297,152.344
1532281393.502,41.016,38.086,31.738,34.180,122.559
1532281393.506,41.016,38.086,30.762,35.156,-79.590
1532281393.510,42.969,37.598,27.344,39.551,-96.191
1532281393.513,41.504,38.086,27.344,41.016,112.793
1532281393.517,43.457,36.621,29.297,39.062,185.547
1532281393.521,43.457,35.156,30.762,36.133,-15.137
1532281393.525,35.645,35.645,28.809,27.344,-160.645
1532281393.529,27.832,35.645,28.809,23.926,20.996
1532281393.533,27.832,32.715,29.297,25.391,186.523
1532281393.537,30.273,33.203,29.297,22.461,26.367
1532281393.541,36.621,38.574,28.809,24.902,-121.094
1532281393.545,45.410,38.574,24.902,27.344,-8.301
1532281393.549,49.805,38.574,24.902,25.391,153.809
1532281393.552,51.270,40.527,28.809,24.902,96.191
1532281393.556,55.664,45.410,28.809,23.438,-84.473
1532281393.560,55.664,47.363,26.367,28.809,-60.547
1532281393.564,47.852,41.504,27.344,30.762,103.516
1532281393.568,41.016,40.039,29.297,28.809,150.391
1532281393.572,36.133,41.504,30.273,34.180,-17.578
1532281393.576,34.180,37.109,29.297,36.621,-86.914
1532281393.580,32.715,38.086,30.762,40.039,100.098
1532281393.584,31.250,40.527,33.203,41.992,174.316
1532281393.588,27.832,36.133,30.273,37.598,20.020
1532281393.592,28.809,33.691,29.785,37.598,-104.004
1532281393.595,33.203,35.156,28.320,39.062,37.109
1532281393.599,33.203,39.062,24.902,35.645,208.984
1532281393.603,32.227,40.527,23.438,26.855,72.266
1532281393.607,33.691,41.504,26.367,21.484,-140.137
1532281393.611,32.715,39.551,27.832,28.809,-39.551
1532281393.615,34.668,37.598,27.832,33.203,164.062
1532281393.619,40.527,40.039,31.250,35.156,132.324
1532281393.623,40.527,40.527,32.227,34.668,-53.711
1532281393.627,38.086,37.598,30.273,31.738,-63.477
1532281393.631,38.086,37.109,28.809,32.715,129.395
1532281393.635,35.156,39.062,26.367,30.273,144.043
1532281393.638,34.668,38.574,26.855,28.809,-41.992
1532281393.642,39.062,37.598,29.785,31.250,-121.582
1532281393.646,39.062,38.086,29.297,30.762,22.949
1532281393.650,40.039,36.621,30.273,34.180,150.879
1532281393.654,41.016,38.574,29.785,35.645,25.879
1532281393.658,38.086,39.551,27.344,33.691,-117.188
1532281393.662,37.598,37.598,26.367,32.715,-4.395
1532281393.666,35.645,37.109,25.879,29.297,147.461
1532281393.670,37.109,38.574,28.320,28.320,62.500
1532281393.674,38.574,37.598,30.273,27.344,-97.656
1532281393.677,38.574,33.203,32.227,32.715,-25.879
1532281393.681,37.109,33.691,32.227,39.551,157.227
1532281393.685,33.691,34.668,31.738,38.574,128.418
1532281393.689,38.086,37.598,34.180,38.086,-81.055
1532281393.693,41.992,39.062,33.203,40.527,-113.281
1532281393.697,41.504,37.598,33.691,44.922,83.496
1532281393.701,38.086,37.109,32.715,43.945,168.457
1532281393.705,37.598,40.527,29.785,34.668,-21.973
1532281393.709,39.062,40.527,27.344,31.738,-119.141
1532281393.713,38.086,38.086,25.879,38.574,54.199
1532281393.717,36.621,36.621,25.391,36.621,172.852
1532281393.720,34.668,37.109,25.391,34.180,65.918
1532281393.724,32.715,36.133,25.879,32.715,-97.168
1532281393.728,33.691,35.645,25.391,36.133,-5.859
1532281393.732,35.645,36.133,23.926,39.551,157.715
1532281393.736,37.109,35.156,23.438,36.621,64.453
1532281393.740,41.016,36.621,22.461,37.598,-102.539
1532281393.744,42.480,39.551,19.531,32.227,-79.590
1532281393.748,43.945,39.062,18.066,29.297,99.121
1532281393.752,42.480,36.621,18.066,31.738,130.371
1532281393.756,41.016,36.621,18.066,27.344,-50.293
1532281393.760,41.016,37.598,18.555,26.855,-82.520
1532281393.763,39.551,40.527,17.090,27.832,95.703
1532281393.767,38.574,39.551,15.625,27.344,166.504
1532281393.771,38.086,37.109,17.090,25.879,1.953
1532281393.775,39.551,39.062,18.555,25.879,-122.070
1532281393.779,40.527,39.062,17.578,27.832,39.551
1532281393.783,40.527,38.574,17.578,27.832,172.363
1532281393.787,39.062,39.062,21.484,24.902,8.301
1532281393.791,37.109,37.109,22.461,26.855,-109.375
1532281393.795,36.621,35.156,20.996,29.297,3.418
1532281393.799,38.574,35.645,20.996,31.250,166.992
1532281393.802,37.109,36.621,20.020,30.762,131.836
1532281393.806,36.133,38.574,19.531,25.391,-84.473
1532281393.810,35.645,38.574,18.066,24.902,-83.496
1532281393.814,35.156,39.551,16.113,25.879,118.164
1532281393.818,34.180,37.109,17.090,22.949,156.738
1532281393.822,28.320,35.156,20.020,22.461,-54.199
1532281393.826,31.250,36.133,21.484,26.367,-127.441
1532281393.830,35.645,35.645,20.996,30.273,81.055
1532281393.834,34.180,36.621,21.973,31.250,174.316
1532281393.838,29.785,37.598,21.484,29.297,9.277
1532281393.842,26.367,37.598,18.555,26.367,-118.652
1532281393.845,26.367,38.086,20.020,18.066,0.000
1532281393.849,26.367,39.551,20.508,19.531,163.086
1532281393.853,23.926,39.551,22.949,28.809,86.426
1532281393.857,23.438,37.109,23.438,27.344,-101.562
1532281393.861,22.461,38.574,22.949,24.902,-38.086
1532281393.865,24.902,40.039,23.438,25.879,139.648
1532281393.869,30.762,39.062,24.902,30.273,123.047
1532281393.873,28.320,41.504,23.438,28.320,-47.363
1532281393.877,25.391,40.527,20.508,28.320,-85.449
1532281393.881,30.762,38.574,20.996,35.156,92.285
1532281393.884,34.180,41.504,20.020,31.738,140.137
1532281393.888,33.203,42.969,19.531,30.273,-54.688
1532281393.892,32.227,39.551,20.996,30.762,-130.859
1532281393.896,27.344,38.086,20.996,28.809,53.711
1532281393.900,23.438,36.621,20.020,29.297,192.871
1532281393.904,25.391,36.621,20.996,26.855,33.691
1532281393.908,27.832,37.598,20.996,26.367,-122.559
1532281393.912,27.344,36.133,21.484,30.762,-1.465
1532281393.916,26.855,37.109,23.438,32.715,188.477
1532281393.920,27.344,37.598,22.461,29.785,107.910
1532281393.924,25.391,37.598,22.461,24.414,-118.164
1532281393.927,26.855,35.645,20.996,21.973,-79.102
1532281393.931,31.250,33.203,18.555,27.344,151.367
1532281393.935,30.762,33.203,18.066,29.785,154.297
1532281393.939,28.809,33.691,19.531,28.809,-65.430
1532281393.943,28.809,36.133,19.531,26.855,-121.582
1532281393.947,30.273,39.062,19.043,28.809,72.266
1532281393.951,30.273,40.527,20.996,30.273,176.270
1532281393.955,26.855,40.527,23.438,27.344,-11.230
1532281393.959,26.855,40.039,23.438,27.344,-104.980
1532281393.963,29.785,44.434,21.484,30.762,56.152
1532281393.967,33.203,45.898,20.996,32.715,165.039
1532281393.970,33.203,39.551,21.973,33.203,41.504
1532281393.974,31.250,36.621,24.902,31.738,-109.863
1532281393.978,30.273,35.645,25.391,33.203,17.090
