timestamps,TP9,AF7,AF8,TP10,Right AUX
1532281265.664,14.160,25.391,26.367,22.461,337.402
1532281265.667,20.508,27.832,23.926,20.508,113.281
1532281265.671,27.832,26.367,22.461,26.367,-220.703
1532281265.675,36.621,25.391,22.949,29.785,-86.426
1532281265.679,33.691,24.902,20.508,22.461,282.227
1532281265.683,29.297,26.367,19.531,17.090,208.984
1532281265.687,33.691,27.344,19.531,15.625,-193.848
1532281265.691,36.133,26.855,15.137,24.414,-183.105
1532281265.695,35.645,29.297,14.160,30.762,242.188
1532281265.699,34.180,30.273,15.625,30.762,303.223
1532281265.703,28.320,28.809,15.137,27.832,-109.375
1532281265.707,23.926,27.344,16.113,28.809,-265.625
1532281265.710,29.785,24.902,19.043,41.504,98.145
1532281265.714,32.715,22.949,20.996,45.898,319.824
1532281265.718,29.297,23.438,18.555,41.016,25.391
1532281265.722,31.250,23.438,16.113,40.527,-248.535
1532281265.726,31.738,23.438,17.578,38.574,-30.762
1532281265.730,26.855,25.879,17.578,34.668,296.387
1532281265.734,30.273,26.855,15.625,34.180,128.906
1532281265.738,33.691,25.391,16.113,33.691,-229.492
1532281265.742,29.785,23.438,17.090,34.180,-116.211
1532281265.746,30.762,25.391,17.578,32.227,235.840
1532281265.749,30.762,26.367,17.090,29.297,213.379
1532281265.753,29.297,24.414,16.602,29.297,-147.461
1532281265.757,33.691,25.879,13.672,32.227,-207.520
1532281265.761,37.109,27.832,12.207,32.227,172.363
1532281265.765,37.598,28.320,16.113,27.344,310.059
1532281265.769,33.691,28.809,18.066,25.391,-37.598
1532281265.773,34.668,29.297,17.090,25.391,-245.605
1532281265.777,41.992,33.691,14.160,31.738,51.758
1532281265.781,39.062,35.156,13.184,37.109,313.477
1532281265.785,31.738,35.645,14.648,30.762,3.906
1532281265.789,36.133,35.645,16.602,37.109,-300.781
1532281265.792,39.551,33.203,17.090,52.246,-34.180
1532281265.796,45.410,34.180,15.625,57.129,337.402
1532281265.800,46.387,35.645,15.137,57.617,190.430
1532281265.804,45.410,35.645,14.648,56.152,-213.379
1532281265.808,52.246,35.645,13.184,58.105,-171.875
1532281265.812,55.176,36.621,12.207,58.105,235.352
1532281265.816,51.758,37.109,12.207,54.688,275.391
1532281265.820,52.734,37.109,13.184,52.246,-127.930
1532281265.824,55.664,36.133,13.672,47.363,-237.793
1532281265.828,54.688,33.691,16.113,43.945,96.680
1532281265.831,50.293,34.180,16.602,45.410,270.996
1532281265.835,46.875,34.668,15.625,41.504,-24.414
1532281265.839,48.340,34.180,16.602,40.039,-239.746
1532281265.843,50.781,32.715,14.648,40.527,41.016
1532281265.847,50.293,33.203,12.207,34.668,316.895
1532281265.851,50.781,33.691,12.695,30.762,104.980
1532281265.855,50.781,31.250,13.672,30.762,-215.332
1532281265.859,48.340,30.762,13.184,34.180,-36.133
1532281265.863,49.805,31.250,15.137,40.039,336.914
1532281265.867,54.199,33.203,16.602,40.527,212.402
1532281265.871,51.758,34.668,17.090,39.551,-193.848
1532281265.874,51.270,34.668,16.602,45.410,-185.059
1532281265.878,47.363,32.715,16.602,51.270,194.336
1532281265.882,41.016,29.785,18.555,53.711,284.180
1532281265.886,36.621,27.344,18.066,48.828,-99.121
1532281265.890,35.156,27.344,19.043,53.711,-239.258
1532281265.894,38.574,28.809,20.020,65.918,139.160
1532281265.898,37.109,27.832,20.020,61.523,321.289
1532281265.902,36.133,29.785,20.996,55.664,13.672
1532281265.906,39.551,32.227,22.461,56.152,-243.652
1532281265.910,41.016,31.250,22.949,60.059,4.395
1532281265.914,43.457,32.715,23.926,58.105,292.480
1532281265.917,44.434,32.715,22.461,45.898,104.492
1532281265.921,41.504,32.715,20.996,40.527,-201.172
1532281265.925,44.434,35.156,23.438,37.598,-96.191
1532281265.929,46.875,34.668,21.973,33.203,248.047
1532281265.933,42.480,32.715,19.043,32.715,214.844
1532281265.937,39.062,31.738,20.020,27.832,-170.410
1532281265.941,36.133,30.273,19.531,25.879,-168.945
1532281265.945,35.645,28.809,20.020,24.902,178.711
1532281265.949,28.320,30.273,19.043,18.555,261.719
1532281265.953,26.855,33.203,17.578,16.113,-58.594
1532281265.956,28.320,32.715,19.531,20.020,-245.117
1532281265.960,29.297,32.715,20.020,29.297,85.449
1532281265.964,35.645,36.133,20.996,35.645,318.848
1532281265.968,36.133,36.133,19.531,33.691,34.180
1532281265.972,34.180,35.645,20.508,36.621,-251.953
1532281265.976,34.668,35.156,21.973,43.945,-37.598
1532281265.980,40.039,35.156,21.484,50.293,314.453
1532281265.984,38.086,36.133,23.438,42.969,147.461
1532281265.988,34.668,36.133,22.949,36.133,-233.887
1532281265.992,41.504,37.598,20.508,48.340,-154.297
1532281265.996,47.852,39.551,19.531,54.199,258.789
1532281265.999,48.828,40.527,20.020,51.758,264.160
1532281266.003,46.387,38.086,21.973,48.340,-143.066
1532281266.007,48.340,35.156,23.438,48.828,-224.121
1532281266.011,52.246,34.668,22.949,49.316,137.695
1532281266.015,47.852,34.180,20.996,44.922,311.035
1532281266.019,43.457,32.715,21.484,40.039,-21.484
1532281266.023,42.480,33.203,22.949,37.598,-264.160
1532281266.027,42.969,34.668,20.996,34.668,39.551
1532281266.031,41.992,33.691,20.508,34.180,341.309
1532281266.035,39.062,36.621,24.414,31.738,88.379
1532281266.039,39.062,39.062,24.902,27.832,-213.867
1532281266.042,40.527,37.109,22.461,31.250,-42.480
1532281266.046,41.016,38.574,22.461,35.645,276.367
1532281266.050,38.086,40.039,22.461,42.480,183.105
1532281266.054,40.039,39.551,23.438,48.340,-177.734
1532281266.058,42.969,38.086,23.926,52.246,-155.762
1532281266.062,43.945,36.621,20.996,55.664,225.098
1532281266.066,47.852,36.621,23.438,53.711,255.859
1532281266.070,48.340,36.621,27.344,51.758,-110.840
1532281266.074,51.758,38.086,28.809,55.176,-200.684
1532281266.078,55.664,38.086,29.297,61.523,125.977
1532281266.081,49.316,39.062,28.320,60.059,273.438
1532281266.085,48.828,40.039,30.762,57.129,-33.691
1532281266.089,52.246,37.598,32.227,58.594,-240.723
1532281266.093,52.246,37.109,31.250,61.035,54.688
1532281266.097,49.316,36.621,28.809,58.594,348.145
1532281266.101,47.363,38.574,28.320,57.129,119.629
1532281266.105,48.828,39.551,28.320,51.270,-237.793
1532281266.109,47.363,37.109,26.367,47.363,-128.906
1532281266.113,45.410,35.156,24.414,56.641,238.281
1532281266.117,47.363,31.738,24.414,58.105,217.285
1532281266.121,49.805,33.691,25.879,57.129,-173.340
1532281266.124,56.641,33.691,22.949,63.965,-199.707
1532281266.128,59.570,34.180,20.508,67.383,173.828
1532281266.132,58.594,38.086,21.484,63.965,270.020
1532281266.136,60.059,37.109,20.508,61.523,-68.848
1532281266.140,58.594,37.109,17.090,60.547,-248.535
1532281266.144,53.223,36.621,14.648,58.594,67.383
1532281266.148,50.293,34.668,17.090,56.152,304.688
1532281266.152,49.805,35.645,19.531,54.688,26.367
1532281266.156,50.781,35.645,18.066,55.664,-284.180
1532281266.160,50.781,35.156,17.090,60.547,-65.918
1532281266.164,48.340,36.621,19.043,57.129,271.973
1532281266.167,46.875,37.598,19.531,45.410,84.961
1532281266.171,45.898,37.598,21.484,47.363,-243.164
1532281266.175,41.992,38.574,22.949,51.758,-135.254
1532281266.179,41.504,36.621,22.949,50.293,245.605
1532281266.183,42.969,36.133,24.414,50.293,255.859
1532281266.187,40.039,34.668,25.879,44.434,-152.344
1532281266.191,39.062,34.668,26.367,42.480,-210.938
1532281266.195,40.039,32.227,27.832,44.434,164.551
1532281266.199,36.133,30.762,26.367,40.039,266.113
1532281266.203,31.250,34.180,24.414,33.691,-80.566
1532281266.206,29.785,35.156,28.809,28.809,-277.344
1532281266.210,23.438,34.668,31.738,26.367,61.035
1532281266.214,19.531,34.668,29.297,25.879,359.863
1532281266.218,20.020,37.598,28.809,21.484,61.035
1532281266.222,17.578,36.621,30.762,19.043,-285.645
1532281266.226,19.043,34.180,33.691,21.484,-63.477
1532281266.230,17.090,33.691,35.156,23.926,292.480
1532281266.234,13.184,33.691,36.133,21.973,176.270
1532281266.238,18.555,34.668,38.574,18.066,-202.637
1532281266.242,24.414,35.645,39.551,20.996,-149.414
1532281266.246,24.414,36.621,36.621,25.879,230.469
1532281266.249,20.508,37.598,37.109,23.926,264.648
1532281266.253,17.090,40.039,40.527,17.578,-112.305
1532281266.257,11.719,42.969,41.016,13.672,-222.168
1532281266.261,14.160,44.922,39.551,18.555,128.906
1532281266.265,13.672,44.922,41.504,12.207,270.508
1532281266.269,-2.441,42.480,41.992,1.953,-47.852
1532281266.273,-5.859,41.504,45.410,8.301,-234.375
1532281266.277,0.488,42.480,46.875,14.648,41.016
1532281266.281,0.488,41.016,45.410,15.137,306.152
1532281266.285,-2.930,37.598,49.805,8.301,74.219
1532281266.288,-0.977,36.133,50.781,9.766,-257.812
1532281266.292,6.348,34.180,47.852,20.996,-90.332
1532281266.296,5.859,33.691,46.875,20.508,273.438
1532281266.300,2.441,35.156,47.852,14.648,213.379
1532281266.304,3.418,37.598,42.969,8.789,-173.340
1532281266.308,6.348,38.574,38.574,10.254,-202.148
1532281266.312,7.812,36.621,37.598,17.578,204.590
1532281266.316,4.883,36.133,37.109,14.160,282.227
1532281266.320,7.324,37.109,39.062,10.742,-88.379
1532281266.324,13.672,38.574,39.551,18.555,-246.094
1532281266.328,16.113,39.062,36.621,24.414,90.332
1532281266.331,16.113,39.551,37.598,24.902,328.125
1532281266.335,16.602,38.574,40.527,24.414,23.926
1532281266.339,19.531,37.598,42.480,28.320,-252.930
1532281266.343,16.113,35.645,40.039,30.762,-51.270
1532281266.347,18.555,38.086,40.039,31.250,250.977
1532281266.351,24.902,41.504,43.945,37.109,126.465
1532281266.355,23.438,44.434,37.109,35.156,-210.449
1532281266.359,25.879,45.410,33.203,35.645,-120.605
1532281266.363,23.926,46.875,36.621,37.598,264.160
1532281266.367,20.996,47.363,36.133,32.715,223.633
1532281266.371,24.414,44.434,35.156,31.250,-165.039
1532281266.374,32.715,44.434,33.691,36.133,-198.730
1532281266.378,31.738,41.504,35.645,37.598,197.266
1532281266.382,27.344,40.039,39.551,34.668,318.848
1532281266.386,29.297,36.621,39.551,32.715,-81.055
1532281266.390,30.762,31.250,39.062,34.668,-259.766
1532281266.394,28.809,25.879,41.992,37.598,56.152
1532281266.398,30.273,23.438,41.504,33.203,298.828
1532281266.402,33.203,26.855,38.086,28.809,50.293
1532281266.406,32.227,32.715,34.668,20.996,-276.855
1532281266.410,30.762,30.273,34.180,18.555,-88.867
1532281266.413,25.391,24.414,36.133,24.414,300.781
1532281266.417,20.996,25.879,34.668,21.973,164.551
1532281266.421,22.461,25.879,32.227,21.484,-244.629
1532281266.425,21.973,24.414,30.762,23.926,-162.109
1532281266.429,22.461,23.926,29.297,25.391,237.793
1532281266.433,29.297,25.879,33.691,24.902,252.930
1532281266.437,25.879,27.832,34.180,22.461,-137.207
1532281266.441,19.531,25.879,32.227,28.809,-236.328
1532281266.445,23.438,25.391,35.645,32.227,114.258
1532281266.449,27.344,26.367,36.133,29.785,275.879
1532281266.453,37.109,26.855,35.645,35.156,-21.973
1532281266.456,41.016,26.367,32.227,35.156,-241.699
1532281266.460,40.527,28.320,30.273,33.691,28.809
1532281266.464,35.156,29.297,30.762,27.344,304.199
1532281266.468,27.344,28.320,30.273,21.973,72.754
1532281266.472,27.832,28.320,31.250,20.508,-264.648
1532281266.476,30.273,26.367,34.180,24.902,-83.496
1532281266.480,27.344,22.461,35.156,32.715,296.875
1532281266.484,18.066,21.484,37.109,21.973,175.781
1532281266.488,14.648,24.414,37.109,16.602,-210.449
1532281266.492,22.949,25.879,35.156,28.320,-168.457
1532281266.496,23.438,25.391,32.227,30.762,210.938
1532281266.499,20.020,23.438,34.180,29.785,254.395
1532281266.503,18.555,24.414,36.133,26.855,-126.465
1532281266.507,17.090,23.438,35.645,25.879,-237.305
1532281266.511,19.043,20.996,38.086,30.762,117.676
1532281266.515,20.996,20.996,39.062,32.227,306.641
1532281266.519,28.320,20.020,38.574,31.250,-15.625
1532281266.523,33.691,22.461,38.086,32.227,-276.855
1532281266.527,25.879,23.438,35.645,30.273,20.020
1532281266.531,19.531,21.484,33.203,26.367,321.777
1532281266.535,17.578,21.973,33.203,25.391,130.371
1532281266.538,15.625,24.414,34.668,24.902,-187.988
1532281266.542,17.578,24.902,36.133,28.320,-91.309
1532281266.546,16.602,25.391,36.133,22.949,239.258
1532281266.550,18.066,24.414,36.621,21.484,195.801
1532281266.554,26.367,23.926,37.109,28.320,-175.781
1532281266.558,27.344,23.438,39.551,32.715,-196.777
1532281266.562,30.273,22.949,41.016,38.086,178.223
1532281266.566,34.180,21.973,39.551,35.156,273.926
1532281266.570,36.133,24.414,37.598,31.250,-84.961
1532281266.574,38.574,24.902,37.598,32.715,-254.395
1532281266.578,47.363,23.438,37.598,38.086,80.078
1532281266.581,46.387,22.949,37.598,38.574,311.035
1532281266.585,34.668,22.461,40.527,29.297,8.301
1532281266.589,38.086,23.926,40.527,32.227,-270.996
1532281266.593,39.551,23.438,38.086,44.922,-20.996
1532281266.597,29.785,22.949,37.598,44.922,303.223
1532281266.601,22.461,22.949,40.527,40.527,164.551
1532281266.605,25.879,24.902,41.504,39.551,-210.449
1532281266.609,25.879,26.367,40.039,39.551,-146.484
1532281266.613,22.461,26.367,40.039,39.062,225.586
1532281266.617,23.438,24.902,38.086,37.109,240.723
1532281266.621,24.902,23.438,36.621,33.691,-137.207
1532281266.624,26.855,23.926,37.598,33.203,-227.539
1532281266.628,26.855,23.926,41.016,35.645,151.367
1532281266.632,28.809,22.949,40.527,37.109,283.691
1532281266.636,32.227,25.879,38.574,36.133,-62.988
1532281266.640,30.762,27.832,37.109,37.109,-272.461
1532281266.644,32.715,28.809,35.645,35.156,20.020
1532281266.648,34.668,29.297,39.062,37.598,291.504
1532281266.652,31.250,28.809,41.016,36.621,79.102
1532281266.656,29.297,30.273,38.574,29.785,-224.121
1532281266.660,31.250,28.809,35.645,32.715,-63.477
1532281266.663,35.156,26.367,36.621,39.062,317.383
1532281266.667,33.203,27.832,38.086,36.621,192.871
1532281266.671,36.133,31.250,34.668,36.621,-212.402
1532281266.675,36.133,33.203,33.203,41.016,-157.227
1532281266.679,32.227,31.250,34.668,40.527,228.516
1532281266.683,32.227,30.762,35.156,33.203,244.141
1532281266.687,33.691,32.715,34.668,26.855,-123.047
1532281266.691,37.109,35.156,34.668,34.180,-221.680
1532281266.695,38.574,36.133,32.715,40.039,125.000
1532281266.699,38.574,31.738,33.691,39.062,315.430
1532281266.703,38.574,33.691,35.645,37.109,-20.508
1532281266.706,41.016,36.133,34.180,34.180,-270.508
1532281266.710,37.109,32.715,35.645,36.133,32.227
1532281266.714,29.785,31.250,37.598,34.180,321.289
1532281266.718,28.809,33.203,37.109,25.879,110.840
1532281266.722,28.809,33.203,35.156,24.414,-230.469
1532281266.726,30.762,32.715,32.715,25.879,-127.441
1532281266.730,28.809,32.227,33.203,26.855,263.672
1532281266.734,31.250,35.156,38.086,34.668,224.121
1532281266.738,38.086,39.062,39.551,41.504,-179.199
1532281266.742,43.457,39.062,37.598,44.434,-187.500
1532281266.746,47.852,39.062,37.598,49.316,197.754
1532281266.749,46.875,41.016,36.133,45.410,268.555
1532281266.753,46.387,42.969,36.133,41.504,-83.984
1532281266.757,46.875,41.992,37.109,46.387,-216.309
1532281266.761,50.781,40.527,35.645,49.316,80.566
1532281266.765,55.664,43.945,34.668,44.922,248.535
1532281266.769,49.805,45.410,36.133,35.156,-36.133
1532281266.773,41.504,41.016,38.574,38.574,-264.648
1532281266.777,43.457,39.551,42.969,47.852,-31.738
1532281266.781,44.922,38.086,44.434,49.316,277.344
1532281266.785,45.410,37.598,42.969,49.316,125.488
1532281266.788,44.922,35.645,41.992,45.410,-210.938
1532281266.792,41.992,36.621,39.551,45.410,-105.469
1532281266.796,44.434,38.574,38.086,50.781,239.746
1532281266.800,46.387,37.109,38.086,48.828,209.473
1532281266.804,49.805,39.062,34.180,43.945,-153.320
1532281266.808,54.688,38.574,35.645,46.875,-205.566
1532281266.812,51.270,37.598,34.668,49.316,176.270
1532281266.816,47.852,37.109,32.227,45.898,300.781
1532281266.820,45.410,35.645,35.645,42.480,-32.227
1532281266.824,44.434,35.645,36.621,37.598,-254.395
1532281266.828,45.410,34.180,35.156,37.598,26.367
1532281266.831,41.016,31.738,34.668,38.574,296.387
1532281266.835,40.039,35.156,33.691,36.133,38.086
1532281266.839,42.480,39.062,31.738,37.109,-269.043
1532281266.843,42.480,34.668,32.227,37.109,-89.844
1532281266.847,37.109,33.691,32.227,32.715,251.953
1532281266.851,36.133,35.645,33.203,37.598,142.090
1532281266.855,39.551,38.086,31.738,39.062,-240.234
1532281266.859,41.016,41.504,28.320,35.156,-187.988
1532281266.863,40.527,42.969,26.367,33.691,222.656
1532281266.867,33.691,43.945,28.809,26.855,244.141
1532281266.870,31.250,41.016,33.203,27.344,-154.297
1532281266.874,37.598,40.527,33.691,32.227,-236.816
1532281266.878,39.551,41.504,32.715,39.062,114.746
1532281266.882,35.156,43.945,29.785,39.551,275.879
1532281266.886,35.645,49.805,26.855,36.133,-55.176
1532281266.890,37.598,47.852,28.809,41.016,-258.301
1532281266.894,32.715,44.922,34.180,41.016,31.738
1532281266.898,33.203,45.410,36.133,39.551,306.152
1532281266.902,41.016,44.922,35.645,41.992,76.172
1532281266.906,38.086,48.828,32.715,36.621,-266.602
1532281266.910,36.133,49.316,32.227,36.621,-72.266
1532281266.913,33.691,45.898,34.180,41.992,311.523
1532281266.917,28.320,48.340,34.180,37.598,213.379
1532281266.921,21.973,47.852,33.691,32.227,-195.801
1532281266.925,21.973,43.457,36.133,33.203,-206.055
1532281266.929,31.250,43.457,37.598,40.527,194.824
1532281266.933,35.645,43.945,37.598,42.969,278.809
1532281266.937,31.738,43.457,38.086,40.039,-90.332
1532281266.941,32.227,43.457,37.109,40.039,-219.727
1532281266.945,32.715,41.504,38.574,41.016,125.977
1532281266.949,36.621,42.480,39.062,41.992,321.289
1532281266.953,39.551,45.898,37.598,41.992,-13.672
1532281266.956,32.715,45.898,37.598,38.086,-288.574
1532281266.960,33.691,45.410,35.645,39.062,-8.789
1532281266.964,41.504,45.898,34.668,38.086,291.992
1532281266.968,40.039,42.969,37.598,34.668,95.703
1532281266.972,41.992,40.527,38.574,37.598,-230.469
1532281266.976,44.922,37.109,39.062,41.504,-127.441
1532281266.980,37.109,35.156,41.992,43.457,248.535
1532281266.984,32.715,32.715,41.992,37.109,205.566
1532281266.988,33.203,32.715,40.039,35.645,-179.688
1532281266.992,35.645,34.668,38.086,41.504,-203.125
1532281266.995,38.086,35.156,39.551,41.504,163.086
1532281266.999,37.109,34.180,42.969,38.574,281.250
1532281267.003,38.086,31.738,42.969,35.156,-71.777
1532281267.007,38.086,32.715,41.504,31.738,-277.344
1532281267.011,30.762,32.227,40.039,37.598,58.105
1532281267.015,30.273,31.738,36.621,44.922,315.430
1532281267.019,36.621,33.203,37.598,42.969,40.527
1532281267.023,38.086,33.203,38.574,41.504,-261.719
1532281267.027,37.598,35.156,34.180,41.504,-39.062
1532281267.031,37.598,39.551,29.297,39.551,331.543
1532281267.035,37.598,41.992,30.273,35.645,153.320
1532281267.038,37.109,43.945,31.250,35.156,-225.586
1532281267.042,36.133,41.504,34.180,33.691,-132.812
1532281267.046,33.691,39.062,40.039,32.715,225.586
1532281267.050,32.715,37.598,42.969,33.691,228.516
1532281267.054,41.016,36.133,48.340,36.133,-146.484
1532281267.058,48.340,37.109,52.246,43.457,-233.398
1532281267.062,51.270,36.621,53.711,49.316,150.391
1532281267.066,48.340,35.645,54.688,40.527,292.480
1532281267.070,43.457,36.621,54.199,31.738,-58.105
1532281267.074,41.992,38.086,54.199,28.809,-254.883
1532281267.078,41.992,37.109,51.758,32.227,47.363
1532281267.081,40.527,34.668,52.246,34.668,319.824
1532281267.085,34.180,34.180,56.152,26.855,89.355
1532281267.089,31.250,36.133,57.129,24.902,-256.348
1532281267.093,37.109,38.574,56.641,33.691,-99.121
1532281267.097,36.621,41.504,57.617,37.109,292.480
1532281267.101,31.250,42.969,56.152,32.227,191.895
1532281267.105,34.180,42.480,56.641,31.738,-230.469
1532281267.109,39.551,41.992,59.082,39.062,-204.102
1532281267.113,42.969,42.969,56.641,44.434,221.680
1532281267.117,42.480,44.434,55.176,41.504,284.180
1532281267.120,44.922,47.363,54.688,35.645,-99.121
1532281267.124,50.781,47.852,52.734,38.574,-229.492
1532281267.128,48.340,43.945,51.270,43.457,132.324
1532281267.132,45.898,41.992,55.176,38.574,347.656
1532281267.136,41.992,40.039,55.664,33.203,33.691
1532281267.140,42.480,38.086,56.152,37.598,-251.953
1532281267.144,45.410,36.133,57.129,35.156,-15.625
1532281267.148,45.410,34.668,50.781,27.344,314.453
1532281267.152,41.504,35.645,47.852,32.227,121.094
1532281267.156,34.180,34.180,49.805,32.227,-222.656
1532281267.160,27.832,32.715,49.316,32.227,-100.098
1532281267.163,30.762,35.645,47.852,37.109,263.672
1532281267.167,31.250,36.133,46.875,37.598,210.938
1532281267.171,30.762,31.738,43.945,35.645,-176.270
1532281267.175,36.133,32.715,42.969,40.039,-157.227
1532281267.179,35.645,30.762,45.898,46.875,218.262
1532281267.183,35.645,28.809,49.316,43.457,297.363
1532281267.187,41.504,32.227,46.387,32.715,-104.492
1532281267.191,41.504,32.227,40.527,36.621,-286.133
1532281267.195,39.551,35.156,38.574,42.969,100.098
1532281267.199,35.156,37.109,40.039,38.086,343.262
1532281267.203,26.367,34.180,41.016,32.227,19.043
1532281267.206,25.391,33.691,40.039,32.227,-278.320
1532281267.210,25.879,34.180,39.062,36.133,-8.789
1532281267.214,23.926,32.227,41.016,37.109,307.129
1532281267.218,21.973,29.297,43.457,34.180,130.859
1532281267.222,19.531,29.785,42.480,28.320,-207.520
1532281267.226,27.832,30.273,42.969,33.203,-122.070
1532281267.230,36.133,29.785,43.945,41.504,225.098
1532281267.234,33.691,30.762,42.480,40.527,206.543
1532281267.238,33.203,33.203,41.992,36.621,-141.602
1532281267.242,34.668,34.668,41.016,35.156,-207.520
1532281267.245,37.109,35.156,41.504,37.598,152.832
1532281267.249,36.621,33.203,41.504,36.133,284.180
1532281267.253,31.250,32.715,42.480,34.180,-78.613
1532281267.257,26.855,29.785,39.551,31.738,-272.949
1532281267.261,30.762,28.320,37.109,34.180,29.297
1532281267.265,29.297,28.320,38.086,33.691,284.668
1532281267.269,24.414,28.320,41.504,27.832,39.551
1532281267.273,22.949,25.879,43.945,29.785,-267.578
1532281267.277,26.855,24.902,41.992,34.180,-76.172
1532281267.281,29.785,26.855,41.992,36.133,300.781
1532281267.285,30.762,27.832,41.504,31.250,166.992
1532281267.288,31.250,26.855,39.551,23.926,-235.840
1532281267.292,33.203,25.391,37.598,34.180,-166.992
1532281267.296,39.551,25.391,39.551,44.434,232.422
1532281267.300,41.992,23.926,39.551,39.551,261.719
1532281267.304,46.875,24.902,40.527,38.086,-125.488
1532281267.308,54.199,25.879,40.527,41.992,-229.492
1532281267.312,58.594,25.391,41.992,46.875,130.859
1532281267.316,59.082,26.855,45.410,47.852,313.477
1532281267.320,56.641,29.785,46.875,42.969,21.484
1532281267.324,51.758,30.762,46.387,41.992,-239.746
1532281267.327,45.898,27.344,45.898,46.387,39.551
1532281267.331,47.363,28.320,47.852,47.852,335.449
1532281267.335,43.457,28.809,50.293,42.480,101.074
1532281267.339,36.133,28.809,49.805,41.504,-210.938
1532281267.343,36.621,28.809,48.340,46.875,-61.523
1532281267.347,35.156,28.320,50.293,46.387,267.090
1532281267.351,30.273,28.809,50.781,44.434,197.754
1532281267.355,28.809,29.785,46.875,41.992,-174.805
1532281267.359,37.598,30.273,47.852,46.875,-185.547
1532281267.363,42.969,31.738,49.316,49.805,177.246
1532281267.367,43.945,33.691,46.875,42.480,242.188
1532281267.370,41.992,35.156,45.898,38.086,-97.168
1532281267.374,41.504,35.645,46.875,41.504,-237.793
1532281267.378,46.875,34.668,45.410,49.316,105.957
1532281267.382,45.898,33.691,45.410,48.340,322.266
1532281267.386,45.898,35.645,45.410,41.016,-17.090
1532281267.390,45.898,37.109,44.434,42.480,-295.410
1532281267.394,46.875,36.621,40.527,48.828,-12.207
1532281267.398,49.805,37.598,38.574,50.781,322.754
1532281267.402,50.293,37.109,40.527,53.223,135.254
1532281267.406,56.152,38.086,41.016,50.781,-250.977
1532281267.410,55.664,39.062,41.016,51.758,-112.305
1532281267.413,52.734,39.551,41.504,57.129,297.363
1532281267.417,53.223,39.551,41.992,52.246,229.004
1532281267.421,52.246,39.551,42.480,45.898,-175.781
1532281267.425,57.129,41.016,40.039,44.922,-214.844
1532281267.429,57.617,41.016,40.039,47.363,169.922
1532281267.433,54.199,39.062,39.062,49.316,303.711
1532281267.437,53.711,39.062,38.574,44.922,-68.848
1532281267.441,60.059,40.039,40.527,44.922,-270.508
1532281267.445,55.176,37.109,39.062,48.340,54.199
1532281267.449,45.898,38.574,41.504,50.781,301.758
1532281267.452,48.828,42.969,44.922,48.828,44.434
1532281267.456,47.363,39.062,38.086,41.504,-234.375
1532281267.460,44.922,39.062,36.133,40.527,-40.527
1532281267.464,47.363,43.945,40.527,43.945,292.480
1532281267.468,51.270,44.434,41.992,47.363,166.016
1532281267.472,42.480,41.992,41.504,46.875,-221.191
1532281267.476,41.992,41.016,38.574,43.945,-162.109
1532281267.480,47.363,39.062,34.180,46.875,246.094
1532281267.484,48.340,37.109,35.156,44.434,234.863
1532281267.488,51.270,40.039,35.645,38.574,-178.711
1532281267.492,49.316,41.504,35.645,47.363,-236.816
1532281267.495,47.852,40.527,36.621,51.270,147.949
1532281267.499,48.828,39.551,38.574,46.387,318.848
1532281267.503,46.387,38.574,39.551,42.480,-9.766
1532281267.507,46.387,39.551,38.574,43.945,-248.535
1532281267.511,42.969,39.551,37.598,44.922,15.137
1532281267.515,35.645,37.109,38.086,41.016,307.129
1532281267.519,33.203,38.574,38.574,36.133,97.168
1532281267.523,38.574,39.551,36.621,35.645,-251.953
1532281267.527,41.504,37.109,36.133,32.715,-100.098
1532281267.531,40.527,35.645,37.109,36.621,283.203
1532281267.535,36.621,33.203,38.574,42.480,189.453
1532281267.538,36.133,31.738,38.086,39.062,-212.402
1532281267.542,40.039,29.785,37.109,41.504,-180.176
1532281267.546,44.434,25.391,38.086,47.852,214.355
1532281267.550,48.340,22.949,37.109,46.387,284.668
1532281267.554,45.410,20.508,40.527,41.992,-95.703
1532281267.558,41.504,20.020,44.434,40.039,-237.305
1532281267.562,44.434,19.043,46.387,42.969,95.703
1532281267.566,46.387,19.531,48.828,44.434,267.578
1532281267.570,39.551,18.555,48.828,34.180,-5.859
1532281267.574,41.504,20.020,43.945,33.691,-247.559
1532281267.577,41.016,23.438,45.410,39.062,-14.648
1532281267.581,33.203,21.484,48.340,34.180,309.570
1532281267.585,32.715,21.484,47.363,29.297,131.348
1532281267.589,31.738,24.414,44.922,25.879,-222.168
1532281267.593,28.320,23.438,45.410,24.902,-91.309
1532281267.597,28.320,23.438,51.270,29.297,297.363
1532281267.601,27.344,20.020,53.711,33.691,229.492
1532281267.605,29.297,19.531,53.223,34.668,-165.039
1532281267.609,37.109,27.344,46.387,36.133,-176.758
1532281267.613,41.016,29.297,39.062,36.133,201.660
1532281267.617,39.062,25.391,42.969,35.156,298.828
1532281267.620,31.250,24.902,44.434,30.762,-63.477
1532281267.624,30.273,26.855,42.480,29.785,-281.738
1532281267.628,34.180,25.879,43.945,32.715,30.762
1532281267.632,34.180,23.926,44.434,37.109,290.039
1532281267.636,33.203,22.461,47.363,35.645,28.320
1532281267.640,31.738,21.973,48.340,32.715,-256.348
1532281267.644,33.691,24.414,46.387,31.738,-46.875
1532281267.648,35.156,23.926,45.898,32.227,288.574
1532281267.652,34.180,26.855,44.922,31.250,130.859
1532281267.656,36.133,27.344,42.480,30.273,-245.605
1532281267.660,37.598,25.879,42.480,35.645,-148.438
1532281267.663,39.551,29.297,43.945,39.062,245.605
1532281267.667,34.668,29.297,43.945,33.691,229.492
1532281267.671,33.691,30.762,43.945,33.691,-121.094
1532281267.675,36.133,34.180,45.898,38.574,-172.852
1532281267.679,38.086,36.621,46.875,43.457,194.824
1532281267.683,37.598,36.621,46.875,43.945,306.641
1532281267.687,37.598,38.574,47.852,41.016,-52.246
1532281267.691,41.504,41.504,45.898,43.457,-243.652
1532281267.695,43.457,43.457,44.922,48.340,58.105
1532281267.699,40.039,46.387,46.875,42.480,300.781
1532281267.702,36.621,48.828,48.828,34.668,54.199
1532281267.706,33.203,51.758,48.828,27.832,-276.855
1532281267.710,30.273,49.316,49.805,25.879,-90.820
1532281267.714,22.949,46.875,52.246,26.855,307.617
1532281267.718,21.484,44.434,55.176,23.926,205.566
1532281267.722,29.785,43.945,55.664,28.320,-170.898
1532281267.726,37.109,46.875,50.781,32.715,-155.762
1532281267.730,36.621,49.316,47.363,30.762,215.332
1532281267.734,30.762,51.270,45.898,27.344,255.371
1532281267.738,25.879,49.805,48.340,24.414,-102.051
1532281267.742,27.832,48.340,50.293,26.855,-230.469
1532281267.745,34.668,48.340,49.316,35.156,98.633
1532281267.749,38.086,47.852,48.340,35.645,307.129
1532281267.753,40.039,49.805,47.363,31.250,-3.418
1532281267.757,36.133,50.293,49.805,33.203,-269.531
1532281267.761,31.738,49.316,52.734,34.668,-3.418
1532281267.765,32.227,47.852,54.199,27.832,279.785
1532281267.769,37.598,47.363,55.176,26.367,64.453
1532281267.773,37.598,48.828,54.688,33.203,-240.234
1532281267.777,42.480,48.828,54.199,39.551,-98.633
1532281267.781,46.875,47.852,52.734,39.062,286.621
1532281267.784,37.109,47.363,50.293,34.180,236.328
1532281267.788,31.250,44.922,51.270,31.250,-171.387
1532281267.792,33.203,40.039,53.223,36.133,-177.734
1532281267.796,32.715,38.574,53.223,42.969,222.656
1532281267.800,30.762,41.016,52.734,41.504,286.621
1532281267.804,30.762,42.480,50.781,34.180,-92.773
1532281267.808,36.133,40.527,49.805,32.715,-265.137
1532281267.812,42.480,40.527,46.875,39.062,89.844
1532281267.816,41.016,40.527,45.410,37.109,334.473
1532281267.820,42.480,41.504,46.875,36.621,30.762
1532281267.824,43.457,44.922,47.363,40.039,-253.418
1532281267.827,39.551,43.945,47.852,44.922,-11.719
1532281267.831,39.062,41.016,48.340,46.387,302.734
1532281267.835,37.109,42.480,50.781,41.992,101.562
1532281267.839,38.086,42.969,50.781,38.086,-251.465
1532281267.843,41.992,41.016,50.781,39.551,-119.629
1532281267.847,40.039,41.504,50.293,39.062,248.535
1532281267.851,38.086,41.992,46.875,39.551,216.309
1532281267.855,39.551,40.039,47.852,42.480,-127.930
1532281267.859,44.434,39.551,47.363,45.410,-175.293
1532281267.863,50.781,40.527,44.922,50.293,186.523
1532281267.867,55.664,39.551,43.945,49.805,331.543
1532281267.870,53.223,39.062,46.387,48.340,-23.438
1532281267.874,50.781,37.598,47.852,50.781,-226.562
1532281267.878,47.363,36.621,44.434,51.270,64.453
1532281267.882,38.574,37.598,42.480,40.527,319.336
1532281267.886,38.574,38.574,43.945,30.273,55.664
1532281267.890,38.086,39.062,42.969,28.320,-272.949
1532281267.894,39.062,37.109,41.016,33.691,-44.922
1532281267.898,38.574,36.133,41.016,37.109,312.012
1532281267.902,26.855,35.645,41.992,32.227,162.109
1532281267.906,24.414,32.715,42.480,25.879,-225.586
1532281267.909,29.785,32.227,40.527,32.227,-142.578
1532281267.913,34.668,33.691,38.574,41.504,261.719
1532281267.917,39.551,32.227,39.551,40.527,278.809
1532281267.921,41.992,34.180,37.598,39.551,-134.766
1532281267.925,41.016,36.621,34.668,41.504,-235.840
1532281267.929,39.551,35.645,37.109,42.480,156.738
1532281267.933,35.645,36.621,40.039,40.527,306.152
1532281267.937,36.133,37.598,40.039,39.062,-17.578
1532281267.941,37.598,35.645,39.062,39.551,-250.000
1532281267.945,38.574,36.621,37.598,36.621,-6.348
1532281267.949,39.062,36.621,38.574,33.203,273.926
1532281267.952,36.621,36.133,37.598,33.203,80.566
1532281267.956,33.203,37.109,35.645,32.227,-254.883
1532281267.960,30.762,39.551,32.227,31.250,-104.492
1532281267.964,37.109,39.551,30.762,35.645,270.020
1532281267.968,40.527,36.621,33.691,39.062,186.523
1532281267.972,37.109,38.086,35.156,35.645,-198.242
1532281267.976,36.133,37.109,35.156,34.180,-167.480
1532281267.980,39.062,35.156,34.180,40.039,213.867
1532281267.984,39.551,37.598,29.785,34.668,241.699
1532281267.988,33.691,41.016,28.320,24.902,-137.695
1532281267.992,37.109,39.551,28.809,31.738,-241.211
1532281267.995,37.109,38.574,30.273,38.574,107.910
1532281267.999,28.320,38.086,30.762,38.574,301.758
1532281268.003,27.832,39.551,27.832,32.227,-2.930
1532281268.007,26.855,40.527,28.809,31.250,-277.832
1532281268.011,25.391,40.039,31.738,38.086,-32.227
1532281268.015,24.414,36.621,33.203,38.086,294.922
1532281268.019,26.367,32.227,34.668,37.109,107.422
1532281268.023,31.250,32.715,32.715,35.156,-262.695
1532281268.027,34.668,36.621,29.785,31.250,-135.742
1532281268.031,38.086,39.062,26.855,28.809,273.438
1532281268.034,37.109,40.527,27.344,26.855,212.891
1532281268.038,31.738,39.551,30.762,25.391,-176.270
1532281268.042,30.762,37.109,31.738,29.785,-195.312
1532281268.046,37.109,37.598,32.227,36.621,140.625
1532281268.050,43.945,36.621,33.691,41.504,274.414
1532281268.054,44.922,37.109,33.691,41.016,-33.203
1532281268.058,42.969,39.062,31.738,40.527,-230.957
1532281268.062,43.457,37.109,30.762,43.945,73.242
1532281268.066,42.969,38.086,32.227,40.527,328.125
1532281268.070,44.922,40.039,33.203,39.062,61.523
1532281268.074,44.434,44.434,35.156,39.551,-257.812
1532281268.077,41.992,45.410,39.062,36.621,-47.363
1532281268.081,45.898,45.898,42.969,35.645,316.406
1532281268.085,49.316,50.293,47.363,35.156,146.973
1532281268.089,48.828,53.223,49.316,36.133,-237.305
1532281268.093,44.922,54.688,49.805,41.992,-140.625
1532281268.097,44.434,54.199,52.734,49.316,260.742
1532281268.101,47.363,52.734,54.199,53.223,259.766
1532281268.105,48.340,53.223,54.688,54.199,-127.441
1532281268.109,53.711,51.758,59.570,61.035,-212.402
1532281268.113,52.734,47.363,60.547,66.406,139.160
1532281268.117,54.688,47.852,59.082,66.406,309.082
1532281268.120,59.082,52.246,59.570,64.453,1.465
1532281268.124,55.176,56.641,58.594,57.617,-255.371
1532281268.128,57.129,57.129,58.105,55.176,28.320
1532281268.132,61.035,58.594,58.594,56.152,324.707
1532281268.136,56.152,58.105,59.570,52.734,78.125
1532281268.140,48.340,56.152,60.547,49.805,-232.910
1532281268.144,50.781,53.711,59.570,53.223,-57.617
1532281268.148,52.246,49.805,58.105,56.641,279.785
1532281268.152,44.434,49.805,57.617,49.316,171.387
1532281268.156,38.574,49.805,57.617,37.598,-179.688
1532281268.159,39.551,47.852,57.129,37.109,-152.832
1532281268.163,41.504,44.434,52.734,39.062,214.355
1532281268.167,42.480,41.504,50.293,38.086,272.461
1532281268.171,44.922,40.039,51.270,37.109,-115.234
1532281268.175,50.781,39.062,50.293,35.645,-261.719
1532281268.179,53.223,36.621,49.805,40.039,119.629
1532281268.183,45.410,34.668,51.758,43.457,299.805
1532281268.187,42.480,36.621,53.711,35.645,-55.664
1532281268.191,46.387,36.621,52.734,38.086,-291.016
1532281268.195,48.340,35.156,49.316,49.316,-7.324
1532281268.199,45.898,32.715,48.828,47.363,293.457
1532281268.202,38.086,30.273,47.852,41.016,82.520
1532281268.206,34.180,31.738,46.875,40.527,-242.676
1532281268.210,35.645,31.250,46.387,45.898,-89.844
1532281268.214,36.621,31.738,43.945,45.410,250.000
1532281268.218,31.738,32.715,44.922,38.086,204.102
1532281268.222,27.832,31.738,46.387,34.668,-156.738
1532281268.226,27.344,31.250,47.852,35.156,-204.102
1532281268.230,29.297,33.203,46.875,39.062,168.945
1532281268.234,28.320,33.691,45.410,38.574,267.090
1532281268.238,30.273,31.738,44.922,33.203,-74.707
1532281268.242,36.621,31.738,43.945,33.691,-244.141
1532281268.245,34.668,30.762,43.457,31.250,60.059
1532281268.249,27.344,28.320,43.945,27.344,316.406
1532281268.253,21.973,28.320,41.504,25.391,44.434
1532281268.257,23.438,30.273,40.527,22.461,-243.164
1532281268.261,25.879,32.227,39.062,25.879,-9.766
1532281268.265,28.320,33.203,40.527,26.855,284.668
1532281268.269,28.320,37.109,44.922,24.414,125.977
1532281268.273,25.879,38.086,41.504,26.367,-195.312
1532281268.277,31.738,36.133,40.527,33.691,-135.742
1532281268.281,33.691,33.691,41.016,39.062,247.559
1532281268.284,29.785,33.691,41.504,36.621,230.957
1532281268.288,25.879,34.668,41.504,33.691,-169.434
1532281268.292,25.879,34.668,40.527,34.668,-219.238
1532281268.296,32.715,36.133,40.039,39.062,166.016
1532281268.300,36.133,37.109,38.574,37.109,331.543
1532281268.304,35.645,34.180,40.039,30.273,-36.621
1532281268.308,32.227,31.738,38.574,25.879,-265.625
1532281268.312,29.297,28.320,39.062,29.297,43.945
1532281268.316,34.180,29.297,41.016,32.715,287.598
1532281268.320,42.480,33.691,40.039,32.715,46.875
1532281268.324,46.387,36.621,38.086,29.297,-258.301
1532281268.327,46.875,37.109,37.598,25.879,-76.660
1532281268.331,43.457,35.156,37.598,29.785,286.133
1532281268.335,39.062,35.645,36.621,25.391,164.062
1532281268.339,41.992,37.109,37.598,20.996,-206.055
1532281268.343,42.969,37.109,37.598,24.414,-151.855
1532281268.347,33.203,36.621,38.086,25.879,241.699
1532281268.351,26.367,37.109,41.504,23.926,270.508
1532281268.355,24.414,35.645,41.504,22.949,-128.906
1532281268.359,24.902,33.691,41.504,26.367,-247.559
1532281268.363,23.438,35.645,40.039,31.250,136.719
1532281268.366,19.531,37.109,37.598,25.391,288.574
1532281268.370,21.484,37.598,41.992,22.461,-40.527
1532281268.374,28.320,38.086,42.969,30.762,-248.535
1532281268.378,32.227,35.645,40.527,37.109,16.602
1532281268.382,31.738,35.156,40.039,36.621,303.223
1532281268.386,31.738,35.645,42.969,33.691,86.426
1532281268.390,35.156,33.203,44.922,36.621,-231.445
1532281268.394,36.621,30.762,41.992,38.086,-76.172
1532281268.398,40.039,29.785,38.086,35.645,291.016
1532281268.402,42.480,29.785,35.645,31.738,190.430
1532281268.406,38.086,31.738,35.645,24.414,-201.172
1532281268.409,36.621,32.227,34.668,24.902,-182.617
1532281268.413,36.133,28.809,34.668,29.785,213.379
1532281268.417,27.344,28.320,35.645,24.414,296.875
1532281268.421,22.949,31.250,32.715,22.461,-69.336
1532281268.425,22.949,30.273,33.203,24.902,-232.910
1532281268.429,24.902,28.809,35.645,29.297,108.398
1532281268.433,25.879,27.344,35.645,31.250,340.820
1532281268.437,23.438,25.879,36.133,28.809,45.898
1532281268.441,26.855,25.879,35.645,29.785,-217.285
1532281268.445,35.156,24.902,33.691,36.133,6.348
1532281268.449,38.086,27.344,32.227,38.574,295.410
1532281268.452,36.133,28.809,34.668,34.668,116.211
1532281268.456,36.133,25.391,35.156,35.156,-211.914
1532281268.460,39.062,20.020,35.156,41.016,-110.352
1532281268.464,36.133,19.531,33.691,37.109,260.742
1532281268.468,33.203,22.461,35.645,30.273,213.867
1532281268.472,31.250,23.438,38.574,35.645,-157.715
1532281268.476,28.809,23.926,37.109,40.527,-174.805
1532281268.480,28.809,22.461,36.621,42.969,177.734
1532281268.484,27.344,22.461,35.156,38.086,287.109
1532281268.488,23.926,20.508,37.109,29.297,-47.363
1532281268.491,23.438,20.020,37.598,32.227,-250.977
1532281268.495,24.414,19.043,31.738,35.156,40.039
1532281268.499,24.414,18.066,31.738,40.527,314.453
1532281268.503,26.367,19.531,35.645,41.016,28.320
1532281268.507,30.273,20.996,36.621,32.715,-275.391
1532281268.511,36.621,21.973,34.668,33.203,-23.926
1532281268.515,37.598,22.461,33.203,34.180,302.734
1532281268.519,34.180,22.461,35.156,33.203,143.066
1532281268.523,31.738,22.949,34.180,28.320,-229.492
1532281268.527,29.785,20.996,34.180,23.926,-173.828
1532281268.531,26.367,19.531,36.133,26.855,233.887
1532281268.534,22.949,19.531,35.645,25.879,255.371
1532281268.538,23.438,16.113,36.621,20.508,-125.000
1532281268.542,31.250,17.090,36.621,23.926,-207.031
1532281268.546,30.273,20.020,36.621,28.320,136.230
1532281268.550,22.461,20.508,38.086,24.902,289.551
1532281268.554,23.438,18.555,40.039,26.855,-15.625
1532281268.558,24.414,17.090,38.574,31.250,-235.840
1532281268.562,30.273,16.602,37.598,37.109,49.805
1532281268.566,36.133,17.090,39.551,42.969,321.289
1532281268.570,36.621,17.578,42.969,42.480,80.078
1532281268.574,38.086,19.531,42.969,40.527,-239.746
1532281268.577,38.574,21.973,40.527,42.480,-69.336
1532281268.581,37.109,22.949,39.062,39.551,324.219
1532281268.585,32.715,22.461,38.086,31.738,224.121
1532281268.589,29.297,22.461,39.062,25.391,-204.102
1532281268.593,26.367,21.484,38.086,21.973,-169.922
1532281268.597,25.391,22.949,37.598,22.949,243.652
1532281268.601,30.273,25.391,38.574,23.438,277.832
1532281268.605,34.180,24.902,39.551,21.484,-129.883
1532281268.609,36.621,22.949,41.016,23.926,-270.996
1532281268.613,42.969,24.414,40.039,31.738,99.121
1532281268.616,43.457,25.391,39.551,35.156,342.285
1532281268.620,35.156,25.391,36.133,34.668,40.527
1532281268.624,32.715,24.414,33.691,32.227,-273.438
1532281268.628,33.203,23.926,34.668,34.180,-23.926
1532281268.632,29.297,25.391,36.133,34.668,336.426
1532281268.636,26.855,23.438,36.133,31.738,126.465
1532281268.640,28.320,23.438,34.668,33.203,-242.676
1532281268.644,31.738,24.414,33.691,35.645,-99.121
1532281268.648,38.086,22.949,37.109,34.668,281.738
1532281268.652,38.574,22.461,38.574,37.109,241.699
1532281268.656,36.133,23.438,38.086,37.598,-131.836
1532281268.659,35.156,21.973,39.551,36.133,-168.945
1532281268.663,26.367,20.996,40.527,33.203,187.012
1532281268.667,22.949,19.043,41.016,30.273,288.086
1532281268.671,24.902,17.578,41.504,25.391,-83.984
1532281268.675,27.832,20.996,40.039,22.949,-273.926
1532281268.679,34.668,22.461,39.062,29.297,55.176
1532281268.683,40.527,20.996,41.504,33.203,309.082
1532281268.687,42.480,22.949,43.457,27.344,27.832
1532281268.691,40.039,21.484,41.992,24.414,-266.113
1532281268.695,41.016,17.578,41.016,33.203,-47.852
1532281268.699,41.016,19.043,42.480,36.133,293.945
1532281268.702,40.527,21.973,42.480,31.250,155.273
1532281268.706,37.598,22.461,41.016,30.762,-204.102
1532281268.710,32.227,20.996,40.039,37.109,-133.789
1532281268.714,32.227,20.508,42.969,41.016,234.863
1532281268.718,31.250,19.531,41.504,39.551,213.379
1532281268.722,34.668,18.066,40.039,40.527,-151.367
1532281268.726,38.086,16.602,41.504,44.434,-214.844
1532281268.730,41.992,16.113,40.039,48.828,139.160
1532281268.734,47.852,17.090,41.992,51.758,308.105
1532281268.738,46.387,17.090,42.480,49.316,-28.809
1532281268.741,43.457,16.113,42.480,44.434,-235.352
1532281268.745,42.969,16.602,42.480,46.875,67.383
1532281268.749,43.457,16.602,41.992,45.410,320.801
1532281268.753,42.969,15.625,42.480,39.551,80.078
1532281268.757,41.016,13.672,38.086,36.621,-244.629
1532281268.761,42.480,14.160,37.109,38.574,-40.039
1532281268.765,49.805,17.090,36.621,39.551,294.922
1532281268.769,52.734,19.043,36.133,37.109,115.234
1532281268.773,48.340,18.555,36.621,41.016,-233.398
1532281268.777,43.457,16.602,36.621,44.922,-153.809
1532281268.781,44.922,15.137,38.574,52.734,236.816
1532281268.784,46.387,14.648,39.551,51.758,246.094
1532281268.788,47.852,15.625,39.062,46.875,-160.645
1532281268.792,44.434,15.625,36.621,49.316,-262.695
1532281268.796,41.016,12.695,34.668,52.246,115.723
1532281268.800,40.527,13.184,35.156,51.270,327.637
1532281268.804,38.086,15.625,34.668,45.898,-7.324
1532281268.808,36.133,16.113,35.645,45.410,-249.512
1532281268.812,37.598,16.602,38.574,47.363,28.320
1532281268.816,35.645,17.578,38.086,46.387,306.641
1532281268.820,36.621,18.066,36.133,46.875,118.652
1532281268.823,41.504,19.043,32.227,42.480,-226.562
1532281268.827,50.781,19.531,28.320,40.527,-107.910
1532281268.831,56.152,21.484,28.809,42.969,255.859
1532281268.835,52.734,23.438,29.785,38.086,207.031
1532281268.839,52.246,23.438,27.344,33.691,-174.805
1532281268.843,53.223,21.484,24.902,36.621,-205.566
1532281268.847,50.781,19.043,25.879,37.598,162.109
1532281268.851,42.480,19.043,27.344,39.062,253.418
1532281268.855,34.668,18.066,25.879,41.504,-89.355
1532281268.859,29.785,15.625,23.926,41.016,-225.098
1532281268.863,29.785,15.625,23.926,44.434,105.957
1532281268.866,29.297,17.578,24.902,48.340,304.688
1532281268.870,29.297,21.484,25.391,48.340,15.137
1532281268.874,35.156,24.414,24.902,50.781,-267.578
1532281268.878,42.480,24.902,23.438,56.152,4.395
1532281268.882,41.504,23.438,23.438,53.711,328.125
1532281268.886,38.574,24.414,25.391,48.340,102.051
1532281268.890,44.922,29.297,22.461,46.387,-265.137
1532281268.894,47.852,30.273,17.578,47.852,-133.789
1532281268.898,39.062,28.320,15.625,45.898,281.738
1532281268.902,37.109,30.273,16.602,41.992,262.207
1532281268.906,36.621,30.273,14.160,36.621,-146.484
1532281268.909,33.203,29.297,12.207,31.738,-191.895
1532281268.913,33.691,31.250,13.184,30.273,208.496
1532281268.917,31.250,29.297,12.695,26.855,315.430
1532281268.921,29.785,28.809,15.137,22.461,-51.758
1532281268.925,33.691,31.250,17.578,18.066,-276.855
1532281268.929,33.691,29.785,18.066,19.531,47.852
1532281268.933,30.273,28.320,20.020,23.438,338.379
1532281268.937,31.738,28.320,24.414,23.438,77.637
1532281268.941,36.133,29.785,26.367,27.344,-256.836
1532281268.945,39.551,31.250,26.367,32.227,-77.637
1532281268.948,32.715,30.762,26.855,29.785,320.801
1532281268.952,30.273,29.297,28.320,33.203,202.637
1532281268.956,36.133,29.297,31.738,40.039,-192.871
1532281268.960,37.109,29.297,31.738,43.945,-137.207
1532281268.964,37.598,28.320,30.762,42.969,231.934
1532281268.968,40.039,27.344,29.785,36.621,245.117
1532281268.972,38.086,29.297,30.273,37.598,-108.887
1532281268.976,38.574,30.273,32.715,43.945,-213.379
1532281268.980,38.574,30.273,33.691,47.363,142.578
1532281268.984,36.133,29.785,36.621,42.969,301.758
1532281268.988,35.156,29.785,37.598,42.480,-40.527
1532281268.991,35.645,29.785,36.133,44.922,-243.652
1532281268.995,40.527,28.809,36.621,48.828,61.523
1532281268.999,42.480,30.762,37.109,50.781,333.008
1532281269.003,40.039,31.738,37.598,42.969,104.980
1532281269.007,35.156,30.762,36.621,36.621,-246.094
1532281269.011,35.645,30.273,35.156,35.645,-86.426
1532281269.015,41.504,30.273,32.715,33.691,308.105
1532281269.019,42.480,30.273,34.668,32.227,205.566
1532281269.023,43.945,31.250,38.574,29.297,-198.730
1532281269.027,46.875,31.738,40.039,29.785,-205.078
1532281269.031,44.434,31.250,40.039,36.133,182.129
1532281269.034,40.039,27.832,41.504,37.598,284.668
1532281269.038,40.527,26.855,40.527,35.156,-78.613
1532281269.042,43.457,28.809,38.086,40.527,-259.766
1532281269.046,44.922,28.809,40.527,47.852,87.402
1532281269.050,41.504,28.809,40.039,48.828,327.148
1532281269.054,40.527,28.320,38.086,52.734,20.996
1532281269.058,45.410,29.297,39.551,56.152,-278.320
1532281269.062,52.246,32.227,39.551,60.547,-11.719
1532281269.066,53.711,33.691,38.574,55.176,305.176
1532281269.070,52.734,35.156,39.551,43.945,92.285
1532281269.073,55.176,36.621,40.039,50.293,-242.188
1532281269.077,53.711,33.203,39.551,55.664,-114.746
1532281269.081,53.223,32.227,40.527,53.711,264.648
1532281269.085,51.270,33.691,39.551,47.363,234.863
1532281269.089,44.922,31.738,39.062,41.016,-165.527
1532281269.093,45.898,28.809,39.062,41.992,-196.289
1532281269.097,46.387,28.320,37.109,44.434,213.379
1532281269.101,43.945,28.809,37.109,47.852,299.316
1532281269.105,44.434,29.297,38.086,47.363,-67.871
1532281269.109,44.922,31.250,39.062,47.852,-245.605
1532281269.113,46.875,31.738,39.551,54.688,68.848
1532281269.116,47.363,31.738,40.039,56.152,337.402
1532281269.120,41.016,32.227,40.039,55.176,69.336
1532281269.124,36.133,32.715,40.039,51.758,-268.555
1532281269.128,37.109,31.738,40.527,52.734,-53.711
1532281269.132,38.086,33.203,41.016,60.059,299.805
1532281269.136,35.645,33.691,38.574,56.641,160.645
1532281269.140,38.086,33.691,38.086,53.711,-212.402
1532281269.144,45.410,35.156,38.574,53.223,-151.367
1532281269.148,47.363,35.645,38.574,52.734,232.422
1532281269.152,46.387,36.621,36.621,48.340,231.445
1532281269.156,43.457,37.109,37.109,43.457,-147.949
1532281269.159,46.387,37.598,37.109,47.363,-216.797
1532281269.163,50.781,37.109,35.156,50.293,151.367
1532281269.167,44.922,38.574,35.645,45.410,286.133
1532281269.171,41.504,37.598,35.645,41.016,-19.531
1532281269.175,42.969,35.645,36.133,40.039,-229.004
1532281269.179,42.480,34.668,33.691,41.992,46.875
1532281269.183,42.480,34.180,33.691,41.504,312.012
1532281269.187,41.016,36.621,37.598,39.551,40.039
1532281269.191,43.457,40.039,35.645,42.480,-254.883
1532281269.195,45.410,41.016,33.691,49.316,-45.410
1532281269.198,43.457,40.039,36.133,52.246,298.828
1532281269.202,44.922,40.039,36.621,53.223,184.570
1532281269.206,43.457,41.016,37.598,43.945,-215.820
1532281269.210,43.457,40.527,37.598,43.457,-193.359
1532281269.214,41.016,38.574,35.156,50.293,211.914
1532281269.218,37.598,40.039,36.133,48.828,275.879
1532281269.222,37.598,41.992,37.598,47.852,-109.375
1532281269.226,41.016,42.480,35.645,47.363,-241.211
1532281269.230,46.387,43.945,35.645,50.293,119.629
1532281269.234,45.410,43.945,36.133,44.922,312.500
1532281269.238,41.016,41.504,36.133,38.086,-2.930
1532281269.241,41.504,40.527,36.133,39.551,-255.859
1532281269.245,41.504,41.504,37.109,37.598,-19.043
1532281269.249,41.504,40.527,38.086,37.109,281.250
1532281269.253,40.527,41.992,35.156,41.016,122.559
1532281269.257,41.504,43.457,33.691,39.062,-225.098
1532281269.261,47.852,41.504,35.645,43.457,-103.027
1532281269.265,46.387,41.992,35.156,43.457,257.324
1532281269.269,42.480,43.457,33.203,37.109,200.195
1532281269.273,43.457,41.016,34.180,39.062,-167.969
1532281269.277,41.992,37.109,33.203,43.945,-181.641
1532281269.281,39.551,35.156,32.227,48.340,200.195
1532281269.284,40.527,36.621,35.156,47.363,286.133
1532281269.288,41.016,37.598,36.133,44.922,-57.617
1532281269.292,39.062,35.645,38.574,45.898,-224.609
1532281269.296,38.086,37.109,39.551,45.898,86.914
1532281269.300,36.133,36.621,41.016,43.457,338.867
1532281269.304,33.203,36.133,41.504,41.992,52.734
1532281269.308,37.109,35.645,41.016,38.574,-273.438
1532281269.312,39.551,31.738,40.039,45.410,-40.039
1532281269.316,40.527,30.762,35.645,48.340,312.500
1532281269.320,38.574,33.691,35.645,42.480,145.020
1532281269.323,34.180,35.156,36.133,41.016,-214.844
1532281269.327,35.156,36.133,35.645,39.551,-110.352
1532281269.331,37.109,36.133,37.109,35.645,270.996
1532281269.335,34.668,34.668,40.527,31.738,230.469
1532281269.339,30.762,36.133,38.574,26.855,-161.621
1532281269.343,31.738,35.645,39.062,25.879,-226.562
1532281269.347,35.156,35.156,41.016,28.320,150.391
1532281269.351,31.250,35.645,41.016,29.785,285.156
1532281269.355,25.879,37.109,40.039,31.738,-59.570
1532281269.359,24.902,38.086,37.109,33.691,-252.930
1532281269.363,28.809,38.086,37.109,36.621,61.035
1532281269.366,26.855,40.039,40.039,35.156,326.660
1532281269.370,21.484,42.480,41.016,32.227,63.477
1532281269.374,23.926,43.457,37.598,33.203,-266.602
1532281269.378,29.785,43.945,38.574,34.668,-75.684
1532281269.382,28.320,45.898,41.016,38.574,271.484
1532281269.386,23.926,46.875,37.598,37.109,153.320
1532281269.390,32.227,44.434,37.598,36.133,-214.844
1532281269.394,34.180,41.504,38.086,38.574,-148.926
1532281269.398,28.809,40.527,38.574,37.598,246.094
1532281269.402,31.250,38.086,41.504,32.715,262.207
1532281269.405,33.203,37.109,41.016,25.391,-127.930
1532281269.409,35.645,38.086,37.109,24.414,-230.957
1532281269.413,38.574,37.598,34.668,30.762,145.508
1532281269.417,37.109,39.062,36.133,29.785,302.734
1532281269.421,34.180,39.551,36.133,25.879,-32.227
1532281269.425,34.180,33.203,35.645,25.879,-268.555
1532281269.429,29.785,25.879,32.715,26.855,31.738
1532281269.433,23.438,20.996,32.715,27.344,329.590
1532281269.437,22.461,18.555,36.621,28.809,91.797
1532281269.441,22.461,17.578,35.156,33.203,-238.770
1532281269.445,25.391,15.625,34.668,36.133,-114.746
1532281269.448,27.832,15.625,38.086,35.156,243.652
1532281269.452,28.320,17.578,40.039,34.668,192.383
1532281269.456,30.273,19.043,38.574,32.715,-187.012
1532281269.460,28.809,19.043,35.645,32.715,-196.289
1532281269.464,28.320,16.113,35.645,35.156,188.965
1532281269.468,29.297,16.113,36.621,32.715,297.363
1532281269.472,31.250,19.043,37.109,29.297,-90.332
1532281269.476,33.203,19.043,36.133,28.320,-259.277
1532281269.480,30.762,17.090,37.598,33.203,85.938
1532281269.484,30.273,16.113,36.621,33.691,313.477
1532281269.488,29.297,17.578,34.180,21.973,-2.441
1532281269.491,27.832,17.578,34.180,20.508,-288.574
1532281269.495,26.855,17.090,32.715,28.809,-10.742
1532281269.499,24.414,16.602,30.762,29.785,326.172
1532281269.503,19.043,16.602,31.250,26.855,128.906
1532281269.507,16.113,18.555,31.738,23.438,-233.887
1532281269.511,20.020,20.508,29.297,28.320,-105.469
1532281269.515,23.438,19.043,28.809,36.133,266.113
1532281269.519,24.414,19.043,29.297,36.133,214.355
1532281269.523,25.879,20.508,27.344,31.738,-174.805
1532281269.527,30.273,21.973,25.391,32.715,-216.309
1532281269.530,32.227,23.926,26.367,37.598,172.363
1532281269.534,31.738,24.902,26.855,36.621,304.688
1532281269.538,36.133,27.832,26.855,32.227,-43.457
1532281269.542,39.062,28.320,28.809,29.785,-211.914
1532281269.546,35.645,26.367,27.344,23.926,85.938
1532281269.550,32.227,27.832,25.391,20.508,303.711
1532281269.554,33.691,28.320,26.855,22.461,56.152
1532281269.558,35.645,30.273,27.832,23.438,-228.027
1532281269.562,34.180,30.762,28.809,27.344,-38.086
1532281269.566,34.180,28.809,31.250,27.344,290.527
1532281269.570,31.250,29.297,34.180,29.785,151.855
1532281269.573,26.855,28.809,37.109,32.227,-240.723
1532281269.577,30.273,28.320,37.109,35.156,-186.523
1532281269.581,31.738,31.738,32.227,38.086,234.375
1532281269.585,26.367,36.621,25.879,27.344,242.676
1532281269.589,26.367,38.574,27.344,20.996,-150.879
1532281269.593,28.320,35.156,26.855,20.508,-235.840
1532281269.597,26.367,33.691,28.809,17.090,134.766
1532281269.601,28.320,36.133,29.297,15.625,329.590
1532281269.605,34.180,36.133,25.391,12.207,6.348
1532281269.609,34.668,36.133,26.855,13.184,-229.004
1532281269.613,31.738,34.180,28.320,19.043,42.480
1532281269.616,26.367,34.180,26.855,21.973,325.684
1532281269.620,23.926,35.156,26.367,24.902,90.820
1532281269.624,23.438,31.738,29.785,26.367,-288.086
1532281269.628,21.484,30.273,27.832,26.367,-115.723
1532281269.632,21.484,30.762,23.926,35.645,289.551
1532281269.636,24.902,29.785,21.973,36.133,168.457
1532281269.640,29.785,29.297,21.973,33.691,-233.398
1532281269.644,34.668,27.344,23.438,37.109,-204.590
1532281269.648,33.691,26.367,21.484,37.109,209.473
1532281269.652,28.320,25.391,22.461,35.645,277.344
1532281269.655,24.902,22.949,22.949,33.203,-109.375
1532281269.659,28.320,21.484,23.438,39.062,-239.746
1532281269.663,33.691,22.949,21.973,42.969,105.957
1532281269.667,34.668,23.438,19.531,38.086,305.176
1532281269.671,37.109,23.926,20.508,37.598,0.488
1532281269.675,38.574,25.391,20.020,37.598,-262.207
1532281269.679,39.062,23.926,19.043,39.551,6.348
1532281269.683,41.016,21.484,20.508,42.480,334.473
1532281269.687,41.992,22.461,23.926,36.133,92.773
1532281269.691,42.480,24.414,23.438,34.668,-295.898
1532281269.695,40.039,23.926,22.461,41.992,-132.324
1532281269.698,38.574,23.926,23.438,41.992,283.691
1532281269.702,37.598,23.926,22.949,39.062,245.605
1532281269.706,39.551,22.949,23.438,37.598,-162.598
1532281269.710,41.992,24.414,22.949,41.504,-188.965
1532281269.714,45.410,22.949,21.484,47.363,187.500
1532281269.718,44.922,20.508,19.043,44.434,276.855
1532281269.722,43.457,22.461,19.531,40.527,-62.012
1532281269.726,45.410,22.461,21.484,34.180,-264.648
1532281269.730,45.410,16.113,21.484,31.738,33.203
1532281269.734,43.457,10.742,20.508,37.598,325.195
1532281269.738,43.457,10.254,18.555,37.109,44.922
1532281269.741,43.457,7.812,20.020,38.086,-258.301
1532281269.745,41.016,4.395,22.949,42.480,-42.969
1532281269.749,43.945,4.395,23.438,42.480,290.527
1532281269.753,43.945,5.859,23.438,41.504,130.371
1532281269.757,38.574,5.371,23.926,42.480,-253.418
1532281269.761,40.039,4.395,24.902,46.875,-157.227
1532281269.765,45.898,1.953,24.902,48.340,205.566
1532281269.769,46.875,3.906,25.391,46.387,204.102
1532281269.773,44.922,5.371,26.855,44.434,-139.160
1532281269.777,46.875,4.395,27.344,46.875,-203.125
1532281269.780,47.363,4.395,27.344,48.828,175.293
1532281269.784,46.387,4.395,26.855,44.434,301.758
1532281269.788,45.898,0.977,28.809,39.551,-50.293
1532281269.792,43.945,-1.465,30.762,39.551,-246.094
1532281269.796,43.457,2.441,29.785,38.574,79.102
1532281269.800,38.574,5.371,28.809,31.738,346.680
1532281269.804,36.621,6.836,30.273,24.902,86.914
1532281269.808,38.086,8.301,31.738,23.438,-256.348
1532281269.812,38.086,7.812,31.250,26.855,-93.750
1532281269.816,39.551,5.859,29.785,26.855,262.207
1532281269.820,36.133,6.836,31.250,22.949,169.434
1532281269.823,38.086,7.812,32.715,21.484,-215.332
1532281269.827,39.062,9.277,32.227,22.949,-188.965
1532281269.831,34.668,11.719,31.250,29.785,223.145
1532281269.835,32.227,10.742,32.227,31.250,259.277
1532281269.839,32.227,8.301,33.691,28.809,-117.188
1532281269.843,33.203,9.277,31.738,28.320,-215.332
1532281269.847,28.809,9.277,30.273,28.809,131.348
1532281269.851,23.438,9.277,32.227,33.691,304.199
1532281269.855,27.832,9.766,33.691,34.668,-33.691
1532281269.859,29.297,9.277,33.203,28.809,-289.062
1532281269.862,24.902,8.789,29.785,26.367,12.207
1532281269.866,25.391,8.301,28.809,23.926,312.012
1532281269.870,27.344,10.742,28.809,21.973,79.102
1532281269.874,25.879,12.207,27.344,25.391,-233.887
1532281269.878,24.414,15.137,26.367,26.855,-70.312
1532281269.882,24.902,17.578,27.344,27.344,265.625
1532281269.886,25.391,17.578,30.762,22.461,210.938
1532281269.890,24.902,20.996,31.250,16.113,-131.836
1532281269.894,23.926,23.438,30.273,17.578,-160.645
1532281269.898,18.555,21.973,27.832,17.090,207.520
1532281269.902,18.555,23.926,27.832,13.672,278.809
1532281269.905,20.020,24.414,29.297,13.672,-117.188
1532281269.909,18.066,23.438,28.320,16.113,-276.855
1532281269.913,22.461,23.926,28.809,26.367,78.613
1532281269.917,18.555,25.391,27.832,29.785,326.660
1532281269.921,18.555,26.855,27.344,27.832,40.039
1532281269.925,23.926,25.391,29.297,33.203,-238.770
1532281269.929,28.320,22.949,29.297,41.016,-14.160
1532281269.933,27.344,22.949,27.832,44.922,325.195
1532281269.937,26.855,22.949,27.832,43.457,155.273
1532281269.941,32.715,23.926,27.832,44.434,-215.332
1532281269.945,32.715,24.902,27.344,47.363,-124.512
1532281269.948,30.762,25.879,26.855,45.410,243.652
1532281269.952,30.762,26.367,28.320,42.969,240.723
1532281269.956,28.809,25.391,29.297,37.598,-154.297
1532281269.960,33.691,25.879,25.879,36.133,-210.449
1532281269.964,35.156,26.855,23.438,32.715,167.480
1532281269.968,29.785,25.391,23.926,27.832,311.035
1532281269.972,27.832,25.879,25.391,26.855,-42.969
1532281269.976,31.738,26.367,26.367,25.391,-234.863
1532281269.980,33.691,26.855,26.367,30.762,98.633
1532281269.984,29.297,24.902,25.879,32.227,329.590
1532281269.987,27.832,25.879,26.367,22.461,31.738
1532281269.991,29.785,26.855,25.391,25.391,-265.137
1532281269.995,36.133,27.832,23.926,38.086,-71.777
1532281269.999,39.551,28.320,24.902,43.457,280.762
1532281270.003,36.621,27.344,27.832,41.016,174.805
1532281270.007,41.016,30.762,29.297,35.156,-229.004
1532281270.011,46.875,29.297,28.320,40.527,-188.965
1532281270.015,47.852,28.320,27.344,51.270,226.562
1532281270.019,45.898,30.762,26.855,46.875,260.742
1532281270.023,39.062,30.762,29.297,36.133,-118.164
1532281270.027,35.156,28.320,30.273,35.645,-224.121
1532281270.030,36.621,26.855,27.344,37.598,139.160
1532281270.034,35.645,26.855,30.273,34.180,312.988
1532281270.038,34.180,26.855,29.785,29.785,-17.090
1532281270.042,35.645,29.297,28.320,33.691,-265.625
1532281270.046,37.109,29.785,30.273,39.551,-3.906
1532281270.050,36.133,29.297,30.762,40.527,308.105
1532281270.054,35.156,27.344,30.273,39.551,102.539
1532281270.058,37.598,27.344,32.715,39.551,-264.648
1532281270.062,39.551,28.809,31.738,43.457,-87.402
1532281270.066,42.480,27.832,26.855,44.922,294.434
1532281270.070,47.363,26.855,27.832,44.434,176.270
1532281270.073,42.480,25.879,30.273,38.574,-186.523
1532281270.077,40.039,28.320,26.855,37.109,-159.668
1532281270.081,41.504,29.785,25.391,42.480,204.102
1532281270.085,40.039,29.297,29.785,41.992,252.441
1532281270.089,38.574,30.273,31.738,37.598,-104.492
1532281270.093,37.109,31.250,29.785,36.621,-237.793
1532281270.097,33.203,27.832,31.738,39.062,92.773
1532281270.101,28.320,25.391,33.203,40.039,317.871
1532281270.105,28.809,26.367,32.227,30.273,-4.883
1532281270.109,30.273,28.809,31.250,29.785,-279.297
1532281270.112,33.691,29.297,29.297,41.504,25.879
1532281270.116,32.715,30.273,30.273,40.039,320.312
1532281270.120,30.762,32.227,30.762,36.133,118.652
1532281270.124,27.344,32.715,29.297,25.879,-248.535
1532281270.128,19.043,35.156,28.320,19.531,-126.953
1532281270.132,17.578,32.715,29.297,27.344,289.062
1532281270.136,19.531,30.273,32.715,25.391,227.051
1532281270.140,21.484,33.691,34.180,23.438,-189.453
1532281270.144,21.973,34.180,34.180,24.902,-238.281
1532281270.148,23.926,35.645,35.156,23.438,136.230
1532281270.152,24.902,36.133,34.180,21.973,273.438
1532281270.155,21.484,36.133,34.180,21.973,-54.199
1532281270.159,21.484,37.598,34.668,25.391,-242.188
1532281270.163,21.973,36.133,32.227,26.367,71.289
1532281270.167,20.020,37.109,32.227,24.902,315.430
1532281270.171,20.508,40.039,35.645,23.926,57.129
1532281270.175,19.531,39.062,36.621,20.508,-245.117
1532281270.179,16.602,37.598,34.180,20.020,-50.781
1532281270.183,15.625,37.598,32.715,19.043,292.969
1532281270.187,16.113,40.527,35.645,13.184,145.508
1532281270.191,15.625,41.992,37.109,12.695,-225.098
1532281270.195,14.648,38.086,36.133,18.066,-142.578
1532281270.198,14.648,36.133,37.598,18.555,253.906
1532281270.202,8.301,35.645,38.086,15.625,239.258
1532281270.206,5.371,35.156,39.062,9.766,-175.293
1532281270.210,10.742,39.551,38.574,9.277,-212.891
1532281270.214,8.301,40.039,37.598,15.137,162.109
1532281270.218,5.371,38.574,44.922,15.137,314.453
1532281270.222,4.883,38.574,46.875,12.207,-4.395
1532281270.226,13.184,39.551,42.969,15.137,-243.652
1532281270.230,20.996,39.062,45.410,21.484,41.504
1532281270.234,15.625,39.062,47.363,18.555,298.828
1532281270.237,9.766,40.039,46.875,9.766,64.453
1532281270.241,8.789,41.016,45.410,7.324,-258.301
1532281270.245,11.230,39.062,45.410,10.742,-124.512
1532281270.249,11.719,41.016,44.922,8.301,241.699
1532281270.253,6.836,42.480,43.945,6.348,191.895
1532281270.257,4.395,40.527,43.457,6.348,-183.105
1532281270.261,10.254,39.062,42.969,10.742,-135.742
1532281270.265,12.207,40.039,43.457,13.672,252.930
1532281270.269,11.230,39.551,45.898,12.695,277.344
1532281270.273,10.742,35.645,44.922,9.766,-99.121
1532281270.277,10.254,36.133,40.039,14.648,-206.055
1532281270.280,12.695,40.527,37.598,23.926,170.898
1532281270.284,11.719,40.527,37.598,14.160,327.637
1532281270.288,10.742,38.574,34.668,5.371,-25.879
1532281270.292,13.672,39.062,32.227,13.184,-242.676
1532281270.296,22.461,39.551,33.691,21.484,34.668
1532281270.300,25.879,40.527,34.180,24.414,323.730
1532281270.304,20.020,40.039,32.227,20.996,78.125
1532281270.308,22.461,39.551,30.762,20.020,-280.273
1532281270.312,26.367,40.527,28.809,27.832,-115.234
1532281270.316,26.855,37.598,27.832,33.203,290.527
1532281270.319,30.273,36.133,28.320,35.156,212.891
1532281270.323,30.762,38.086,26.855,33.203,-209.961
1532281270.327,31.250,37.109,24.902,29.297,-234.863
1532281270.331,32.227,34.180,22.949,34.668,164.062
1532281270.335,33.691,33.691,22.949,40.527,259.766
1532281270.339,35.156,35.156,22.949,39.551,-93.750
1532281270.343,37.598,36.133,21.973,38.574,-236.816
1532281270.347,37.598,33.691,22.461,41.504,109.863
1532281270.351,39.062,30.762,19.531,39.551,319.336
1532281270.355,41.992,31.250,20.508,37.109,15.625
1532281270.359,40.527,32.227,22.461,39.062,-262.207
1532281270.362,38.574,30.762,20.996,39.551,-44.434
1532281270.366,38.574,28.809,20.996,40.039,301.270
1532281270.370,36.133,28.320,21.484,34.180,128.906
1532281270.374,37.598,27.344,20.020,28.809,-257.812
1532281270.378,44.434,25.879,18.555,31.738,-133.301
1532281270.382,49.805,25.391,19.043,38.086,257.812
1532281270.386,47.852,27.344,20.020,37.109,196.777
1532281270.390,44.922,29.785,23.438,40.527,-206.543
1532281270.394,48.340,27.832,24.902,53.223,-187.988
1532281270.398,48.340,27.832,24.414,58.105,200.684
1532281270.402,44.434,29.297,22.949,61.035,301.758
1532281270.405,40.527,26.855,24.414,55.664,-40.039
1532281270.409,38.574,26.367,26.855,52.246,-237.793
1532281270.413,45.898,29.297,28.320,61.035,65.918
1532281270.417,47.363,25.391,29.297,58.594,301.270
1532281270.421,43.945,25.391,28.809,49.805,63.965
1532281270.425,47.852,30.762,29.297,46.387,-264.160
1532281270.429,48.340,30.273,28.809,44.434,-71.777
1532281270.433,43.945,28.809,28.809,48.828,320.801
1532281270.437,44.922,30.273,30.273,49.805,189.941
1532281270.441,47.852,32.715,30.273,47.852,-187.500
1532281270.444,48.828,33.691,30.762,51.270,-123.047
1532281270.448,48.828,32.227,30.273,50.781,272.461
1532281270.452,45.898,31.738,31.250,46.875,272.461
1532281270.456,42.480,33.691,31.250,43.457,-127.441
1532281270.460,41.016,34.180,28.809,43.945,-203.613
1532281270.464,40.039,30.762,30.762,47.852,136.719
1532281270.468,39.551,28.809,32.715,46.875,284.180
1532281270.472,37.109,27.344,35.156,46.875,-37.598
1532281270.476,38.574,29.297,36.621,49.805,-268.555
1532281270.480,39.551,27.344,36.133,53.711,44.922
1532281270.484,38.574,24.902,35.156,52.246,333.496
1532281270.487,40.039,29.297,35.156,43.457,79.102
1532281270.491,43.945,31.250,33.691,41.504,-275.391
1532281270.495,46.387,29.785,33.203,46.387,-83.984
1532281270.499,48.828,29.785,33.691,49.805,350.586
1532281270.503,53.711,33.203,34.180,49.316,237.305
1532281270.507,53.223,33.203,32.715,44.434,-189.941
1532281270.511,54.199,32.227,31.738,42.480,-204.102
1532281270.515,56.641,31.738,32.227,43.945,196.289
1532281270.519,56.152,30.762,34.668,40.527,298.828
1532281270.523,54.688,31.738,35.156,34.668,-93.750
1532281270.527,45.898,30.762,33.203,28.809,-251.465
1532281270.530,40.039,29.297,34.668,29.785,93.262
1532281270.534,38.574,27.344,38.086,29.785,316.895
1532281270.538,37.109,25.391,39.062,25.391,26.855
1532281270.542,36.133,25.879,38.574,32.227,-259.277
1532281270.546,32.715,23.926,40.039,30.273,-25.879
1532281270.550,31.250,22.461,39.062,26.367,287.598
1532281270.554,32.227,22.461,39.062,34.180,115.723
1532281270.558,35.645,22.461,41.504,38.086,-241.699
1532281270.562,37.598,21.484,39.551,43.945,-140.137
1532281270.566,35.156,19.043,42.969,37.598,245.605
1532281270.569,33.203,19.043,43.457,29.785,205.566
1532281270.573,34.668,20.020,40.527,35.645,-155.273
1532281270.577,35.156,20.020,39.551,39.062,-214.355
1532281270.581,31.250,19.531,38.086,38.086,160.156
1532281270.585,26.367,21.484,34.668,36.133,292.969
1532281270.589,27.344,23.438,32.227,33.691,-67.383
1532281270.593,32.227,22.949,33.691,33.691,-250.977
1532281270.597,34.180,21.484,31.738,37.109,44.434
1532281270.601,32.227,22.461,29.297,36.621,294.922
1532281270.605,35.645,27.832,28.809,32.227,15.137
1532281270.609,41.016,30.273,24.902,25.879,-315.430
1532281270.612,41.016,27.344,20.996,29.297,-81.543
1532281270.616,40.039,26.367,20.996,33.203,289.062
1532281270.620,36.133,26.855,20.996,31.738,139.160
1532281270.624,33.691,27.832,21.973,29.297,-260.254
1532281270.628,33.691,25.879,22.949,29.785,-176.270
1532281270.632,39.551,23.926,24.414,36.621,247.559
1532281270.636,39.062,24.414,26.367,38.574,254.883
1532281270.640,35.156,23.438,28.809,37.109,-143.555
1532281270.644,38.574,23.438,29.785,39.062,-217.773
1532281270.648,40.039,23.926,30.273,42.480,135.742
1532281270.652,37.109,22.949,28.809,41.504,284.180
1532281270.655,31.250,25.391,28.320,35.645,-17.090
1532281270.659,30.762,24.902,30.762,34.180,-268.555
1532281270.663,33.203,22.949,28.809,36.133,12.695
1532281270.667,30.273,24.902,26.855,31.250,297.852
1532281270.671,24.902,24.902,30.273,26.855,48.828
1532281270.675,25.879,23.438,29.785,24.414,-258.789
1532281270.679,22.461,23.926,29.297,26.855,-66.406
1532281270.683,13.184,24.902,33.691,26.855,287.109
1532281270.687,15.625,28.320,37.109,25.391,195.312
1532281270.691,18.555,28.809,39.551,26.367,-160.156
1532281270.694,20.020,28.320,39.062,27.832,-141.602
1532281270.698,27.344,32.227,41.504,32.715,240.723
1532281270.702,26.367,34.180,41.504,33.691,276.855
1532281270.706,24.414,37.109,42.969,28.809,-131.348
1532281270.710,26.367,39.062,45.410,31.738,-228.027
1532281270.714,25.879,39.062,43.945,36.621,158.203
1532281270.718,25.879,40.527,46.387,33.691,320.801
1532281270.722,20.996,40.039,47.852,32.227,-20.996
1532281270.726,19.043,39.551,48.340,27.344,-283.691
1532281270.730,15.625,38.086,48.828,23.926,20.508
1532281270.734,14.160,37.598,47.363,23.438,351.074
1532281270.737,17.578,39.551,49.316,19.531,117.676
1532281270.741,24.414,40.527,48.828,19.043,-235.352
1532281270.745,28.320,42.969,46.387,21.484,-106.934
1532281270.749,26.367,41.992,47.363,21.973,254.883
1532281270.753,24.902,41.504,48.828,18.066,203.125
1532281270.757,29.297,46.875,48.340,18.066,-186.523
1532281270.761,32.715,45.410,50.781,27.832,-192.383
1532281270.765,31.738,43.457,51.758,25.391,187.500
1532281270.769,29.785,43.457,49.316,20.508,260.254
1532281270.773,27.344,41.016,52.734,23.438,-85.449
1532281270.777,28.809,40.527,54.688,27.832,-231.445
1532281270.780,31.250,39.062,53.223,34.180,105.469
1532281270.784,28.809,37.109,52.246,31.738,333.496
1532281270.788,29.785,38.086,51.270,28.320,42.480
1532281270.792,34.180,38.086,50.781,31.250,-245.605
1532281270.796,34.668,37.109,46.387,35.645,-4.395
1532281270.800,38.086,36.621,43.945,40.039,313.965
1532281270.804,41.504,37.598,41.992,39.551,106.934
1532281270.808,45.410,37.598,42.480,38.574,-273.438
1532281270.812,47.363,34.180,41.992,43.945,-137.207
1532281270.816,45.410,31.250,41.016,48.828,277.832
1532281270.819,42.969,32.715,41.016,45.898,229.980
1532281270.823,40.527,31.738,40.527,40.039,-154.785
1532281270.827,41.504,30.273,41.016,39.062,-193.359
1532281270.831,41.016,34.180,40.527,41.992,186.035
1532281270.835,41.016,34.668,39.551,39.551,314.453
1532281270.839,42.480,32.227,40.039,36.133,-48.828
1532281270.843,39.551,33.203,40.039,39.062,-281.738
1532281270.847,42.480,34.180,38.086,36.621,-8.301
1532281270.851,48.340,33.203,37.598,37.598,282.227
1532281270.855,44.922,32.227,38.574,40.527,70.312
1532281270.859,42.969,30.762,37.598,37.598,-252.441
1532281270.862,47.363,29.785,35.645,45.898,-74.707
1532281270.866,44.922,29.785,34.668,46.875,280.273
1532281270.870,37.598,32.227,34.668,41.016,155.273
1532281270.874,40.527,36.133,33.203,42.480,-227.051
1532281270.878,45.410,35.645,34.668,46.875,-154.785
1532281270.882,46.875,32.715,34.180,45.898,242.676
1532281270.886,48.828,32.715,32.715,43.457,264.160
1532281270.890,46.875,34.180,34.180,42.969,-115.234
1532281270.894,46.875,36.133,31.738,41.504,-243.164
1532281270.898,47.363,34.668,31.738,43.457,129.395
1532281270.901,42.480,30.273,33.691,44.434,345.215
1532281270.905,40.039,31.250,33.691,37.598,-22.461
1532281270.909,38.574,31.250,34.180,30.273,-307.617
1532281270.913,38.086,29.785,32.227,34.668,15.137
1532281270.917,33.203,28.320,28.809,36.133,325.684
1532281270.921,29.297,28.320,28.320,30.762,104.004
1532281270.925,30.762,29.785,27.832,30.762,-216.797
1532281270.929,33.691,30.273,25.879,34.180,-83.496
1532281270.933,35.156,30.762,25.391,38.574,285.645
1532281270.937,33.691,29.785,26.855,38.574,233.887
1532281270.941,34.668,30.762,27.832,36.621,-158.691
1532281270.944,39.551,31.738,25.391,35.156,-169.434
1532281270.948,43.457,31.738,24.414,37.109,191.895
1532281270.952,41.504,30.273,28.320,39.551,248.535
1532281270.956,37.598,27.832,30.273,37.109,-109.375
1532281270.960,33.203,25.391,26.367,33.203,-244.141
1532281270.964,34.668,22.461,23.926,34.668,92.285
1532281270.968,38.086,26.367,27.344,38.574,292.969
1532281270.972,33.691,29.297,25.879,35.156,-7.812
1532281270.976,34.668,26.855,26.855,37.109,-276.367
1532281270.980,38.574,26.855,29.297,40.039,-24.902
1532281270.984,36.133,28.320,27.344,38.086,284.668
1532281270.987,35.645,29.297,30.273,28.320,80.078
1532281270.991,37.109,29.785,30.762,27.344,-264.648
1532281270.995,37.598,30.273,29.785,35.156,-115.234
1532281270.999,31.738,30.273,29.785,36.133,293.457
1532281271.003,26.855,28.809,31.738,31.738,258.789
1532281271.007,30.273,29.297,32.227,29.785,-129.395
1532281271.011,37.109,27.344,30.762,32.715,-160.156
1532281271.015,35.645,26.367,30.762,34.668,193.359
1532281271.019,32.715,30.273,31.250,34.180,289.551
1532281271.023,29.785,29.785,33.203,33.691,-48.340
1532281271.026,27.832,28.809,33.203,28.809,-262.695
1532281271.030,30.762,30.762,31.738,31.250,52.734
1532281271.034,33.203,34.180,35.156,38.086,325.684
1532281271.038,34.180,33.691,36.133,35.645,66.895
1532281271.042,33.203,30.273,31.738,31.738,-233.398
1532281271.046,33.691,30.762,32.227,34.180,-26.855
1532281271.050,33.691,31.250,33.203,35.645,315.918
1532281271.054,31.738,32.227,34.180,33.203,168.457
1532281271.058,30.762,31.738,35.645,30.762,-213.867
1532281271.062,30.762,30.762,33.691,32.227,-150.879
1532281271.066,31.738,29.297,32.227,33.203,248.535
1532281271.069,30.762,29.297,30.762,30.273,265.625
1532281271.073,28.809,29.297,31.738,27.832,-144.531
1532281271.077,26.367,27.344,33.203,28.809,-248.047
1532281271.081,25.391,25.879,30.273,31.738,118.164
1532281271.085,25.879,26.367,28.320,29.785,261.230
1532281271.089,25.879,29.297,31.250,28.809,-41.016
1532281271.093,30.273,30.273,31.250,30.762,-242.188
1532281271.097,31.250,26.855,27.832,33.203,22.461
1532281271.101,32.715,26.367,29.297,34.180,300.781
1532281271.105,36.621,29.297,31.250,30.762,62.500
1532281271.109,36.621,29.785,29.785,29.785,-255.371
1532281271.112,41.992,29.297,28.809,35.156,-84.961
1532281271.116,43.457,28.809,29.785,40.039,275.391
1532281271.120,40.527,28.809,32.715,39.062,179.199
1532281271.124,38.086,30.273,33.691,36.133,-211.426
1532281271.128,37.598,30.273,32.715,28.320,-208.008
1532281271.132,38.574,29.785,34.180,32.715,179.688
1532281271.136,37.598,29.785,34.668,40.039,279.785
1532281271.140,32.715,27.344,33.691,38.086,-79.590
1532281271.144,32.715,24.902,33.203,36.133,-233.887
1532281271.148,32.227,23.926,30.273,34.180,101.074
1532281271.151,33.691,24.902,26.855,40.039,316.406
1532281271.155,35.156,28.809,28.320,38.574,7.324
1532281271.159,36.621,29.785,31.250,37.109,-236.816
1532281271.163,41.016,28.320,30.762,38.086,8.789
1532281271.167,43.945,28.809,30.762,33.691,305.176
1532281271.171,48.828,30.762,31.738,34.180,119.629
1532281271.175,52.734,32.715,32.227,35.156,-228.027
1532281271.179,49.316,33.691,31.250,36.621,-71.289
1532281271.183,41.016,31.738,32.227,39.551,293.945
1532281271.187,34.180,32.227,29.297,37.598,192.383
1532281271.191,33.691,34.668,28.809,40.039,-203.125
1532281271.194,34.668,34.180,31.738,47.852,-215.820
1532281271.198,31.738,32.715,32.715,46.387,206.055
1532281271.202,27.344,32.715,34.180,41.016,303.223
1532281271.206,28.320,33.691,36.133,34.668,-78.613
1532281271.210,27.832,34.180,36.621,33.203,-236.328
1532281271.214,27.344,35.156,38.086,34.180,66.406
1532281271.218,33.203,36.133,39.062,33.203,292.969
1532281271.222,31.250,35.645,36.621,28.320,40.527
1532281271.226,27.832,37.109,35.156,24.902,-254.395
1532281271.230,25.391,34.180,34.668,27.344,-44.434
1532281271.234,22.949,31.738,33.203,28.320,302.734
1532281271.237,22.461,30.273,32.715,23.438,139.160
1532281271.241,21.484,29.297,32.715,22.949,-228.516
1532281271.245,22.949,28.320,34.668,26.855,-150.879
1532281271.249,26.855,22.949,37.598,35.156,233.887
1532281271.253,30.273,19.043,35.645,40.527,249.512
1532281271.257,34.180,25.879,29.297,32.715,-141.113
1532281271.261,32.715,33.203,24.902,28.320,-219.727
1532281271.265,31.738,32.227,22.461,30.762,140.625
1532281271.269,35.156,33.203,24.414,30.273,272.461
1532281271.273,36.621,34.668,27.344,29.785,-41.992
1532281271.276,39.062,33.691,25.391,30.273,-229.492
1532281271.280,37.109,32.227,20.996,31.738,83.008
1532281271.284,34.180,30.762,21.484,34.668,340.820
1532281271.288,34.180,32.227,24.902,35.645,74.707
1532281271.292,34.668,32.715,24.414,35.156,-273.926
1532281271.296,35.645,29.785,24.902,38.086,-74.219
1532281271.300,33.691,28.320,26.367,39.062,299.805
1532281271.304,35.645,29.297,26.367,32.715,154.785
1532281271.308,38.086,27.832,26.367,29.297,-221.191
1532281271.312,43.945,28.320,25.391,35.645,-177.246
1532281271.316,47.852,28.320,25.879,38.086,236.328
1532281271.319,44.922,26.367,28.320,38.574,270.996
1532281271.323,45.410,26.367,27.832,38.086,-145.020
1532281271.327,45.898,29.297,29.785,31.738,-269.531
1532281271.331,41.016,26.855,33.691,33.203,109.863
1532281271.335,40.527,24.902,32.227,40.039,290.527
1532281271.339,40.527,27.832,31.250,37.109,-26.855
1532281271.343,37.598,28.809,31.250,35.645,-260.742
1532281271.347,38.086,29.297,31.250,39.062,12.207
1532281271.351,39.062,29.297,32.227,39.062,328.125
1532281271.355,35.156,29.785,30.762,37.109,93.750
1532281271.358,34.180,27.832,29.297,37.109,-263.184
1532281271.362,38.086,26.855,28.809,39.551,-109.863
1532281271.366,40.527,28.809,28.320,38.574,264.648
1532281271.370,41.504,29.297,29.297,38.086,201.660
1532281271.374,41.504,29.297,30.273,40.527,-170.410
1532281271.378,43.945,30.273,27.832,41.016,-172.363
1532281271.382,46.387,28.809,27.832,45.410,231.934
1532281271.386,44.434,28.320,31.250,43.945,293.457
1532281271.390,44.434,29.785,28.320,37.598,-99.609
1532281271.394,43.945,28.320,27.832,35.156,-246.582
1532281271.398,41.992,27.344,29.297,37.109,95.215
1532281271.401,40.039,26.367,28.809,35.645,328.125
1532281271.405,40.527,25.879,31.250,33.203,20.020
1532281271.409,42.480,29.297,33.691,34.668,-266.602
1532281271.413,45.898,29.785,35.156,39.551,-29.297
1532281271.417,48.828,27.344,35.645,41.504,298.340
1532281271.421,48.828,26.367,35.645,40.527,141.602
1532281271.425,49.805,28.809,35.156,37.109,-223.145
1532281271.429,49.316,27.832,33.691,31.738,-135.742
1532281271.433,46.387,26.367,34.180,38.574,245.605
1532281271.437,40.527,29.297,32.227,40.039,231.445
1532281271.441,36.133,29.297,30.762,33.691,-141.113
1532281271.444,36.133,28.320,34.180,33.203,-199.219
1532281271.448,40.527,30.273,34.668,37.109,174.805
1532281271.452,40.039,32.227,34.668,36.621,301.758
1532281271.456,33.203,31.738,35.156,33.691,-52.246
1532281271.460,33.691,31.738,35.645,34.180,-261.719
1532281271.464,37.109,29.785,34.668,35.645,39.551
1532281271.468,37.109,28.320,33.203,35.156,279.785
1532281271.472,34.668,28.809,34.180,34.668,30.762
1532281271.476,33.203,28.809,36.133,36.133,-240.723
1532281271.480,36.621,28.320,38.574,41.504,-43.945
1532281271.483,35.156,29.785,41.504,40.527,293.457
1532281271.487,27.344,31.738,39.551,32.715,142.578
1532281271.491,26.367,30.762,41.992,31.250,-207.031
1532281271.495,24.902,28.809,41.992,35.156,-131.348
1532281271.499,20.508,27.344,38.574,36.133,227.051
1532281271.503,20.020,28.809,40.039,32.715,242.188
1532281271.507,19.531,30.273,40.527,24.414,-152.832
1532281271.511,20.020,28.809,42.480,26.855,-243.164
1532281271.515,24.414,27.832,42.969,36.133,128.418
1532281271.519,27.344,26.367,41.992,33.691,283.203
1532281271.523,28.320,26.367,42.480,28.320,-41.504
1532281271.526,32.227,26.367,40.527,27.344,-269.043
1532281271.530,36.133,25.391,35.645,29.297,27.832
1532281271.534,35.645,26.367,33.203,30.273,341.797
1532281271.538,35.645,28.320,33.691,27.832,96.680
1532281271.542,37.109,25.879,34.180,31.738,-244.141
1532281271.546,41.016,25.391,35.156,35.645,-73.730
1532281271.550,41.016,25.879,35.156,34.180,278.320
1532281271.554,36.133,23.926,35.156,35.645,202.637
1532281271.558,34.180,23.926,36.133,35.645,-181.152
1532281271.562,35.156,22.461,36.621,36.621,-158.203
1532281271.566,36.133,20.996,37.598,37.109,229.980
1532281271.569,35.156,21.484,38.574,34.180,275.391
1532281271.573,33.691,20.996,40.527,33.203,-106.934
1532281271.577,34.180,21.973,38.574,35.156,-213.867
1532281271.581,36.621,23.438,38.574,36.133,130.371
1532281271.585,34.668,25.391,37.109,32.227,299.316
1532281271.589,35.156,25.879,36.133,28.809,-1.465
1532281271.593,38.086,25.391,38.086,31.738,-258.789
1532281271.597,39.551,25.391,36.621,35.156,-5.371
1532281271.601,39.551,25.879,37.109,36.133,298.828
1532281271.605,36.133,26.367,39.062,31.250,82.031
1532281271.608,41.016,27.344,40.527,25.879,-278.809
1532281271.612,43.945,26.367,39.551,33.691,-126.465
1532281271.616,39.551,27.344,39.062,41.504,264.160
1532281271.620,38.086,29.297,39.551,40.039,217.285
1532281271.624,36.133,28.320,40.527,40.527,-165.527
1532281271.628,35.645,28.809,41.016,41.992,-178.711
1532281271.632,31.250,31.738,39.551,40.527,197.266
1532281271.636,30.762,31.738,41.992,39.062,277.832
1532281271.640,31.738,34.180,42.480,35.645,-76.172
1532281271.644,29.785,37.109,42.480,32.227,-248.535
1532281271.648,31.738,35.645,40.527,28.809,60.547
1532281271.651,32.715,34.668,40.527,32.227,304.688
1532281271.655,33.203,36.133,42.969,35.156,24.414
1532281271.659,35.156,36.621,41.016,32.715,-258.789
1532281271.663,39.551,34.668,39.551,37.598,-38.086
1532281271.667,43.457,32.227,41.016,40.527,269.531
1532281271.671,41.504,30.762,40.527,42.480,111.328
1532281271.675,44.922,31.250,40.039,42.969,-237.793
1532281271.679,50.293,30.273,40.527,45.410,-145.508
1532281271.683,46.387,30.762,40.039,46.875,253.418
1532281271.687,38.086,30.762,39.062,35.156,228.516
1532281271.691,28.320,26.855,37.109,27.832,-164.551
1532281271.694,24.902,24.414,38.086,33.691,-237.305
1532281271.698,28.809,21.973,39.062,34.668,135.742
1532281271.702,28.320,20.996,35.645,32.227,299.316
1532281271.706,30.273,21.484,34.180,29.785,-82.031
1532281271.710,34.180,23.438,32.715,33.203,-271.973
1532281271.714,35.156,25.391,30.273,39.062,67.383
1532281271.718,37.109,23.438,28.809,39.551,310.547
1532281271.722,40.039,21.973,31.250,41.016,77.637
1532281271.726,39.062,23.926,33.203,39.551,-231.445
1532281271.730,39.551,23.926,32.715,41.504,-60.547
1532281271.733,42.480,24.902,33.203,46.875,291.016
1532281271.737,41.504,26.367,32.227,42.480,190.430
1532281271.741,37.598,26.855,32.227,37.109,-173.828
1532281271.745,33.203,26.855,29.785,32.715,-182.129
1532281271.749,30.762,26.855,27.832,31.250,197.754
1532281271.753,27.832,24.414,27.832,28.809,284.180
1532281271.757,25.391,25.391,25.879,23.438,-132.324
1532281271.761,27.344,27.832,22.949,24.902,-253.906
1532281271.765,29.785,27.344,22.949,27.344,125.977
1532281271.769,29.297,26.367,22.461,30.762,294.922
1532281271.773,29.785,27.344,19.531,33.691,-27.832
1532281271.776,38.086,31.738,19.531,35.645,-258.301
1532281271.780,44.922,33.203,17.090,39.062,22.461
1532281271.784,44.434,34.668,14.160,39.062,319.824
1532281271.788,43.945,36.621,15.137,31.738,69.824
1532281271.792,44.434,35.645,16.602,31.250,-270.020
1532281271.796,44.434,35.156,16.113,39.062,-84.473
1532281271.800,47.363,37.109,16.113,41.992,295.410
1532281271.804,44.434,39.062,18.066,40.039,215.332
1532281271.808,38.574,38.574,16.602,39.551,-183.105
1532281271.812,40.527,37.598,15.625,41.016,-186.523
1532281271.815,39.062,35.645,17.578,41.992,203.613
1532281271.819,36.621,36.133,18.066,41.016,284.180
1532281271.823,33.691,36.133,17.090,37.109,-108.398
1532281271.827,30.762,34.668,15.625,30.762,-276.855
1532281271.831,30.273,34.180,14.160,35.645,80.566
1532281271.835,27.832,32.715,15.625,37.598,314.941
1532281271.839,28.809,33.691,17.090,35.645,28.320
1532281271.843,34.180,38.086,16.602,39.062,-244.141
1532281271.847,33.691,37.109,17.090,40.527,-19.531
1532281271.851,27.344,35.156,14.160,37.109,306.152
1532281271.855,23.926,36.621,13.672,30.273,126.953
1532281271.858,24.902,35.645,17.090,29.297,-236.816
1532281271.862,27.344,34.668,18.066,33.203,-113.770
1532281271.866,33.203,35.156,17.578,33.203,251.465
1532281271.870,35.645,37.109,18.555,33.203,235.840
1532281271.874,33.691,39.062,19.043,33.691,-133.301
1532281271.878,35.645,40.527,18.555,37.598,-198.242
1532281271.882,39.551,42.480,17.090,42.969,168.945
1532281271.886,41.016,41.504,18.555,42.480,290.039
1532281271.890,39.062,41.504,19.531,37.598,-31.250
1532281271.894,41.016,41.504,16.602,39.062,-235.840
1532281271.898,43.945,41.992,14.648,41.016,86.914
1532281271.901,42.480,42.480,16.113,38.574,335.449
1532281271.905,39.551,43.457,17.090,36.133,20.020
1532281271.909,35.156,43.945,16.602,32.227,-255.859
1532281271.913,36.133,41.504,18.066,34.668,-24.414
1532281271.917,36.133,37.598,18.555,34.180,337.891
1532281271.921,35.645,38.086,17.090,27.344,208.496
1532281271.925,37.598,40.039,18.066,21.973,-197.266
1532281271.929,41.504,41.016,18.555,15.625,-188.477
1532281271.933,44.922,37.598,19.043,15.625,208.008
1532281271.937,41.016,36.621,19.043,25.879,268.066
1532281271.940,36.621,38.574,18.555,29.297,-112.793
1532281271.944,34.180,38.574,20.508,34.180,-219.238
1532281271.948,30.273,37.598,20.508,44.922,152.344
1532281271.952,25.391,35.645,21.484,47.852,322.754
1532281271.956,22.461,36.133,21.973,43.457,-17.578
1532281271.960,22.949,36.621,19.531,41.504,-242.188
1532281271.964,25.879,34.180,20.020,43.457,45.898
1532281271.968,24.902,35.645,21.973,39.551,318.848
1532281271.972,25.879,36.133,20.996,34.180,91.309
1532281271.976,27.832,37.598,21.973,35.156,-234.863
1532281271.980,31.738,38.086,21.973,36.133,-67.871
1532281271.983,33.691,36.621,20.020,37.598,297.363
1532281271.987,30.762,38.574,18.555,33.691,189.941
1532281271.991,30.273,40.039,17.578,30.762,-213.379
1532281271.995,34.180,39.551,18.066,34.668,-176.758
1532281271.999,33.203,37.109,20.996,39.551,224.609
1532281272.003,25.391,34.668,22.949,38.574,276.367
1532281272.007,27.832,33.691,23.438,36.133,-121.582
1532281272.011,36.133,34.668,24.414,40.527,-267.578
1532281272.015,34.180,35.156,25.879,44.922,99.609
1532281272.019,32.227,36.133,25.391,42.480,293.457
1532281272.023,34.180,37.598,26.367,40.527,-6.836
1532281272.026,33.203,37.109,27.344,29.785,-288.574
1532281272.030,31.738,36.133,26.367,26.367,-30.762
1532281272.034,28.320,34.180,28.320,34.668,324.707
1532281272.038,27.344,32.227,31.738,32.715,136.230
1532281272.042,25.391,33.203,31.250,29.785,-235.352
1532281272.046,29.297,32.227,32.227,31.738,-117.188
1532281272.050,34.668,31.738,35.645,37.109,264.160
1532281272.054,36.621,33.691,37.598,37.109,221.191
1532281272.058,37.109,32.715,37.109,36.621,-164.062
1532281272.062,40.527,33.203,38.086,42.480,-184.082
1532281272.065,43.457,34.668,41.992,44.434,175.293
1532281272.069,41.992,37.109,43.945,43.457,254.883
1532281272.073,40.527,39.062,41.992,44.922,-55.664
1532281272.077,41.016,39.062,39.551,44.434,-233.887
1532281272.081,38.574,39.062,40.039,43.457,66.406
1532281272.085,32.715,38.086,40.527,34.668,304.688
1532281272.089,29.785,37.598,41.504,29.785,23.438
1532281272.093,32.715,38.574,40.039,31.250,-254.883
1532281272.097,34.668,37.598,37.109,31.250,-35.645
1532281272.101,34.668,37.109,38.086,31.250,299.805
1532281272.105,32.227,39.551,41.016,29.297,151.367
1532281272.108,32.715,39.062,42.969,30.273,-200.195
1532281272.112,39.062,37.598,42.480,38.086,-135.742
1532281272.116,39.062,37.598,41.992,40.527,228.516
1532281272.120,40.527,41.504,41.016,41.504,256.348
1532281272.124,40.527,43.945,41.504,41.504,-132.324
1532281272.128,41.016,41.016,41.016,42.969,-251.465
1532281272.132,46.387,41.504,37.598,48.340,140.625
1532281272.136,45.898,43.457,38.574,46.387,295.410
1532281272.140,43.457,44.922,41.016,39.551,-74.219
1532281272.144,46.387,43.457,39.062,38.574,-247.559
1532281272.148,50.781,42.969,37.598,42.969,54.199
1532281272.151,48.340,41.016,41.992,41.992,305.176
1532281272.155,44.922,41.992,43.945,39.062,90.820
1532281272.159,49.805,41.992,44.434,39.551,-233.398
1532281272.163,50.781,39.551,44.434,40.527,-92.773
1532281272.167,48.340,40.039,43.945,35.645,250.977
1532281272.171,43.457,41.016,44.922,35.156,141.113
1532281272.175,41.016,40.527,44.434,39.062,-230.957
1532281272.179,43.945,39.062,44.922,41.504,-192.383
1532281272.183,45.410,39.062,43.945,46.387,207.520
1532281272.187,41.504,41.992,42.969,44.922,264.648
1532281272.190,40.527,41.992,42.969,40.527,-99.609
1532281272.194,43.457,40.039,41.992,42.969,-218.262
1532281272.198,42.480,40.039,42.969,46.875,120.605
1532281272.202,41.504,40.039,42.480,42.480,309.082
1532281272.206,37.598,39.551,41.504,30.762,-43.945
1532281272.210,34.668,38.086,41.016,26.855,-298.828
1532281272.214,33.203,34.668,38.574,32.715,32.227
1532281272.218,29.297,34.668,38.086,31.738,361.328
1532281272.222,27.832,34.180,39.062,28.320,117.676
1532281272.226,33.691,33.691,38.574,30.273,-250.000
1532281272.230,38.086,36.133,37.598,38.574,-107.910
1532281272.233,38.574,36.133,39.062,43.457,257.324
1532281272.237,39.062,35.645,39.062,41.992,216.797
1532281272.241,41.504,33.691,35.156,40.527,-143.555
1532281272.245,45.898,32.715,34.668,44.434,-194.824
1532281272.249,46.387,34.180,36.133,47.363,183.105
1532281272.253,39.551,33.691,34.180,41.504,286.133
1532281272.257,35.156,34.180,35.156,36.133,-96.680
1532281272.261,38.086,35.645,36.133,38.086,-266.113
1532281272.265,35.156,35.645,35.645,37.598,60.059
1532281272.269,32.227,35.645,36.133,34.668,289.551
1532281272.273,30.762,35.156,35.156,34.180,22.949
1532281272.276,31.738,34.180,34.180,31.738,-237.305
1532281272.280,32.715,34.180,34.180,33.203,-8.301
1532281272.284,28.809,33.691,34.180,35.156,306.641
1532281272.288,29.297,34.180,35.156,34.180,107.422
1532281272.292,34.180,37.109,34.180,33.203,-282.227
1532281272.296,41.992,38.086,33.691,35.645,-150.879
1532281272.300,41.504,39.062,35.645,43.457,245.605
1532281272.304,38.086,41.016,34.180,42.969,235.352
1532281272.308,37.598,40.527,34.180,38.574,-193.848
1532281272.312,39.551,40.527,34.180,42.480,-244.141
1532281272.315,40.527,39.062,34.180,43.457,166.016
1532281272.319,37.109,36.133,32.227,41.016,283.203
1532281272.323,34.668,36.621,30.762,38.086,-96.680
1532281272.327,37.598,37.598,33.203,37.598,-288.086
1532281272.331,39.062,34.668,36.133,43.457,48.340
1532281272.335,35.645,36.133,37.109,44.434,308.105
1532281272.339,32.227,37.109,37.598,41.992,42.969
1532281272.343,31.738,34.668,34.668,39.551,-274.414
1532281272.347,33.691,35.645,33.203,38.086,-83.984
1532281272.351,34.668,36.133,33.691,39.062,283.691
1532281272.355,37.598,36.621,34.180,41.016,189.453
1532281272.358,41.504,35.645,35.156,41.504,-185.547
1532281272.362,41.016,35.645,33.691,42.480,-145.996
1532281272.366,41.016,38.086,29.785,41.992,229.492
1532281272.370,41.992,38.086,30.762,39.551,277.832
1532281272.374,39.062,36.621,31.738,36.133,-107.910
1532281272.378,35.645,35.156,28.320,35.156,-236.328
1532281272.382,36.133,35.645,26.367,37.109,127.441
1532281272.386,34.180,35.156,27.832,31.250,289.551
1532281272.390,29.785,33.203,30.762,25.391,-41.504
1532281272.394,27.832,32.715,30.762,30.273,-295.898
1532281272.397,27.832,32.227,28.320,32.715,-6.836
1532281272.401,32.227,30.273,29.785,33.691,315.918
1532281272.405,30.762,31.250,31.738,30.273,64.941
1532281272.409,29.297,29.785,31.250,28.809,-266.113
1532281272.413,36.621,29.785,29.297,33.691,-71.777
1532281272.417,38.574,31.250,28.320,36.621,308.594
1532281272.421,36.133,31.738,27.832,32.715,197.754
1532281272.425,33.203,30.762,28.320,26.367,-184.082
1532281272.429,32.227,29.297,27.344,27.832,-161.133
1532281272.433,36.621,29.785,26.855,35.645,188.477
1532281272.437,37.109,28.809,29.297,33.203,267.090
1532281272.440,32.227,28.320,30.273,28.809,-102.539
1532281272.444,32.715,28.809,32.227,28.320,-273.438
1532281272.448,33.203,29.785,33.203,25.391,87.891
1532281272.452,25.879,30.273,32.227,27.344,320.801
1532281272.456,25.879,29.785,31.738,28.320,9.277
1532281272.460,29.785,28.320,32.715,27.832,-263.672
1532281272.464,32.715,27.832,31.738,33.691,-8.789
1532281272.468,36.133,27.832,31.738,37.109,321.289
1532281272.472,34.668,30.762,32.715,35.645,143.555
1532281272.476,36.621,33.691,32.227,33.203,-228.516
1532281272.480,39.062,33.691,32.227,35.645,-129.883
1532281272.483,38.086,31.250,30.762,36.133,270.020
1532281272.487,32.227,30.273,31.738,26.367,224.609
1532281272.491,26.367,29.785,32.227,23.926,-169.434
1532281272.495,26.367,29.297,28.320,28.809,-195.801
1532281272.499,28.320,28.809,25.879,34.180,189.453
1532281272.503,26.855,30.273,24.902,32.227,284.180
1532281272.507,26.855,30.273,25.879,27.344,-67.871
1532281272.511,31.250,28.320,27.344,30.273,-248.535
1532281272.515,37.109,26.367,28.320,37.109,60.059
1532281272.519,35.645,27.344,27.832,36.621,329.102
1532281272.522,27.832,26.855,26.855,33.691,39.551
1532281272.526,27.832,25.391,27.832,33.203,-256.348
1532281272.530,28.320,26.367,24.902,33.203,-24.902
1532281272.534,27.344,26.367,23.438,33.691,292.969
1532281272.538,27.832,27.344,24.902,33.203,132.812
1532281272.542,31.738,27.344,23.926,33.203,-226.074
1532281272.546,38.574,28.320,20.996,34.180,-171.387
1532281272.550,39.062,29.785,20.508,36.133,204.590
1532281272.554,35.156,28.809,20.996,36.621,242.676
1532281272.558,36.133,30.273,21.484,33.691,-119.629
1532281272.562,33.691,27.832,24.414,37.109,-216.797
1532281272.565,31.250,27.344,24.902,38.574,151.367
1532281272.569,30.273,29.297,25.391,34.668,319.336
1532281272.573,31.250,29.297,24.414,34.180,-43.945
1532281272.577,31.250,27.344,23.926,37.109,-255.371
1532281272.581,27.832,24.902,24.902,37.598,66.406
1532281272.585,26.855,23.926,22.949,32.715,326.172
1532281272.589,21.484,24.414,20.020,26.367,94.238
1532281272.593,19.531,24.414,20.508,25.879,-195.801
1532281272.597,18.555,24.414,20.508,32.227,-46.387
1532281272.601,17.090,23.438,20.020,35.645,300.781
1532281272.605,20.020,24.414,21.973,33.203,186.523
1532281272.608,25.879,25.879,23.926,34.180,-186.035
1532281272.612,29.297,25.391,22.461,36.133,-130.859
1532281272.616,23.926,25.879,23.438,36.621,245.605
1532281272.620,22.461,24.902,22.461,32.227,271.973
1532281272.624,28.809,23.926,20.508,26.367,-96.191
1532281272.628,30.273,23.438,23.438,23.438,-224.609
1532281272.632,27.832,24.414,24.902,25.391,129.395
1532281272.636,27.344,27.344,22.949,24.414,328.613
1532281272.640,26.367,27.832,22.461,19.531,21.484
1532281272.644,24.414,27.832,23.438,17.578,-243.652
1532281272.647,25.879,29.785,24.414,11.719,-33.691
1532281272.651,29.297,29.785,23.926,15.137,275.879
1532281272.655,26.855,30.273,23.438,20.508,111.816
1532281272.659,23.438,31.250,24.902,18.066,-207.031
1532281272.663,25.391,32.715,26.855,24.414,-59.082
1532281272.667,25.879,34.668,25.391,29.785,270.996
1532281272.671,22.949,34.668,26.367,26.367,197.754
1532281272.675,23.438,32.715,30.273,23.926,-175.781
1532281272.679,29.297,31.738,32.227,28.809,-208.008
1532281272.683,28.809,33.203,28.320,30.762,178.223
1532281272.687,19.043,37.598,23.926,15.625,244.629
1532281272.690,16.602,38.086,23.438,4.883,-125.000
1532281272.694,16.113,36.133,23.438,5.371,-265.137
1532281272.698,10.742,39.551,25.879,2.930,79.102
1532281272.702,13.184,39.062,25.879,0.488,315.918
1532281272.706,20.508,37.598,25.391,-4.395,30.762
1532281272.710,20.508,38.086,25.391,-9.766,-258.301
1532281272.714,18.066,40.039,22.949,-11.719,-27.344
1532281272.718,16.113,41.992,24.414,-8.301,282.227
1532281272.722,10.742,39.551,26.855,-3.906,120.605
1532281272.726,3.418,37.109,27.832,-5.859,-259.766
1532281272.730,0.977,38.086,28.320,-1.953,-173.828
1532281272.733,2.441,40.039,27.832,8.301,256.836
1532281272.737,-2.441,39.551,26.855,6.836,227.539
1532281272.741,-8.301,36.621,28.320,-0.488,-145.508
1532281272.745,-9.766,36.621,32.227,-0.977,-219.238
1532281272.749,-12.695,37.109,34.668,-1.953,119.141
1532281272.753,-11.230,36.621,33.691,-3.418,291.992
1532281272.757,-8.301,35.645,32.227,-7.324,-23.926
1532281272.761,-7.324,34.668,34.668,-7.324,-225.586
1532281272.765,-1.465,34.668,35.156,-5.859,68.848
1532281272.769,3.418,35.645,33.691,-9.277,304.688
1532281272.772,3.906,35.645,33.203,-6.348,57.617
1532281272.776,1.465,34.668,32.715,-1.465,-254.883
1532281272.780,1.953,35.156,31.738,4.883,-60.547
1532281272.784,1.465,33.203,33.203,2.441,278.320
1532281272.788,-0.488,32.227,32.227,-3.418,136.230
1532281272.792,-1.465,33.691,30.273,-2.441,-215.332
1532281272.796,2.930,34.668,29.785,1.465,-176.270
1532281272.800,5.371,34.180,30.762,4.883,213.379
1532281272.804,0.000,33.691,29.785,0.488,239.746
1532281272.808,-1.953,34.180,26.855,-1.465,-165.039
1532281272.812,4.883,34.180,28.320,6.836,-249.023
1532281272.815,5.859,33.203,26.855,9.766,124.512
1532281272.819,2.930,31.738,23.926,5.859,297.852
1532281272.823,5.371,32.715,24.414,1.953,-22.949
1532281272.827,11.719,34.180,21.973,-0.977,-254.883
1532281272.831,17.578,35.645,21.973,4.395,30.762
1532281272.835,19.043,36.621,20.996,5.859,309.082
1532281272.839,16.602,36.621,20.508,1.953,91.797
1532281272.843,18.555,35.645,21.484,3.906,-239.746
1532281272.847,18.555,35.156,21.484,9.766,-95.215
1532281272.851,15.137,32.227,23.438,10.742,295.410
1532281272.854,12.695,29.785,22.949,8.789,210.449
1532281272.858,10.742,29.785,21.973,8.301,-211.914
1532281272.862,12.695,30.762,20.508,12.207,-201.172
1532281272.866,14.160,30.762,21.973,17.090,182.617
1532281272.870,16.602,29.785,24.902,17.578,267.090
1532281272.874,20.020,31.250,22.949,19.531,-71.777
1532281272.878,18.066,30.762,20.996,19.043,-234.375
1532281272.882,17.578,30.273,21.973,21.973,106.445
1532281272.886,19.531,29.297,22.461,24.902,328.613
1532281272.890,17.090,28.320,22.949,20.996,25.391
1532281272.894,17.578,31.250,23.926,19.531,-257.812
1532281272.897,22.949,35.645,21.973,20.996,-17.578
1532281272.901,20.508,36.621,22.949,21.973,308.105
1532281272.905,17.090,38.086,24.902,13.184,128.906
1532281272.909,22.461,38.574,26.367,8.789,-254.883
1532281272.913,27.344,37.109,26.855,22.461,-126.953
1532281272.917,30.762,37.109,25.391,29.785,289.062
1532281272.921,26.855,38.574,24.902,22.461,240.723
1532281272.925,22.461,39.551,24.902,15.625,-152.344
1532281272.929,23.926,38.086,24.414,18.066,-197.266
1532281272.933,24.902,37.109,24.414,23.438,197.266
1532281272.937,27.344,39.551,23.926,25.879,326.660
1532281272.940,24.902,42.480,22.949,21.973,-57.129
1532281272.944,25.879,40.039,24.902,23.438,-266.113
1532281272.948,30.762,40.039,25.391,29.297,47.852
1532281272.952,30.273,43.457,22.949,27.832,320.801
1532281272.956,27.832,43.945,23.438,26.855,71.289
1532281272.960,23.926,41.992,24.414,27.832,-245.605
1532281272.964,23.926,39.551,23.926,25.391,-45.410
1532281272.968,24.902,39.062,24.414,18.066,263.184
1532281272.972,24.902,40.039,26.367,17.578,134.277
1532281272.976,24.414,37.598,26.367,19.043,-190.918
1532281272.979,23.438,35.645,26.367,21.484,-121.582
1532281272.983,32.715,38.086,25.879,27.344,225.586
1532281272.987,32.715,40.527,22.949,24.902,209.473
1532281272.991,26.367,39.551,22.461,20.508,-147.949
1532281272.995,28.809,39.062,23.926,23.438,-225.586
1532281272.999,30.273,39.062,23.926,29.785,146.973
1532281273.003,31.250,40.039,25.879,30.273,323.730
1532281273.007,30.762,40.039,27.344,27.344,-28.320
1532281273.011,31.250,38.574,27.344,30.762,-257.324
1532281273.015,33.691,36.621,28.320,36.621,52.734
1532281273.019,36.133,38.574,30.273,38.086,319.824
1532281273.022,33.203,39.551,29.785,34.668,63.477
1532281273.026,30.762,38.574,28.809,30.273,-268.066
1532281273.030,33.691,38.086,29.297,33.691,-74.219
1532281273.034,29.785,35.645,26.855,32.227,277.832
1532281273.038,24.902,36.133,24.414,23.926,175.781
1532281273.042,21.973,37.109,24.902,19.531,-181.641
1532281273.046,21.484,36.133,25.879,21.973,-199.707
1532281273.050,22.461,34.180,28.320,26.367,181.152
1532281273.054,20.508,34.180,29.297,23.926,276.367
1532281273.058,21.973,35.156,28.809,22.461,-108.887
1532281273.062,25.879,34.180,26.367,27.832,-238.281
1532281273.065,26.855,33.691,25.879,30.273,101.562
1532281273.069,24.414,34.668,27.832,28.809,296.875
1532281273.073,22.461,35.156,25.879,27.344,0.488
1532281273.077,20.020,32.715,23.926,24.414,-231.445
1532281273.081,18.555,31.738,24.902,23.438,31.738
1532281273.085,20.996,32.715,27.832,22.949,304.199
1532281273.089,19.531,33.203,27.832,23.438,69.336
1532281273.093,18.066,33.691,24.414,24.902,-267.090
1532281273.097,20.996,32.715,22.461,26.855,-125.488
1532281273.101,23.926,34.668,23.438,30.273,272.949
1532281273.104,22.949,36.621,24.414,24.902,208.008
1532281273.108,20.020,33.691,23.438,18.066,-211.914
1532281273.112,22.949,32.227,21.484,23.438,-206.055
1532281273.116,25.391,32.715,22.461,27.832,189.453
1532281273.120,22.949,32.227,23.926,25.391,289.551
1532281273.124,20.996,35.156,21.973,20.508,-107.910
1532281273.128,20.508,35.645,19.531,21.484,-279.297
1532281273.132,21.973,33.203,20.020,27.344,84.473
1532281273.136,21.484,34.180,18.066,22.461,317.871
1532281273.140,23.438,36.621,17.578,15.137,30.762
1532281273.144,26.367,36.133,18.555,13.672,-244.141
1532281273.147,25.391,36.621,17.090,14.648,-36.621
1532281273.151,22.461,38.086,18.066,18.066,300.781
1532281273.155,19.531,37.109,21.484,20.508,152.832
1532281273.159,18.555,34.180,20.020,20.996,-232.910
1532281273.163,20.020,32.715,19.531,21.484,-138.672
1532281273.167,18.555,36.621,19.531,20.020,254.395
1532281273.171,16.602,37.109,20.020,20.508,247.070
1532281273.175,18.066,37.109,22.461,18.066,-137.695
1532281273.179,22.461,41.504,20.996,20.020,-193.848
1532281273.183,23.438,41.016,21.484,26.367,152.344
1532281273.187,18.066,36.621,20.508,22.949,243.164
1532281273.190,19.531,39.062,20.508,20.996,-73.730
1532281273.194,23.438,41.992,21.484,22.949,-238.281
1532281273.198,21.484,40.527,21.484,20.508,73.730
1532281273.202,18.555,40.039,19.043,21.973,326.660
1532281273.206,20.508,42.480,18.066,20.020,58.105
1532281273.210,23.438,43.457,21.973,20.020,-227.051
1532281273.214,24.414,40.527,21.484,26.855,-37.109
1532281273.218,21.973,38.574,19.531,28.320,292.969
1532281273.222,21.484,38.574,18.555,25.391,174.805
1532281273.226,20.996,39.062,17.090,25.391,-206.543
1532281273.229,23.438,38.574,18.555,25.391,-172.852
1532281273.233,24.902,37.598,19.531,24.414,248.535
1532281273.237,20.020,38.086,19.531,22.949,310.547
1532281273.241,22.461,41.992,20.996,23.438,-85.938
1532281273.245,26.367,42.480,24.902,24.902,-221.191
1532281273.249,27.832,41.992,24.902,27.832,130.859
1532281273.253,28.809,43.457,24.902,30.762,314.941
1532281273.257,28.809,43.945,24.902,29.297,-12.207
1532281273.261,30.273,44.434,25.879,29.785,-217.773
1532281273.265,27.832,44.434,26.855,27.832,32.227
1532281273.269,24.414,43.457,24.902,25.391,297.852
1532281273.272,21.484,40.039,23.438,26.855,89.355
1532281273.276,22.461,37.109,27.832,30.273,-240.234
1532281273.280,26.367,37.109,30.762,35.645,-59.570
1532281273.284,30.762,39.062,28.320,37.109,304.688
1532281273.288,28.809,36.133,26.367,30.762,196.289
1532281273.292,30.273,36.621,26.855,35.156,-191.895
1532281273.296,33.691,37.598,28.320,41.504,-188.477
1532281273.300,28.320,36.621,27.832,39.551,210.938
1532281273.304,27.832,36.133,27.832,37.109,290.527
1532281273.308,28.809,36.621,29.297,34.180,-99.121
1532281273.312,26.855,37.109,28.809,33.203,-261.719
1532281273.315,24.414,35.645,27.832,33.203,90.332
1532281273.319,18.555,37.598,27.344,25.879,313.477
1532281273.323,16.113,38.574,25.391,20.508,-9.277
1532281273.327,19.043,38.086,21.484,13.184,-289.062
1532281273.331,16.602,38.086,20.020,11.230,-36.621
1532281273.335,12.207,36.621,21.484,15.137,299.805
1532281273.339,15.625,39.062,21.484,16.113,123.535
1532281273.343,20.996,39.062,21.484,17.090,-227.051
1532281273.347,26.367,37.109,21.973,24.902,-111.328
1532281273.351,27.832,37.598,21.484,33.203,253.906
1532281273.354,28.809,40.527,24.414,30.273,223.145
1532281273.358,31.250,42.480,24.902,28.809,-151.855
1532281273.362,34.180,41.992,23.926,30.762,-201.660
1532281273.366,36.133,41.016,25.879,32.715,168.945
1532281273.370,29.785,40.039,26.367,27.344,288.086
1532281273.374,22.949,40.039,23.438,20.020,-58.594
1532281273.378,20.508,38.086,23.438,17.578,-236.328
1532281273.382,22.461,35.645,24.902,24.414,70.312
1532281273.386,23.926,39.551,24.414,23.926,315.430
1532281273.390,25.391,40.039,25.879,18.555,31.738
1532281273.394,19.043,33.691,28.320,23.438,-259.277
1532281273.397,13.672,29.297,28.809,26.367,-44.434
1532281273.401,20.020,30.273,28.809,28.320,293.457
1532281273.405,25.879,32.227,28.320,30.273,173.828
1532281273.409,27.344,34.180,26.367,26.367,-193.359
1532281273.413,30.273,34.668,24.902,27.832,-114.746
1532281273.417,32.227,33.691,24.902,30.273,266.113
1532281273.421,28.320,33.691,26.855,28.320,252.930
1532281273.425,22.461,33.203,29.785,22.461,-140.137
1532281273.429,23.926,32.715,27.344,22.461,-249.023
1532281273.433,25.879,33.691,24.902,33.691,139.160
1532281273.436,27.344,34.180,27.344,38.086,315.430
1532281273.440,27.344,36.133,30.273,32.227,-37.109
1532281273.444,29.297,38.574,29.785,29.297,-277.832
1532281273.448,34.668,40.527,28.320,35.156,20.996
1532281273.452,37.109,41.504,25.391,35.645,334.473
1532281273.456,34.668,41.992,26.367,30.273,103.027
1532281273.460,31.738,41.504,28.320,31.250,-251.953
1532281273.464,28.809,41.504,26.855,29.297,-133.789
1532281273.468,27.832,43.945,25.391,24.414,243.164
1532281273.472,29.297,46.875,24.414,26.367,167.969
1532281273.476,24.902,45.410,24.902,27.344,-209.473
1532281273.479,25.391,43.457,26.367,27.832,-165.039
1532281273.483,36.621,44.922,24.414,33.203,217.285
1532281273.487,41.504,48.828,22.949,31.250,250.977
1532281273.491,46.387,51.270,21.973,26.367,-127.441
1532281273.495,52.246,48.340,22.949,28.320,-229.980
1532281273.499,52.246,49.316,22.461,32.227,130.371
1532281273.503,50.293,50.293,24.414,37.109,328.613
1532281273.507,44.434,45.898,23.926,35.645,18.066
1532281273.511,41.504,43.457,22.949,37.109,-262.695
1532281273.515,41.992,42.969,24.414,44.434,6.348
1532281273.519,34.180,41.504,24.902,41.504,328.125
1532281273.522,28.809,42.969,26.367,38.086,127.930
1532281273.526,31.250,44.434,25.391,36.621,-238.770
1532281273.530,30.762,43.945,24.414,35.645,-131.836
1532281273.534,27.832,44.922,23.926,40.039,270.020
1532281273.538,28.809,43.457,21.973,38.574,224.609
1532281273.542,28.809,42.480,23.926,35.156,-162.109
1532281273.546,30.273,41.992,25.879,39.062,-166.504
1532281273.550,29.785,40.039,24.902,41.992,187.012
1532281273.554,27.832,40.527,24.902,38.574,303.223
1532281273.558,30.762,37.109,25.391,36.621,-50.781
1532281273.561,34.180,30.762,24.414,38.086,-252.441
1532281273.565,35.645,27.832,23.438,39.551,57.129
1532281273.569,30.273,25.879,21.973,31.250,298.828
1532281273.573,29.297,23.926,21.484,31.250,58.105
1532281273.577,32.227,20.996,22.461,35.156,-235.840
1532281273.581,27.832,17.090,25.391,34.180,-30.273
1532281273.585,29.297,15.137,27.832,38.574,310.059
1532281273.589,33.691,15.625,29.785,39.062,147.949
1532281273.593,34.180,14.648,31.250,36.133,-210.449
1532281273.597,34.668,11.719,29.297,39.062,-131.348
1532281273.601,39.062,12.695,28.809,43.457,230.469
1532281273.604,36.133,13.184,29.785,37.598,220.703
1532281273.608,36.133,10.742,33.203,34.668,-169.434
1532281273.612,38.574,10.254,33.203,36.133,-219.238
1532281273.616,36.133,10.254,32.227,36.133,169.434
1532281273.620,34.668,11.230,33.203,36.621,307.617
1532281273.624,32.227,10.742,31.738,31.250,-36.621
1532281273.628,33.203,11.230,29.785,30.762,-257.812
1532281273.632,35.156,12.695,30.273,38.574,47.363
1532281273.636,34.180,13.184,31.250,40.527,327.637
1532281273.640,29.297,11.719,33.691,35.156,94.727
1532281273.644,28.809,11.719,34.668,35.156,-244.141
1532281273.647,36.133,14.648,34.180,43.457,-56.152
1532281273.651,37.109,15.625,33.691,44.434,286.621
1532281273.655,30.762,12.207,33.203,37.598,148.438
1532281273.659,29.297,8.789,31.250,34.668,-202.637
1532281273.663,32.715,5.859,28.809,36.133,-173.340
1532281273.667,31.250,4.395,29.297,31.250,191.406
1532281273.671,28.320,2.441,29.297,27.832,236.328
1532281273.675,29.785,2.441,28.809,30.762,-139.160
1532281273.679,28.809,3.906,27.832,33.691,-247.559
1532281273.683,31.738,3.906,26.855,35.645,118.652
1532281273.686,34.668,4.395,27.344,31.738,303.223
1532281273.690,32.227,4.395,26.855,28.320,-17.090
1532281273.694,33.203,4.395,26.367,31.250,-263.672
1532281273.698,40.039,7.812,25.879,37.598,0.977
1532281273.702,41.992,9.766,24.414,36.621,317.871
1532281273.706,39.551,12.695,24.414,30.762,118.652
1532281273.710,39.062,16.113,22.461,28.320,-226.562
1532281273.714,40.527,19.043,21.484,32.227,-84.961
1532281273.718,41.992,20.996,23.926,34.668,280.273
1532281273.722,40.527,21.484,25.879,32.227,201.172
1532281273.726,39.062,22.461,27.832,28.809,-204.590
1532281273.729,34.180,22.461,27.344,26.855,-198.730
1532281273.733,31.738,21.973,26.855,33.203,215.820
1532281273.737,33.691,23.926,26.367,36.133,285.645
1532281273.741,32.227,25.391,24.414,34.180,-84.473
1532281273.745,32.227,26.855,24.414,32.715,-239.258
1532281273.749,37.109,28.320,26.855,38.574,86.914
1532281273.753,39.062,26.855,25.879,43.945,322.754
1532281273.757,36.133,26.855,23.438,39.551,51.270
1532281273.761,42.480,28.809,23.926,36.621,-240.234
1532281273.765,45.898,28.320,26.367,41.016,-28.809
1532281273.769,41.016,29.297,25.879,42.969,308.105
1532281273.772,37.598,30.273,24.414,39.551,133.301
1532281273.776,35.156,30.273,24.414,37.598,-236.816
1532281273.780,35.156,30.762,24.414,37.109,-133.789
1532281273.784,34.180,30.273,23.926,35.156,234.863
1532281273.788,34.180,31.738,23.926,31.250,229.980
1532281273.792,33.691,30.762,22.949,27.344,-167.969
1532281273.796,34.180,30.762,24.902,30.273,-229.980
1532281273.800,37.598,32.227,25.879,37.109,163.574
1532281273.804,35.645,32.715,26.855,37.598,296.387
1532281273.808,32.227,35.645,28.320,29.785,-78.125
1532281273.811,32.715,34.668,27.344,32.227,-276.367
1532281273.815,34.668,32.227,26.855,45.410,61.523
1532281273.819,36.621,36.133,27.832,46.875,322.266
1532281273.823,37.598,37.598,28.809,43.457,65.430
1532281273.827,38.574,35.156,27.832,40.039,-244.141
1532281273.831,36.621,34.668,28.320,38.574,-31.738
1532281273.835,37.109,35.645,29.785,41.016,337.402
1532281273.839,37.598,35.156,27.832,37.598,169.922
1532281273.843,35.645,34.668,29.785,32.227,-234.375
1532281273.847,34.180,36.621,30.273,27.344,-163.086
1532281273.851,33.203,36.133,26.855,27.344,217.285
1532281273.854,31.738,35.645,28.809,30.762,228.027
1532281273.858,26.367,33.203,32.715,28.320,-126.465
1532281273.862,24.414,29.297,33.691,29.785,-217.285
1532281273.866,27.832,30.762,35.645,33.691,127.930
1532281273.870,30.762,31.250,36.133,36.621,299.805
1532281273.874,29.785,31.738,36.621,37.598,-32.227
1532281273.878,26.855,29.785,36.133,35.156,-280.762
1532281273.882,24.414,27.832,37.598,35.645,-5.859
1532281273.886,24.902,29.297,39.062,38.574,296.875
1532281273.890,25.879,28.320,39.551,34.668,67.871
1532281273.893,30.273,24.414,37.109,33.691,-275.391
1532281273.897,33.691,26.367,36.621,38.574,-87.891
1532281273.901,34.180,30.762,39.551,41.504,305.664
1532281273.905,34.180,28.809,36.621,38.086,168.457
1532281273.909,34.668,28.809,35.156,34.180,-224.609
1532281273.913,35.645,28.809,35.156,37.109,-157.227
1532281273.917,37.598,27.832,33.203,38.574,224.609
1532281273.921,38.086,28.809,33.691,37.109,298.828
1532281273.925,35.156,27.344,34.180,35.645,-76.660
1532281273.929,35.645,26.855,31.738,35.156,-231.934
1532281273.933,34.668,26.855,32.227,36.133,117.188
1532281273.936,32.715,26.855,33.203,32.715,330.078
1532281273.940,33.203,28.320,33.691,32.715,12.207
1532281273.944,35.156,29.785,34.180,34.180,-265.625
1532281273.948,34.668,30.762,32.227,26.367,-13.184
1532281273.952,35.645,30.273,33.203,29.785,285.645
1532281273.956,39.062,28.320,32.227,37.598,98.633
1532281273.960,44.434,27.832,30.273,40.039,-214.355
1532281273.964,44.922,28.320,31.250,42.969,-83.496
1532281273.968,42.480,27.832,29.297,43.945,277.344
1532281273.972,42.969,29.297,30.273,43.457,250.977
1532281273.976,41.504,32.227,28.809,39.551,-145.996
1532281273.979,40.039,30.762,29.785,38.574,-201.172
1532281273.983,39.062,29.785,30.762,41.504,185.059
1532281273.987,39.062,31.250,35.156,32.715,258.301
1532281273.991,35.645,30.273,36.621,24.902,-100.098
1532281273.995,35.645,28.809,32.227,28.809,-247.559
1532281273.999,40.039,30.762,32.227,35.645,61.035
1532281274.003,39.551,31.738,32.715,36.621,321.777
1532281274.007,37.598,32.715,32.227,29.297,41.504
1532281274.011,39.062,32.227,33.691,27.832,-259.277
1532281274.015,39.062,28.809,32.227,29.297,-10.254
1532281274.018,35.156,26.367,31.738,30.762,309.570
1532281274.022,32.715,26.855,35.156,32.227,134.277
1532281274.026,32.227,26.855,37.109,30.273,-227.539
1532281274.030,29.297,25.879,37.109,33.203,-145.508
1532281274.034,27.832,25.391,36.621,37.598,241.211
1532281274.038,27.832,23.926,37.109,36.133,233.887
1532281274.042,28.320,22.461,37.109,37.598,-142.578
1532281274.046,32.715,24.902,34.668,35.156,-247.559
1532281274.050,29.785,30.762,32.227,27.832,87.402
1532281274.054,26.855,33.691,29.297,30.762,275.879
1532281274.058,27.832,32.715,30.273,33.691,-28.320
1532281274.061,27.344,31.738,32.715,29.297,-240.234
1532281274.065,30.273,31.738,27.832,27.344,53.711
1532281274.069,31.738,35.156,24.414,24.902,319.336
1532281274.073,31.250,39.551,23.438,21.973,55.176
1532281274.077,31.250,41.504,21.484,21.484,-274.902
1532281274.081,28.809,41.992,20.996,24.902,-54.688
1532281274.085,28.809,41.992,24.414,22.949,295.898
1532281274.089,30.762,43.457,24.414,16.113,145.508
1532281274.093,26.367,44.922,20.020,14.160,-214.844
1532281274.097,25.879,43.457,17.090,15.625,-162.109
1532281274.101,33.691,45.898,18.066,26.367,215.820
1532281274.104,34.180,47.852,20.020,25.391,243.164
1532281274.108,27.832,41.016,23.438,17.090,-141.113
1532281274.112,24.902,38.574,22.461,19.043,-242.188
1532281274.116,27.344,42.480,21.484,24.414,127.930
1532281274.120,28.809,41.992,20.508,25.879,321.289
1532281274.124,28.809,41.016,20.996,22.461,11.230
1532281274.128,27.344,35.645,24.414,19.531,-276.855
1532281274.132,21.973,30.762,23.438,20.996,0.977
1532281274.136,21.973,34.180,22.949,24.902,312.500
1532281274.140,23.438,34.668,24.414,23.926,104.492
1532281274.143,22.949,32.715,25.391,24.902,-221.680
1532281274.147,24.414,32.715,23.926,26.855,-84.473
1532281274.151,21.484,27.832,22.949,24.414,274.902
1532281274.155,20.020,26.367,22.461,18.555,195.312
1532281274.159,19.043,29.297,20.508,18.066,-178.711
1532281274.163,20.996,29.297,21.484,22.949,-183.594
1532281274.167,26.367,29.297,24.902,24.902,165.527
1532281274.171,28.809,29.785,25.391,23.438,253.418
1532281274.175,32.227,31.738,25.391,24.414,-86.914
1532281274.179,34.180,30.273,25.391,30.762,-238.281
1532281274.183,31.738,27.832,24.414,32.715,92.285
1532281274.186,27.832,25.879,26.855,28.809,284.180
1532281274.190,23.926,23.438,26.367,25.391,-17.090
1532281274.194,26.367,26.855,25.391,26.855,-293.457
1532281274.198,29.785,27.344,23.926,29.297,-18.066
1532281274.202,33.203,24.902,23.926,31.738,326.660
1532281274.206,33.691,24.414,27.344,31.738,119.629
1532281274.210,29.297,26.367,26.367,29.785,-235.352
1532281274.214,29.785,26.367,27.832,30.273,-128.906
1532281274.218,28.809,28.320,28.809,29.297,240.234
1532281274.222,24.414,30.273,30.273,24.414,231.934
1532281274.226,22.949,29.785,27.344,19.531,-154.785
1532281274.229,22.461,29.785,22.949,17.090,-211.426
1532281274.233,22.461,29.785,23.926,20.996,177.734
1532281274.237,17.578,27.832,25.879,20.508,300.293
1532281274.241,20.996,27.344,25.879,21.484,-63.965
1532281274.245,27.344,27.832,23.926,21.973,-269.531
1532281274.249,29.785,26.367,22.461,23.438,54.199
1532281274.253,30.762,27.832,22.949,26.367,334.473
1532281274.257,27.832,28.809,24.414,22.461,80.566
1532281274.261,31.738,24.902,24.414,22.461,-252.930
1532281274.265,36.621,26.367,23.438,19.043,-60.059
1532281274.268,38.086,33.203,21.973,8.301,293.457
1532281274.272,35.645,32.715,22.949,2.441,128.906
1532281274.276,30.273,29.297,26.367,5.859,-229.004
1532281274.280,26.367,28.809,25.391,15.625,-138.184
1532281274.284,26.855,28.320,23.438,25.879,231.445
1532281274.288,26.855,26.855,23.926,31.738,245.117
1532281274.292,21.484,24.902,29.297,32.227,-122.070
1532281274.296,17.090,20.996,32.715,30.273,-235.352
1532281274.300,20.020,18.066,29.297,32.715,129.395
1532281274.304,22.949,20.996,26.367,31.738,319.824
1532281274.308,21.973,22.949,25.879,25.391,-11.230
1532281274.311,20.508,20.020,26.367,21.973,-253.418
1532281274.315,20.020,17.578,29.785,22.949,5.371
1532281274.319,23.926,18.555,30.273,24.902,299.805
1532281274.323,20.996,21.973,26.855,19.043,114.746
1532281274.327,19.531,21.973,26.855,7.812,-246.582
1532281274.331,18.555,20.508,25.879,8.301,-104.980
1532281274.335,14.160,20.508,26.367,17.090,286.133
1532281274.339,15.625,22.949,27.832,19.043,208.008
1532281274.343,17.090,24.902,28.809,20.020,-175.781
1532281274.347,18.066,23.438,28.809,22.461,-164.551
1532281274.350,21.973,25.879,29.297,25.391,206.055
1532281274.354,23.926,28.809,30.273,24.902,250.000
1532281274.358,24.414,27.344,29.297,22.949,-113.770
1532281274.362,25.879,25.391,31.250,24.902,-237.305
1532281274.366,29.297,26.367,32.227,25.879,106.934
1532281274.370,30.273,27.832,32.715,24.414,317.383
1532281274.374,25.879,26.367,32.715,21.973,25.879
1532281274.378,19.531,23.926,28.320,20.020,-236.816
1532281274.382,18.066,25.391,26.367,24.414,12.695
1532281274.386,18.066,26.367,28.320,20.996,311.035
1532281274.390,18.555,26.367,29.297,18.555,132.324
1532281274.393,24.414,27.344,31.250,27.344,-210.938
1532281274.397,32.715,27.344,32.715,33.691,-114.746
1532281274.401,33.691,27.344,32.227,37.109,273.438
1532281274.405,30.762,26.855,32.227,28.809,237.793
1532281274.409,29.785,28.320,32.227,20.020,-170.410
1532281274.413,32.227,28.809,32.227,30.273,-184.082
1532281274.417,35.156,28.320,32.715,37.598,215.820
1532281274.421,36.621,28.809,32.715,38.086,328.613
1532281274.425,39.551,28.320,31.738,37.598,-58.105
1532281274.429,43.457,27.832,33.691,39.062,-276.367
1532281274.433,41.992,29.297,33.691,41.504,75.195
1532281274.436,36.133,28.320,31.738,36.621,328.613
1532281274.440,32.715,27.344,31.738,29.297,68.359
1532281274.444,31.738,28.809,33.691,25.391,-238.770
1532281274.448,32.227,30.273,33.691,28.320,-59.570
1532281274.452,28.320,29.785,31.738,29.785,300.293
1532281274.456,27.344,28.320,33.691,29.297,160.156
1532281274.460,32.227,29.297,34.180,32.227,-205.566
1532281274.464,35.645,29.297,33.203,35.156,-126.953
1532281274.468,39.062,30.273,29.785,34.180,214.355
1532281274.472,42.480,32.715,28.320,34.668,217.285
1532281274.475,44.434,32.715,30.273,36.133,-131.836
1532281274.479,47.363,31.738,31.250,38.574,-208.984
1532281274.483,50.293,27.832,30.762,41.016,145.996
1532281274.487,47.852,26.855,31.250,37.598,303.711
1532281274.491,39.551,27.344,33.691,33.691,-16.602
1532281274.495,34.668,25.879,34.180,33.203,-276.855
1532281274.499,33.691,24.414,34.180,33.691,7.812
1532281274.503,29.785,24.414,34.668,30.273,330.566
1532281274.507,28.320,24.902,34.668,24.414,74.219
1532281274.511,30.273,26.367,36.621,24.414,-284.180
1532281274.515,34.668,28.809,37.109,34.180,-89.355
1532281274.518,38.574,32.227,35.645,40.527,310.059
1532281274.522,42.480,33.691,35.645,38.574,203.125
1532281274.526,42.969,32.715,36.133,35.156,-212.891
1532281274.530,42.969,32.715,32.715,37.109,-174.316
1532281274.534,39.551,31.738,32.715,40.039,219.238
1532281274.538,32.715,30.273,34.180,34.668,272.949
1532281274.542,31.250,29.297,33.691,31.738,-91.309
1532281274.546,32.715,29.785,32.715,28.320,-269.531
1532281274.550,28.809,29.785,31.250,24.902,64.453
1532281274.554,28.320,29.785,32.715,27.832,293.945
1532281274.558,31.250,28.809,36.133,28.320,13.672
1532281274.561,30.762,29.297,36.133,27.344,-234.375
1532281274.565,30.273,30.273,36.133,25.879,-2.930
1532281274.569,29.297,31.250,34.180,27.344,322.754
1532281274.573,30.273,33.691,31.738,28.809,120.117
1532281274.577,25.879,33.203,32.715,25.879,-245.605
1532281274.581,25.879,32.227,36.621,28.320,-99.609
1532281274.585,27.832,32.227,37.109,30.762,264.648
1532281274.589,23.926,32.227,38.086,26.855,182.617
1532281274.593,25.879,33.203,40.039,24.414,-169.922
1532281274.597,30.273,32.227,41.016,25.391,-174.805
1532281274.600,30.762,30.762,38.086,27.832,193.848
1532281274.604,32.227,33.203,35.645,27.832,291.504
1532281274.608,30.762,35.645,37.598,22.949,-78.125
1532281274.612,29.785,34.668,38.574,24.902,-245.605
1532281274.616,34.668,33.691,38.086,32.715,106.934
1532281274.620,34.668,34.180,38.574,34.180,343.262
1532281274.624,29.297,33.203,41.992,30.273,39.551
1532281274.628,30.762,33.691,43.945,32.227,-247.559
1532281274.632,35.645,34.668,42.480,40.527,0.977
1532281274.636,34.180,33.691,40.527,37.598,320.801
1532281274.640,31.738,35.156,41.992,29.297,145.508
