timestamps,TP9,AF7,AF8,TP10,Right AUX
1532281995.083,48.828,29.297,20.996,44.434,75.195
1532281995.087,46.875,27.344,23.926,38.086,12.695
1532281995.091,41.992,25.879,21.484,32.227,35.156
1532281995.095,42.969,26.855,20.996,36.621,72.754
1532281995.099,45.410,27.344,24.902,41.016,56.152
1532281995.103,48.340,27.344,24.902,40.527,-2.930
1532281995.106,52.246,28.320,25.391,43.945,-15.625
1532281995.110,57.129,28.809,25.879,43.945,29.297
1532281995.114,60.547,29.297,25.391,44.922,39.062
1532281995.118,55.664,28.809,24.414,48.828,-6.836
1532281995.122,49.805,25.391,23.926,45.410,-31.738
1532281995.126,47.363,24.414,23.438,41.992,35.645
1532281995.130,46.875,24.414,23.926,39.551,83.984
1532281995.134,41.504,24.414,25.879,39.062,22.949
1532281995.138,39.062,25.879,28.320,41.992,-11.719
1532281995.142,41.016,29.785,26.367,41.016,10.254
1532281995.146,41.016,32.715,27.832,40.527,50.293
1532281995.149,37.598,34.668,29.297,33.691,22.949
1532281995.153,39.551,36.133,25.391,28.809,-18.555
1532281995.157,49.316,35.645,26.367,36.621,39.551
1532281995.161,47.363,36.133,28.809,40.527,86.426
1532281995.165,46.387,36.621,27.832,42.480,51.758
1532281995.169,47.852,39.551,25.879,38.574,8.789
1532281995.173,41.016,40.527,24.902,33.691,-11.230
1532281995.177,39.062,37.598,27.832,34.180,36.621
1532281995.181,41.504,35.645,29.297,33.691,86.426
1532281995.185,37.598,36.621,25.391,30.762,31.738
1532281995.188,38.574,35.645,25.391,31.250,11.230
1532281995.192,42.969,34.180,27.344,33.691,41.992
1532281995.196,44.434,36.133,26.855,33.691,52.734
1532281995.200,44.434,34.668,27.832,34.668,18.555
1532281995.204,41.016,31.250,28.809,38.574,-4.395
1532281995.208,42.969,32.227,28.320,35.645,17.578
1532281995.212,39.062,31.738,28.809,31.738,50.293
1532281995.216,33.691,30.273,29.785,32.227,38.574
1532281995.220,33.691,31.250,29.785,30.273,0.488
1532281995.224,33.691,31.250,32.715,33.203,35.156
1532281995.228,33.203,31.250,30.762,37.109,76.172
1532281995.231,36.133,34.668,28.809,39.062,50.781
1532281995.235,40.527,37.109,31.250,39.062,14.648
1532281995.239,41.016,36.621,30.762,38.574,18.066
1532281995.243,40.039,36.133,29.785,40.527,47.852
1532281995.247,38.086,36.621,30.273,39.551,49.316
1532281995.251,38.086,36.133,32.227,36.621,12.207
1532281995.255,39.062,34.668,33.203,37.109,7.812
1532281995.259,39.551,35.156,33.203,40.039,45.898
1532281995.263,34.180,35.156,34.180,35.156,74.707
1532281995.267,26.367,34.180,34.668,25.879,33.203
1532281995.271,23.926,34.668,32.715,19.531,-20.508
1532281995.274,25.391,34.668,32.715,24.902,39.551
1532281995.278,28.320,34.668,33.691,29.297,110.840
1532281995.282,31.738,36.133,35.645,30.273,82.031
1532281995.286,41.504,37.598,35.156,39.062,17.090
1532281995.290,43.945,40.527,31.250,40.039,32.715
1532281995.294,38.086,38.574,31.738,36.133,63.965
1532281995.298,33.203,34.180,31.250,33.691,72.754
1532281995.302,24.902,34.180,32.227,25.879,36.133
1532281995.306,23.438,33.203,35.156,27.344,45.410
1532281995.310,28.809,34.180,36.621,31.738,47.852
1532281995.313,26.855,34.180,39.551,29.297,4.883
1532281995.317,27.344,32.715,42.480,31.250,6.348
1532281995.321,30.762,32.715,40.527,33.203,18.066
1532281995.325,34.668,31.738,41.016,39.062,70.801
1532281995.329,39.062,32.715,41.016,43.945,95.703
1532281995.333,41.992,34.180,39.551,41.504,30.273
1532281995.337,39.062,31.250,40.527,42.480,-14.648
1532281995.341,32.715,27.344,42.480,41.504,6.836
1532281995.345,35.156,26.855,45.898,42.480,72.266
1532281995.349,37.109,28.809,44.434,42.480,24.414
1532281995.353,41.016,31.250,40.039,43.457,-46.387
1532281995.356,44.922,30.273,37.598,46.387,-7.324
1532281995.360,44.922,28.809,37.109,45.898,43.457
1532281995.364,43.945,30.762,40.039,47.852,49.316
1532281995.368,42.969,33.203,42.480,41.504,-15.625
1532281995.372,43.457,33.203,39.062,37.598,-30.762
1532281995.376,45.410,31.738,35.156,42.480,30.762
1532281995.380,43.457,28.809,37.598,42.480,55.664
1532281995.384,40.527,28.320,40.527,44.434,15.625
1532281995.388,42.969,30.762,40.039,42.480,-26.855
1532281995.392,46.875,32.227,40.039,40.527,19.531
1532281995.395,47.852,29.785,39.062,44.434,100.586
1532281995.399,48.828,30.273,35.156,47.363,40.039
1532281995.403,51.758,31.250,34.668,48.828,-2.441
1532281995.407,54.688,28.809,34.180,51.270,28.320
1532281995.411,54.688,29.297,33.203,51.758,68.359
1532281995.415,53.223,29.785,35.156,51.758,42.969
1532281995.419,54.688,26.367,36.621,54.199,-27.832
1532281995.423,52.246,23.926,36.621,55.664,3.906
1532281995.427,50.293,21.484,37.109,57.129,54.688
1532281995.431,50.781,20.996,37.109,55.176,26.367
1532281995.435,51.270,24.902,37.109,55.176,-2.930
1532281995.438,53.223,27.344,37.598,57.129,16.113
1532281995.442,50.781,28.809,35.156,55.664,53.223
1532281995.446,50.781,27.832,36.621,57.617,73.730
1532281995.450,55.664,28.320,39.551,54.688,-2.441
1532281995.454,53.711,31.250,37.598,51.270,-19.531
1532281995.458,48.340,31.250,35.645,51.270,41.016
1532281995.462,44.922,31.250,33.691,45.898,60.547
1532281995.466,43.457,32.715,34.180,42.480,16.602
1532281995.470,43.457,30.762,37.109,41.992,-7.324
1532281995.474,44.434,27.832,36.133,43.457,34.180
1532281995.478,41.016,31.250,36.133,42.480,60.059
1532281995.481,35.156,33.691,37.598,38.574,61.035
1532281995.485,35.156,32.715,38.574,40.039,7.324
1532281995.489,36.133,33.203,40.527,34.180,-15.137
1532281995.493,37.109,36.133,39.551,32.715,30.273
1532281995.497,37.109,33.203,37.109,38.086,50.293
1532281995.501,37.109,31.738,38.086,36.133,-3.906
1532281995.505,38.574,33.691,37.598,35.645,2.441
1532281995.509,40.527,32.715,38.086,36.133,30.762
1532281995.513,40.039,34.668,38.574,38.574,34.668
1532281995.517,38.086,34.668,37.598,38.574,20.020
1532281995.520,35.645,31.738,36.133,34.668,-4.395
1532281995.524,36.621,33.203,34.180,38.086,27.344
1532281995.528,37.598,31.250,36.133,37.109,37.109
1532281995.532,33.691,29.785,36.621,31.738,-21.484
1532281995.536,33.691,27.832,35.645,36.621,-43.457
1532281995.540,34.668,24.902,32.227,36.621,10.254
1532281995.544,34.668,24.902,30.273,37.598,86.426
1532281995.548,32.715,24.902,31.250,37.598,49.805
1532281995.552,30.273,26.855,31.738,35.645,-12.207
1532281995.556,31.250,30.762,32.715,37.598,9.766
1532281995.560,33.691,32.227,33.203,39.062,49.805
1532281995.563,34.668,33.691,33.691,38.086,67.871
1532281995.567,36.133,33.203,33.691,36.621,-0.488
1532281995.571,39.551,31.738,33.203,40.039,-38.574
1532281995.575,41.504,37.598,30.273,38.574,39.062
1532281995.579,34.180,42.969,23.926,28.320,98.633
1532281995.583,23.438,39.062,24.902,21.484,79.590
1532281995.587,16.113,35.156,32.227,18.555,7.812
1532281995.591,14.648,34.668,32.227,16.602,-8.301
1532281995.595,18.555,38.086,30.762,19.531,69.824
1532281995.599,20.508,40.527,32.715,22.461,70.801
1532281995.603,16.602,39.062,33.691,19.531,21.973
1532281995.606,13.672,36.133,32.227,17.578,27.832
1532281995.610,19.531,36.133,29.785,20.996,62.500
1532281995.614,22.461,37.598,28.809,27.344,68.359
1532281995.618,20.020,37.598,29.785,27.344,14.648
1532281995.622,23.438,38.086,31.738,31.738,3.418
1532281995.626,29.297,38.086,31.738,36.621,33.691
1532281995.630,33.691,41.992,28.320,28.809,19.043
1532281995.634,36.621,42.480,26.855,29.785,-8.301
1532281995.638,36.621,38.086,25.391,36.133,-21.484
1532281995.642,33.203,38.574,20.020,31.738,34.668
1532281995.645,36.621,37.598,20.020,32.715,95.215
1532281995.649,45.898,36.621,23.438,38.574,42.480
1532281995.653,42.480,32.227,22.461,37.109,-5.859
1532281995.657,42.969,28.320,20.020,34.180,17.090
1532281995.661,48.828,30.762,20.996,32.227,75.684
1532281995.665,56.641,32.227,22.949,34.668,34.668
1532281995.669,62.500,32.227,20.508,32.715,-49.316
1532281995.673,58.105,32.715,19.531,35.645,4.395
1532281995.677,56.152,31.738,24.414,49.316,60.059
1532281995.681,52.246,30.762,26.367,53.223,51.758
1532281995.685,44.434,30.762,26.367,56.641,3.906
1532281995.688,41.504,31.738,27.832,53.711,-20.996
1532281995.692,39.062,32.715,26.367,47.852,41.504
1532281995.696,36.133,31.250,25.391,48.828,81.543
1532281995.700,36.133,30.273,29.297,49.316,41.504
1532281995.704,34.668,30.762,29.785,48.828,-16.113
1532281995.708,29.785,31.250,26.855,43.945,8.789
1532281995.712,33.691,32.227,25.879,41.504,67.871
1532281995.716,36.133,31.738,25.879,40.527,32.715
1532281995.720,35.645,31.738,24.414,37.598,-21.484
1532281995.724,38.574,31.250,27.344,40.527,14.160
1532281995.728,39.062,30.273,28.809,41.992,50.293
1532281995.731,41.992,30.273,27.344,37.598,16.113
1532281995.735,45.898,31.738,28.809,42.969,3.418
1532281995.739,48.828,31.250,28.809,51.270,26.855
1532281995.743,52.246,30.273,25.879,50.781,59.082
1532281995.747,54.199,30.762,25.879,52.246,57.617
1532281995.751,53.223,30.762,27.344,54.688,27.832
1532281995.755,53.711,30.762,27.344,55.176,10.742
1532281995.759,53.711,29.785,27.832,58.594,33.691
1532281995.763,54.688,30.762,28.320,58.594,65.430
1532281995.767,48.828,29.297,26.367,49.316,19.043
1532281995.770,45.898,27.344,25.879,39.551,-25.391
1532281995.774,48.340,29.297,23.926,41.992,30.273
1532281995.778,45.898,28.809,21.484,41.992,67.871
1532281995.782,42.969,25.879,25.391,41.016,20.508
1532281995.786,43.457,25.879,26.367,43.457,-36.621
1532281995.790,46.875,28.320,26.855,46.387,-29.785
1532281995.794,50.781,30.762,29.785,50.781,21.973
1532281995.798,47.363,30.273,27.344,47.363,30.273
1532281995.802,43.945,31.250,24.414,42.480,-17.090
1532281995.806,41.992,31.738,24.902,43.457,-7.324
1532281995.810,38.086,31.738,24.414,33.691,26.855
1532281995.813,36.621,30.273,25.391,30.273,48.828
1532281995.817,40.527,29.297,27.832,37.598,16.113
1532281995.821,41.504,30.762,26.855,37.598,-4.883
1532281995.825,45.410,31.738,27.832,43.945,37.109
1532281995.829,50.781,31.738,28.809,50.293,85.938
1532281995.833,50.293,33.203,25.879,47.363,47.363
1532281995.837,50.293,33.691,22.461,42.480,11.230
1532281995.841,49.316,31.738,25.879,46.875,47.852
1532281995.845,44.434,31.738,30.273,48.828,61.035
1532281995.849,40.527,29.297,29.297,42.480,31.738
1532281995.852,37.109,27.832,28.320,43.457,-2.930
1532281995.856,38.086,28.320,28.809,43.945,6.348
1532281995.860,42.969,29.297,30.273,43.457,39.551
1532281995.864,48.340,32.227,30.273,45.410,42.969
1532281995.868,52.246,31.250,31.250,42.480,-21.973
1532281995.872,50.293,30.762,29.785,42.480,-59.082
1532281995.876,49.805,34.180,25.391,45.410,13.184
1532281995.880,53.223,33.691,24.414,46.387,48.828
1532281995.884,52.246,33.691,25.879,45.410,-11.230
1532281995.888,51.270,34.668,28.320,43.945,-40.527
1532281995.892,52.246,32.715,29.785,45.898,9.766
1532281995.895,52.246,32.227,30.762,47.363,66.895
1532281995.899,52.246,30.273,32.715,45.410,63.477
1532281995.903,49.316,32.715,34.668,44.434,21.484
1532281995.907,49.316,35.156,35.645,41.992,7.812
1532281995.911,46.387,34.180,32.715,34.180,41.016
1532281995.915,41.016,34.668,31.738,38.086,31.738
1532281995.919,44.434,35.156,34.180,46.875,-5.371
1532281995.923,45.410,34.180,33.203,45.898,24.902
1532281995.927,42.480,34.180,29.785,42.969,59.570
1532281995.931,40.527,33.203,31.250,43.457,44.434
1532281995.935,42.969,34.668,33.203,45.898,17.090
1532281995.938,43.457,36.133,31.250,41.992,23.926
1532281995.942,42.969,35.645,29.785,41.992,68.359
1532281995.946,45.898,35.156,32.715,45.410,63.477
1532281995.950,45.898,35.156,34.180,39.551,-3.906
1532281995.954,46.387,34.668,32.715,41.504,-8.789
1532281995.958,44.922,33.203,33.691,46.875,54.199
1532281995.962,42.969,34.668,36.621,46.387,87.402
1532281995.966,42.480,32.715,37.109,48.340,48.828
1532281995.970,40.039,31.250,34.668,47.852,-3.418
1532281995.974,39.551,30.762,34.668,48.340,25.391
1532281995.977,39.551,28.809,35.645,50.781,74.707
1532281995.981,39.062,27.344,35.156,48.828,69.336
1532281995.985,40.039,25.879,32.715,47.852,23.438
1532281995.989,46.387,29.785,31.250,50.293,12.695
1532281995.993,50.781,33.203,30.273,53.711,38.086
1532281995.997,52.734,32.227,29.785,54.688,67.871
1532281996.001,52.246,31.738,33.203,51.270,27.344
1532281996.005,48.828,31.250,31.738,48.828,-19.043
1532281996.009,44.434,29.297,28.809,42.480,-5.371
1532281996.013,46.387,30.762,30.273,44.922,33.691
1532281996.017,43.945,30.762,29.297,45.898,17.090
1532281996.020,40.527,32.227,26.855,42.480,-15.625
1532281996.024,42.480,30.273,26.855,42.969,23.438
1532281996.028,42.480,30.273,26.367,40.039,56.152
1532281996.032,44.922,32.715,26.367,40.527,44.434
1532281996.036,42.480,29.785,27.832,41.016,22.949
1532281996.040,41.016,29.785,31.250,41.504,30.762
1532281996.044,43.457,33.203,32.227,44.434,72.754
1532281996.048,41.992,34.180,34.180,42.969,56.152
1532281996.052,43.457,33.691,35.645,40.039,-6.836
1532281996.056,40.039,31.738,33.203,39.551,21.973
1532281996.060,36.621,32.715,34.180,40.527,56.641
1532281996.063,38.086,34.180,35.156,40.527,65.918
1532281996.067,37.598,35.156,36.133,41.504,41.504
1532281996.071,36.133,35.156,36.621,41.992,-7.324
1532281996.075,34.180,32.715,36.621,39.551,42.969
1532281996.079,34.180,32.227,38.574,38.574,85.449
1532281996.083,35.156,34.180,39.062,39.062,21.484
1532281996.087,38.086,36.621,38.086,35.645,-24.414
1532281996.091,38.574,34.668,39.062,29.297,-2.441
1532281996.095,37.109,32.715,37.598,32.715,49.805
1532281996.099,39.551,36.133,34.668,38.086,34.180
1532281996.102,42.969,38.086,34.180,37.109,17.578
1532281996.106,41.016,37.598,35.156,36.621,45.410
1532281996.110,39.062,38.086,34.668,38.086,74.707
1532281996.114,39.062,38.086,34.668,38.086,76.172
1532281996.118,39.551,35.156,39.062,37.109,-5.859
1532281996.122,39.062,32.227,39.062,39.551,16.113
1532281996.126,37.109,29.297,39.062,37.598,93.262
1532281996.130,35.156,28.320,41.016,35.156,86.426
1532281996.134,37.598,31.250,40.527,37.598,35.156
1532281996.138,37.109,31.738,38.086,37.109,-14.160
1532281996.142,36.133,34.668,37.598,38.086,13.672
1532281996.145,38.574,37.598,40.527,39.062,63.965
1532281996.149,36.133,35.156,38.574,32.227,25.879
1532281996.153,29.785,33.691,38.086,27.832,-21.973
1532281996.157,25.391,33.203,41.016,26.855,2.441
1532281996.161,27.344,35.645,41.016,28.809,56.152
1532281996.165,26.855,35.156,40.039,33.203,58.594
1532281996.169,22.949,31.250,40.527,26.367,-17.090
1532281996.173,24.902,31.250,41.504,21.973,-25.391
1532281996.177,26.855,30.762,39.062,27.832,51.758
1532281996.181,29.785,31.250,35.645,28.320,55.176
1532281996.184,29.785,32.715,34.180,27.344,-1.953
1532281996.188,27.344,31.250,36.621,25.391,-28.320
1532281996.192,21.973,29.785,38.086,21.484,36.133
1532281996.196,20.996,28.320,39.062,23.438,57.617
1532281996.200,26.367,30.762,37.598,28.809,-8.301
1532281996.204,28.320,31.250,38.574,32.227,-18.066
1532281996.208,33.691,31.738,42.480,30.762,5.859
1532281996.212,36.621,34.668,38.086,29.297,44.922
1532281996.216,35.156,32.715,34.180,36.133,39.062
1532281996.220,35.156,31.738,40.039,36.621,1.465
1532281996.224,28.809,28.320,43.457,34.668,8.301
1532281996.227,29.297,26.855,46.387,37.598,16.602
1532281996.231,27.344,25.879,48.340,37.598,22.949
1532281996.235,19.531,26.855,46.875,33.691,15.137
1532281996.239,18.555,26.367,46.875,27.344,33.203
1532281996.243,13.672,24.414,47.363,25.879,65.918
1532281996.247,11.719,27.344,44.434,21.484,62.500
1532281996.251,16.113,30.762,40.039,18.555,-3.906
1532281996.255,17.578,31.250,39.551,22.949,-32.227
1532281996.259,21.484,29.785,41.992,23.926,18.555
1532281996.263,22.461,29.785,38.086,23.438,69.336
1532281996.267,19.043,28.320,35.156,18.555,33.691
1532281996.270,20.508,28.320,37.598,16.602,-12.207
1532281996.274,21.484,31.250,36.621,20.020,20.020
1532281996.278,19.043,31.738,34.668,21.973,81.543
1532281996.282,19.043,31.250,36.621,24.414,58.105
1532281996.286,19.043,32.715,34.668,21.973,-2.441
1532281996.290,15.625,35.156,34.180,14.648,8.789
1532281996.294,11.719,33.691,35.156,12.207,71.777
1532281996.298,9.277,33.691,33.203,10.742,87.402
1532281996.302,7.324,35.156,34.180,9.766,15.137
1532281996.306,8.301,35.156,35.156,13.672,2.441
1532281996.309,11.230,36.133,33.203,14.160,52.246
1532281996.313,14.648,37.109,33.203,14.648,59.570
1532281996.317,16.602,37.109,36.133,16.113,5.371
1532281996.321,16.113,36.621,34.668,14.648,-8.789
1532281996.325,13.184,37.109,32.715,13.184,21.973
1532281996.329,14.160,37.598,32.227,14.648,45.898
1532281996.333,11.719,31.250,32.227,14.648,48.828
1532281996.337,11.719,28.809,32.227,16.113,25.879
1532281996.341,13.184,32.715,30.762,16.602,24.902
1532281996.345,12.207,33.203,29.785,12.695,62.500
1532281996.349,9.766,31.738,29.785,11.230,11.230
1532281996.352,8.789,33.691,26.367,7.324,-29.297
1532281996.356,11.719,33.203,24.414,11.719,36.621
1532281996.360,13.184,28.809,24.414,16.602,61.035
1532281996.364,10.742,27.832,25.879,15.625,73.242
1532281996.368,12.695,27.344,26.855,19.531,38.086
1532281996.372,19.043,27.832,24.414,23.926,-21.484
1532281996.376,19.531,27.832,23.438,27.344,4.883
1532281996.380,17.578,28.809,23.926,26.855,60.059
1532281996.384,13.672,28.809,22.461,25.391,20.508
1532281996.388,11.230,28.320,22.949,22.461,-35.645
1532281996.392,14.648,28.320,24.414,19.531,-3.906
1532281996.395,19.043,26.855,21.484,28.809,64.941
1532281996.399,24.414,28.809,21.973,34.180,46.387
1532281996.403,26.367,27.832,22.949,30.273,-27.344
1532281996.407,19.531,27.344,21.973,26.855,-26.367
1532281996.411,14.648,28.809,21.973,29.297,30.273
1532281996.415,16.602,28.809,20.020,30.273,32.227
1532281996.419,13.672,30.273,20.508,27.344,-6.836
1532281996.423,10.742,31.738,21.484,23.926,-7.812
1532281996.427,10.254,30.762,20.508,19.531,22.949
1532281996.431,5.859,26.855,23.438,18.555,65.430
1532281996.434,7.324,23.438,21.973,22.949,28.320
1532281996.438,16.602,22.949,19.531,30.273,-8.789
1532281996.442,18.555,23.926,21.484,33.691,29.297
1532281996.446,15.625,24.414,22.461,30.762,56.152
1532281996.450,17.090,27.832,20.996,27.344,-7.324
1532281996.454,17.090,29.297,20.508,25.879,-31.738
1532281996.458,15.137,24.902,20.996,24.902,10.254
1532281996.462,18.066,24.414,21.973,23.926,44.434
1532281996.466,24.414,27.344,24.902,24.902,50.293
1532281996.470,33.691,25.879,23.926,23.926,-12.207
1532281996.474,44.434,30.273,19.043,20.020,-10.742
1532281996.477,46.875,35.156,16.113,19.531,48.828
1532281996.481,42.969,34.668,18.555,18.555,24.902
1532281996.485,38.574,30.762,19.043,19.531,-10.254
1532281996.489,33.691,28.809,20.996,26.367,43.457
1532281996.493,29.785,29.297,23.438,31.250,77.148
1532281996.497,25.391,26.367,21.973,37.598,52.734
1532281996.501,23.438,25.879,22.461,38.574,16.602
1532281996.505,22.461,26.367,21.484,33.203,16.113
1532281996.509,24.414,25.879,22.461,34.180,54.199
1532281996.513,26.367,26.855,23.438,33.691,80.078
1532281996.516,29.785,29.785,22.461,33.203,12.695
1532281996.520,33.203,32.227,23.438,35.645,-42.480
1532281996.524,33.691,30.762,23.926,31.738,10.742
1532281996.528,29.785,30.762,24.902,25.879,53.711
1532281996.532,24.902,29.297,23.438,21.973,62.012
1532281996.536,28.320,26.367,22.461,25.391,30.762
1532281996.540,31.250,25.391,26.367,31.738,16.113
1532281996.544,33.203,25.391,29.785,33.691,50.293
1532281996.548,35.156,27.344,30.762,27.344,45.898
1532281996.552,34.180,23.926,29.785,24.414,-22.461
1532281996.556,34.668,21.973,27.832,29.297,-18.555
1532281996.559,37.109,25.391,31.738,30.762,44.922
1532281996.563,37.109,26.367,33.203,32.715,53.711
1532281996.567,37.598,30.762,30.273,31.250,-16.113
1532281996.571,39.062,33.203,30.273,30.762,-42.480
1532281996.575,39.551,30.762,31.250,37.598,45.898
1532281996.579,35.156,27.344,29.297,37.109,115.723
1532281996.583,33.691,27.344,27.832,32.715,77.148
1532281996.587,37.109,25.879,32.715,36.621,20.020
1532281996.591,38.086,23.926,37.109,39.551,41.992
1532281996.595,32.715,25.391,37.109,33.203,64.453
1532281996.599,27.832,25.879,36.621,30.273,32.227
1532281996.602,32.227,26.367,37.109,34.180,-2.930
1532281996.606,35.645,28.320,36.133,35.156,20.508
1532281996.610,32.227,29.785,33.691,31.250,40.527
1532281996.614,30.273,31.250,31.738,29.297,44.434
1532281996.618,31.250,32.715,32.227,30.762,9.277
1532281996.622,28.809,29.297,34.180,28.809,6.836
1532281996.626,27.344,28.320,34.668,25.391,74.219
1532281996.630,30.762,29.785,36.133,25.879,73.730
1532281996.634,33.691,30.762,37.598,28.809,18.555
1532281996.638,35.645,33.203,35.645,30.762,-1.953
1532281996.641,36.133,36.621,33.691,28.320,27.832
1532281996.645,33.203,39.551,31.250,29.297,69.336
1532281996.649,25.391,38.086,33.203,24.414,24.902
1532281996.653,18.066,36.621,36.621,16.113,-9.277
1532281996.657,20.020,37.598,36.133,20.020,24.414
1532281996.661,26.367,35.645,37.598,27.344,88.379
1532281996.665,29.785,31.738,37.598,25.879,94.727
1532281996.669,32.227,33.203,36.621,26.367,11.230
1532281996.673,36.133,35.156,36.133,34.668,0.000
1532281996.677,35.156,32.715,39.062,37.598,53.711
1532281996.681,33.203,32.715,41.992,35.156,58.594
1532281996.684,33.203,32.715,38.086,31.250,21.973
1532281996.688,33.203,32.227,30.762,28.809,0.488
1532281996.692,37.598,35.645,26.367,28.809,4.395
1532281996.696,39.551,38.086,27.832,32.227,49.805
1532281996.700,39.062,33.203,31.738,33.691,21.973
1532281996.704,40.039,29.297,32.227,35.156,-42.480
1532281996.708,41.016,30.273,30.273,34.668,2.441
1532281996.712,41.992,33.691,28.320,28.320,19.531
1532281996.716,41.016,33.203,28.809,27.344,-2.930
1532281996.720,40.527,29.785,28.809,30.762,12.695
1532281996.724,41.504,31.738,25.879,31.738,45.898
1532281996.727,41.992,32.227,22.949,29.785,69.824
1532281996.731,38.574,30.762,23.438,29.785,45.898
1532281996.735,42.480,31.250,27.344,33.691,1.465
1532281996.739,45.898,28.809,30.273,36.621,-3.418
1532281996.743,42.969,26.367,27.832,36.133,36.133
1532281996.747,42.969,27.344,25.879,33.691,62.988
1532281996.751,41.016,26.367,25.879,28.320,-17.578
1532281996.755,43.945,27.832,27.344,30.273,-35.645
1532281996.759,44.434,29.297,26.855,34.668,36.621
1532281996.763,41.992,28.320,26.855,38.086,80.078
1532281996.766,45.898,32.227,28.320,37.598,41.016
1532281996.770,43.457,32.227,27.344,36.621,-7.812
1532281996.774,44.434,30.762,26.367,41.504,30.273
1532281996.778,44.922,29.785,25.391,40.527,71.289
1532281996.782,41.992,27.832,21.973,36.621,33.203
1532281996.786,42.969,25.391,21.484,37.598,-0.488
1532281996.790,46.387,25.879,23.438,42.480,1.953
1532281996.794,47.363,27.344,23.438,44.922,62.012
1532281996.798,45.898,26.855,24.414,43.945,83.008
1532281996.802,47.363,26.367,28.320,41.504,7.324
1532281996.806,46.387,26.855,27.832,40.527,-8.789
1532281996.809,45.898,30.273,24.902,33.691,8.301
1532281996.813,43.945,32.227,24.414,28.320,36.133
1532281996.817,41.016,30.762,25.879,35.645,55.664
1532281996.821,44.434,32.715,28.809,38.086,15.137
1532281996.825,45.898,32.715,28.320,39.062,20.020
1532281996.829,44.922,31.250,27.832,39.551,54.199
1532281996.833,44.434,31.250,29.785,40.039,38.086
1532281996.837,43.457,30.762,33.203,42.969,1.465
1532281996.841,47.363,32.715,34.668,45.410,14.160
1532281996.845,49.316,33.691,34.668,45.898,73.730
1532281996.849,46.875,37.109,37.109,41.992,49.805
1532281996.852,48.340,38.574,37.598,38.574,-22.949
1532281996.856,45.410,36.133,38.086,40.527,-0.488
1532281996.860,41.504,36.133,38.086,39.062,58.105
1532281996.864,41.016,38.574,35.645,38.086,63.477
1532281996.868,39.062,38.574,36.133,37.109,-12.695
1532281996.872,35.645,35.156,38.086,33.691,-21.484
1532281996.876,32.715,34.180,38.574,32.227,56.152
1532281996.880,34.180,33.691,39.551,34.668,78.613
1532281996.884,34.668,31.738,38.574,37.598,9.277
1532281996.888,31.738,29.297,38.574,29.297,-16.602
1532281996.891,30.273,30.273,41.016,24.414,2.930
1532281996.895,31.738,32.715,42.969,30.273,59.570
1532281996.899,28.320,31.250,38.086,28.320,48.340
1532281996.903,26.367,26.855,34.668,22.461,1.465
1532281996.907,25.879,28.320,36.621,23.438,27.344
1532281996.911,25.879,30.762,36.133,28.809,83.984
1532281996.915,27.832,29.785,37.109,27.832,70.801
1532281996.919,31.738,30.762,38.086,27.832,0.000
1532281996.923,33.203,30.762,36.621,30.273,2.930
1532281996.927,31.738,33.691,35.645,29.297,42.480
1532281996.931,33.203,34.180,37.109,30.762,43.945
1532281996.934,33.203,32.715,39.551,29.785,0.977
1532281996.938,22.949,32.227,38.086,18.555,-7.324
1532281996.942,16.113,31.738,34.668,12.207,39.062
1532281996.946,18.066,35.645,34.180,12.695,94.238
1532281996.950,17.090,37.598,36.133,7.812,31.250
1532281996.954,20.996,35.156,37.109,9.766,-31.738
1532281996.958,24.414,33.691,37.598,14.648,8.789
1532281996.962,27.344,33.203,37.598,19.043,74.219
1532281996.966,32.715,36.621,36.133,25.879,40.039
1532281996.970,35.645,39.062,36.621,26.855,-10.254
1532281996.973,35.156,37.109,34.668,26.855,35.156
1532281996.977,36.133,37.598,33.691,27.344,68.359
1532281996.981,44.434,39.062,33.691,36.133,49.805
1532281996.985,50.781,40.527,30.273,42.480,-22.949
1532281996.989,45.898,38.086,28.809,34.668,-31.250
1532281996.993,42.969,31.250,32.227,36.133,41.016
1532281996.997,46.387,27.344,34.668,45.898,64.453
1532281997.001,50.781,27.832,33.691,46.387,-1.465
1532281997.005,57.129,30.762,29.297,47.363,-16.113
1532281997.009,59.082,31.250,26.367,47.363,10.742
1532281997.013,54.688,31.738,25.879,43.945,22.461
1532281997.016,55.176,31.738,27.344,47.852,20.508
1532281997.020,59.570,32.715,31.250,55.176,-12.695
1532281997.024,58.105,30.762,31.738,56.641,13.184
1532281997.028,57.129,27.832,28.809,52.734,59.570
1532281997.032,59.082,31.250,28.809,49.805,20.020
1532281997.036,59.570,31.738,29.785,52.246,-6.348
1532281997.040,57.129,27.344,28.809,53.711,9.766
1532281997.044,53.223,27.344,27.832,51.758,39.062
1532281997.048,50.293,28.320,25.879,46.875,25.879
1532281997.052,47.852,28.320,28.809,44.922,-17.578
1532281997.056,51.270,28.320,29.297,48.340,-8.301
1532281997.059,54.199,27.344,28.320,50.293,30.762
1532281997.063,56.152,27.832,27.832,52.246,69.824
1532281997.067,55.664,31.250,27.344,49.316,22.949
1532281997.071,57.617,31.738,25.879,47.852,-40.527
1532281997.075,62.988,31.738,24.414,54.199,-31.250
1532281997.079,63.477,34.180,25.391,60.059,36.621
1532281997.083,63.477,33.203,26.855,57.617,16.113
1532281997.087,64.941,30.762,25.879,55.664,-46.387
1532281997.091,63.477,28.809,27.344,54.199,-44.922
1532281997.095,61.035,24.414,27.832,52.734,14.648
1532281997.098,62.500,24.902,27.344,51.270,37.598
1532281997.102,63.965,28.809,29.297,52.246,14.160
1532281997.106,59.082,26.367,28.809,51.270,10.254
1532281997.110,56.641,27.832,26.855,47.363,48.340
1532281997.114,58.594,31.738,28.320,49.316,82.520
1532281997.118,58.594,32.715,31.738,52.246,-1.953
1532281997.122,58.594,30.762,30.762,55.176,-19.043
1532281997.126,58.594,30.762,28.809,57.129,47.852
1532281997.130,54.199,29.297,30.273,44.434,53.711
1532281997.134,51.270,29.297,29.785,41.992,24.414
1532281997.138,50.781,29.297,29.785,47.363,19.043
1532281997.141,49.805,28.320,28.809,43.945,27.832
1532281997.145,48.340,29.297,28.809,44.922,67.383
1532281997.149,44.922,29.297,31.250,41.016,28.809
1532281997.153,45.898,28.809,32.715,39.551,-16.602
1532281997.157,47.363,29.297,29.785,41.504,4.883
1532281997.161,47.852,31.250,27.344,42.480,55.176
1532281997.165,48.828,30.273,30.762,44.922,78.125
1532281997.169,46.387,31.250,32.715,40.039,7.324
1532281997.173,44.922,32.715,34.180,39.062,1.465
1532281997.177,40.527,27.344,32.227,39.062,48.828
1532281997.181,35.156,21.973,28.809,34.668,54.688
1532281997.184,33.691,23.926,29.297,31.250,31.250
1532281997.188,34.668,26.855,31.250,31.738,3.418
1532281997.192,37.109,25.879,36.133,33.691,27.344
1532281997.196,36.133,25.879,34.180,33.203,90.332
1532281997.200,33.691,25.879,29.297,28.809,79.102
1532281997.204,34.180,22.949,30.273,28.320,19.043
1532281997.208,33.691,20.020,31.250,28.320,10.254
1532281997.212,30.762,18.555,32.227,23.926,75.195
1532281997.216,30.273,16.602,35.156,29.785,62.988
1532281997.220,29.785,12.207,35.156,30.762,4.395
1532281997.223,28.809,9.766,32.715,28.809,29.785
1532281997.227,30.762,10.254,31.250,32.715,66.406
1532281997.231,35.156,10.254,32.715,31.738,64.453
1532281997.235,31.738,8.301,32.227,27.344,40.039
1532281997.239,28.809,4.883,28.320,25.879,20.996
1532281997.243,31.738,5.371,28.809,27.832,66.406
1532281997.247,35.156,5.859,29.297,28.320,85.449
1532281997.251,36.133,5.371,30.273,25.879,-3.906
1532281997.255,38.574,6.836,30.273,31.250,-21.973
1532281997.259,41.504,5.371,30.762,36.621,14.648
1532281997.263,42.969,5.859,33.203,38.574,70.312
1532281997.266,43.945,9.277,33.203,38.574,18.066
1532281997.270,43.457,12.207,30.273,34.668,-63.477
1532281997.274,40.527,11.719,30.762,32.227,-18.066
1532281997.278,38.574,9.766,33.691,36.133,40.039
1532281997.282,39.551,9.766,31.738,36.133,39.062
1532281997.286,42.480,9.766,30.273,31.250,-6.836
1532281997.290,42.969,13.184,30.273,20.996,-13.672
1532281997.294,41.016,12.207,31.250,17.090,31.738
1532281997.298,45.410,12.695,32.715,20.508,47.852
1532281997.302,53.711,15.137,33.691,21.973,17.578
1532281997.305,53.711,14.160,32.715,23.438,-5.371
1532281997.309,44.434,14.648,32.715,21.484,26.855
1532281997.313,35.645,12.207,33.691,26.855,72.266
1532281997.317,29.785,10.254,35.156,34.180,38.086
1532281997.321,26.855,12.695,37.598,37.109,-10.254
1532281997.325,22.461,12.695,38.574,40.527,34.180
1532281997.329,19.531,11.719,38.574,37.109,71.289
1532281997.333,13.672,11.230,37.598,33.203,38.574
1532281997.337,12.695,10.742,36.621,29.785,-14.648
1532281997.341,20.508,12.207,37.109,30.762,16.113
1532281997.345,25.391,12.207,35.156,32.227,75.195
1532281997.348,29.297,13.184,33.691,29.785,31.738
1532281997.352,31.250,16.602,31.250,26.855,-17.578
1532281997.356,34.180,20.020,32.227,30.762,12.695
1532281997.360,35.645,19.043,34.180,36.133,57.129
1532281997.364,36.621,17.090,32.227,37.109,81.543
1532281997.368,39.551,17.090,31.738,37.598,-12.207
1532281997.372,39.062,16.602,32.715,36.133,-72.754
1532281997.376,35.645,16.602,30.762,39.062,8.789
1532281997.380,35.645,18.066,29.297,38.086,53.223
1532281997.384,35.156,17.090,30.273,33.691,19.043
1532281997.388,39.062,17.090,28.320,31.250,-41.016
1532281997.391,41.992,21.973,31.250,33.691,-0.488
1532281997.395,43.945,22.461,32.227,37.598,77.148
1532281997.399,42.480,21.973,29.785,35.156,32.715
1532281997.403,40.039,23.438,28.320,31.250,-31.738
1532281997.407,44.434,20.996,28.320,30.273,8.789
1532281997.411,44.922,21.973,31.250,32.227,77.148
1532281997.415,39.551,22.461,31.250,32.715,66.895
1532281997.419,39.551,20.996,29.785,32.227,15.625
1532281997.423,37.109,22.461,30.762,33.691,5.859
1532281997.427,36.133,21.973,32.227,34.668,43.945
1532281997.430,38.086,21.973,30.762,29.785,32.227
1532281997.434,36.621,21.484,30.762,32.715,7.812
1532281997.438,37.109,21.973,32.227,38.574,-9.766
1532281997.442,36.621,22.461,30.762,34.668,12.695
1532281997.446,36.621,23.926,29.785,33.691,72.266
1532281997.450,40.039,29.297,30.273,30.273,11.230
1532281997.454,41.504,29.785,31.250,30.273,-26.367
1532281997.458,39.062,24.902,31.250,32.227,18.555
1532281997.462,35.645,22.949,30.273,31.250,41.992
1532281997.466,38.086,24.902,28.809,35.645,19.043
1532281997.470,39.062,25.879,26.367,35.156,-31.250
1532281997.473,41.016,23.926,28.320,38.574,3.418
1532281997.477,45.898,25.879,29.297,41.992,72.266
1532281997.481,47.363,27.832,28.320,42.969,57.617
1532281997.485,48.828,26.367,31.738,44.922,-25.879
1532281997.489,46.875,27.832,31.250,41.016,-19.531
1532281997.493,41.504,27.832,31.250,38.086,30.273
1532281997.497,43.457,28.809,29.785,39.062,58.105
1532281997.501,45.898,30.273,27.344,39.062,23.438
1532281997.505,43.457,29.297,28.320,40.039,-13.672
1532281997.509,42.480,27.832,30.762,36.621,9.277
1532281997.513,40.039,26.855,31.250,30.273,52.246
1532281997.516,36.133,28.809,27.344,27.832,58.594
1532281997.520,39.062,30.273,25.879,31.738,11.230
1532281997.524,42.480,28.320,30.273,39.551,16.602
1532281997.528,46.387,30.762,33.203,41.504,52.734
1532281997.532,45.410,30.762,33.203,38.574,31.250
1532281997.536,42.969,30.273,32.227,35.645,13.672
1532281997.540,43.457,30.273,31.250,36.133,10.254
1532281997.544,42.480,28.320,30.762,39.062,28.320
1532281997.548,42.969,31.738,31.738,39.062,36.621
1532281997.552,42.480,32.227,32.715,31.738,-33.203
1532281997.555,43.457,28.809,32.227,34.180,-14.160
1532281997.559,43.457,28.809,32.227,37.109,41.504
1532281997.563,43.945,29.297,32.715,35.156,73.242
1532281997.567,46.387,28.320,33.691,35.645,17.578
1532281997.571,48.828,29.297,33.691,34.180,-57.617
1532281997.575,46.875,27.832,34.180,36.133,30.273
1532281997.579,46.875,28.809,31.738,40.527,89.355
1532281997.583,48.340,29.297,30.762,44.434,48.340
1532281997.587,42.969,26.855,34.180,41.992,11.719
1532281997.591,40.039,26.367,32.227,38.086,20.020
1532281997.595,43.457,25.879,29.297,40.527,73.730
1532281997.598,41.992,27.832,31.738,41.016,62.012
1532281997.602,41.016,28.809,29.785,39.062,9.277
1532281997.606,42.480,25.879,27.344,39.551,4.395
1532281997.610,42.969,27.344,30.273,37.109,57.617
1532281997.614,41.016,29.297,32.227,38.574,85.938
1532281997.618,39.062,28.809,31.250,40.527,15.137
1532281997.622,39.062,27.344,31.738,40.039,-3.906
1532281997.626,37.109,25.879,34.668,41.016,30.762
1532281997.630,36.621,27.344,34.180,40.039,40.527
1532281997.634,37.598,26.855,34.180,38.574,12.695
1532281997.638,39.062,25.391,35.645,38.086,-18.066
1532281997.641,36.621,26.367,36.621,37.109,40.527
1532281997.645,36.133,27.344,38.086,38.086,115.723
1532281997.649,34.668,28.809,40.527,32.227,70.312
1532281997.653,28.809,28.809,38.086,24.414,-2.930
1532281997.657,26.855,28.320,38.086,21.484,31.738
1532281997.661,28.320,28.320,42.969,24.414,90.820
1532281997.665,25.391,32.227,42.480,23.926,75.195
1532281997.669,22.949,32.227,39.062,18.066,-8.301
1532281997.673,25.391,28.809,40.527,18.066,9.277
1532281997.677,26.855,28.809,43.457,20.508,60.059
1532281997.680,23.926,28.809,43.945,20.996,54.199
1532281997.684,22.461,27.344,41.504,20.020,25.391
1532281997.688,23.926,26.855,45.898,18.066,-21.973
1532281997.692,23.438,28.809,46.875,13.672,-3.418
1532281997.696,23.438,30.273,43.945,20.508,70.801
1532281997.700,21.484,27.832,42.480,25.879,40.039
1532281997.704,25.879,27.832,45.410,28.320,-14.160
1532281997.708,27.344,28.320,45.898,32.227,-7.812
1532281997.712,23.438,24.902,42.969,29.785,62.500
1532281997.716,26.367,26.367,42.480,27.832,48.828
1532281997.720,32.715,27.832,40.039,27.832,-12.695
1532281997.723,34.668,29.297,39.551,29.297,11.719
1532281997.727,34.668,29.297,40.527,31.738,47.852
1532281997.731,37.109,28.320,39.062,34.668,56.152
1532281997.735,37.109,28.809,40.039,40.039,18.555
1532281997.739,32.227,26.855,37.598,35.645,-9.766
1532281997.743,32.715,25.879,35.645,36.133,24.902
1532281997.747,36.621,27.832,36.133,37.109,50.781
1532281997.751,34.180,25.879,33.691,28.320,24.414
1532281997.755,33.691,24.902,31.250,27.344,5.859
1532281997.759,31.250,27.344,32.227,28.320,23.926
1532281997.762,28.809,28.320,31.738,24.414,70.312
1532281997.766,30.762,32.227,28.809,25.391,37.598
1532281997.770,35.156,35.156,30.273,28.809,-20.996
1532281997.774,37.598,33.691,31.738,30.762,0.977
1532281997.778,36.621,34.668,30.762,29.785,41.504
1532281997.782,34.668,37.109,31.250,27.832,37.109
1532281997.786,33.203,38.574,29.785,26.855,-28.320
1532281997.790,37.109,38.574,30.273,24.414,-27.832
1532281997.794,37.109,39.551,32.227,25.879,22.461
1532281997.798,36.133,39.551,30.273,25.879,51.758
1532281997.802,37.109,37.109,26.367,25.391,36.621
1532281997.805,36.621,38.086,24.902,29.785,6.836
1532281997.809,38.086,39.551,26.367,32.227,49.805
1532281997.813,38.574,39.551,27.344,35.645,74.707
1532281997.817,39.551,39.551,25.879,37.598,26.855
1532281997.821,38.086,41.016,24.902,35.645,-13.184
1532281997.825,35.156,41.992,28.809,37.109,39.062
1532281997.829,40.039,41.504,27.832,36.621,46.387
1532281997.833,43.457,41.992,23.926,33.691,7.812
1532281997.837,44.434,41.504,21.973,35.645,-15.625
1532281997.841,51.758,39.551,20.996,41.992,4.883
1532281997.845,45.898,40.039,24.414,41.504,68.359
1532281997.848,39.551,39.062,27.832,40.527,72.266
1532281997.852,46.875,37.598,28.320,45.410,-3.418
1532281997.856,48.340,39.551,29.785,46.875,-6.836
1532281997.860,47.363,38.086,27.832,43.945,36.621
1532281997.864,42.969,35.156,25.391,40.527,57.129
1532281997.868,42.480,36.621,25.879,34.180,-16.602
1532281997.872,45.410,37.598,28.320,31.738,-75.684
1532281997.876,40.039,36.621,29.785,39.062,-0.977
1532281997.880,37.109,36.621,26.855,41.016,56.152
1532281997.884,33.203,35.645,24.414,30.762,28.809
1532281997.887,30.762,36.133,23.438,27.344,-18.555
1532281997.891,34.180,36.133,22.949,30.762,12.695
1532281997.895,36.133,36.621,24.414,30.273,72.754
1532281997.899,34.180,36.621,23.926,29.785,62.988
1532281997.903,37.109,36.133,24.902,35.645,20.020
1532281997.907,39.062,33.691,26.855,38.574,17.090
1532281997.911,39.062,31.738,25.879,39.551,61.523
1532281997.915,37.109,31.250,23.926,41.992,63.965
1532281997.919,38.086,32.715,25.391,43.457,-4.395
1532281997.923,41.992,33.691,25.879,45.410,-2.441
1532281997.927,42.969,33.203,24.414,44.434,28.320
1532281997.930,47.363,34.668,26.855,39.551,8.301
1532281997.934,50.781,37.109,28.320,39.062,-13.184
1532281997.938,47.363,36.133,23.438,42.969,-11.230
1532281997.942,46.875,35.156,21.484,42.969,17.090
1532281997.946,48.340,37.598,23.438,41.504,46.875
1532281997.950,43.945,38.574,23.438,39.062,41.992
1532281997.954,44.922,35.156,23.926,40.527,3.418
1532281997.958,48.828,32.227,25.879,42.969,30.762
1532281997.962,49.805,32.715,27.832,45.898,94.727
1532281997.966,46.875,34.668,30.762,46.875,44.922
1532281997.970,42.480,36.621,27.344,37.109,-17.090
1532281997.973,41.992,37.109,23.926,34.180,8.789
1532281997.977,44.922,36.621,25.391,40.039,62.500
1532281997.981,45.898,37.598,28.320,39.551,67.871
1532281997.985,42.480,38.086,31.250,37.109,34.180
1532281997.989,41.504,37.598,29.785,32.715,-0.977
1532281997.993,44.434,38.086,30.273,36.133,37.109
1532281997.997,47.852,38.086,33.691,41.016,74.219
1532281998.001,44.922,35.645,33.691,40.039,17.090
1532281998.005,41.992,32.227,30.762,35.156,-27.344
1532281998.009,42.480,35.645,31.250,30.762,-10.254
1532281998.012,39.062,39.062,30.762,30.762,41.016
1532281998.016,33.691,37.109,30.762,31.738,28.809
1532281998.020,30.273,39.062,30.273,30.762,-41.992
1532281998.024,31.250,40.527,27.832,30.273,13.184
1532281998.028,30.762,41.016,27.832,26.367,59.570
1532281998.032,30.273,40.039,29.297,18.555,17.090
1532281998.036,31.250,36.133,26.367,21.484,12.695
1532281998.040,28.809,35.156,22.949,23.438,19.531
1532281998.044,27.832,33.203,24.902,23.926,63.965
1532281998.048,31.738,34.180,27.344,22.461,63.965
1532281998.052,33.691,36.621,25.879,20.996,16.602
1532281998.055,34.180,35.645,25.879,28.809,-0.488
1532281998.059,35.156,33.203,27.344,29.785,42.480
1532281998.063,36.621,34.180,26.855,29.297,82.031
1532281998.067,36.621,34.180,24.414,27.344,23.926
1532281998.071,37.598,34.668,25.391,25.879,-20.508
1532281998.075,38.086,34.668,27.344,31.738,44.434
1532281998.079,36.133,33.203,26.367,34.668,74.219
1532281998.083,33.691,34.668,27.344,31.738,48.828
1532281998.087,32.227,35.645,27.344,28.320,5.859
1532281998.091,31.738,35.156,26.855,29.297,3.418
1532281998.094,31.738,35.156,25.879,26.855,53.223
1532281998.098,34.668,35.156,26.855,30.762,84.961
1532281998.102,36.133,34.668,27.832,37.109,40.527
1532281998.106,35.645,34.180,26.367,35.645,-3.418
1532281998.110,36.133,35.156,27.832,34.668,33.691
1532281998.114,37.109,34.668,26.855,33.691,45.898
1532281998.118,36.621,33.691,26.855,30.762,9.277
1532281998.122,36.621,32.715,28.809,29.785,-1.953
1532281998.126,37.598,33.691,25.879,27.344,35.645
1532281998.130,36.621,33.203,23.926,22.949,62.500
1532281998.134,36.133,32.715,24.414,19.043,33.691
1532281998.137,37.598,33.691,23.438,15.137,7.324
1532281998.141,39.551,33.691,20.996,13.184,29.297
1532281998.145,44.922,36.621,21.973,15.137,78.613
1532281998.149,43.457,36.133,23.438,15.625,23.438
1532281998.153,40.527,32.715,22.461,21.973,-28.320
1532281998.157,39.551,32.227,22.461,35.156,18.066
1532281998.161,33.203,34.668,20.508,38.574,59.570
1532281998.165,29.785,33.691,21.484,40.527,53.223
1532281998.169,33.691,34.668,25.879,37.598,-30.762
1532281998.173,33.691,34.668,24.414,36.133,-38.574
1532281998.177,29.785,34.668,21.484,40.527,33.691
1532281998.180,30.762,35.645,22.461,39.551,54.688
1532281998.184,33.203,36.621,23.926,38.086,23.438
1532281998.188,35.645,37.109,21.484,35.156,-4.395
1532281998.192,38.086,36.133,20.508,36.133,33.691
1532281998.196,40.527,34.180,17.578,35.645,62.012
1532281998.200,37.598,33.203,14.160,32.227,26.855
1532281998.204,37.598,33.203,16.602,34.668,20.996
1532281998.208,43.457,36.621,20.996,35.156,34.180
1532281998.212,42.480,38.086,22.461,29.297,34.668
1532281998.216,35.645,36.133,23.438,30.762,29.785
1532281998.219,35.156,35.645,25.391,34.668,-10.742
1532281998.223,41.504,35.156,24.902,37.598,6.836
1532281998.227,41.016,37.598,22.949,40.039,71.777
1532281998.231,35.156,36.621,25.391,37.598,103.516
1532281998.235,30.762,33.203,27.832,30.762,34.668
1532281998.239,27.832,34.180,25.879,26.855,-25.879
1532281998.243,28.809,36.133,26.855,27.832,24.414
1532281998.247,31.250,36.621,29.785,27.344,58.594
1532281998.251,32.227,36.133,29.785,22.949,-2.930
1532281998.255,31.250,36.133,27.344,20.996,-32.715
1532281998.259,31.250,35.156,25.879,20.020,35.645
1532281998.262,29.785,34.668,28.809,17.090,92.773
1532281998.266,30.273,36.133,30.273,19.043,43.457
1532281998.270,33.203,35.645,27.832,20.996,2.930
1532281998.274,34.180,35.156,30.762,23.438,12.207
1532281998.278,34.180,38.086,31.738,27.344,39.551
1532281998.282,32.715,37.109,30.273,24.902,54.199
1532281998.286,27.832,34.180,29.785,21.484,10.742
1532281998.290,28.809,32.715,30.762,20.508,-15.625
1532281998.294,30.273,31.738,30.762,20.508,14.648
1532281998.298,27.344,31.738,30.273,20.020,44.434
1532281998.302,29.297,32.715,29.297,21.973,16.113
1532281998.305,31.738,34.180,29.785,24.902,11.719
1532281998.309,32.227,34.180,32.227,22.949,58.105
1532281998.313,29.297,34.180,30.273,21.973,62.500
1532281998.317,26.855,35.156,27.344,20.508,13.672
1532281998.321,29.297,36.621,26.855,19.531,-27.832
1532281998.325,30.273,36.621,26.855,18.555,-3.418
1532281998.329,31.738,35.645,26.855,14.648,46.387
1532281998.333,35.645,33.203,28.809,18.555,45.898
1532281998.337,35.156,33.691,27.832,22.461,14.160
1532281998.341,39.062,34.180,24.902,19.531,5.859
1532281998.344,42.969,33.203,24.414,22.461,50.293
1532281998.348,36.621,33.203,24.902,19.043,24.902
1532281998.352,35.156,33.203,24.902,10.742,-65.430
1532281998.356,36.133,32.715,27.832,19.043,-24.414
1532281998.360,35.156,32.227,25.879,25.391,56.152
1532281998.364,30.273,30.273,21.484,20.508,69.336
1532281998.368,27.344,28.320,20.996,22.461,20.020
1532281998.372,30.762,29.297,22.461,26.855,-2.930
1532281998.376,33.691,31.738,22.461,25.879,35.645
1532281998.380,36.133,31.250,22.949,26.855,70.312
1532281998.384,34.668,32.715,22.461,26.855,48.828
1532281998.387,32.715,34.668,22.949,23.438,-9.766
1532281998.391,37.598,34.668,24.414,24.902,-0.977
1532281998.395,41.992,35.156,24.902,31.738,73.242
1532281998.399,40.039,34.180,22.461,35.156,47.852
1532281998.403,39.062,32.715,22.949,33.203,-14.648
1532281998.407,38.574,32.227,22.461,30.762,9.766
1532281998.411,37.598,33.203,21.484,29.297,42.480
1532281998.415,35.156,32.715,24.414,31.738,67.871
1532281998.419,35.645,29.785,27.344,35.645,54.688
1532281998.423,38.086,31.250,26.367,37.598,25.391
1532281998.426,38.574,34.180,26.367,38.086,33.203
1532281998.430,38.574,32.227,27.344,35.156,62.012
1532281998.434,40.527,32.227,28.809,36.133,26.855
1532281998.438,37.109,32.715,27.832,33.691,-20.020
1532281998.442,32.715,33.691,24.902,27.832,32.227
1532281998.446,31.738,35.156,27.832,31.738,59.570
1532281998.450,30.762,34.180,30.273,24.902,-8.301
1532281998.454,33.203,32.715,28.320,23.438,-27.832
1532281998.458,34.668,33.691,28.809,35.645,17.578
1532281998.462,33.203,33.691,30.273,33.691,62.500
1532281998.466,32.227,33.691,27.832,29.785,53.223
1532281998.469,32.715,34.180,29.785,32.227,-9.766
1532281998.473,31.738,33.203,31.250,34.180,7.324
1532281998.477,29.785,32.715,31.250,32.227,30.273
1532281998.481,31.250,33.691,33.691,35.156,52.246
1532281998.485,33.691,33.203,33.203,38.574,26.855
1532281998.489,35.645,32.227,32.715,37.109,-9.766
1532281998.493,36.133,30.762,33.203,40.039,33.203
1532281998.497,35.156,28.809,35.156,38.574,68.848
1532281998.501,32.227,28.809,36.133,33.203,22.461
1532281998.505,35.156,28.809,38.086,33.203,-32.227
1532281998.509,34.180,29.785,38.574,30.762,-1.953
1532281998.512,30.762,30.762,37.598,27.344,38.086
1532281998.516,34.180,31.250,38.574,30.273,24.902
1532281998.520,37.598,31.250,40.527,32.715,-17.578
1532281998.524,35.156,29.785,39.551,34.668,8.301
1532281998.528,32.227,28.809,36.621,32.227,40.527
1532281998.532,33.203,31.738,36.133,30.273,23.926
1532281998.536,35.645,33.691,39.062,31.250,12.207
1532281998.540,36.621,32.715,39.062,29.297,15.137
1532281998.544,32.715,31.250,37.598,31.738,60.059
1532281998.548,27.832,31.250,37.598,31.250,55.176
1532281998.551,27.832,28.809,37.598,28.809,0.000
1532281998.555,33.203,28.320,37.598,33.691,0.977
1532281998.559,33.203,29.297,41.504,37.109,37.109
1532281998.563,30.762,26.855,41.992,34.668,79.590
1532281998.567,33.203,25.391,39.551,31.738,19.043
1532281998.571,34.668,28.320,41.504,32.227,-35.645
1532281998.575,31.738,25.879,41.016,31.738,24.414
1532281998.579,26.367,25.879,39.551,27.344,77.148
1532281998.583,24.902,27.344,40.039,26.855,76.172
1532281998.587,22.949,24.902,41.504,25.879,7.812
1532281998.591,27.832,21.973,43.945,26.855,-17.090
1532281998.594,39.062,25.391,42.969,34.180,71.289
1532281998.598,38.574,35.156,36.133,30.762,86.914
1532281998.602,28.809,40.527,31.738,21.484,25.879
1532281998.606,27.344,43.945,27.344,18.066,9.277
1532281998.610,27.832,47.363,25.879,16.113,41.504
1532281998.614,27.344,47.363,27.832,17.090,82.031
1532281998.618,29.297,47.852,32.227,22.949,28.809
1532281998.622,28.320,43.945,36.621,26.855,-12.207
1532281998.626,27.832,41.504,32.715,24.902,18.066
1532281998.630,25.391,47.852,27.344,12.207,34.668
1532281998.634,22.949,50.781,23.926,2.441,-7.324
1532281998.637,23.926,46.387,24.902,10.254,-21.973
1532281998.641,26.367,45.410,27.344,17.090,22.949
1532281998.645,28.320,48.828,25.391,19.043,68.359
1532281998.649,28.809,52.246,22.461,17.090,46.875
1532281998.653,28.320,50.781,18.555,17.578,-16.602
1532281998.657,29.297,48.340,16.602,18.555,16.113
1532281998.661,33.691,48.828,17.090,20.020,76.172
1532281998.665,36.133,48.828,19.043,25.879,43.457
1532281998.669,39.062,46.387,20.996,29.785,-16.602
1532281998.673,39.062,45.410,20.996,27.344,-2.930
1532281998.676,38.574,46.387,17.090,24.414,57.617
1532281998.680,41.504,48.828,14.160,27.344,66.895
1532281998.684,43.457,45.410,13.672,34.668,19.043
1532281998.688,43.457,39.062,17.578,33.203,-16.113
1532281998.692,41.504,35.645,18.555,25.879,2.930
1532281998.696,41.992,35.156,18.555,26.855,77.637
1532281998.700,44.434,38.086,17.578,32.715,64.453
1532281998.704,43.457,38.086,11.230,32.715,12.695
1532281998.708,45.410,35.156,13.672,34.180,10.254
1532281998.712,46.875,35.156,17.090,38.574,34.180
1532281998.716,43.945,35.645,15.625,39.062,46.875
1532281998.719,42.969,35.156,14.160,37.109,3.418
1532281998.723,43.457,32.227,13.184,38.086,16.113
1532281998.727,45.410,33.203,16.113,39.062,45.410
1532281998.731,48.340,36.133,18.066,38.574,30.762
1532281998.735,49.805,36.621,17.578,43.945,-18.555
1532281998.739,47.363,32.715,19.043,41.504,-9.766
1532281998.743,45.410,27.832,21.973,44.434,49.316
1532281998.747,41.504,28.809,20.996,43.457,65.430
1532281998.751,37.598,30.762,20.020,33.691,22.949
1532281998.755,37.109,29.297,22.461,35.156,2.441
1532281998.759,36.133,29.297,21.484,38.574,25.391
1532281998.762,38.086,30.273,19.043,37.109,77.148
1532281998.766,40.039,31.250,17.090,35.645,48.340
1532281998.770,40.527,30.273,20.020,32.715,-53.223
1532281998.774,41.016,31.250,23.438,33.691,-34.180
1532281998.778,38.574,32.715,23.926,35.156,63.965
1532281998.782,37.598,32.715,24.414,31.738,88.379
1532281998.786,41.016,33.203,24.902,33.691,18.066
1532281998.790,42.480,31.738,24.902,35.156,0.000
1532281998.794,41.016,30.762,24.902,35.156,59.570
1532281998.798,39.062,32.715,26.855,35.645,95.703
1532281998.801,36.133,34.668,28.320,35.645,16.113
1532281998.805,32.715,32.715,27.832,34.180,-27.344
1532281998.809,30.273,29.297,25.879,28.809,7.324
1532281998.813,31.738,27.832,27.832,28.320,27.832
1532281998.817,33.203,29.297,30.273,31.250,37.109
1532281998.821,34.668,32.715,30.762,32.227,7.324
1532281998.825,36.621,33.691,31.250,32.715,18.066
1532281998.829,38.574,34.180,27.344,33.203,65.918
1532281998.833,40.039,38.574,27.344,35.156,49.316
1532281998.837,41.992,42.480,29.785,34.668,-5.371
1532281998.841,41.504,41.504,25.879,35.156,34.180
1532281998.844,36.621,40.039,28.320,35.156,85.449
1532281998.848,33.691,36.133,30.273,32.227,73.730
1532281998.852,30.762,34.180,28.809,29.297,13.184
1532281998.856,26.855,32.715,30.762,26.367,-10.254
1532281998.860,23.438,30.762,33.203,25.391,56.152
1532281998.864,26.367,34.180,34.668,30.273,98.145
1532281998.868,30.273,35.156,33.691,28.809,33.203
1532281998.872,28.809,39.062,30.762,19.531,-12.207
1532281998.876,27.832,41.016,27.344,23.926,25.391
1532281998.880,28.320,40.527,27.832,25.391,44.922
1532281998.883,25.879,39.551,31.250,20.996,5.859
1532281998.887,24.902,40.039,33.203,18.066,-29.785
1532281998.891,24.902,40.527,28.809,15.137,20.996
1532281998.895,21.973,39.551,28.320,16.113,90.332
1532281998.899,17.090,37.598,33.691,15.137,63.477
1532281998.903,15.625,36.621,31.738,15.137,-7.812
1532281998.907,14.160,36.621,30.273,10.742,-4.883
1532281998.911,14.648,38.086,32.715,7.324,60.547
1532281998.915,15.625,40.039,32.227,14.648,83.496
1532281998.919,15.625,41.504,29.297,15.625,25.879
1532281998.923,20.996,44.434,29.785,17.578,5.859
1532281998.926,27.832,45.410,31.250,23.926,53.223
1532281998.930,25.879,46.875,31.738,17.578,88.379
1532281998.934,20.996,48.828,31.738,13.184,51.758
1532281998.938,24.902,48.340,29.297,19.043,15.137
1532281998.942,22.949,50.293,24.902,18.066,18.555
1532281998.946,20.508,49.316,24.902,14.648,42.969
1532281998.950,21.973,48.340,25.391,8.301,31.738
1532281998.954,20.508,54.688,22.949,-0.488,-7.812
1532281998.958,21.484,56.641,20.020,0.977,1.953
1532281998.962,28.320,57.129,19.531,3.906,49.805
1532281998.966,27.344,54.199,22.461,-2.930,60.059
1532281998.969,26.855,53.711,22.949,-8.789,-19.531
1532281998.973,31.250,59.570,17.578,-10.254,-33.203
1532281998.977,29.297,58.594,16.602,-9.766,58.105
1532281998.981,29.785,59.082,20.020,-2.441,59.082
1532281998.985,30.762,60.547,21.973,6.836,-6.836
1532281998.989,26.855,60.059,20.996,6.836,-53.223
1532281998.993,20.020,58.594,17.090,5.859,1.465
1532281998.997,18.555,56.641,16.602,10.254,56.152
1532281999.001,19.043,60.059,16.113,8.789,4.883
1532281999.005,17.578,61.523,17.578,9.766,-14.648
1532281999.008,13.672,58.105,17.578,7.324,2.441
1532281999.012,11.719,59.082,15.137,0.977,50.293
1532281999.016,15.625,59.082,14.648,3.418,59.082
1532281999.020,19.531,57.617,16.602,12.207,-19.531
1532281999.024,20.508,57.617,18.066,13.184,-15.625
1532281999.028,17.090,58.594,15.137,3.906,55.664
1532281999.032,16.602,57.617,16.113,1.465,59.570
1532281999.036,20.020,54.199,18.066,3.418,-8.789
1532281999.040,25.879,52.734,18.066,7.812,-5.859
1532281999.044,23.438,52.734,17.578,7.324,44.434
1532281999.048,21.973,53.711,18.555,5.859,45.898
1532281999.051,26.855,56.641,17.090,4.883,-13.672
1532281999.055,30.273,57.129,14.160,7.324,-39.062
1532281999.059,34.668,59.082,13.672,7.812,18.066
1532281999.063,33.691,60.547,11.719,4.395,73.242
1532281999.067,34.668,60.059,12.207,3.906,0.977
1532281999.071,35.156,57.129,14.648,2.441,-46.387
1532281999.075,31.738,57.129,15.137,7.812,30.273
1532281999.079,27.832,58.105,12.695,10.742,64.453
1532281999.083,24.902,52.734,11.719,13.672,48.828
1532281999.087,27.344,51.758,13.184,12.695,-14.160
1532281999.091,28.809,53.711,14.160,6.836,-27.832
1532281999.094,25.391,52.734,14.648,13.184,70.801
1532281999.098,31.250,50.781,17.090,23.926,68.848
1532281999.102,35.645,46.387,21.484,26.855,4.395
1532281999.106,28.320,47.363,22.949,22.461,21.484
1532281999.110,26.367,50.293,19.531,16.113,72.754
1532281999.114,27.832,50.781,15.625,9.277,96.191
1532281999.118,23.926,47.852,14.648,6.836,30.762
1532281999.122,24.414,46.875,16.113,8.789,-13.672
1532281999.126,26.855,48.828,15.625,9.277,23.926
1532281999.130,27.832,44.434,16.113,15.625,80.078
1532281999.133,23.926,43.457,20.996,14.160,41.016
1532281999.137,18.555,43.945,22.461,9.277,-14.160
1532281999.141,25.391,44.922,20.020,13.184,34.180
1532281999.145,29.297,45.410,20.508,18.555,66.895
1532281999.149,32.227,42.480,21.973,21.973,26.855
1532281999.153,32.715,42.480,18.066,18.066,-1.953
1532281999.157,32.715,45.410,15.625,20.508,-10.742
1532281999.161,37.598,45.410,20.996,31.250,31.250
1532281999.165,33.691,41.992,20.020,27.832,56.152
1532281999.169,33.691,41.016,16.113,18.066,-34.668
1532281999.173,40.527,43.457,19.043,24.414,-44.922
1532281999.176,41.016,43.457,17.578,34.668,41.992
1532281999.180,41.992,44.434,16.113,30.762,68.359
1532281999.184,40.527,45.410,16.113,31.250,2.441
1532281999.188,38.086,44.922,15.137,29.297,-47.852
1532281999.192,37.598,43.457,16.113,23.438,-18.066
1532281999.196,37.598,41.016,19.531,30.273,55.664
1532281999.200,36.133,40.527,21.973,31.738,38.086
1532281999.204,32.715,39.062,22.949,25.879,-8.301
1532281999.208,32.715,38.574,23.438,28.320,27.344
1532281999.212,35.645,37.598,26.367,30.762,75.195
1532281999.215,31.738,37.598,26.367,28.320,60.547
1532281999.219,27.344,37.598,18.555,30.273,21.973
1532281999.223,29.785,38.574,18.555,30.762,9.277
1532281999.227,28.809,39.551,22.949,26.855,43.457
1532281999.231,24.902,39.062,23.438,24.902,54.688
1532281999.235,23.438,40.527,22.949,25.879,0.000
1532281999.239,29.297,43.457,21.973,25.879,-35.645
1532281999.243,34.668,44.922,23.438,31.738,-0.488
1532281999.247,31.250,41.992,26.367,38.086,35.156
1532281999.251,26.367,39.551,27.832,33.691,0.977
1532281999.255,28.809,43.457,26.855,32.227,-8.301
1532281999.258,29.785,43.945,25.391,35.156,42.480
1532281999.262,30.762,41.992,27.832,37.109,86.426
1532281999.266,34.668,42.480,27.344,37.109,43.457
1532281999.270,36.621,42.969,27.344,37.109,-7.324
1532281999.274,39.062,42.969,25.879,36.133,0.977
1532281999.278,37.109,41.992,22.461,34.668,65.918
1532281999.282,34.180,41.504,21.484,30.762,37.109
1532281999.286,32.715,39.062,21.973,29.297,-40.039
1532281999.290,29.785,34.180,27.832,30.273,-28.320
1532281999.294,25.391,30.273,33.203,31.738,12.695
1532281999.298,24.902,30.762,33.691,30.273,52.246
1532281999.301,25.879,31.738,36.621,28.320,-2.930
1532281999.305,22.949,27.832,37.109,30.273,-35.645
1532281999.309,20.996,26.855,36.133,28.809,4.883
1532281999.313,21.484,27.344,33.691,31.250,56.641
1532281999.317,21.973,27.832,30.762,31.250,30.273
1532281999.321,24.414,29.297,30.273,27.344,-35.645
1532281999.325,19.043,30.762,31.250,23.926,-6.836
1532281999.329,12.207,36.133,31.250,14.648,37.598
1532281999.333,18.555,36.621,31.250,16.113,15.625
1532281999.337,23.926,35.156,31.250,23.438,-15.137
1532281999.340,26.855,37.109,26.855,23.438,17.578
1532281999.344,27.832,36.133,28.320,26.367,68.359
1532281999.348,23.926,34.668,31.250,22.949,13.184
1532281999.352,21.484,35.156,27.344,18.066,-37.598
1532281999.356,25.391,33.691,26.367,21.973,13.672
1532281999.360,26.367,30.762,27.832,25.879,38.574
1532281999.364,22.461,24.902,33.203,28.320,65.918
1532281999.368,23.438,19.043,38.574,22.949,4.883
1532281999.372,23.926,20.996,38.574,20.020,-42.480
1532281999.376,21.973,24.902,36.133,21.973,28.809
1532281999.380,21.484,25.879,33.691,26.367,61.035
1532281999.383,25.879,24.902,35.645,33.203,20.020
1532281999.387,33.203,22.949,39.551,34.668,-29.297
1532281999.391,31.250,25.391,36.133,31.738,-10.254
1532281999.395,33.691,26.367,33.203,32.227,52.734
1532281999.399,35.645,24.902,32.715,33.691,70.801
1532281999.403,24.902,26.855,29.297,32.715,24.902
1532281999.407,23.926,28.320,27.344,31.250,0.977
1532281999.411,28.809,27.344,32.227,35.156,29.785
1532281999.415,20.020,22.949,37.109,37.598,64.941
1532281999.419,17.090,19.531,40.039,34.668,17.090
1532281999.423,18.066,17.578,43.945,38.086,-23.438
1532281999.426,18.555,13.672,43.945,40.527,15.625
1532281999.430,21.484,15.625,44.434,35.156,42.480
1532281999.434,20.508,18.555,42.969,32.227,11.230
1532281999.438,23.438,18.555,41.504,37.109,-13.672
1532281999.442,27.832,21.484,41.504,40.039,15.625
1532281999.446,28.809,23.926,40.527,36.133,81.055
1532281999.450,24.902,24.414,43.457,33.691,57.129
1532281999.454,23.926,23.438,44.434,31.250,-11.719
1532281999.458,29.297,22.949,43.457,32.227,6.836
1532281999.462,32.715,25.391,43.945,35.645,62.988
1532281999.465,28.809,26.855,41.992,32.227,67.871
1532281999.469,27.344,26.367,39.062,23.926,-3.906
1532281999.473,29.785,23.926,42.480,27.344,-23.438
1532281999.477,36.621,24.902,45.410,44.434,50.293
1532281999.481,36.621,27.344,44.434,43.945,73.242
1532281999.485,33.691,27.344,43.945,37.598,15.625
1532281999.489,35.156,26.855,40.039,42.480,4.883
1532281999.493,37.109,25.879,39.062,47.852,41.504
1532281999.497,37.598,27.344,42.480,48.828,64.941
1532281999.501,37.598,29.785,42.480,51.270,24.902
1532281999.505,44.434,28.320,45.898,57.129,-15.625
1532281999.508,49.805,24.902,49.316,62.988,24.902
1532281999.512,50.781,24.414,47.363,63.965,83.496
1532281999.516,45.410,28.809,43.457,58.105,50.781
1532281999.520,43.945,32.715,40.527,49.805,-11.230
1532281999.524,49.805,32.715,41.016,51.758,13.184
1532281999.528,52.246,29.785,41.992,55.176,51.270
1532281999.532,47.363,26.367,41.016,52.734,20.020
1532281999.536,45.410,27.832,40.527,56.641,-33.203
1532281999.540,44.922,30.273,39.551,56.641,-10.742
1532281999.544,39.062,29.785,37.109,53.711,77.637
1532281999.548,43.457,31.250,36.133,57.617,91.797
1532281999.551,50.293,32.227,34.668,62.012,28.320
1532281999.555,50.293,32.227,34.668,59.570,-1.465
1532281999.559,47.363,31.738,33.691,52.734,34.668
1532281999.563,43.457,30.762,34.180,49.805,77.148
1532281999.567,41.992,29.297,38.086,50.293,40.039
1532281999.571,46.387,26.855,40.527,51.270,-40.527
1532281999.575,38.086,23.926,40.039,47.852,-5.371
1532281999.579,27.344,18.066,41.504,43.945,66.895
1532281999.583,34.180,15.625,41.016,46.387,49.316
1532281999.587,34.180,19.531,38.574,44.922,-31.250
1532281999.590,33.691,23.926,36.133,40.527,-38.086
1532281999.594,36.133,25.879,32.715,41.016,34.668
1532281999.598,41.016,26.855,33.691,44.922,70.312
1532281999.602,42.969,25.879,35.645,49.316,9.277
1532281999.606,39.551,23.926,35.645,49.316,-18.066
1532281999.610,39.062,25.879,34.180,37.598,1.953
1532281999.614,38.086,27.344,33.691,35.645,45.410
1532281999.618,37.598,26.855,31.738,41.504,17.090
1532281999.622,39.062,26.367,33.203,44.922,-9.766
1532281999.626,37.109,25.879,34.668,46.875,48.340
1532281999.630,36.133,26.367,34.180,43.945,71.777
1532281999.633,34.668,25.391,33.691,41.992,33.203
1532281999.637,38.086,23.438,35.156,44.434,-12.695
1532281999.641,43.457,23.438,40.527,50.781,19.043
1532281999.645,42.969,24.902,45.410,58.105,66.406
1532281999.649,44.922,28.320,49.316,56.152,28.320
1532281999.653,46.387,31.250,51.758,53.711,-18.066
1532281999.657,47.852,33.691,53.223,57.129,5.859
1532281999.661,48.340,35.645,53.711,60.547,48.340
1532281999.665,48.828,34.668,49.805,60.547,68.848
1532281999.669,51.270,33.203,45.898,54.688,6.836
1532281999.672,50.293,32.715,45.898,53.711,0.977
1532281999.676,46.875,30.762,43.457,52.734,67.871
1532281999.680,44.434,29.785,41.504,50.293,95.703
1532281999.684,43.945,29.785,42.969,48.340,38.086
1532281999.688,41.992,26.367,42.969,43.457,-37.109
1532281999.692,37.598,23.926,41.992,41.016,10.742
1532281999.696,37.598,23.438,40.527,44.434,67.871
1532281999.700,39.062,25.391,41.016,46.875,32.227
1532281999.704,41.016,27.832,41.992,45.898,-3.418
1532281999.708,39.551,27.832,41.016,40.039,-1.953
1532281999.712,35.645,26.367,38.086,37.598,41.016
1532281999.715,36.621,25.879,37.598,44.922,72.754
1532281999.719,36.621,25.879,37.598,46.875,50.781
1532281999.723,30.762,24.414,35.156,39.062,31.738
1532281999.727,28.320,24.414,34.668,38.574,29.297
1532281999.731,31.250,26.367,34.668,43.457,35.156
1532281999.735,30.273,23.926,35.156,42.969,10.742
1532281999.739,28.320,19.043,36.621,42.969,0.488
1532281999.743,28.320,15.137,35.156,45.410,51.758
1532281999.747,29.785,15.625,34.668,45.410,45.898
1532281999.751,34.668,20.996,32.227,40.527,5.859
1532281999.755,35.645,22.949,28.320,37.109,12.207
1532281999.758,33.203,17.578,30.273,36.133,28.809
1532281999.762,27.344,14.648,32.715,35.645,56.641
1532281999.766,24.902,14.160,32.715,37.109,54.199
1532281999.770,30.273,17.578,31.250,35.156,-6.836
1532281999.774,28.809,19.043,30.273,31.738,0.488
1532281999.778,27.832,20.020,28.320,30.273,68.848
1532281999.782,33.691,20.020,28.320,32.715,71.777
1532281999.786,39.551,19.043,29.785,35.645,17.090
1532281999.790,42.480,18.066,30.273,34.668,-17.578
1532281999.794,49.805,17.578,29.297,39.551,27.344
1532281999.797,57.617,19.043,25.391,41.504,75.195
1532281999.801,59.570,19.531,24.902,42.480,12.207
1532281999.805,57.617,20.020,24.902,47.363,-14.160
1532281999.809,50.293,19.043,21.484,45.898,19.043
1532281999.813,44.434,20.020,20.020,47.852,51.758
1532281999.817,38.574,21.484,20.996,53.711,37.598
1532281999.821,33.203,19.531,22.949,54.688,18.066
1532281999.825,30.273,19.043,23.438,56.152,37.598
1532281999.829,30.273,20.996,24.902,51.758,50.293
1532281999.833,30.762,20.996,25.879,50.781,40.527
1532281999.837,30.273,18.555,22.949,54.199,5.371
1532281999.840,31.250,18.066,20.996,49.805,3.418
1532281999.844,32.227,20.020,20.996,46.387,48.340
1532281999.848,31.738,21.973,20.996,39.062,54.688
1532281999.852,30.762,22.461,21.484,34.180,7.812
1532281999.856,30.273,18.066,21.973,41.016,21.973
1532281999.860,28.320,18.066,19.043,40.039,54.199
1532281999.864,30.762,21.484,18.555,40.039,78.613
1532281999.868,34.668,20.508,20.020,38.574,37.598
1532281999.872,38.086,20.508,20.996,39.551,-7.812
1532281999.876,38.086,20.996,21.973,43.457,40.527
1532281999.880,31.738,20.020,22.461,41.992,61.035
1532281999.883,32.227,21.973,19.531,38.574,24.902
1532281999.887,35.156,24.902,18.555,35.645,-23.438
1532281999.891,31.738,24.902,20.508,33.691,-12.207
1532281999.895,31.738,23.926,20.508,38.086,83.984
1532281999.899,35.645,21.973,22.949,41.992,97.168
1532281999.903,40.527,21.973,22.461,41.504,1.953
1532281999.907,43.457,23.438,20.020,42.969,-18.555
1532281999.911,43.945,22.949,22.461,44.434,41.504
1532281999.915,43.457,22.949,24.902,44.434,64.453
1532281999.919,38.574,22.461,24.902,45.410,8.301
1532281999.922,35.645,23.438,24.902,43.945,-12.207
1532281999.926,38.574,25.391,23.926,40.039,34.668
1532281999.930,39.551,25.879,22.461,39.551,61.523
1532281999.934,38.086,25.391,22.461,40.527,6.836
1532281999.938,39.062,21.973,28.320,42.969,-41.992
1532281999.942,39.551,20.020,30.762,43.457,30.762
1532281999.946,42.480,22.949,27.832,42.969,77.637
1532281999.950,41.992,23.438,25.879,41.992,47.852
1532281999.954,41.016,23.438,26.367,43.945,16.113
1532281999.958,42.480,23.438,27.832,46.387,30.762
1532281999.962,41.504,25.391,27.344,44.434,86.914
1532281999.965,40.527,28.320,27.832,41.992,60.547
1532281999.969,36.133,28.320,28.320,36.621,-14.648
1532281999.973,33.691,27.344,25.879,35.156,-3.418
1532281999.977,35.156,28.809,25.879,35.156,39.551
1532281999.981,35.156,31.250,27.344,32.227,59.082
1532281999.985,35.156,30.273,24.414,34.668,20.508
1532281999.989,40.527,30.273,22.461,33.691,-44.434
1532281999.993,38.086,34.180,21.484,27.344,15.137
1532281999.997,33.203,31.738,23.926,30.273,73.730
1532282000.001,33.691,28.809,26.855,31.738,33.691
1532282000.004,34.668,31.738,24.902,28.320,-14.160
1532282000.008,39.551,34.668,23.926,28.320,-0.977
1532282000.012,37.598,34.668,25.391,30.762,78.125
1532282000.016,32.227,31.250,27.832,32.227,71.289
1532282000.020,30.273,30.273,25.391,27.832,-7.324
1532282000.024,27.344,27.344,23.926,25.879,-25.879
1532282000.028,26.855,28.809,22.461,22.461,34.180
1532282000.032,29.785,32.227,21.484,22.949,59.082
1532282000.036,30.762,30.762,23.926,30.273,-12.207
1532282000.040,31.250,27.344,26.855,32.715,-19.531
1532282000.044,34.180,25.391,25.879,33.691,16.602
1532282000.047,39.551,25.879,25.391,36.621,32.715
1532282000.051,41.992,28.809,24.902,35.156,-31.738
1532282000.055,39.062,26.855,23.438,34.180,-31.738
1532282000.059,41.992,26.367,26.855,39.551,60.059
1532282000.063,40.527,28.320,25.879,41.504,88.867
1532282000.067,36.133,25.391,23.926,38.574,37.598
1532282000.071,36.621,26.855,24.414,36.621,-10.742
1532282000.075,34.180,30.273,22.461,36.621,20.020
1532282000.079,34.668,33.203,23.926,41.016,80.078
1532282000.083,39.062,32.227,25.391,43.457,69.336
1532282000.087,41.992,33.203,26.367,40.527,-9.766
1532282000.090,38.574,35.156,24.902,34.180,-14.160
1532282000.094,36.621,33.691,24.414,35.156,48.828
1532282000.098,39.062,33.691,30.762,39.551,71.777
1532282000.102,37.109,34.180,38.086,45.410,26.367
1532282000.106,37.598,37.109,39.551,48.340,-6.348
1532282000.110,39.551,41.016,41.016,45.898,53.223
1532282000.114,41.016,41.992,43.945,46.875,90.820
1532282000.118,42.969,44.434,43.945,48.828,23.438
1532282000.122,44.922,47.363,41.504,46.387,-3.906
1532282000.126,42.480,48.340,37.109,46.387,42.969
1532282000.129,37.598,47.363,34.668,41.016,42.480
1532282000.133,35.156,46.387,34.180,39.062,-6.836
1532282000.137,29.297,46.875,29.785,41.504,-17.578
1532282000.141,24.414,47.363,25.391,35.156,20.996
1532282000.145,25.879,44.922,27.344,27.832,56.641
1532282000.149,26.367,41.016,27.832,23.926,72.266
1532282000.153,25.879,41.504,27.344,21.973,21.484
1532282000.157,28.809,38.574,24.902,23.926,-7.812
1532282000.161,30.762,39.551,23.926,29.297,41.992
1532282000.165,27.344,41.016,27.344,29.785,55.664
1532282000.169,21.973,38.086,27.832,20.996,5.859
1532282000.172,17.578,37.109,23.438,8.789,-14.160
1532282000.176,18.066,37.598,19.531,10.254,45.410
1532282000.180,20.508,38.574,20.020,16.602,68.359
1532282000.184,19.531,33.691,24.414,19.043,17.090
1532282000.188,14.648,27.832,24.902,15.625,-12.207
1532282000.192,13.672,26.367,26.855,15.137,26.855
1532282000.196,15.625,26.855,24.414,18.555,88.867
1532282000.200,19.043,29.297,21.973,19.043,54.688
1532282000.204,20.508,29.297,23.438,16.602,-13.184
1532282000.208,19.531,27.832,22.461,16.602,9.766
1532282000.212,20.996,27.344,23.438,20.508,46.387
1532282000.215,23.926,26.855,24.902,21.484,44.434
1532282000.219,23.438,25.879,26.367,21.973,-3.906
1532282000.223,25.391,25.391,24.414,22.949,3.906
1532282000.227,27.832,28.809,21.484,20.508,49.316
1532282000.231,28.320,31.738,20.996,15.137,-0.488
1532282000.235,24.902,30.273,20.020,18.555,-5.859
1532282000.239,24.414,26.367,22.949,26.855,7.324
1532282000.243,23.926,24.414,26.367,26.855,28.809
1532282000.247,24.414,24.414,26.367,25.391,68.848
1532282000.251,28.809,26.367,23.438,23.438,42.480
1532282000.254,29.785,28.809,18.066,23.438,-5.859
1532282000.258,31.250,27.344,20.020,22.461,-3.418
1532282000.262,32.715,24.902,25.391,23.926,64.941
1532282000.266,35.156,22.949,29.785,28.809,46.875
1532282000.270,34.180,20.996,26.855,20.996,-53.711
1532282000.274,23.926,22.949,24.902,20.508,-6.836
1532282000.278,22.461,21.973,25.879,26.367,79.590
1532282000.282,26.367,21.484,26.367,26.855,81.055
1532282000.286,21.973,23.438,26.855,23.926,41.504
1532282000.290,18.555,22.949,24.414,21.484,0.977
1532282000.294,20.508,22.461,22.949,21.973,41.992
1532282000.297,25.391,21.973,24.414,25.879,72.754
1532282000.301,29.785,20.508,25.391,26.855,29.785
1532282000.305,28.809,18.555,28.320,24.902,-13.184
1532282000.309,28.809,20.020,28.809,24.414,15.137
1532282000.313,29.297,20.996,25.879,27.344,72.266
1532282000.317,23.438,21.484,26.367,24.902,42.969
1532282000.321,23.926,19.531,28.809,24.414,-11.230
1532282000.325,26.367,17.090,32.227,29.785,26.855
1532282000.329,27.832,18.066,32.715,27.344,50.781
1532282000.333,30.273,20.020,32.227,26.367,34.180
1532282000.336,31.250,21.973,30.762,29.297,11.719
1532282000.340,29.297,20.020,29.785,30.273,16.602
1532282000.344,29.297,19.043,32.227,32.715,57.129
1532282000.348,32.227,20.996,34.180,31.738,54.688
1532282000.352,33.203,21.973,33.691,30.762,17.090
1532282000.356,32.227,20.996,31.738,29.297,-2.930
1532282000.360,29.297,20.996,29.785,26.367,41.992
1532282000.364,32.715,22.461,29.785,30.762,83.008
1532282000.368,33.203,21.484,33.203,29.297,15.625
1532282000.372,29.785,18.555,35.645,23.438,-31.738
1532282000.376,30.762,18.555,33.691,26.855,32.715
1532282000.379,31.738,21.973,32.227,31.738,78.125
1532282000.383,33.691,22.461,32.715,35.156,37.598
1532282000.387,33.691,21.484,32.227,31.738,-8.301
1532282000.391,33.691,21.973,32.227,31.250,37.109
1532282000.395,35.156,21.973,30.762,33.203,78.125
1532282000.399,34.180,23.926,34.180,33.691,46.875
1532282000.403,36.621,23.926,33.691,35.645,-5.371
1532282000.407,37.598,23.438,30.273,35.156,-18.555
1532282000.411,36.133,23.438,31.738,27.832,6.836
1532282000.415,32.227,22.461,31.738,26.367,43.457
1532282000.419,28.809,19.531,30.273,26.367,15.625
1532282000.422,32.715,20.020,30.762,29.297,-3.906
1532282000.426,32.715,20.996,32.227,28.809,30.762
1532282000.430,25.879,21.484,29.297,21.484,55.664
1532282000.434,28.809,21.973,31.738,24.902,37.109
1532282000.438,31.250,24.414,33.691,24.902,20.020
1532282000.442,31.738,24.902,31.738,21.484,30.273
1532282000.446,37.109,24.414,34.668,24.902,57.617
1532282000.450,36.621,27.344,32.227,22.461,26.855
1532282000.454,31.738,28.320,29.785,21.484,-11.230
1532282000.458,29.297,24.902,33.203,25.391,35.156
1532282000.461,31.250,26.367,35.156,25.879,72.754
1532282000.465,32.715,28.320,35.156,27.832,83.008
1532282000.469,35.645,28.809,35.156,27.832,4.395
1532282000.473,35.645,28.320,34.668,27.832,0.977
1532282000.477,33.203,25.879,33.691,30.273,63.477
1532282000.481,35.156,28.320,30.762,31.738,74.707
1532282000.485,39.062,27.832,31.738,33.203,31.738
1532282000.489,40.527,26.367,34.180,36.133,-10.742
1532282000.493,40.527,29.785,33.691,37.109,41.016
1532282000.497,41.992,31.250,38.574,37.598,71.777
1532282000.501,42.969,31.738,41.016,39.551,19.043
1532282000.504,42.969,34.668,40.039,42.969,-7.812
1532282000.508,38.574,32.715,40.039,36.133,0.977
1532282000.512,35.645,30.762,38.086,30.273,39.062
1532282000.516,37.598,30.762,38.574,38.086,57.617
1532282000.520,35.156,30.273,38.086,37.598,5.371
1532282000.524,32.715,29.785,36.133,33.691,24.902
1532282000.528,36.621,30.762,38.574,31.250,55.176
1532282000.532,40.039,30.762,39.551,32.227,57.617
1532282000.536,40.039,28.809,37.598,36.133,16.602
1532282000.540,38.086,28.320,36.621,35.156,-9.277
1532282000.544,33.691,28.809,36.621,34.180,47.852
1532282000.547,29.785,33.203,39.062,28.809,82.031
1532282000.551,28.320,34.180,41.992,24.414,25.879
1532282000.555,29.297,32.715,41.992,33.203,-3.418
1532282000.559,30.273,32.227,43.457,37.598,38.574
1532282000.563,28.320,30.273,43.945,38.086,73.242
1532282000.567,32.715,29.297,44.434,40.527,36.133
1532282000.571,33.203,29.297,45.410,39.062,4.395
1532282000.575,33.691,28.320,43.945,38.086,20.020
1532282000.579,35.156,27.344,45.410,40.527,40.039
1532282000.583,36.133,28.809,46.875,38.086,52.734
1532282000.586,38.574,33.203,45.410,35.645,-3.906
1532282000.590,39.062,34.668,41.504,34.668,-15.137
1532282000.594,42.969,36.621,40.527,36.133,50.293
1532282000.598,41.992,36.621,43.457,35.156,93.262
1532282000.602,34.668,34.180,49.805,33.203,41.504
1532282000.606,34.180,34.180,48.828,34.180,-1.953
1532282000.610,34.668,33.691,46.387,31.250,29.297
1532282000.614,28.320,34.180,46.387,23.438,93.262
1532282000.618,28.320,36.133,43.457,23.438,62.500
1532282000.622,33.691,37.598,43.457,28.320,8.301
1532282000.626,36.133,35.645,44.434,24.902,32.715
1532282000.629,37.109,34.180,43.457,19.043,86.914
1532282000.633,42.969,34.668,44.922,17.578,59.082
1532282000.637,43.945,37.598,44.434,19.043,-13.184
1532282000.641,39.062,38.574,39.551,19.531,2.930
1532282000.645,34.668,37.109,41.504,25.391,47.852
1532282000.649,29.785,34.180,42.969,29.297,31.738
1532282000.653,22.949,33.203,40.527,31.250,-25.391
1532282000.657,17.090,30.762,40.527,32.227,-3.418
1532282000.661,15.625,31.250,41.504,31.250,51.270
1532282000.665,14.648,36.133,40.527,32.227,72.266
1532282000.669,16.113,34.668,41.504,30.762,11.230
1532282000.672,17.578,32.715,45.898,31.250,-27.344
1532282000.676,17.090,31.250,48.828,29.785,25.879
1532282000.680,19.531,31.250,44.434,24.414,63.965
1532282000.684,18.555,35.156,40.039,20.508,35.156
1532282000.688,17.090,39.062,38.086,15.137,-25.879
1532282000.692,22.461,40.527,37.109,10.742,-11.230
1532282000.696,25.391,37.109,40.527,20.020,41.504
1532282000.700,20.508,32.227,45.410,29.785,56.152
1532282000.704,19.531,31.250,46.387,31.738,-5.371
1532282000.708,23.926,31.738,43.457,32.715,-28.809
1532282000.711,24.902,27.344,41.992,34.180,37.109
1532282000.715,23.438,23.438,44.434,34.668,62.500
1532282000.719,20.020,23.926,44.922,31.738,20.020
1532282000.723,19.043,26.855,39.062,24.902,-7.812
1532282000.727,21.484,31.250,36.621,16.602,32.715
1532282000.731,26.367,30.762,39.062,20.508,79.590
1532282000.735,29.297,32.227,37.598,26.367,42.480
1532282000.739,30.762,34.180,38.086,26.855,19.531
1532282000.743,35.645,31.738,41.992,30.762,55.176
1532282000.747,29.297,29.785,45.410,27.344,86.426
1532282000.751,20.020,32.227,42.969,19.531,36.133
1532282000.754,19.531,33.203,41.504,20.020,-9.766
1532282000.758,21.484,31.250,40.527,21.973,21.973
1532282000.762,25.391,33.203,39.062,21.973,59.082
1532282000.766,23.926,35.156,40.527,24.414,40.039
1532282000.770,22.461,33.691,38.574,24.414,6.836
1532282000.774,21.973,31.738,38.574,23.926,15.625
1532282000.778,20.020,32.227,40.039,26.855,51.270
1532282000.782,20.508,32.227,38.086,25.391,98.145
1532282000.786,20.996,32.227,36.133,20.508,54.199
1532282000.790,22.461,35.156,35.156,15.625,1.465
1532282000.793,21.484,33.203,34.668,15.625,36.133
1532282000.797,23.438,29.297,37.109,20.996,73.730
1532282000.801,26.855,30.273,39.062,23.926,25.879
1532282000.805,30.273,30.762,39.062,27.344,-42.480
1532282000.809,34.668,30.273,39.551,31.738,-19.043
1532282000.813,30.762,32.227,38.574,31.250,34.180
1532282000.817,25.879,34.668,39.062,25.879,19.043
1532282000.821,27.344,34.668,41.992,25.879,-33.203
1532282000.825,24.902,29.785,41.992,26.367,-13.184
1532282000.829,25.391,26.367,40.039,22.949,52.246
1532282000.833,27.832,29.785,36.621,17.578,57.617
1532282000.836,27.832,33.691,36.133,16.602,29.297
1532282000.840,29.297,32.715,35.156,15.137,22.949
1532282000.844,34.180,33.203,34.668,17.090,62.988
1532282000.848,38.574,33.203,38.574,21.484,70.801
1532282000.852,31.738,31.250,38.086,21.484,19.043
1532282000.856,31.250,30.762,40.039,26.855,5.371
1532282000.860,31.250,27.832,41.504,30.762,39.062
1532282000.864,30.762,29.785,39.062,30.762,75.195
1532282000.868,32.227,30.273,40.039,24.902,31.250
1532282000.872,27.832,29.297,39.551,16.602,-51.270
1532282000.876,29.297,30.273,39.062,15.625,-23.438
1532282000.879,31.250,31.738,37.598,18.066,67.871
1532282000.883,26.367,31.250,34.668,21.973,61.523
1532282000.887,28.320,27.832,36.621,23.438,0.488
1532282000.891,33.691,26.855,39.062,26.855,14.648
1532282000.895,32.227,27.832,38.574,31.250,75.195
1532282000.899,33.203,28.320,38.574,30.762,62.988
1532282000.903,34.180,28.809,35.645,25.391,12.207
1532282000.907,31.738,26.855,32.715,23.438,8.301
1532282000.911,34.180,22.461,40.039,28.809,40.527
1532282000.915,30.762,20.508,43.457,31.250,32.715
1532282000.918,30.762,21.484,36.133,27.832,-8.301
1532282000.922,35.645,23.926,32.227,30.273,-2.441
1532282000.926,34.180,23.926,30.762,32.715,37.109
1532282000.930,32.715,21.484,31.738,31.738,50.781
1532282000.934,33.691,19.531,33.691,32.227,31.250
1532282000.938,34.668,16.602,34.668,33.203,8.301
1532282000.942,28.320,15.625,35.156,33.691,50.293
1532282000.946,25.391,18.066,35.156,33.691,92.773
1532282000.950,26.367,19.043,32.227,33.203,58.594
1532282000.954,26.367,18.555,32.715,35.156,0.000
1532282000.958,35.156,19.531,36.621,39.062,11.230
1532282000.961,38.086,17.578,33.203,39.551,68.359
1532282000.965,39.551,19.043,32.715,41.504,48.340
1532282000.969,39.551,21.484,31.250,33.203,-37.109
1532282000.973,33.691,21.973,30.762,32.715,-16.113
1532282000.977,33.691,21.973,31.738,39.551,59.570
1532282000.981,35.645,20.508,30.273,37.109,84.961
1532282000.985,35.156,21.973,30.273,38.086,41.016
1532282000.989,34.180,21.973,29.297,39.551,-23.926
1532282000.993,37.598,21.973,33.203,44.922,13.672
1532282000.997,37.598,20.020,37.109,44.922,61.523
1532282001.001,37.109,17.090,36.133,41.992,24.902
1532282001.004,40.527,19.043,34.668,40.527,-4.395
1532282001.008,41.992,23.438,31.250,34.668,-2.930
1532282001.012,40.527,25.879,29.297,32.715,39.062
1532282001.016,39.551,25.879,28.320,33.203,70.801
1532282001.020,42.969,24.414,26.855,33.203,-7.324
1532282001.024,47.363,24.414,25.391,34.668,-10.742
1532282001.028,47.363,25.391,29.785,38.086,66.895
1532282001.032,46.875,23.926,34.668,40.039,41.016
1532282001.036,43.457,23.438,35.156,39.062,-6.348
1532282001.040,42.480,22.949,34.180,37.109,-3.906
1532282001.043,45.410,21.973,35.156,39.062,33.203
1532282001.047,43.457,21.973,34.180,41.992,50.781
1532282001.051,40.039,24.902,32.227,38.574,30.762
1532282001.055,40.039,28.320,30.273,30.273,-7.324
1532282001.059,40.527,27.344,31.250,31.250,2.930
1532282001.063,38.574,25.879,32.715,34.668,64.453
1532282001.067,36.133,24.902,31.250,32.715,41.992
1532282001.071,35.645,25.879,30.762,29.297,-47.363
1532282001.075,39.062,25.391,33.691,33.203,-7.324
1532282001.079,37.598,23.438,36.133,40.527,68.848
1532282001.083,37.109,22.949,36.621,43.945,72.266
1532282001.086,40.039,20.996,37.109,43.457,20.020
1532282001.090,39.062,22.461,34.668,41.016,-0.488
1532282001.094,40.039,25.391,33.203,38.086,58.105
1532282001.098,38.574,27.344,32.715,32.227,68.359
1532282001.102,35.156,26.367,29.785,30.273,7.324
1532282001.106,33.203,25.391,27.344,29.297,-9.766
1532282001.110,32.227,28.809,28.809,20.020,21.484
1532282001.114,29.297,29.297,31.250,17.090,47.363
1532282001.118,21.973,23.926,32.227,25.391,7.324
1532282001.122,20.020,19.043,32.715,30.762,-60.547
1532282001.125,19.531,15.137,32.227,29.297,2.930
1532282001.129,21.973,12.695,32.227,30.273,61.035
1532282001.133,24.414,15.625,34.180,35.156,11.230
1532282001.137,26.855,15.625,34.180,33.203,-25.879
1532282001.141,29.785,14.160,32.715,32.227,1.953
1532282001.145,29.785,13.672,31.250,33.203,56.641
1532282001.149,26.367,13.672,29.785,32.227,61.035
1532282001.153,25.879,14.648,31.250,33.203,17.090
1532282001.157,28.809,16.113,33.203,35.645,16.602
1532282001.161,36.133,18.555,35.156,41.992,64.941
1532282001.165,43.945,19.531,37.109,48.828,83.984
1532282001.168,39.551,17.090,33.203,44.434,13.184
1532282001.172,38.086,14.648,29.297,39.551,-38.086
1532282001.176,39.551,16.602,29.297,41.992,10.742
1532282001.180,41.992,20.020,32.227,48.340,69.336
1532282001.184,45.898,20.020,32.715,51.758,32.227
1532282001.188,47.852,21.484,31.738,50.293,-17.090
1532282001.192,46.387,23.438,32.227,50.781,7.324
1532282001.196,42.969,24.414,30.762,51.270,53.711
1532282001.200,45.410,26.855,33.203,53.223,41.992
1532282001.204,47.363,27.832,36.133,52.246,-26.855
1532282001.208,43.945,28.320,33.203,47.852,-27.344
1532282001.211,44.922,32.227,32.227,45.410,32.227
1532282001.215,43.945,32.715,32.227,45.898,55.176
1532282001.219,44.922,31.738,32.227,42.969,-9.766
1532282001.223,44.434,33.203,34.180,41.992,-17.578
1532282001.227,42.969,34.668,32.227,40.527,14.648
1532282001.231,45.898,36.133,33.691,40.039,44.434
1532282001.235,46.387,36.621,34.668,43.945,28.320
1532282001.239,42.969,34.180,34.180,40.039,-21.973
1532282001.243,40.039,32.227,35.156,38.574,20.996
1532282001.247,40.039,31.250,33.691,40.039,55.176
1532282001.250,41.016,31.250,33.691,35.156,-14.648
1532282001.254,43.945,32.227,34.668,36.621,-39.062
1532282001.258,43.457,32.715,31.738,41.016,16.602
1532282001.262,40.039,30.273,32.227,41.504,70.801
1532282001.266,37.598,26.367,36.133,42.480,67.871
1532282001.270,41.016,26.367,36.133,40.527,11.230
1532282001.274,43.945,29.297,36.133,39.062,17.090
1532282001.278,40.527,29.297,33.691,37.109,72.266
1532282001.282,37.109,28.320,33.691,36.133,79.590
1532282001.286,34.668,26.367,37.598,36.621,7.812
1532282001.290,35.645,26.855,40.039,31.250,-45.898
1532282001.293,33.203,28.320,37.598,28.809,6.348
1532282001.297,32.715,27.344,33.203,36.621,65.918
1532282001.301,30.273,27.344,33.203,36.133,35.156
1532282001.305,28.320,26.367,35.645,34.668,-1.953
1532282001.309,26.367,26.367,38.574,34.180,0.977
1532282001.313,22.949,27.832,38.574,31.250,48.340
1532282001.317,28.320,27.832,38.086,33.203,45.898
1532282001.321,33.203,29.297,37.598,30.273,2.930
1532282001.325,26.855,30.762,40.527,26.855,17.578
1532282001.329,21.973,30.762,42.480,28.809,41.504
1532282001.333,27.832,31.250,39.062,32.227,41.016
1532282001.336,31.250,33.203,33.203,33.691,13.672
1532282001.340,30.273,32.715,31.738,32.227,-12.207
1532282001.344,32.227,30.273,32.715,32.715,32.227
1532282001.348,29.785,30.273,35.645,30.762,19.043
1532282001.352,27.832,28.809,36.621,26.855,-71.777
1532282001.356,31.250,29.297,33.203,29.297,-65.430
1532282001.360,33.203,32.227,33.203,31.250,19.531
1532282001.364,32.715,30.762,33.203,33.691,42.480
1532282001.368,26.855,29.785,34.668,32.715,5.371
1532282001.372,26.367,31.250,35.645,28.320,-31.250
1532282001.375,27.344,32.227,35.156,27.832,1.953
1532282001.379,22.949,32.227,31.250,25.391,62.988
1532282001.383,20.996,33.691,30.273,23.926,23.926
1532282001.387,23.926,33.203,31.738,22.949,-41.016
1532282001.391,24.902,28.320,29.785,21.484,-14.160
1532282001.395,26.367,22.949,31.250,26.855,68.359
1532282001.399,28.320,23.926,31.738,26.367,72.266
1532282001.403,23.926,27.344,27.344,21.484,2.441
1532282001.407,23.926,28.809,26.367,18.066,-1.465
1532282001.411,22.461,29.297,30.273,14.648,22.461
1532282001.415,21.973,30.273,32.715,20.508,59.082
1532282001.418,20.020,27.832,31.250,22.949,59.570
1532282001.422,17.578,25.391,28.809,18.555,17.090
1532282001.426,20.508,26.367,29.297,20.020,16.113
1532282001.430,25.391,26.367,29.297,22.949,41.016
1532282001.434,29.785,25.879,31.250,22.461,42.969
1532282001.438,32.715,24.902,30.273,17.578,4.883
1532282001.442,38.574,24.414,30.762,19.531,29.297
1532282001.446,46.387,26.855,28.809,22.949,67.871
1532282001.450,50.781,31.250,27.344,22.949,42.480
1532282001.454,45.898,28.320,28.809,29.297,18.066
1532282001.458,39.062,24.902,26.855,39.062,42.480
1532282001.461,34.180,24.902,26.367,43.457,81.543
1532282001.465,30.273,26.367,26.855,44.922,98.633
1532282001.469,26.367,27.832,26.855,39.551,35.156
1532282001.473,24.902,24.902,26.855,38.086,-3.906
1532282001.477,25.391,24.414,28.320,38.574,24.414
1532282001.481,26.367,24.414,31.738,38.574,37.598
1532282001.485,26.367,24.414,31.250,37.598,22.949
1532282001.489,28.320,27.344,28.320,31.250,-13.184
1532282001.493,31.738,27.832,28.320,30.762,1.953
1532282001.497,32.227,29.297,27.344,34.668,86.914
1532282001.500,29.785,28.320,27.832,31.250,68.359
1532282001.504,27.344,23.926,29.297,32.715,-11.230
1532282001.508,26.367,25.391,27.344,29.785,-6.836
1532282001.512,25.391,26.367,26.367,28.320,51.270
1532282001.516,28.809,27.344,29.297,34.668,60.059
1532282001.520,29.297,28.320,29.785,31.738,18.066
1532282001.524,25.879,25.879,26.367,26.855,17.090
1532282001.528,26.855,25.879,26.367,27.344,30.762
1532282001.532,24.902,25.391,28.320,26.855,35.156
1532282001.536,23.438,25.879,26.855,26.367,6.348
1532282001.540,28.320,25.879,27.832,32.227,2.441
1532282001.543,31.250,24.414,28.320,34.668,52.246
1532282001.547,28.809,26.367,27.344,30.273,74.219
1532282001.551,26.367,26.855,28.809,28.320,16.602
1532282001.555,28.809,26.855,29.297,30.762,-23.926
1532282001.559,32.715,30.273,28.320,33.203,43.945
1532282001.563,33.691,31.250,25.391,33.691,101.562
1532282001.567,34.180,31.738,25.879,32.227,45.898
1532282001.571,35.645,29.297,28.809,32.715,-15.625
1532282001.575,34.668,26.367,30.762,34.180,20.508
1532282001.579,35.645,27.832,30.273,35.156,90.820
1532282001.582,40.039,31.250,29.785,39.551,85.449
1532282001.586,40.039,33.691,26.855,36.621,7.324
1532282001.590,34.668,33.203,23.926,25.879,-36.133
1532282001.594,33.691,30.273,24.414,27.832,49.316
1532282001.598,40.527,30.762,25.879,37.598,111.328
1532282001.602,42.969,34.668,22.461,36.133,25.879
1532282001.606,41.992,37.598,19.043,31.738,-23.926
1532282001.610,41.992,37.598,19.043,34.668,35.645
1532282001.614,41.504,36.621,18.066,36.621,98.145
1532282001.618,40.039,36.621,21.973,36.133,62.012
1532282001.622,40.039,37.598,24.902,35.645,16.113
1532282001.625,39.551,36.621,23.438,33.203,27.832
1532282001.629,37.598,31.250,21.973,31.250,33.203
1532282001.633,36.621,29.297,21.484,27.832,2.930
1532282001.637,33.203,30.273,19.531,26.367,-14.160
1532282001.641,34.180,31.738,20.020,29.785,-12.695
1532282001.645,38.086,33.203,20.996,31.738,42.480
1532282001.649,39.551,32.715,20.020,31.738,56.641
1532282001.653,41.016,32.227,22.949,35.156,-5.859
1532282001.657,41.992,31.738,24.902,36.133,0.000
1532282001.661,39.551,28.809,23.438,37.109,44.922
1532282001.665,40.039,27.832,25.391,39.062,50.781
1532282001.668,44.922,30.762,27.344,36.133,21.484
1532282001.672,44.434,31.250,26.855,33.203,-19.043
1532282001.676,42.480,32.715,26.367,38.574,15.137
1532282001.680,41.992,35.156,26.367,40.527,66.895
1532282001.684,39.551,35.156,25.879,35.645,37.109
1532282001.688,38.574,35.156,26.855,30.762,-19.531
1532282001.692,37.598,32.227,28.809,33.691,7.324
1532282001.696,36.133,29.785,28.320,33.691,82.520
1532282001.700,34.180,29.785,28.320,31.738,71.777
1532282001.704,33.691,29.297,28.809,34.180,8.301
1532282001.707,33.691,28.320,28.809,33.691,-5.371
1532282001.711,34.668,25.391,34.180,32.715,44.434
1532282001.715,37.109,24.902,34.180,37.598,68.359
1532282001.719,37.109,29.297,30.273,36.621,4.395
1532282001.723,35.156,27.344,34.180,35.645,1.465
1532282001.727,35.156,24.414,34.180,35.645,49.316
1532282001.731,29.785,26.367,31.250,33.691,62.988
1532282001.735,29.297,28.809,31.738,39.551,32.227
1532282001.739,32.715,30.273,31.250,41.992,-13.672
1532282001.743,30.762,31.250,32.715,41.016,37.109
1532282001.747,34.180,31.738,37.598,42.480,92.285
1532282001.750,35.645,31.738,40.527,44.922,29.785
1532282001.754,37.109,29.785,39.062,47.363,-33.691
1532282001.758,40.039,29.297,36.133,48.340,-0.488
1532282001.762,37.598,30.273,34.668,44.922,41.992
1532282001.766,36.621,30.273,37.598,42.480,40.527
1532282001.770,37.598,31.738,38.086,36.621,-31.738
1532282001.774,37.109,33.203,37.598,31.250,-25.391
1532282001.778,38.086,31.738,37.598,38.574,65.430
1532282001.782,40.039,33.691,38.086,43.457,62.012
1532282001.786,36.621,37.109,36.621,39.551,12.695
1532282001.790,34.668,38.574,35.156,36.133,-27.344
1532282001.793,34.668,39.062,36.133,37.598,-1.953
1532282001.797,27.344,40.039,35.156,35.645,30.273
1532282001.801,23.926,41.504,33.203,30.762,7.812
1532282001.805,23.438,40.527,33.203,29.297,-14.160
1532282001.809,24.414,38.574,32.715,29.785,-8.301
1532282001.813,27.832,40.039,34.180,31.250,37.109
1532282001.817,27.344,39.551,35.645,34.668,30.762
1532282001.821,30.762,39.062,36.133,36.621,-16.602
1532282001.825,31.738,38.574,36.133,37.109,11.230
1532282001.829,29.785,33.691,33.203,33.203,57.129
1532282001.832,34.180,33.691,33.691,33.691,45.898
1532282001.836,36.621,37.598,30.762,37.109,-5.371
1532282001.840,36.621,36.621,29.785,36.133,11.719
1532282001.844,31.738,35.645,34.180,35.645,52.734
1532282001.848,26.367,33.203,34.668,32.715,38.574
1532282001.852,26.855,33.691,33.691,32.227,-17.578
1532282001.856,30.762,33.203,32.715,32.227,-21.484
1532282001.860,31.738,33.203,31.738,31.250,28.809
1532282001.864,28.320,32.715,32.227,33.203,50.293
1532282001.868,32.227,30.273,32.715,31.250,2.930
1532282001.872,32.227,28.320,29.297,23.926,-41.016
1532282001.875,27.344,27.832,27.344,23.926,8.301
1532282001.879,28.809,30.273,27.344,23.926,61.523
1532282001.883,32.715,32.227,25.391,25.879,75.684
1532282001.887,33.203,33.203,24.414,26.367,-9.766
1532282001.891,30.273,34.180,26.367,22.949,-38.574
1532282001.895,24.902,32.227,29.785,23.926,63.965
1532282001.899,20.996,32.227,30.762,23.438,62.012
1532282001.903,20.508,33.691,32.715,20.020,-3.906
1532282001.907,22.461,31.250,30.762,21.973,-6.348
1532282001.911,25.879,32.227,26.367,22.461,43.945
1532282001.914,26.367,36.621,23.926,23.438,93.750
1532282001.918,22.949,39.062,22.461,24.902,29.785
1532282001.922,24.902,37.598,24.902,25.391,0.000
1532282001.926,28.320,35.156,28.320,27.344,43.945
1532282001.930,28.809,33.691,27.832,25.391,48.340
1532282001.934,31.250,33.203,25.879,25.879,35.156
1532282001.938,30.762,33.691,27.344,29.785,-7.324
1532282001.942,29.297,33.203,26.855,28.320,0.977
1532282001.946,31.250,31.738,25.391,30.273,54.199
1532282001.950,33.691,30.273,25.391,28.320,51.270
1532282001.954,41.016,31.738,26.367,29.297,20.020
1532282001.957,42.480,33.203,27.832,34.668,17.090
1532282001.961,40.039,34.180,24.902,33.203,52.246
1532282001.965,43.457,35.156,23.926,34.180,72.266
1532282001.969,41.016,35.156,26.367,34.668,-3.906
1532282001.973,34.668,35.645,27.344,30.762,-13.672
1532282001.977,33.691,35.156,26.855,31.738,36.621
1532282001.981,34.180,33.203,27.832,32.227,82.031
1532282001.985,32.227,30.762,27.832,29.297,50.293
1532282001.989,35.156,30.762,27.832,29.297,-7.324
1532282001.993,29.785,33.203,26.855,25.879,48.340
1532282001.997,26.367,34.668,25.879,24.414,77.148
1532282002.000,29.297,35.156,25.879,28.809,37.109
1532282002.004,32.227,35.645,24.414,34.668,1.953
1532282002.008,35.645,35.645,23.926,33.203,9.277
1532282002.012,33.203,36.133,25.879,27.832,61.035
1532282002.016,30.273,36.621,30.273,29.785,83.984
1532282002.020,33.203,38.086,33.691,32.227,7.324
1532282002.024,33.691,37.109,32.715,32.715,-15.625
1532282002.028,34.180,35.645,35.156,34.180,21.484
1532282002.032,34.668,34.668,40.039,34.180,40.039
1532282002.036,30.762,30.273,40.527,34.668,26.855
1532282002.039,27.832,27.832,38.086,34.180,-15.137
1532282002.043,28.320,28.320,35.645,33.203,8.789
1532282002.047,32.715,26.367,37.109,35.645,47.363
1532282002.051,39.551,29.785,37.109,32.227,10.254
1532282002.055,41.504,36.133,30.762,27.344,-22.461
1532282002.059,42.969,35.156,27.832,26.855,19.043
1532282002.063,39.062,33.203,27.832,28.320,75.195
1532282002.067,34.180,33.203,30.273,28.809,41.016
1532282002.071,34.668,32.715,34.668,27.344,-5.371
1532282002.075,34.180,32.227,35.156,30.273,-3.418
1532282002.079,37.109,34.180,32.715,34.668,30.273
1532282002.082,36.133,36.133,32.715,36.133,60.547
1532282002.086,35.156,34.180,36.621,34.668,-19.531
1532282002.090,31.250,29.785,37.598,32.715,-12.207
1532282002.094,29.297,30.273,37.109,33.691,53.223
1532282002.098,34.180,36.133,35.156,34.180,49.805
1532282002.102,36.621,38.086,31.738,31.738,22.461
1532282002.106,39.551,37.109,30.762,28.320,-25.391
1532282002.110,36.621,37.598,29.785,26.855,0.488
1532282002.114,35.645,34.668,32.715,29.297,54.199
1532282002.118,37.598,31.250,35.645,28.809,24.414
1532282002.122,38.574,31.250,38.086,30.273,-8.301
1532282002.125,43.945,33.691,35.156,32.715,23.926
1532282002.129,41.992,37.109,32.715,30.273,64.941
1532282002.133,35.156,35.645,33.203,26.855,64.453
1532282002.137,36.621,34.180,33.691,26.855,20.996
1532282002.141,39.062,38.086,36.133,30.273,14.160
1532282002.145,36.621,38.086,36.133,33.203,57.129
1532282002.149,31.738,38.574,32.715,27.344,45.410
1532282002.153,34.668,41.016,30.273,21.484,-17.090
1532282002.157,40.527,40.039,32.715,34.668,-9.277
1532282002.161,38.574,37.109,35.645,43.945,55.664
1532282002.164,35.156,32.227,38.574,42.480,69.336
1532282002.168,37.109,30.762,40.039,42.969,7.324
1532282002.172,40.039,35.156,38.086,40.527,-20.508
1532282002.176,43.457,36.621,37.109,42.969,35.645
1532282002.180,45.410,32.227,40.039,45.898,87.891
1532282002.184,44.922,29.297,38.086,43.457,42.969
1532282002.188,46.875,34.180,34.180,35.156,-38.086
1532282002.192,44.434,40.039,33.691,25.879,-25.879
1532282002.196,40.527,38.086,31.250,29.785,53.223
1532282002.200,36.133,37.598,31.738,32.715,49.805
1532282002.204,36.133,37.598,34.180,35.156,5.371
1532282002.207,41.504,36.621,35.645,40.527,6.836
1532282002.211,40.527,35.156,35.156,40.527,55.664
1532282002.215,41.016,35.156,37.109,42.480,78.613
1532282002.219,40.039,36.133,36.621,37.598,0.488
1532282002.223,41.992,36.621,30.762,34.180,-11.230
1532282002.227,43.457,38.086,27.832,36.133,43.945
1532282002.231,40.039,39.551,26.855,34.180,57.617
1532282002.235,43.457,38.086,28.320,36.621,59.082
1532282002.239,48.340,38.086,27.344,35.156,18.555
1532282002.243,55.176,41.992,24.414,33.203,34.668
1532282002.246,56.152,41.016,27.832,31.250,65.430
1532282002.250,49.316,34.180,35.645,25.879,27.344
1532282002.254,48.828,29.297,40.527,26.367,3.906
1532282002.258,45.898,32.227,39.062,25.391,21.484
1532282002.262,47.363,37.598,34.180,20.996,74.219
1532282002.266,54.688,38.574,30.762,20.508,66.895
1532282002.270,56.641,40.039,33.203,27.832,14.648
1532282002.274,54.199,37.109,36.133,36.133,1.953
1532282002.278,53.711,33.203,38.574,44.434,31.250
1532282002.282,48.340,35.156,40.527,47.852,76.660
1532282002.286,38.086,34.180,39.062,44.434,35.645
1532282002.289,31.250,31.250,36.621,34.180,-25.391
1532282002.293,27.344,27.832,35.156,30.273,4.883
1532282002.297,27.832,25.879,37.109,39.551,70.801
1532282002.301,28.320,27.344,38.086,41.504,33.691
1532282002.305,24.902,30.273,33.691,33.203,-19.043
1532282002.309,26.855,34.180,26.855,25.391,1.953
1532282002.313,34.668,38.574,26.855,29.297,44.434
1532282002.317,40.527,36.621,32.715,39.062,36.621
1532282002.321,34.668,30.273,38.086,39.062,-22.949
1532282002.325,26.855,26.367,41.992,37.598,-25.391
1532282002.329,29.297,24.414,43.457,35.645,26.367
1532282002.332,39.551,27.832,43.457,34.180,41.016
1532282002.336,41.016,34.668,40.039,35.645,21.973
1532282002.340,34.668,34.180,36.621,29.297,11.719
1532282002.344,34.180,32.227,37.598,30.273,55.176
1532282002.348,34.668,31.738,39.062,33.203,73.242
1532282002.352,30.273,30.273,38.574,30.273,30.762
1532282002.356,29.785,30.273,36.133,28.320,13.184
1532282002.360,32.227,30.762,33.203,27.344,36.133
1532282002.364,32.715,28.320,31.738,29.785,87.891
1532282002.368,35.156,28.809,31.250,31.738,50.293
1532282002.371,40.527,31.738,33.691,31.738,-43.457
1532282002.375,37.109,30.762,34.668,33.691,0.488
1532282002.379,32.227,32.227,32.715,33.691,68.848
1532282002.383,34.668,36.621,32.715,32.715,38.574
1532282002.387,34.180,35.156,32.715,32.715,-6.836
1532282002.391,40.039,32.227,32.227,35.645,20.508
1532282002.395,43.945,29.297,32.715,37.598,57.617
1532282002.399,40.039,29.297,31.738,32.227,53.223
1532282002.403,36.133,29.785,31.250,31.738,18.066
1532282002.407,38.086,31.738,31.738,36.133,-18.555
1532282002.411,41.504,35.156,30.273,36.621,21.484
1532282002.414,41.504,33.203,30.762,36.133,65.430
1532282002.418,42.969,33.691,31.738,40.527,26.855
1532282002.422,46.387,36.621,33.691,39.062,-14.160
1532282002.426,48.828,37.598,35.645,38.086,15.625
1532282002.430,44.922,40.039,35.156,32.715,48.828
1532282002.434,44.434,43.945,36.621,33.203,34.180
1532282002.438,50.781,44.434,38.574,43.457,-4.395
1532282002.442,54.688,41.016,38.574,44.434,22.949
1532282002.446,53.711,38.086,38.574,43.457,78.125
1532282002.450,49.805,38.574,40.039,42.969,46.387
1532282002.454,52.246,37.109,41.016,46.387,-9.277
1532282002.457,55.176,38.574,41.992,48.828,-2.441
1532282002.461,51.758,41.504,43.457,45.898,54.688
1532282002.465,51.270,41.992,41.016,41.016,74.219
1532282002.469,51.270,43.457,38.086,37.109,28.320
1532282002.473,51.270,44.434,37.109,37.109,-14.648
1532282002.477,51.758,41.992,39.062,39.551,21.484
1532282002.481,51.758,38.086,42.969,41.504,54.688
1532282002.485,50.293,38.086,44.434,38.574,30.762
1532282002.489,50.781,41.504,42.969,35.156,-22.949
1532282002.493,50.293,41.504,42.480,38.086,-4.883
1532282002.496,47.852,35.645,46.875,46.387,85.449
1532282002.500,53.711,38.574,49.805,52.734,73.242
1532282002.504,60.059,41.992,48.340,57.129,0.977
1532282002.508,59.082,41.992,43.945,54.199,-2.930
1532282002.512,64.941,43.457,42.480,54.688,55.664
1532282002.516,66.406,43.457,42.969,56.641,72.266
1532282002.520,58.105,42.480,41.992,52.734,-7.324
1532282002.524,55.176,40.039,41.992,53.223,-7.324
1532282002.528,54.199,40.039,43.457,54.199,47.363
1532282002.532,52.246,40.039,44.922,53.711,43.457
1532282002.536,51.270,37.109,48.340,58.594,22.949
1532282002.539,52.734,33.691,51.270,60.547,9.277
1532282002.543,50.781,34.668,48.828,57.617,45.898
1532282002.547,49.316,38.574,44.434,55.664,89.844
1532282002.551,49.316,41.504,42.480,52.734,48.828
1532282002.555,49.316,42.480,43.457,51.270,-17.090
1532282002.559,48.828,41.992,44.434,50.781,-1.465
1532282002.563,47.363,41.992,41.992,49.316,60.547
1532282002.567,46.875,41.992,41.992,49.316,74.707
1532282002.571,47.852,42.969,42.969,43.945,-24.414
1532282002.575,47.363,40.527,42.480,47.363,-27.344
1532282002.579,49.316,39.062,43.945,56.152,37.598
1532282002.582,51.270,40.039,43.945,56.152,57.617
1532282002.586,51.270,42.480,44.922,54.199,6.836
1532282002.590,53.223,42.969,43.945,53.223,1.465
1532282002.594,51.270,41.504,44.434,54.688,72.266
1532282002.598,51.270,41.992,45.898,55.664,91.797
1532282002.602,50.781,41.504,43.457,53.711,41.016
1532282002.606,50.781,40.039,44.434,53.711,21.484
1532282002.610,52.246,42.480,46.875,50.781,38.086
1532282002.614,50.293,42.480,44.922,46.875,43.945
1532282002.618,50.293,39.551,46.387,49.805,23.926
1532282002.621,50.293,39.062,47.363,50.781,-8.789
1532282002.625,48.828,37.109,44.922,50.781,6.836
1532282002.629,49.805,36.621,46.875,56.152,52.246
1532282002.633,49.316,38.574,48.828,56.152,48.340
1532282002.637,46.875,37.598,46.387,52.734,-3.418
1532282002.641,48.340,38.086,44.922,51.270,20.996
1532282002.645,48.340,40.527,44.922,49.805,63.477
1532282002.649,48.340,40.039,47.852,47.363,50.293
1532282002.653,48.340,39.551,48.828,49.316,5.859
1532282002.657,46.387,38.086,50.293,52.246,0.488
1532282002.661,45.898,39.551,52.246,52.734,54.688
1532282002.664,44.922,39.062,52.734,55.664,106.445
1532282002.668,43.457,36.133,52.246,54.199,45.410
1532282002.672,41.992,38.086,49.316,45.898,-40.527
1532282002.676,41.504,40.527,48.340,45.410,24.414
1532282002.680,42.969,40.527,47.363,48.340,78.125
1532282002.684,43.457,41.016,47.363,49.805,37.109
1532282002.688,45.410,40.039,48.828,49.805,-27.832
1532282002.692,51.758,42.480,46.387,51.270,-20.508
1532282002.696,52.734,48.340,40.527,50.781,33.691
1532282002.700,44.434,48.340,38.574,45.898,42.480
1532282002.703,42.480,43.945,41.016,46.387,-16.602
1532282002.707,42.969,40.039,48.828,44.434,-38.086
1532282002.711,42.969,37.598,52.734,42.480,-6.836
1532282002.715,47.363,39.062,51.758,48.828,38.574
1532282002.719,49.805,42.480,48.340,49.316,22.949
1532282002.723,48.340,45.898,45.410,47.363,21.484
1532282002.727,48.340,44.922,50.293,50.781,61.035
1532282002.731,43.945,40.527,53.711,50.781,78.613
1532282002.735,44.434,40.527,52.734,49.805,39.551
1532282002.739,49.316,40.527,54.688,53.223,-8.789
1532282002.743,46.387,39.551,54.199,55.176,33.203
1532282002.746,44.434,38.574,50.293,52.734,78.125
1532282002.750,47.852,39.551,48.828,47.852,52.246
1532282002.754,46.875,42.969,48.828,45.898,-0.488
1532282002.758,48.340,43.945,48.340,47.363,6.836
1532282002.762,51.270,42.969,48.828,48.340,66.406
1532282002.766,49.805,43.457,49.805,52.246,87.891
1532282002.770,52.734,46.387,51.270,47.852,-2.441
1532282002.774,51.758,44.922,50.781,44.922,-19.043
1532282002.778,48.340,41.504,50.293,47.852,44.434
1532282002.782,49.316,42.480,50.293,45.410,63.965
1532282002.786,49.805,44.434,50.293,46.387,35.156
1532282002.789,49.316,44.922,48.340,45.898,-16.113
1532282002.793,50.781,44.922,46.387,44.922,24.902
1532282002.797,55.664,44.434,46.387,49.316,80.566
1532282002.801,53.711,43.945,46.875,51.758,58.594
1532282002.805,48.828,42.480,46.875,51.758,0.000
1532282002.809,50.781,43.457,46.875,52.246,8.789
1532282002.813,55.176,46.387,47.363,57.129,70.801
1532282002.817,54.688,45.898,48.340,60.059,75.684
1532282002.821,53.223,44.434,48.828,57.129,16.602
1532282002.825,52.246,43.945,50.293,55.664,1.465
1532282002.828,51.758,42.480,48.340,48.828,25.879
1532282002.832,52.246,41.504,48.340,45.898,41.504
1532282002.836,48.340,39.551,46.387,49.316,25.879
1532282002.840,45.898,38.086,43.945,46.875,5.859
1532282002.844,48.340,38.574,45.410,46.875,39.062
1532282002.848,46.875,40.527,42.480,46.875,32.715
1532282002.852,46.387,42.969,39.551,44.922,-9.277
1532282002.856,46.387,41.504,40.039,43.945,-8.789
1532282002.860,43.945,42.969,39.062,38.086,37.109
1532282002.864,44.922,44.922,40.527,37.598,92.773
1532282002.868,45.410,41.992,42.480,39.062,65.918
1532282002.871,41.016,39.062,43.945,40.039,0.000
1532282002.875,41.504,38.574,44.922,41.504,23.926
1532282002.879,38.086,38.086,45.410,40.527,89.844
1532282002.883,35.645,41.504,42.480,41.992,57.129
1532282002.887,38.574,41.504,41.504,40.039,-7.812
1532282002.891,35.156,40.039,46.387,30.762,-10.254
1532282002.895,32.715,41.992,46.875,33.203,58.105
1532282002.899,35.645,41.504,43.457,36.133,93.262
1532282002.903,41.016,43.457,41.016,36.133,30.273
1532282002.907,48.828,48.828,42.969,43.945,-17.578
1532282002.911,47.363,43.945,46.387,43.457,6.348
1532282002.914,45.410,41.504,46.875,46.875,51.270
1532282002.918,46.875,44.922,45.898,50.293,37.598
1532282002.922,46.387,41.016,48.340,47.852,26.855
1532282002.926,47.363,39.062,48.340,47.363,59.082
1532282002.930,44.922,41.992,47.852,46.387,66.895
1532282002.934,44.922,41.016,50.293,47.363,37.598
1532282002.938,47.363,37.598,50.781,45.410,-2.930
1532282002.942,46.387,41.992,46.387,42.969,8.789
1532282002.946,41.504,47.852,42.969,40.527,66.406
1532282002.950,38.574,49.805,41.016,31.738,62.500
1532282002.953,40.039,50.781,42.969,33.691,-9.277
1532282002.957,37.598,49.805,44.922,42.480,7.324
1532282002.961,32.227,46.387,45.410,43.457,53.223
1532282002.965,34.180,46.875,44.434,43.945,63.477
1532282002.969,37.109,49.316,40.039,41.016,17.090
1532282002.973,41.016,50.781,36.133,39.062,-16.602
1532282002.977,43.457,51.758,38.574,41.016,26.855
1532282002.981,37.598,48.340,40.039,38.086,70.801
1532282002.985,33.691,44.922,38.574,34.668,44.434
1532282002.989,38.086,43.457,42.969,36.133,-22.461
1532282002.993,40.039,43.457,46.387,36.621,12.695
1532282002.996,38.574,46.387,41.016,36.133,109.375
1532282003.000,38.086,48.828,38.574,37.109,69.824
1532282003.004,41.992,50.781,40.527,41.504,-3.906
1532282003.008,42.969,49.805,38.086,42.480,3.418
1532282003.012,39.551,44.922,39.551,41.016,36.133
1532282003.016,34.668,41.992,45.410,45.410,60.059
1532282003.020,33.203,41.992,47.852,45.410,4.395
1532282003.024,33.691,41.016,46.875,43.457,-35.156
1532282003.028,36.621,42.969,45.410,39.551,8.301
1532282003.032,41.504,44.922,46.387,37.109,49.805
1532282003.035,44.922,46.387,44.922,45.410,6.836
1532282003.039,46.875,46.875,41.992,48.828,-28.320
1532282003.043,46.875,45.410,41.992,48.828,18.066
1532282003.047,49.316,45.410,42.480,50.293,41.504
1532282003.051,53.223,49.316,42.480,48.340,21.973
1532282003.055,52.734,49.805,44.434,47.852,-16.113
1532282003.059,49.316,43.457,48.340,47.363,-10.742
1532282003.063,49.805,42.969,52.246,41.504,51.270
1532282003.067,56.152,45.410,49.316,38.086,66.895
1532282003.071,64.453,51.758,43.457,34.668,-7.812
1532282003.075,66.895,54.199,40.039,37.109,-13.184
1532282003.078,57.129,46.875,44.434,44.434,67.871
1532282003.082,48.340,41.504,48.340,48.340,95.215
1532282003.086,48.340,42.480,47.363,52.734,29.785
1532282003.090,50.293,43.457,45.898,62.012,-1.465
1532282003.094,52.246,41.992,46.387,69.336,48.340
1532282003.098,51.758,37.598,48.828,67.871,73.242
1532282003.102,44.434,36.621,50.293,65.918,20.996
1532282003.106,43.945,37.598,51.758,64.453,-4.883
1532282003.110,47.363,36.133,50.293,61.035,6.836
1532282003.114,47.852,35.156,46.387,57.617,50.781
1532282003.118,42.480,34.180,49.805,53.223,32.227
1532282003.121,38.574,33.203,51.758,47.363,-15.625
1532282003.125,42.480,33.691,48.828,48.340,30.273
1532282003.129,43.945,34.668,48.340,42.480,43.457
1532282003.133,42.969,37.109,48.340,32.715,38.086
1532282003.137,39.062,38.574,44.434,31.250,32.227
1532282003.141,38.086,41.992,39.551,28.320,-0.488
1532282003.145,41.992,45.898,38.574,28.320,57.129
1532282003.149,45.410,46.875,39.062,34.180,92.773
1532282003.153,44.922,45.898,41.992,35.156,26.855
1532282003.157,39.551,41.504,45.410,32.227,-13.672
1532282003.160,39.062,39.062,41.992,36.133,13.184
1532282003.164,39.551,36.621,43.457,42.969,56.641
1532282003.168,34.668,32.715,45.898,41.504,18.555
1532282003.172,35.156,30.762,46.875,46.387,-4.883
1532282003.176,38.574,29.785,46.875,55.664,32.715
1532282003.180,39.062,30.762,46.387,55.176,68.848
1532282003.184,40.039,32.227,47.363,54.688,70.801
1532282003.188,39.062,32.227,45.410,49.316,-12.207
1532282003.192,38.086,34.668,45.898,39.551,-38.574
1532282003.196,38.086,35.156,45.898,44.434,40.039
1532282003.200,38.086,33.691,44.922,48.340,43.945
1532282003.203,39.062,35.156,45.898,42.969,-8.789
1532282003.207,40.039,39.062,43.945,37.109,-22.949
1532282003.211,36.133,38.574,41.504,31.738,43.945
1532282003.215,37.109,37.598,42.480,33.691,81.543
1532282003.219,42.969,38.574,42.480,33.203,-0.977
1532282003.223,44.434,40.527,41.504,28.809,-19.531
1532282003.227,48.828,38.086,41.992,27.344,38.574
1532282003.231,50.293,38.086,41.504,30.273,54.199
1532282003.235,49.316,39.551,43.457,36.621,42.480
1532282003.239,47.363,37.109,44.922,39.551,-15.137
1532282003.243,44.922,36.621,46.387,44.922,14.160
1532282003.246,44.922,35.645,49.316,49.316,78.613
1532282003.250,43.945,34.668,49.805,48.828,23.926
1532282003.254,41.016,34.668,50.781,51.270,-23.926
1532282003.258,41.504,35.645,49.316,51.758,-14.648
1532282003.262,41.992,35.645,48.828,47.363,47.852
1532282003.266,41.992,37.598,46.875,48.828,70.801
1532282003.270,42.969,41.504,41.992,47.363,-2.441
1532282003.274,47.363,43.457,38.574,48.340,5.371
1532282003.278,54.199,43.457,36.621,52.246,48.340
1532282003.282,53.223,43.457,39.551,48.340,81.055
1532282003.285,44.922,41.504,44.922,41.992,42.480
1532282003.289,42.480,40.527,43.457,33.203,-16.113
1532282003.293,46.387,40.039,42.480,31.250,23.438
1532282003.297,45.410,39.062,42.480,36.133,52.734
1532282003.301,44.434,40.039,45.410,34.668,15.625
1532282003.305,48.828,41.016,48.340,38.086,-24.414
1532282003.309,48.340,40.039,48.340,31.738,0.488
1532282003.313,41.504,39.062,49.316,24.414,49.316
1532282003.317,40.527,35.645,49.805,35.156,54.199
1532282003.321,43.945,33.691,49.805,41.016,-4.883
1532282003.325,43.457,35.645,49.316,39.062,4.395
1532282003.328,41.504,34.668,46.387,35.156,62.500
1532282003.332,33.203,33.691,43.457,28.809,79.590
1532282003.336,27.832,35.645,39.551,23.438,30.762
1532282003.340,30.273,34.180,36.621,21.484,0.000
1532282003.344,30.273,33.691,36.133,20.508,32.227
1532282003.348,31.250,37.109,40.039,23.926,65.918
1532282003.352,35.645,39.551,41.016,30.762,25.391
1532282003.356,38.574,38.086,38.574,35.156,-22.949
1532282003.360,41.016,33.691,42.480,37.598,1.465
1532282003.364,41.992,31.250,43.945,39.551,54.688
1532282003.368,43.457,31.738,45.898,39.062,33.691
1532282003.371,41.992,31.250,47.852,37.109,-41.016
1532282003.375,39.062,28.809,46.875,41.504,7.812
1532282003.379,35.156,25.879,52.734,41.992,88.867
1532282003.383,28.809,25.391,55.176,41.504,76.660
1532282003.387,26.367,26.367,51.758,38.574,11.230
1532282003.391,30.273,25.391,51.758,38.086,2.930
1532282003.395,33.203,28.320,49.316,42.480,53.223
1532282003.399,28.320,33.691,42.969,36.621,47.852
1532282003.403,25.391,33.203,43.457,33.691,0.977
1532282003.407,31.250,34.180,45.410,33.691,-7.324
1532282003.410,33.203,38.574,43.457,29.297,20.020
1532282003.414,24.902,35.645,41.992,29.785,82.031
1532282003.418,12.695,29.297,44.434,27.832,71.777
1532282003.422,7.812,27.344,47.852,25.879,2.441
1532282003.426,17.578,25.879,50.781,29.785,3.906
1532282003.430,30.762,28.320,49.316,30.762,77.637
1532282003.434,29.785,36.621,41.504,24.414,81.055
1532282003.438,26.855,39.062,37.598,20.996,9.766
1532282003.442,32.227,37.598,39.062,29.785,-3.906
1532282003.446,34.668,37.598,43.457,37.109,44.434
1532282003.450,31.738,36.133,44.922,30.273,44.434
1532282003.453,32.715,37.109,42.480,31.250,-16.113
1532282003.457,40.039,39.551,41.016,38.574,-23.926
1532282003.461,41.016,38.086,40.039,37.598,39.062
1532282003.465,34.180,38.574,41.016,36.621,70.312
1532282003.469,24.902,34.180,45.898,35.156,9.277
1532282003.473,22.461,29.785,46.387,30.762,-26.855
1532282003.477,27.832,28.809,42.969,29.785,24.902
1532282003.481,25.879,28.320,44.434,29.297,80.078
1532282003.485,22.461,28.809,45.898,26.855,42.480
1532282003.489,29.297,26.855,42.480,29.785,-7.812
1532282003.492,34.180,26.367,40.039,32.227,13.184
1532282003.496,28.320,28.320,39.551,27.832,73.242
1532282003.500,27.344,28.320,37.109,25.391,49.316
1532282003.504,29.785,25.391,35.645,27.832,-6.836
1532282003.508,29.297,23.926,35.645,23.438,8.789
1532282003.512,31.738,23.926,41.016,21.973,58.105
1532282003.516,32.227,25.391,38.086,25.391,102.051
1532282003.520,32.715,26.855,32.715,27.344,32.715
1532282003.524,36.133,27.344,34.180,32.715,15.625
1532282003.528,39.062,27.344,36.133,37.598,45.410
1532282003.532,38.574,23.926,38.086,42.969,56.641
1532282003.535,40.527,20.996,41.504,42.969,21.973
1532282003.539,44.434,20.996,41.016,37.598,-9.277
1532282003.543,44.434,25.391,39.551,30.762,25.391
1532282003.547,40.527,27.344,41.016,31.250,60.059
1532282003.551,39.062,25.879,40.039,31.738,18.066
1532282003.555,37.598,28.320,36.133,31.738,-11.230
1532282003.559,36.621,29.297,33.691,34.180,26.367
1532282003.563,41.504,27.832,32.227,35.156,44.434
1532282003.567,40.527,26.367,36.133,35.645,34.180
1532282003.571,37.598,21.973,39.062,38.086,-5.371
1532282003.575,39.551,20.996,36.621,40.039,1.465
1532282003.578,41.992,24.902,35.156,39.551,33.203
1532282003.582,41.504,27.832,35.645,38.574,35.156
1532282003.586,36.621,29.785,34.668,41.016,-7.324
1532282003.590,36.621,28.320,33.203,41.992,-18.555
1532282003.594,36.133,30.762,28.809,39.062,21.484
1532282003.598,35.156,35.156,26.855,38.086,60.547
1532282003.602,36.621,36.133,28.320,38.086,52.246
1532282003.606,37.598,37.109,28.809,38.574,17.090
1532282003.610,40.527,35.156,29.785,42.480,9.277
1532282003.614,41.992,33.203,31.738,44.434,66.895
1532282003.617,41.016,34.180,36.621,41.504,49.805
1532282003.621,41.992,35.645,33.203,38.574,-32.715
1532282003.625,47.852,38.574,27.832,35.156,-17.090
1532282003.629,45.410,39.062,28.320,35.156,25.391
1532282003.633,36.621,36.133,34.668,36.621,35.645
1532282003.637,34.180,33.203,40.527,34.668,-18.555
1532282003.641,38.574,34.668,41.016,34.668,-22.461
1532282003.645,46.875,39.062,37.598,41.016,48.340
1532282003.649,53.223,44.434,36.133,39.062,41.504
1532282003.653,50.781,45.410,36.133,34.668,-13.672
1532282003.657,50.293,44.434,34.180,39.062,-9.766
1532282003.660,57.617,46.387,35.645,47.363,18.066
1532282003.664,53.223,43.945,35.156,50.781,48.828
1532282003.668,42.480,41.016,34.180,45.410,24.414
1532282003.672,46.387,41.504,35.156,47.363,-32.227
1532282003.676,49.316,42.480,34.180,45.410,7.812
1532282003.680,44.434,44.922,31.250,38.086,59.082
1532282003.684,38.086,45.898,28.320,29.785,41.992
1532282003.688,33.203,49.316,28.320,21.973,-23.926
1532282003.692,38.574,53.711,24.414,24.902,-16.602
1532282003.696,40.527,48.828,24.902,38.574,69.824
1532282003.700,33.691,42.480,34.180,40.527,64.453
1532282003.703,34.668,41.504,36.133,38.574,30.273
1532282003.707,37.598,41.504,31.250,38.574,5.371
1532282003.711,45.898,46.875,28.809,41.992,11.719
1532282003.715,48.828,49.316,24.902,44.434,62.988
1532282003.719,40.039,44.434,19.531,34.668,32.227
1532282003.723,39.551,46.875,20.020,32.715,-15.137
1532282003.727,39.551,44.922,25.391,37.598,3.906
1532282003.731,41.016,39.551,30.762,35.645,39.551
1532282003.735,41.992,41.504,32.715,35.156,40.039
1532282003.739,40.039,46.875,28.320,36.133,6.348
1532282003.742,39.551,47.852,22.461,34.668,30.273
1532282003.746,40.527,43.457,24.902,41.992,77.637
1532282003.750,42.480,40.039,27.344,48.828,40.527
1532282003.754,39.062,41.504,26.855,41.504,-8.789
1532282003.758,34.180,42.480,22.949,32.227,16.113
1532282003.762,35.645,44.434,20.508,34.180,50.781
1532282003.766,38.574,48.340,22.461,41.992,53.223
1532282003.770,40.039,43.945,26.367,43.457,20.020
1532282003.774,39.062,37.598,30.273,40.039,2.930
1532282003.778,36.621,38.574,33.203,34.668,55.664
1532282003.782,35.156,41.016,30.762,28.809,97.656
1532282003.785,37.598,41.992,21.973,31.250,77.148
1532282003.789,43.945,44.434,19.531,33.203,15.625
1532282003.793,45.898,41.992,24.902,32.715,23.926
1532282003.797,38.574,37.109,27.344,37.109,77.148
1532282003.801,29.785,34.668,28.809,38.086,70.801
1532282003.805,33.203,34.668,29.785,41.504,-4.883
1532282003.809,39.062,36.133,28.809,45.898,-33.691
1532282003.813,35.156,35.645,26.367,43.457,44.922
1532282003.817,32.227,36.133,27.344,39.551,52.246
1532282003.821,37.109,35.645,28.320,38.086,-19.531
1532282003.824,40.039,34.180,28.320,40.527,-29.785
1532282003.828,37.109,32.715,28.809,36.133,11.230
1532282003.832,38.086,31.250,27.344,32.227,38.574
1532282003.836,42.969,29.785,28.809,41.992,4.883
1532282003.840,42.480,29.297,28.320,42.480,-1.953
1532282003.844,43.945,29.297,29.785,40.527,45.898
1532282003.848,45.410,31.738,31.738,41.016,61.035
1532282003.852,45.410,35.156,29.785,41.992,20.020
1532282003.856,44.922,35.645,31.250,43.457,-19.531
1532282003.860,37.109,29.785,31.738,41.504,21.484
1532282003.864,35.645,28.320,33.691,35.645,77.637
1532282003.867,38.574,32.715,35.645,31.250,45.898
1532282003.871,43.457,35.156,36.133,33.691,-15.625
1532282003.875,48.828,35.156,34.668,33.691,7.324
1532282003.879,50.781,35.645,33.691,27.344,84.961
1532282003.883,56.152,35.645,36.133,28.320,115.723
1532282003.887,60.059,35.156,35.645,28.809,23.438
1532282003.891,57.617,35.645,35.645,29.297,-3.906
1532282003.895,50.293,33.203,36.133,38.574,65.430
1532282003.899,40.039,29.785,36.621,42.969,66.406
1532282003.903,35.645,27.832,37.598,46.387,23.926
1532282003.907,35.156,27.344,38.574,46.875,-26.855
1532282003.910,33.691,28.809,41.992,42.969,-3.418
1532282003.914,30.762,28.320,48.340,45.410,57.617
1532282003.918,30.762,26.367,52.246,42.969,21.973
1532282003.922,37.109,24.414,52.246,44.922,-16.113
1532282003.926,37.598,25.391,48.828,47.363,23.926
1532282003.930,37.109,29.297,49.805,41.016,61.523
1532282003.934,38.086,32.227,52.246,42.480,65.430
1532282003.938,38.574,31.250,50.293,43.945,38.086
1532282003.942,37.598,29.785,47.363,44.922,33.203
1532282003.946,38.086,32.227,47.363,48.828,79.102
1532282003.949,42.969,34.180,49.805,48.340,92.773
1532282003.953,42.480,31.738,51.758,47.852,20.996
1532282003.957,40.039,29.297,51.758,46.875,-0.488
1532282003.961,41.016,27.832,48.828,43.945,63.965
1532282003.965,40.039,27.832,49.316,43.457,112.305
1532282003.969,37.109,29.297,52.734,38.574,28.320
1532282003.973,38.086,30.762,54.688,40.527,-36.621
1532282003.977,38.574,30.762,52.246,50.293,6.348
1532282003.981,39.551,29.785,52.734,49.316,75.684
1532282003.985,41.992,28.809,54.688,47.852,83.496
1532282003.989,39.062,27.832,55.176,45.898,-6.348
1532282003.992,34.180,27.344,54.199,43.945,-16.113
1532282003.996,36.133,30.273,53.223,45.410,73.730
1532282004.000,36.133,32.715,54.688,42.969,81.543
1532282004.004,34.668,29.785,54.688,40.039,11.230
1532282004.008,41.992,29.785,54.688,43.945,-16.113
1532282004.012,45.410,31.738,59.082,47.852,25.879
1532282004.016,43.945,31.250,55.176,47.363,51.758
1532282004.020,45.898,31.738,50.781,47.363,27.344
1532282004.024,48.828,34.180,51.270,51.758,20.020
1532282004.028,52.246,37.598,51.758,49.805,6.348
1532282004.032,53.711,40.039,51.758,44.922,18.555
1532282004.035,49.805,41.016,50.781,43.945,22.461
1532282004.039,45.898,39.062,50.781,45.898,-11.230
1532282004.043,45.898,39.062,49.316,48.340,42.969
1532282004.047,50.781,42.480,51.758,50.293,104.980
1532282004.051,50.293,43.457,53.711,48.828,66.406
1532282004.055,48.340,41.016,50.781,46.875,-8.301
1532282004.059,49.805,38.574,50.781,47.363,0.977
1532282004.063,53.223,40.527,52.734,47.363,68.359
1532282004.067,52.246,41.992,55.176,47.363,58.594
1532282004.071,44.922,40.039,54.199,42.480,-16.113
1532282004.074,42.969,41.992,52.246,41.504,1.953
1532282004.078,45.898,42.969,54.199,43.945,63.965
1532282004.082,47.363,44.434,54.688,46.875,63.477
1532282004.086,47.363,47.363,52.734,45.898,1.953
1532282004.090,49.316,47.363,53.223,36.621,-48.340
1532282004.094,52.734,46.875,55.664,40.527,13.184
1532282004.098,54.688,46.875,53.711,46.875,68.848
1532282004.102,53.223,49.316,53.711,45.898,31.250
1532282004.106,53.711,48.340,55.176,44.922,-7.324
1532282004.110,52.246,48.828,53.223,39.062,-7.812
1532282004.114,49.805,51.758,50.781,38.574,51.270
1532282004.117,48.828,52.246,51.758,41.504,57.617
1532282004.121,47.363,50.293,54.199,44.434,0.488
1532282004.125,49.316,49.805,52.246,46.875,22.461
1532282004.129,48.340,51.270,48.340,42.480,59.082
1532282004.133,48.828,54.199,46.387,37.598,56.152
1532282004.137,51.270,56.152,48.340,41.016,9.277
1532282004.141,54.688,56.641,51.270,44.434,-8.789
1532282004.145,54.688,57.129,49.805,42.480,44.434
1532282004.149,53.711,57.617,48.340,38.574,90.332
1532282004.153,51.758,57.129,49.316,41.016,19.531
1532282004.156,50.781,56.641,49.316,45.898,-9.277
1532282004.160,50.293,56.152,46.875,44.922,60.547
1532282004.164,45.898,54.688,44.922,41.016,116.211
1532282004.168,43.457,53.711,47.363,39.551,50.781
1532282004.172,47.363,52.734,47.852,41.992,-26.367
1532282004.176,45.410,52.246,50.293,48.340,14.648
1532282004.180,38.574,49.805,51.270,48.828,59.570
1532282004.184,34.180,45.898,48.828,47.363,68.848
1532282004.188,37.109,44.434,49.805,44.922,6.348
1532282004.192,43.457,45.410,50.293,47.363,-10.254
1532282004.196,45.898,46.387,47.852,50.781,49.805
1532282004.199,42.480,47.363,46.387,49.805,66.895
1532282004.203,43.945,46.387,45.898,55.176,11.719
1532282004.207,53.223,45.410,47.852,57.129,-23.926
1532282004.211,54.199,45.898,49.316,50.781,14.648
1532282004.215,52.246,47.852,49.316,56.152,41.992
1532282004.219,56.641,46.875,50.781,60.547,25.391
1532282004.223,59.570,45.898,48.828,60.547,1.953
1532282004.227,58.105,47.363,46.387,62.988,12.695
1532282004.231,53.223,47.852,46.875,59.082,64.453
1532282004.235,51.758,47.852,46.875,57.617,59.082
1532282004.239,53.223,47.852,47.852,57.617,-5.859
1532282004.242,54.199,47.852,48.828,58.105,-4.883
1532282004.246,55.176,45.898,46.875,57.617,62.500
1532282004.250,58.594,48.828,47.852,54.688,61.035
1532282004.254,61.035,51.270,50.293,56.152,17.090
1532282004.258,55.664,49.316,46.387,51.270,34.668
