timestamps,TP9,AF7,AF8,TP10,Right AUX
1532281472.180,28.809,40.527,36.621,21.973,-223.145
1532281472.184,24.414,37.109,35.156,29.297,-177.734
1532281472.188,25.879,35.645,34.180,33.203,242.676
1532281472.192,21.973,37.598,36.133,25.391,308.594
1532281472.195,18.555,37.109,35.645,18.555,-110.840
1532281472.199,24.414,35.645,35.156,18.066,-273.926
1532281472.203,25.391,33.203,35.156,17.578,130.859
1532281472.207,28.320,35.156,38.574,19.043,337.402
1532281472.211,29.297,40.039,39.062,16.113,-1.953
1532281472.215,27.832,39.551,38.574,12.695,-291.504
1532281472.219,33.691,38.574,41.016,22.461,-19.043
1532281472.223,29.785,37.598,36.133,28.809,346.191
1532281472.227,17.578,39.062,37.598,29.297,130.859
1532281472.231,7.812,40.039,39.551,28.809,-261.719
1532281472.234,5.859,39.551,35.156,25.879,-132.324
1532281472.238,8.301,39.551,34.668,22.461,250.977
1532281472.242,12.695,39.551,34.668,20.020,210.938
1532281472.246,19.531,41.016,35.645,17.578,-197.754
1532281472.250,20.996,41.504,37.109,18.555,-206.543
1532281472.254,17.578,44.434,36.621,21.973,207.520
1532281472.258,19.043,47.363,34.180,19.043,290.039
1532281472.262,21.973,45.410,34.180,14.160,-88.379
1532281472.266,23.926,42.969,35.645,19.531,-244.141
1532281472.270,23.926,43.457,35.156,25.879,106.445
1532281472.274,22.461,43.457,33.203,25.391,333.984
1532281472.277,20.996,41.016,36.621,20.508,36.133
1532281472.281,16.602,38.086,41.992,20.996,-272.949
1532281472.285,21.973,38.574,39.062,26.367,-40.039
1532281472.289,27.832,41.504,37.109,30.273,328.613
1532281472.293,24.902,44.434,35.156,28.809,149.414
1532281472.297,20.020,44.434,35.645,18.066,-264.160
1532281472.301,20.020,40.527,39.551,15.625,-161.133
1532281472.305,20.020,36.133,37.598,24.902,269.531
1532281472.309,25.391,40.527,34.180,26.367,249.023
1532281472.313,29.297,40.527,34.668,27.344,-146.973
1532281472.317,24.902,36.621,36.133,28.809,-209.473
1532281472.320,23.926,39.062,37.109,30.273,181.152
1532281472.324,22.461,38.574,39.551,26.367,323.730
1532281472.328,22.461,36.621,39.551,18.555,-48.828
1532281472.332,23.438,39.062,38.086,21.484,-259.277
1532281472.336,20.020,38.574,36.133,26.855,38.574
1532281472.340,20.020,37.598,34.180,26.855,313.965
1532281472.344,23.926,39.062,34.668,24.902,71.777
1532281472.348,26.855,40.039,35.645,23.438,-272.949
1532281472.352,22.461,35.645,34.668,26.855,-66.895
1532281472.356,19.043,33.691,34.668,27.344,310.059
1532281472.359,24.414,36.621,37.109,19.531,166.016
1532281472.363,27.344,35.156,38.086,21.973,-236.816
1532281472.367,25.391,35.156,37.109,29.785,-154.785
1532281472.371,21.484,35.645,37.598,31.250,272.461
1532281472.375,18.555,35.645,41.016,27.832,284.668
1532281472.379,20.508,39.062,41.504,26.855,-133.789
1532281472.383,22.461,38.086,39.062,30.762,-256.836
1532281472.387,22.461,35.156,37.598,31.738,137.207
1532281472.391,20.996,36.621,39.062,27.344,352.051
1532281472.395,22.461,37.598,39.551,26.855,-10.742
1532281472.399,20.996,36.133,40.039,25.391,-283.691
1532281472.402,18.066,34.180,42.480,26.855,17.578
1532281472.406,19.043,33.691,40.039,27.344,371.094
1532281472.410,20.996,35.645,39.551,26.855,142.578
1532281472.414,20.996,35.645,38.086,28.320,-247.070
1532281472.418,25.391,36.133,37.109,32.227,-77.637
1532281472.422,29.297,37.109,40.039,33.691,317.383
1532281472.426,27.832,35.645,42.480,28.809,216.309
1532281472.430,20.996,33.203,39.062,26.855,-194.824
1532281472.434,19.531,33.203,37.109,34.668,-175.781
1532281472.438,23.438,34.180,40.527,32.227,212.891
1532281472.441,19.531,32.227,41.016,25.391,271.973
1532281472.445,17.090,31.738,39.062,25.879,-114.746
1532281472.449,21.484,31.738,40.039,30.762,-273.926
1532281472.453,27.832,33.203,42.480,37.109,95.703
1532281472.457,30.762,35.156,42.969,33.691,326.172
1532281472.461,30.762,34.668,46.875,33.203,12.207
1532281472.465,34.668,35.645,45.410,36.621,-257.324
1532281472.469,41.992,35.645,42.969,43.457,21.484
1532281472.473,40.039,36.133,45.410,46.875,346.191
1532281472.477,38.574,34.668,44.922,40.039,141.602
1532281472.481,43.457,35.645,43.945,39.062,-250.977
1532281472.484,41.992,37.598,43.945,42.969,-143.555
1532281472.488,40.039,39.062,42.480,47.852,268.555
1532281472.492,45.410,41.992,41.504,49.316,257.324
1532281472.496,42.480,41.016,40.527,37.109,-166.992
1532281472.500,34.180,38.574,38.574,31.250,-226.562
1532281472.504,32.227,38.574,40.527,37.598,203.125
1532281472.508,31.738,39.062,43.945,36.133,312.988
1532281472.512,32.227,38.574,42.969,34.668,-59.570
1532281472.516,31.738,35.645,42.969,39.062,-273.438
1532281472.520,35.156,36.133,44.434,44.922,49.805
1532281472.524,34.668,37.598,44.434,43.457,331.543
1532281472.527,31.250,39.551,44.922,39.551,27.832
1532281472.531,30.273,38.574,43.457,40.039,-296.387
1532281472.535,27.344,34.668,42.969,37.598,-71.777
1532281472.539,29.297,36.621,44.434,36.133,276.367
1532281472.543,33.691,40.039,42.480,37.109,152.344
1532281472.547,35.645,41.992,45.898,37.598,-223.633
1532281472.551,36.133,42.969,51.270,43.457,-150.391
1532281472.555,35.645,41.504,49.316,47.852,268.555
1532281472.559,35.156,41.504,46.387,44.434,270.996
1532281472.563,33.691,40.527,46.875,40.039,-166.016
1532281472.566,32.715,38.574,46.387,39.062,-273.926
1532281472.570,32.715,39.062,45.410,41.016,144.043
1532281472.574,32.715,40.527,46.875,41.992,326.660
1532281472.578,28.320,39.551,46.387,31.738,-69.336
1532281472.582,28.809,37.598,44.434,30.762,-304.688
1532281472.586,35.645,36.133,42.969,39.062,59.082
1532281472.590,35.645,36.621,41.992,40.039,340.820
1532281472.594,29.297,37.598,45.410,40.039,65.918
1532281472.598,32.227,33.691,42.969,36.621,-287.109
1532281472.602,36.621,31.738,40.039,45.898,-105.469
1532281472.606,37.109,32.715,42.480,54.199,306.641
1532281472.609,35.156,31.250,41.504,45.410,208.496
1532281472.613,30.762,31.250,41.992,41.016,-217.285
1532281472.617,30.273,32.715,40.039,40.039,-194.336
1532281472.621,33.203,32.715,36.621,44.434,229.980
1532281472.625,36.133,35.645,38.086,44.922,291.016
1532281472.629,35.645,36.621,36.621,37.109,-107.910
1532281472.633,34.180,38.574,35.156,39.062,-233.398
1532281472.637,30.273,39.551,34.180,37.598,93.750
1532281472.641,29.297,35.645,35.156,31.250,284.668
1532281472.645,30.762,32.227,37.598,32.227,-22.461
1532281472.649,32.227,32.227,39.551,34.180,-293.945
1532281472.652,33.691,31.250,40.527,38.574,-0.488
1532281472.656,36.621,33.691,38.086,41.016,316.406
1532281472.660,37.109,35.645,37.598,40.527,88.867
1532281472.664,31.738,33.203,40.527,38.086,-277.344
1532281472.668,27.832,32.227,40.527,39.062,-120.605
1532281472.672,34.180,33.203,40.527,44.922,294.922
1532281472.676,36.621,33.691,40.527,44.922,213.379
1532281472.680,29.785,33.203,38.574,39.062,-201.660
1532281472.684,31.738,31.738,40.527,43.457,-191.895
1532281472.688,38.086,33.203,41.016,48.828,216.309
1532281472.691,36.133,34.180,39.551,48.828,327.148
1532281472.695,33.203,35.645,37.598,44.922,-91.797
1532281472.699,32.715,37.109,41.016,41.016,-290.039
1532281472.703,28.809,33.691,42.969,43.945,87.402
1532281472.707,28.320,32.715,41.992,47.363,340.820
1532281472.711,32.227,33.203,41.016,41.504,33.691
1532281472.715,33.203,33.691,38.086,36.621,-295.410
1532281472.719,33.203,36.621,37.109,37.598,-72.754
1532281472.723,33.203,37.109,35.156,41.504,307.617
1532281472.727,30.762,38.574,36.621,38.086,148.438
1532281472.731,29.785,38.086,37.598,35.156,-240.234
1532281472.734,28.809,36.133,35.156,35.645,-122.070
1532281472.738,28.809,36.133,33.691,34.180,261.719
1532281472.742,31.738,37.109,34.180,35.156,215.820
1532281472.746,30.273,36.133,34.180,34.668,-185.547
1532281472.750,30.273,33.691,33.691,32.715,-237.793
1532281472.754,35.645,33.203,36.621,35.156,144.531
1532281472.758,35.156,33.203,36.621,31.738,283.203
1532281472.762,31.738,34.180,34.668,27.344,-80.078
1532281472.766,33.691,34.180,34.668,28.809,-288.086
1532281472.770,32.715,32.227,37.109,34.668,72.266
1532281472.773,28.809,33.203,40.039,36.133,364.746
1532281472.777,33.203,32.715,41.016,34.180,62.500
1532281472.781,43.457,30.273,40.039,39.551,-291.016
1532281472.785,41.504,29.785,39.062,47.852,-68.359
1532281472.789,26.367,31.738,39.062,48.828,319.336
1532281472.793,23.438,31.250,42.480,44.434,184.082
1532281472.797,25.879,32.715,43.945,36.621,-243.652
1532281472.801,33.203,34.180,42.969,37.598,-189.453
1532281472.805,35.156,32.715,41.992,42.969,248.047
1532281472.809,34.668,34.180,41.504,40.039,261.719
1532281472.813,31.738,33.203,39.062,32.715,-130.859
1532281472.816,26.367,31.250,35.645,27.832,-262.695
1532281472.820,29.785,31.738,36.133,30.762,92.285
1532281472.824,29.785,31.250,39.062,34.668,291.016
1532281472.828,32.227,31.738,39.551,33.691,-42.480
1532281472.832,38.086,34.668,39.551,34.180,-285.645
1532281472.836,37.598,34.668,37.598,39.551,20.508
1532281472.840,33.691,32.227,35.156,38.574,337.891
1532281472.844,35.156,35.645,38.086,36.621,97.168
1532281472.848,40.527,38.086,38.574,38.574,-264.160
1532281472.852,37.598,36.133,35.156,40.527,-77.637
1532281472.856,40.039,36.621,36.133,37.598,316.895
1532281472.859,41.016,36.133,38.574,34.668,203.613
1532281472.863,33.203,35.156,39.551,38.086,-192.871
1532281472.867,35.156,33.691,38.086,41.992,-180.176
1532281472.871,36.133,33.203,36.133,41.504,231.934
1532281472.875,31.738,31.738,37.109,40.527,289.551
1532281472.879,29.785,30.273,37.109,32.715,-131.348
1532281472.883,32.715,31.738,33.203,29.297,-268.066
1532281472.887,33.203,32.715,29.297,34.180,95.703
1532281472.891,27.344,33.691,32.715,31.738,332.520
1532281472.895,26.367,34.668,35.645,29.785,9.766
1532281472.898,29.785,33.691,35.645,32.227,-296.387
1532281472.902,33.203,33.203,37.109,34.668,-9.277
1532281472.906,30.762,32.715,37.598,32.715,321.289
1532281472.910,27.344,37.109,33.203,26.855,127.930
1532281472.914,30.762,42.480,32.227,25.391,-251.953
1532281472.918,33.203,43.945,33.203,23.438,-169.922
1532281472.922,30.762,40.527,34.180,24.414,272.461
1532281472.926,28.809,37.598,38.574,24.902,247.070
1532281472.930,30.762,39.062,36.133,20.996,-169.434
1532281472.934,32.227,39.062,36.133,27.832,-212.891
1532281472.938,29.297,37.109,38.574,31.250,178.711
1532281472.941,24.414,37.109,37.109,25.391,320.312
1532281472.945,25.391,38.574,37.598,26.855,-69.336
1532281472.949,23.438,37.109,38.086,27.832,-271.484
1532281472.953,23.438,35.156,37.109,27.832,91.797
1532281472.957,28.809,35.156,37.598,28.809,331.543
1532281472.961,35.156,36.133,36.621,25.879,41.016
1532281472.965,37.598,35.645,34.668,25.879,-255.859
1532281472.969,38.086,34.180,34.180,33.203,-28.809
1532281472.973,42.480,35.645,36.133,36.133,345.703
1532281472.977,46.875,36.133,38.086,32.715,178.711
1532281472.981,47.363,31.738,39.062,32.715,-237.305
1532281472.984,43.945,31.738,40.527,40.527,-150.391
1532281472.988,41.504,34.180,38.574,44.922,266.602
1532281472.992,32.227,30.273,39.551,41.016,246.094
1532281472.996,25.391,30.273,41.504,39.551,-192.383
1532281473.000,22.949,30.762,39.551,37.598,-257.324
1532281473.004,22.949,28.320,38.574,40.039,164.062
1532281473.008,24.902,29.785,38.574,41.992,334.961
1532281473.012,20.996,30.762,40.039,37.598,-30.762
1532281473.016,20.020,26.367,38.574,33.691,-270.996
1532281473.020,27.344,27.832,36.133,36.133,41.016
1532281473.023,31.738,30.273,36.621,37.109,345.215
1532281473.027,28.809,32.227,37.109,29.297,75.195
1532281473.031,26.855,33.203,36.133,26.855,-265.137
1532281473.035,31.738,33.691,37.598,31.738,-74.707
1532281473.039,37.109,35.156,39.551,34.668,308.105
1532281473.043,36.621,35.156,37.598,28.809,186.523
1532281473.047,34.668,35.156,35.645,25.879,-232.422
1532281473.051,36.133,33.203,36.133,33.691,-199.707
1532281473.055,38.086,33.203,36.621,35.156,195.312
1532281473.059,33.691,34.180,35.645,22.461,249.512
1532281473.063,32.227,35.645,35.645,20.508,-133.301
1532281473.066,35.645,35.645,34.180,30.762,-265.137
1532281473.070,29.785,31.250,32.227,31.250,111.816
1532281473.074,25.391,30.762,35.156,29.785,305.176
1532281473.078,22.949,30.762,36.621,26.367,-7.324
1532281473.082,22.461,30.762,33.203,21.484,-252.930
1532281473.086,28.809,31.250,30.762,22.949,1.953
1532281473.090,32.227,32.227,30.273,24.414,324.219
1532281473.094,37.109,37.598,31.250,23.438,88.379
1532281473.098,39.551,37.598,30.762,21.484,-295.898
1532281473.102,36.621,37.109,31.250,22.949,-110.840
1532281473.105,34.668,39.551,31.738,26.367,323.242
1532281473.109,32.227,39.062,31.250,21.484,230.469
1532281473.113,29.785,37.109,31.738,18.066,-189.941
1532281473.117,28.320,35.645,32.227,21.484,-198.730
1532281473.121,31.250,34.180,32.227,23.926,195.312
1532281473.125,29.785,34.668,32.715,23.438,316.895
1532281473.129,22.949,37.109,33.203,24.414,-85.938
1532281473.133,21.484,34.668,34.180,25.391,-265.137
1532281473.137,22.461,32.715,33.203,25.391,108.887
1532281473.141,20.508,32.227,33.203,24.902,351.074
1532281473.145,17.090,30.762,33.691,20.996,34.668
1532281473.148,14.160,29.785,32.715,19.043,-284.668
1532281473.152,18.066,30.762,33.691,25.879,-26.367
1532281473.156,19.043,31.738,33.203,23.926,309.082
1532281473.160,18.555,30.762,34.668,17.578,104.980
1532281473.164,27.344,29.785,35.645,22.949,-251.953
1532281473.168,30.762,32.227,31.738,26.367,-146.484
1532281473.172,30.273,36.621,26.855,23.438,251.465
1532281473.176,35.156,38.574,26.855,17.578,240.723
1532281473.180,31.738,38.086,28.320,12.695,-167.969
1532281473.184,28.809,37.598,29.785,12.207,-222.168
1532281473.188,27.344,37.598,33.203,12.207,168.457
1532281473.191,25.879,37.598,33.203,16.113,301.270
1532281473.195,27.344,37.109,30.762,8.789,-75.195
1532281473.199,26.367,32.715,33.203,6.836,-313.477
1532281473.203,26.855,33.691,32.715,17.578,41.504
1532281473.207,27.832,32.715,32.227,18.555,352.051
1532281473.211,22.949,29.785,34.180,19.531,65.430
1532281473.215,20.020,31.738,34.668,20.020,-260.254
1532281473.219,21.973,31.738,32.715,24.902,-64.453
1532281473.223,23.926,29.785,32.715,29.297,292.480
1532281473.227,23.438,31.738,34.180,21.484,179.688
1532281473.230,21.973,32.227,32.715,17.578,-226.074
1532281473.234,22.461,31.250,34.180,19.531,-161.621
1532281473.238,18.555,31.250,34.180,13.184,229.980
1532281473.242,17.090,29.297,34.180,7.812,259.766
1532281473.246,23.438,27.832,35.645,12.695,-107.910
1532281473.250,34.180,29.297,34.668,18.555,-220.703
1532281473.254,33.691,28.809,33.203,19.531,167.480
1532281473.258,26.855,29.785,33.691,12.207,329.590
1532281473.262,30.273,36.133,36.621,12.695,-51.758
1532281473.266,35.645,35.645,38.574,22.949,-260.742
1532281473.270,38.086,30.273,40.039,26.367,41.992
1532281473.273,31.250,28.809,40.039,24.414,333.984
1532281473.277,27.344,32.715,38.574,21.484,80.566
1532281473.281,30.762,33.203,40.039,26.367,-290.527
1532281473.285,29.785,30.273,39.062,32.715,-78.613
1532281473.289,30.762,27.832,36.621,27.832,309.570
1532281473.293,29.785,29.297,33.691,22.461,209.473
1532281473.297,22.949,29.785,32.227,13.672,-215.820
1532281473.301,20.020,25.879,33.203,10.742,-214.355
1532281473.305,21.484,26.367,36.133,22.461,228.516
1532281473.309,22.949,26.367,40.527,23.438,293.945
1532281473.313,23.438,26.855,41.504,19.531,-114.746
1532281473.316,24.414,29.297,42.969,22.949,-245.117
1532281473.320,33.203,23.926,42.480,24.902,109.375
1532281473.324,30.273,21.484,43.457,24.414,325.684
1532281473.328,20.020,25.391,47.852,20.508,-6.348
1532281473.332,18.066,25.879,49.316,23.438,-286.621
1532281473.336,17.578,24.414,52.734,23.926,8.789
1532281473.340,24.414,22.949,53.711,20.020,343.750
1532281473.344,29.297,23.926,55.664,20.996,154.785
1532281473.348,26.367,27.832,54.688,16.602,-218.750
1532281473.352,27.344,30.273,52.734,19.531,-100.098
1532281473.355,28.809,31.250,53.711,20.996,255.371
1532281473.359,27.832,33.203,52.734,19.043,187.012
1532281473.363,25.391,31.738,50.781,19.531,-185.547
1532281473.367,26.367,34.180,50.293,20.996,-198.730
1532281473.371,28.809,36.621,51.270,25.391,201.172
1532281473.375,31.738,36.621,51.758,23.438,301.270
1532281473.379,29.297,37.109,51.758,15.625,-93.750
1532281473.383,24.902,36.133,52.246,19.043,-272.461
1532281473.387,31.738,36.133,56.641,31.738,108.887
1532281473.391,31.250,35.156,54.199,33.203,380.371
1532281473.395,29.785,34.180,51.270,27.832,39.551
1532281473.398,37.109,34.180,52.734,30.762,-300.293
1532281473.402,36.621,35.645,50.781,34.180,-29.297
1532281473.406,35.156,36.133,52.246,32.715,322.754
1532281473.410,33.203,35.156,53.223,26.855,149.414
1532281473.414,34.180,34.180,51.270,23.438,-218.262
1532281473.418,33.691,33.691,52.734,23.438,-149.414
1532281473.422,27.832,34.668,54.688,23.926,250.000
1532281473.426,25.879,33.203,55.664,28.320,251.953
1532281473.430,30.762,34.668,58.105,30.273,-173.828
1532281473.434,33.691,36.133,58.105,29.785,-246.582
1532281473.437,34.668,34.180,53.711,31.250,115.723
1532281473.441,31.250,36.133,52.734,29.785,304.688
1532281473.445,21.484,35.645,52.734,25.391,-0.977
1532281473.449,21.973,31.738,51.270,27.832,-241.211
1532281473.453,29.297,32.227,52.734,36.621,67.383
1532281473.457,29.785,34.180,54.199,35.156,353.027
1532281473.461,26.367,36.133,54.688,30.273,87.402
1532281473.465,25.391,36.621,54.199,30.762,-282.227
1532281473.469,29.297,35.156,53.223,30.762,-84.961
1532281473.473,29.785,33.691,53.711,31.738,323.242
1532281473.477,28.320,32.715,53.711,25.391,175.781
1532281473.480,28.809,32.715,53.223,17.578,-234.375
1532281473.484,28.320,28.320,50.781,20.020,-183.105
1532281473.488,28.809,28.320,49.316,24.414,229.004
1532281473.492,25.879,28.809,50.293,20.508,287.598
1532281473.496,19.531,27.832,45.898,14.160,-130.859
1532281473.500,20.508,28.320,42.969,18.555,-249.023
1532281473.504,21.973,27.344,40.527,22.949,145.508
1532281473.508,19.531,27.832,41.016,22.461,331.055
1532281473.512,25.879,27.344,46.387,22.949,-19.043
1532281473.516,23.438,27.344,42.480,18.066,-295.898
1532281473.520,17.578,25.879,41.016,19.043,-8.301
1532281473.523,21.484,21.973,42.969,26.367,345.215
1532281473.527,20.020,20.508,41.016,20.508,113.770
1532281473.531,15.625,17.578,41.992,20.020,-249.512
1532281473.535,16.113,16.113,41.016,21.973,-102.051
1532281473.539,19.531,18.066,37.598,18.555,266.113
1532281473.543,21.973,19.531,38.086,19.531,201.660
1532281473.547,23.926,22.949,39.062,17.090,-198.242
1532281473.551,23.438,25.391,37.598,17.090,-206.543
1532281473.555,27.344,20.996,35.156,22.461,225.586
1532281473.559,31.738,16.602,36.621,27.344,312.012
1532281473.562,33.203,13.184,40.527,23.926,-92.285
1532281473.566,31.738,11.719,41.504,21.484,-236.816
1532281473.570,26.855,10.254,41.016,24.902,131.348
1532281473.574,24.902,9.277,42.480,23.438,354.004
1532281473.578,24.902,9.277,45.410,16.602,15.137
1532281473.582,30.273,7.812,44.922,15.625,-290.039
1532281473.586,25.391,4.395,43.945,21.973,-35.156
1532281473.590,21.484,4.883,41.992,24.414,338.867
1532281473.594,24.414,5.859,40.039,25.391,139.160
1532281473.598,22.949,6.836,40.527,23.926,-250.000
1532281473.602,25.879,4.883,39.551,29.297,-109.863
1532281473.605,28.320,2.441,42.969,39.551,288.086
1532281473.609,33.691,5.859,44.434,41.016,259.277
1532281473.613,37.109,8.301,42.969,34.180,-146.484
1532281473.617,29.785,7.324,41.016,27.832,-245.605
1532281473.621,25.391,5.371,42.480,28.809,130.371
1532281473.625,24.902,4.883,44.922,28.320,331.543
1532281473.629,21.973,6.348,44.922,22.949,-29.785
1532281473.633,21.484,7.812,43.945,22.949,-259.766
1532281473.637,19.531,7.812,41.992,22.949,78.125
1532281473.641,19.043,12.207,41.504,20.996,361.816
1532281473.645,22.949,13.672,42.480,20.020,53.711
1532281473.648,23.438,10.254,39.062,15.137,-282.715
1532281473.652,20.996,11.230,35.645,20.020,-48.828
1532281473.656,21.973,11.230,35.645,20.996,320.312
1532281473.660,21.484,13.672,36.133,14.648,153.320
1532281473.664,20.020,15.625,34.180,19.531,-240.723
1532281473.668,22.949,15.625,33.691,27.832,-163.086
1532281473.672,26.367,18.555,33.691,30.762,246.582
1532281473.676,26.855,21.973,32.227,27.832,271.484
1532281473.680,22.461,22.949,32.715,24.902,-137.695
1532281473.684,20.996,23.438,32.227,24.902,-234.863
1532281473.687,24.902,26.855,31.738,27.832,155.762
1532281473.691,22.949,27.344,31.738,26.855,322.266
1532281473.695,20.996,27.344,31.250,24.414,-43.457
1532281473.699,24.414,28.809,35.645,25.879,-266.113
1532281473.703,30.762,26.367,38.086,28.320,39.551
1532281473.707,28.809,29.785,32.715,25.879,333.008
1532281473.711,23.438,33.691,30.762,20.996,70.801
1532281473.715,22.461,33.691,33.203,18.555,-278.320
1532281473.719,24.902,34.180,33.203,15.625,-91.309
1532281473.723,22.949,33.691,32.227,15.137,302.734
1532281473.727,20.508,33.203,32.715,14.648,214.355
1532281473.730,23.926,36.621,34.180,13.184,-225.098
1532281473.734,33.691,36.133,33.203,15.137,-203.613
1532281473.738,41.504,36.133,33.203,21.484,229.492
1532281473.742,38.574,38.574,30.762,18.555,294.922
1532281473.746,39.551,39.062,31.250,16.602,-117.676
1532281473.750,40.039,40.039,33.691,23.438,-268.555
1532281473.754,35.645,40.527,33.691,31.250,112.305
1532281473.758,33.691,41.992,36.133,30.273,347.656
1532281473.762,29.785,43.457,37.598,30.762,17.090
1532281473.766,27.344,42.969,38.574,35.156,-258.301
1532281473.769,24.414,41.016,35.156,38.086,39.062
1532281473.773,20.020,41.016,32.715,36.133,350.586
1532281473.777,17.090,40.039,37.109,27.832,137.695
1532281473.781,17.578,38.574,40.039,28.320,-230.957
1532281473.785,24.414,40.527,39.062,32.715,-104.980
1532281473.789,30.273,42.480,38.574,29.297,318.359
1532281473.793,29.297,41.016,38.086,25.879,269.531
1532281473.797,24.414,41.504,38.086,15.625,-189.941
1532281473.801,26.367,42.480,37.109,13.672,-225.586
1532281473.805,28.320,39.551,34.668,25.391,213.379
1532281473.809,20.996,39.062,35.156,23.438,310.059
1532281473.812,20.508,39.551,33.691,20.020,-66.406
1532281473.816,25.391,39.551,32.227,20.996,-244.141
1532281473.820,27.832,41.016,31.738,22.461,90.820
1532281473.824,23.438,40.527,32.227,21.484,354.980
1532281473.828,23.926,41.504,34.668,19.531,27.832
1532281473.832,27.344,44.434,35.156,21.973,-306.641
1532281473.836,24.902,42.969,34.180,22.949,-48.828
1532281473.840,25.879,42.480,35.156,22.461,300.781
1532281473.844,26.367,39.551,37.598,21.484,143.066
1532281473.848,23.438,41.016,35.645,19.531,-249.512
1532281473.852,23.926,43.457,33.203,25.391,-170.898
1532281473.855,25.879,42.480,34.180,27.344,252.930
1532281473.859,19.531,41.504,36.133,21.484,244.141
1532281473.863,14.160,40.039,37.598,20.020,-164.551
1532281473.867,20.020,36.621,37.109,26.367,-263.184
1532281473.871,31.250,37.598,35.156,34.668,153.320
1532281473.875,36.621,40.039,35.156,35.156,319.336
1532281473.879,35.156,41.992,35.156,31.250,-60.547
1532281473.883,31.738,41.992,32.715,27.832,-271.484
1532281473.887,31.738,39.551,32.715,26.855,53.223
1532281473.891,31.738,40.039,31.250,25.391,359.375
1532281473.894,26.855,42.969,26.855,22.461,101.074
1532281473.898,24.902,41.992,26.855,16.113,-286.621
1532281473.902,23.438,40.039,26.367,15.625,-100.098
1532281473.906,21.484,38.086,25.879,21.973,317.383
1532281473.910,17.578,36.133,28.320,17.090,212.402
1532281473.914,13.184,35.156,29.785,14.648,-222.168
1532281473.918,20.020,32.227,31.738,22.949,-191.406
1532281473.922,29.297,28.320,32.227,32.227,249.512
1532281473.926,27.344,29.785,31.738,33.691,290.039
1532281473.930,25.879,34.668,31.738,31.738,-163.574
1532281473.934,34.180,36.621,32.227,34.668,-279.785
1532281473.937,37.109,33.691,32.715,33.203,118.652
1532281473.941,35.156,29.297,32.227,31.250,287.598
1532281473.945,38.574,28.809,32.715,33.203,-32.227
1532281473.949,39.062,30.762,32.715,30.273,-277.344
1532281473.953,33.203,29.297,29.785,31.738,24.414
1532281473.957,30.762,30.273,29.785,30.273,337.402
1532281473.961,29.297,35.156,28.809,24.414,93.750
1532281473.965,25.879,34.180,27.344,19.043,-285.645
1532281473.969,28.809,33.203,28.809,22.461,-132.324
1532281473.973,33.691,33.691,28.809,26.367,271.484
1532281473.977,36.621,32.715,27.832,28.809,194.824
1532281473.980,38.574,33.203,28.809,29.785,-208.008
1532281473.984,32.227,30.273,29.297,28.320,-206.543
1532281473.988,24.414,29.297,28.320,30.762,207.031
1532281473.992,24.414,29.297,29.785,30.762,304.688
1532281473.996,29.297,30.273,29.785,28.809,-120.605
1532281474.000,35.156,30.762,30.273,30.273,-305.664
1532281474.004,35.156,27.832,33.203,34.180,96.191
1532281474.008,36.621,28.320,33.203,33.691,315.430
1532281474.012,33.203,26.367,33.203,27.344,-6.836
1532281474.016,30.762,23.926,31.738,27.344,-297.852
1532281474.019,38.574,25.391,27.344,32.715,-28.809
1532281474.023,41.992,26.855,28.320,31.250,326.660
1532281474.027,32.715,26.855,28.320,25.879,120.117
1532281474.031,22.461,23.926,29.785,24.902,-267.578
1532281474.035,27.344,25.879,32.227,29.297,-161.133
1532281474.039,34.180,29.785,31.250,30.273,232.910
1532281474.043,29.785,28.809,32.715,27.344,195.312
1532281474.047,29.297,27.832,36.621,28.809,-205.078
1532281474.051,32.227,25.879,37.109,30.762,-225.586
1532281474.055,28.320,29.785,35.645,30.273,197.266
1532281474.059,27.344,34.180,37.109,28.809,315.430
1532281474.062,26.855,33.203,39.551,26.855,-47.852
1532281474.066,24.902,31.738,41.992,28.320,-269.531
1532281474.070,23.438,31.250,42.969,29.785,50.293
1532281474.074,22.949,29.785,41.016,27.832,339.355
1532281474.078,21.484,28.320,41.016,24.414,18.066
1532281474.082,21.973,29.297,44.434,24.902,-300.293
1532281474.086,23.926,29.785,44.922,29.785,-27.344
1532281474.090,25.391,29.785,46.387,27.832,340.332
1532281474.094,25.391,30.273,47.363,24.902,190.430
1532281474.098,27.344,33.203,48.828,22.949,-249.023
1532281474.101,33.691,35.645,47.852,26.367,-185.547
1532281474.105,35.156,33.691,45.898,39.062,256.348
1532281474.109,33.203,34.668,46.387,39.551,266.113
1532281474.113,31.250,35.156,48.340,34.668,-159.180
1532281474.117,30.762,32.715,47.363,35.156,-267.578
1532281474.121,32.715,31.250,46.387,33.691,122.559
1532281474.125,38.086,30.273,45.898,32.715,293.457
1532281474.129,40.039,31.250,41.992,29.785,-46.387
1532281474.133,34.668,29.785,42.480,26.855,-261.230
1532281474.137,29.785,27.344,46.387,26.367,6.836
1532281474.141,30.273,26.855,48.340,23.926,296.387
1532281474.144,27.832,23.926,49.316,23.926,93.262
1532281474.148,26.855,22.949,47.852,23.926,-265.137
1532281474.152,30.762,21.484,45.410,25.391,-72.754
1532281474.156,28.809,20.020,46.875,25.879,325.684
1532281474.160,25.879,23.926,49.316,24.414,219.238
1532281474.164,23.926,24.414,47.363,20.996,-190.430
1532281474.168,27.832,22.949,45.898,25.391,-182.129
1532281474.172,31.250,22.949,47.852,34.180,235.352
1532281474.176,27.344,21.973,49.805,30.273,280.273
1532281474.180,30.273,24.414,51.270,26.855,-154.297
1532281474.184,36.621,26.367,51.270,35.645,-244.141
1532281474.187,35.156,25.879,49.805,41.016,141.602
1532281474.191,32.227,25.879,49.316,37.109,318.848
1532281474.195,31.738,24.414,54.199,33.691,-14.648
1532281474.199,33.203,24.902,55.176,37.109,-295.410
1532281474.203,32.227,25.391,50.781,40.039,-9.277
1532281474.207,30.273,24.902,48.828,37.109,345.215
1532281474.211,26.367,26.855,51.758,30.273,112.793
1532281474.215,23.926,26.855,51.270,24.902,-282.227
1532281474.219,25.879,30.273,47.363,24.414,-153.320
1532281474.223,30.762,29.785,47.363,31.250,259.766
1532281474.226,30.273,27.832,46.875,27.832,238.770
1532281474.230,27.832,28.809,43.457,23.926,-155.273
1532281474.234,25.879,26.855,41.992,28.320,-208.496
1532281474.238,23.438,26.855,41.992,30.762,168.945
1532281474.242,27.344,29.297,41.992,30.273,287.109
1532281474.246,28.809,29.297,42.480,23.926,-89.844
1532281474.250,30.273,27.832,39.551,24.902,-256.348
1532281474.254,28.809,27.832,36.621,29.785,99.121
1532281474.258,22.949,28.809,40.039,25.391,334.961
1532281474.262,20.020,28.809,41.016,21.484,23.438
1532281474.266,20.020,27.832,39.551,21.973,-297.363
1532281474.269,26.367,26.367,40.039,27.344,-50.293
1532281474.273,28.809,25.879,38.574,32.227,334.473
1532281474.277,25.391,28.809,37.598,21.484,106.934
1532281474.281,23.438,27.344,39.551,17.578,-280.273
1532281474.285,26.855,27.344,38.574,29.297,-125.977
1532281474.289,32.715,30.762,35.156,33.691,282.715
1532281474.293,32.227,33.691,34.668,29.785,259.277
1532281474.297,30.762,33.203,34.180,24.902,-158.203
1532281474.301,30.273,31.250,33.691,24.414,-220.703
1532281474.305,30.273,29.785,32.715,23.926,173.340
1532281474.309,28.320,28.320,34.180,20.508,328.125
1532281474.312,26.855,28.320,35.645,21.973,-39.551
1532281474.316,27.832,28.320,36.621,21.484,-289.551
1532281474.320,26.367,27.832,37.109,22.949,21.973
1532281474.324,27.344,26.855,35.156,25.391,324.219
1532281474.328,31.250,27.832,36.133,23.926,53.223
1532281474.332,29.297,30.762,34.180,22.949,-278.809
1532281474.336,32.227,31.738,36.133,26.367,-81.543
1532281474.340,36.133,30.273,37.598,28.320,320.312
1532281474.344,30.762,31.250,35.645,24.902,194.336
1532281474.348,28.320,28.809,36.621,22.949,-225.586
1532281474.351,31.738,27.344,35.156,29.297,-175.293
1532281474.355,35.645,29.297,33.691,33.691,232.910
1532281474.359,35.645,28.320,33.203,29.297,276.367
1532281474.363,30.273,28.809,32.227,23.438,-131.348
1532281474.367,27.832,31.738,31.738,25.879,-222.168
1532281474.371,28.320,32.227,35.645,31.250,176.270
1532281474.375,28.809,30.762,40.527,29.785,337.891
1532281474.379,27.832,32.715,39.551,22.461,-28.809
1532281474.383,27.344,33.691,40.039,26.367,-287.109
1532281474.387,26.367,29.785,41.992,35.156,4.883
1532281474.391,26.855,27.344,40.527,33.203,337.891
1532281474.394,22.461,25.879,39.551,24.902,108.887
1532281474.398,19.043,24.902,40.527,20.996,-275.391
1532281474.402,23.438,26.367,36.133,24.902,-96.680
1532281474.406,27.344,24.902,32.715,24.902,312.988
1532281474.410,24.902,24.414,36.621,23.438,238.770
1532281474.414,21.973,29.297,35.645,26.855,-200.684
1532281474.418,26.855,30.762,33.691,25.391,-238.281
1532281474.422,29.785,30.762,33.691,24.414,167.969
1532281474.426,24.414,32.227,33.203,25.879,264.160
1532281474.430,22.949,31.250,32.227,24.902,-95.215
1532281474.433,25.391,31.250,30.762,24.414,-239.746
1532281474.437,26.855,30.762,29.297,26.367,116.211
1532281474.441,34.180,31.738,28.809,28.320,354.492
1532281474.445,34.668,32.715,29.785,26.855,26.367
1532281474.449,28.320,29.297,31.738,28.809,-272.461
1532281474.453,32.227,29.297,34.180,36.133,-10.254
1532281474.457,35.645,29.785,34.180,36.621,311.035
1532281474.461,36.133,29.297,32.715,32.715,118.164
1532281474.465,38.086,29.785,31.250,32.715,-255.859
1532281474.469,41.504,31.738,30.273,37.109,-107.422
1532281474.473,41.504,34.668,29.297,37.109,303.223
1532281474.476,34.180,35.156,28.809,26.855,233.398
1532281474.480,31.250,35.156,29.297,22.949,-178.223
1532281474.484,34.180,35.645,28.809,26.855,-213.379
1532281474.488,37.109,39.062,27.344,27.344,192.871
1532281474.492,38.086,42.480,26.367,23.438,327.637
1532281474.496,36.133,40.039,26.855,13.672,-71.777
1532281474.500,40.039,37.109,28.320,12.695,-264.160
1532281474.504,39.551,36.133,28.809,19.043,120.605
1532281474.508,33.203,37.109,29.297,18.066,372.559
1532281474.512,33.691,39.062,26.855,19.531,64.453
1532281474.516,34.668,39.062,25.879,25.879,-265.137
1532281474.519,27.832,37.109,31.250,32.227,-18.555
1532281474.523,22.461,33.203,34.180,35.156,365.234
1532281474.527,21.973,34.180,34.180,30.762,201.172
1532281474.531,22.949,38.086,35.156,31.738,-235.840
1532281474.535,23.438,36.621,36.133,32.715,-172.852
1532281474.539,20.020,33.691,37.109,30.273,247.070
1532281474.543,25.391,33.691,38.086,32.715,259.766
1532281474.547,35.645,34.180,39.551,36.621,-156.738
1532281474.551,39.062,38.574,37.598,38.574,-235.352
1532281474.555,40.039,41.016,36.133,37.109,144.531
1532281474.558,39.551,39.551,34.668,31.250,287.598
1532281474.562,40.527,39.062,34.180,33.691,-56.152
1532281474.566,44.434,41.504,34.180,36.621,-281.250
1532281474.570,44.434,38.574,34.180,40.039,44.434
1532281474.574,37.598,34.180,35.645,39.062,339.355
1532281474.578,34.180,33.691,36.621,32.227,70.801
1532281474.582,39.551,30.762,39.551,33.691,-261.230
1532281474.586,42.480,29.785,39.062,38.574,-88.867
1532281474.590,42.969,30.762,39.551,40.039,293.945
1532281474.594,44.434,32.227,40.527,36.621,215.820
1532281474.598,41.016,35.156,37.598,29.785,-234.375
1532281474.601,39.062,35.645,34.180,33.203,-214.844
1532281474.605,42.480,35.645,32.227,42.969,257.812
1532281474.609,42.480,36.133,34.180,40.527,307.129
1532281474.613,41.992,33.203,37.109,37.109,-113.281
1532281474.617,43.457,33.691,36.621,38.574,-263.184
1532281474.621,45.898,35.156,33.691,44.922,110.352
1532281474.625,45.898,37.598,32.715,47.363,333.984
1532281474.629,36.621,36.621,34.180,41.992,7.812
1532281474.633,37.109,33.691,37.598,38.574,-279.785
1532281474.637,41.992,35.645,36.133,38.086,4.883
1532281474.641,42.480,38.574,35.156,37.598,334.961
1532281474.644,47.363,38.574,34.180,37.109,92.285
1532281474.648,47.363,38.574,32.227,39.551,-269.043
1532281474.652,47.363,39.062,32.227,48.828,-110.352
1532281474.656,49.316,38.574,33.203,49.805,286.133
1532281474.660,48.340,39.062,37.109,44.434,204.590
1532281474.664,50.781,40.527,38.574,48.340,-190.918
1532281474.668,56.152,42.480,36.133,50.781,-199.219
1532281474.672,54.688,42.969,38.086,52.734,197.754
1532281474.676,47.852,41.992,41.504,47.852,300.781
1532281474.680,49.316,43.457,41.016,41.016,-91.309
1532281474.683,47.852,45.898,39.551,42.969,-271.973
1532281474.687,48.828,45.898,42.480,45.898,66.406
1532281474.691,49.805,43.945,43.945,44.434,318.848
1532281474.695,45.410,43.945,42.480,38.574,29.297
1532281474.699,41.992,41.504,42.969,34.180,-296.875
1532281474.703,41.992,38.086,42.969,39.062,-16.602
1532281474.707,40.527,37.109,42.969,41.504,325.684
1532281474.711,40.527,36.621,45.898,39.062,119.141
1532281474.715,45.410,38.086,47.363,36.621,-267.090
1532281474.719,46.875,37.598,44.922,37.109,-158.691
1532281474.723,42.969,36.133,44.922,40.527,273.438
1532281474.726,38.574,38.574,46.387,37.598,225.098
1532281474.730,39.062,40.527,44.434,31.738,-221.191
1532281474.734,39.062,37.109,41.504,30.762,-254.395
1532281474.738,39.551,35.645,41.992,32.227,144.531
1532281474.742,41.016,35.156,44.922,30.762,300.781
1532281474.746,38.086,33.203,45.410,30.273,-43.945
1532281474.750,36.133,33.691,44.434,29.297,-257.812
1532281474.754,39.062,35.156,42.480,34.668,87.402
1532281474.758,40.039,33.203,43.945,34.180,349.121
1532281474.762,32.715,31.738,48.340,25.391,78.125
1532281474.765,27.832,34.668,45.898,22.949,-250.977
1532281474.769,33.203,34.668,42.480,25.879,-55.664
1532281474.773,36.621,35.645,42.969,27.344,322.754
1532281474.777,34.180,39.551,42.480,21.484,161.133
1532281474.781,29.297,36.621,41.504,18.066,-252.441
1532281474.785,24.414,31.250,40.039,22.949,-185.059
1532281474.789,23.926,32.227,39.551,23.926,260.254
1532281474.793,25.879,34.180,41.504,23.926,294.922
1532281474.797,26.367,33.691,42.969,24.902,-142.090
1532281474.801,29.297,30.762,42.969,25.391,-219.727
1532281474.805,29.785,31.250,43.457,30.762,168.945
1532281474.808,22.949,34.180,42.969,25.879,338.867
1532281474.812,21.973,37.598,41.016,18.555,-13.184
1532281474.816,23.438,39.551,39.551,21.973,-267.090
1532281474.820,23.926,37.598,38.574,25.391,39.062
1532281474.824,27.832,36.621,39.551,23.926,350.098
1532281474.828,24.414,36.621,39.551,19.531,112.305
1532281474.832,21.484,34.180,39.062,19.531,-261.719
1532281474.836,23.438,34.180,39.551,23.926,-99.609
1532281474.840,24.414,34.668,37.598,20.996,286.621
1532281474.844,25.879,36.133,37.109,19.043,200.684
1532281474.848,26.855,35.156,36.621,21.484,-183.105
1532281474.851,24.414,32.715,37.598,23.438,-177.246
1532281474.855,23.926,34.668,40.039,24.902,216.797
1532281474.859,22.461,37.109,40.039,25.391,290.527
1532281474.863,22.461,35.156,40.527,24.902,-84.961
1532281474.867,25.391,36.133,38.086,24.414,-247.070
1532281474.871,24.414,38.574,31.738,28.320,120.605
1532281474.875,25.879,38.574,36.133,27.832,337.891
1532281474.879,26.855,38.574,41.016,20.020,-6.348
1532281474.883,23.926,37.598,38.086,19.531,-260.254
1532281474.887,23.926,36.621,36.133,26.855,-17.578
1532281474.890,22.949,37.598,39.062,29.297,307.617
1532281474.894,25.879,39.062,41.016,26.367,122.070
1532281474.898,32.227,39.551,40.527,23.926,-277.344
1532281474.902,30.273,35.645,39.062,22.949,-138.672
1532281474.906,27.832,36.621,39.551,24.414,275.391
1532281474.910,29.785,41.504,38.086,21.484,236.816
1532281474.914,28.320,41.992,35.645,18.066,-167.969
1532281474.918,27.832,40.527,37.109,20.020,-213.379
1532281474.922,31.250,36.621,37.109,23.438,194.824
1532281474.926,28.320,32.715,36.133,20.508,296.387
1532281474.930,23.926,34.180,37.598,18.066,-76.660
1532281474.933,27.344,37.109,34.668,17.578,-276.367
1532281474.937,25.391,35.645,33.203,13.672,45.410
1532281474.941,23.438,34.668,35.645,12.207,317.871
1532281474.945,20.508,35.645,36.133,14.648,46.875
1532281474.949,18.555,35.156,39.062,14.648,-252.930
1532281474.953,24.414,34.180,39.551,19.043,-28.320
1532281474.957,30.762,33.203,38.086,21.973,326.660
1532281474.961,30.273,33.691,36.621,20.508,172.852
1532281474.965,25.391,34.668,36.133,18.555,-219.727
1532281474.969,21.973,33.203,37.109,19.043,-142.578
1532281474.973,23.438,32.715,37.109,24.902,282.227
1532281474.976,26.367,36.621,38.086,20.508,244.141
1532281474.980,29.785,38.086,41.016,17.578,-183.594
1532281474.984,27.344,33.203,40.039,24.902,-237.793
1532281474.988,26.367,31.250,37.598,26.855,169.434
1532281474.992,27.344,33.691,39.551,26.855,331.055
1532281474.996,23.438,34.180,38.086,23.438,-44.922
1532281475.000,23.438,32.227,39.062,24.902,-267.090
1532281475.004,25.879,31.738,39.062,28.809,53.223
1532281475.008,26.367,30.762,38.086,25.879,343.262
1532281475.012,26.367,31.250,39.062,26.367,81.055
1532281475.015,23.438,33.203,39.551,23.926,-270.508
1532281475.019,21.484,33.203,37.598,18.066,-103.027
1532281475.023,23.438,31.738,35.156,22.949,291.504
1532281475.027,29.297,34.668,38.086,30.273,197.754
1532281475.031,34.668,37.109,41.016,31.738,-203.125
1532281475.035,30.762,34.668,40.039,32.227,-184.082
1532281475.039,27.832,32.227,41.504,36.621,240.723
1532281475.043,30.273,29.785,43.457,38.086,306.152
1532281475.047,33.203,28.809,42.480,29.785,-117.188
1532281475.051,32.715,29.785,39.062,26.367,-255.859
1532281475.055,34.668,30.273,39.062,32.227,130.859
1532281475.058,35.156,31.250,41.504,32.715,348.633
1532281475.062,30.762,28.320,40.527,27.832,-13.184
1532281475.066,27.344,26.855,39.551,24.414,-278.809
1532281475.070,30.762,25.879,39.551,28.320,13.672
1532281475.074,30.762,26.855,41.016,30.762,324.219
1532281475.078,26.855,28.320,42.480,24.414,85.449
1532281475.082,30.762,27.832,43.457,24.414,-269.531
1532281475.086,34.180,26.367,42.480,33.203,-100.586
1532281475.090,34.668,23.926,42.969,37.109,310.059
1532281475.094,34.180,24.414,42.969,34.668,236.816
1532281475.097,34.668,22.949,41.016,31.250,-206.055
1532281475.101,34.180,24.414,41.016,33.691,-201.660
1532281475.105,38.574,25.391,42.480,37.598,215.332
1532281475.109,37.598,24.414,39.551,32.715,301.270
1532281475.113,33.691,22.461,38.086,29.297,-95.215
1532281475.117,37.598,21.973,39.062,25.879,-292.969
1532281475.121,40.527,25.879,33.691,24.902,49.805
1532281475.125,38.086,25.879,29.785,32.227,335.449
1532281475.129,36.621,24.902,31.250,29.785,32.715
1532281475.133,37.109,26.367,31.250,30.273,-297.363
1532281475.137,41.016,27.344,29.785,34.180,-31.738
1532281475.140,41.016,27.344,30.762,34.668,328.613
1532281475.144,40.527,27.832,30.762,34.180,133.301
1532281475.148,44.434,27.344,29.297,33.203,-245.117
1532281475.152,48.828,26.367,29.297,38.574,-124.023
1532281475.156,50.781,27.832,32.227,40.039,255.859
1532281475.160,41.992,27.832,33.691,30.273,226.562
1532281475.164,34.668,27.344,32.227,26.855,-144.043
1532281475.168,38.086,27.344,34.180,30.762,-209.961
1532281475.172,37.109,27.344,35.156,33.203,195.801
1532281475.176,38.574,29.297,34.668,28.809,329.102
1532281475.180,38.086,28.809,35.156,24.902,-71.777
1532281475.183,33.691,28.320,37.598,28.320,-296.387
1532281475.187,38.574,30.762,38.574,34.180,28.809
1532281475.191,39.551,28.809,37.598,32.715,340.332
1532281475.195,39.551,26.367,36.621,28.809,74.219
1532281475.199,41.016,28.809,38.574,28.809,-291.504
1532281475.203,41.016,31.738,38.086,33.691,-67.871
1532281475.207,41.016,28.809,34.668,34.668,320.312
1532281475.211,40.527,27.832,36.133,32.227,190.918
1532281475.215,38.086,27.832,36.621,30.273,-203.613
1532281475.219,39.551,29.297,37.598,33.203,-154.785
1532281475.222,39.551,32.227,40.039,41.504,287.598
1532281475.226,35.156,31.250,38.086,37.109,300.293
1532281475.230,35.156,29.297,36.133,30.273,-131.836
1532281475.234,41.992,31.250,37.109,37.109,-228.027
1532281475.238,43.457,34.180,38.574,41.016,144.043
1532281475.242,43.457,34.180,38.086,37.109,331.055
1532281475.246,42.969,31.250,38.086,30.762,-35.156
1532281475.250,38.574,31.738,39.551,26.855,-286.621
1532281475.254,42.969,34.668,41.016,30.762,41.992
1532281475.258,45.898,35.645,40.527,25.391,344.727
1532281475.262,41.016,36.133,40.527,20.020,98.145
1532281475.265,41.992,36.133,41.016,17.578,-267.090
1532281475.269,46.387,33.691,40.039,22.949,-97.168
1532281475.273,44.434,31.738,38.574,34.180,310.547
1532281475.277,44.434,32.715,41.504,36.621,221.191
1532281475.281,42.969,32.715,44.922,41.016,-201.660
1532281475.285,39.551,33.203,43.457,45.410,-179.688
1532281475.289,33.203,32.227,42.480,41.504,249.023
1532281475.293,29.297,33.691,41.992,36.133,299.316
1532281475.297,32.227,39.062,43.457,30.273,-109.375
1532281475.301,32.715,38.574,41.504,27.344,-246.094
1532281475.305,35.645,38.086,41.016,35.156,133.789
1532281475.308,31.250,38.086,39.551,33.691,335.938
1532281475.312,33.203,39.062,38.574,28.320,-8.789
1532281475.316,35.645,37.109,40.527,26.367,-304.199
1532281475.320,28.320,32.227,38.086,22.461,-34.180
1532281475.324,30.762,32.227,38.574,31.250,335.938
1532281475.328,38.086,34.668,40.527,37.598,131.836
1532281475.332,41.992,39.551,39.062,35.645,-262.695
1532281475.336,38.574,41.016,38.574,33.203,-132.812
1532281475.340,31.250,36.133,41.992,34.180,263.672
1532281475.344,26.855,37.109,42.969,31.250,223.633
1532281475.347,26.367,40.527,36.133,21.973,-197.266
1532281475.351,25.879,40.039,33.203,19.043,-247.559
1532281475.355,24.414,39.551,35.156,22.949,171.387
1532281475.359,27.832,40.039,36.621,23.438,285.156
1532281475.363,34.180,39.551,39.062,24.414,-77.637
1532281475.367,36.133,41.016,39.551,26.367,-250.488
1532281475.371,33.203,41.016,39.551,27.832,105.957
1532281475.375,29.297,42.969,39.551,27.344,344.238
1532281475.379,27.344,47.363,37.109,22.949,44.922
1532281475.383,27.832,45.898,36.621,18.555,-265.137
1532281475.387,27.832,43.457,37.598,23.926,-49.316
1532281475.390,26.367,41.992,38.086,28.320,331.055
1532281475.394,27.832,41.016,37.109,25.391,169.922
1532281475.398,32.227,45.898,35.645,15.625,-266.602
1532281475.402,34.180,48.340,38.574,13.672,-185.547
1532281475.406,33.203,43.945,37.109,22.461,258.789
1532281475.410,31.250,41.992,36.133,22.949,265.137
1532281475.414,29.297,44.922,40.527,21.484,-129.883
1532281475.418,33.203,47.852,40.039,22.461,-224.121
1532281475.422,35.645,42.969,36.133,22.461,166.504
1532281475.426,32.227,39.551,39.062,21.484,323.730
1532281475.429,34.668,41.016,41.992,24.414,-54.199
1532281475.433,39.551,44.922,41.016,28.320,-291.016
1532281475.437,43.457,50.293,38.574,24.414,16.113
1532281475.441,41.504,51.270,38.086,22.949,304.199
1532281475.445,34.668,47.363,40.527,29.297,71.289
1532281475.449,31.738,43.945,41.504,28.320,-258.789
1532281475.453,26.855,41.504,38.574,29.785,-39.551
1532281475.457,24.414,40.039,39.062,31.738,341.797
1532281475.461,25.879,40.039,40.039,27.832,177.734
1532281475.465,27.832,39.062,40.039,25.391,-213.379
1532281475.469,30.273,36.621,39.062,26.855,-135.254
1532281475.472,33.691,35.645,38.086,29.297,244.141
1532281475.476,37.109,36.621,39.551,27.832,264.160
1532281475.480,39.551,37.598,39.551,26.855,-112.793
1532281475.484,44.922,39.551,37.109,29.297,-246.582
1532281475.488,43.457,39.062,35.645,30.762,102.539
1532281475.492,38.574,35.645,38.086,30.762,317.871
1532281475.496,41.504,37.109,38.086,25.391,-27.344
1532281475.500,40.039,39.062,37.109,18.066,-319.336
1532281475.504,40.039,40.039,38.086,27.344,5.371
1532281475.508,40.039,38.574,38.574,36.133,342.285
1532281475.512,36.133,38.574,39.062,29.297,106.445
1532281475.515,36.133,40.039,41.016,24.902,-257.812
1532281475.519,35.156,39.062,40.527,30.273,-108.398
1532281475.523,34.668,40.527,39.062,32.227,291.016
1532281475.527,30.273,38.574,41.016,27.344,221.680
1532281475.531,27.832,34.668,40.527,23.438,-167.480
1532281475.535,35.156,35.156,39.551,27.832,-167.969
1532281475.539,31.738,32.715,39.551,27.344,188.477
1532281475.543,24.902,31.738,40.527,24.902,274.414
1532281475.547,23.926,31.738,41.504,28.320,-71.289
1532281475.551,26.367,30.273,42.969,33.203,-251.465
1532281475.554,30.762,33.203,41.504,37.109,88.867
1532281475.558,32.227,35.156,40.039,34.668,341.797
1532281475.562,30.762,35.645,40.039,31.250,24.902
1532281475.566,32.227,36.621,39.551,28.320,-258.301
1532281475.570,37.598,36.621,39.551,30.762,2.930
1532281475.574,33.203,32.715,39.551,30.762,332.520
1532281475.578,24.414,29.297,41.504,17.578,134.766
1532281475.582,19.043,30.762,41.504,14.648,-261.719
1532281475.586,22.949,31.738,41.016,25.391,-159.180
1532281475.590,32.715,33.203,41.504,30.273,280.273
1532281475.594,33.203,35.645,41.992,31.738,257.812
1532281475.597,25.879,33.691,41.992,28.320,-172.852
1532281475.601,25.879,30.762,41.504,26.855,-211.914
1532281475.605,28.320,28.809,41.016,32.715,179.199
1532281475.609,27.344,29.297,41.504,33.691,308.105
1532281475.613,27.832,30.273,40.039,30.762,-60.547
1532281475.617,26.367,30.762,37.598,29.297,-270.020
1532281475.621,25.879,29.785,38.086,33.203,67.871
1532281475.625,27.832,28.809,38.086,32.715,350.586
1532281475.629,26.855,27.832,36.133,30.273,67.871
1532281475.633,30.762,27.344,36.621,30.762,-265.625
1532281475.637,36.621,28.320,37.109,28.809,-83.008
1532281475.640,36.621,25.391,38.574,28.320,276.367
1532281475.644,35.645,24.902,38.086,30.273,181.152
1532281475.648,37.598,27.832,37.109,31.738,-178.223
1532281475.652,41.504,30.762,37.109,33.691,-108.887
1532281475.656,43.945,32.715,35.156,29.785,285.156
1532281475.660,41.016,30.762,32.227,24.414,283.691
1532281475.664,38.086,28.809,33.203,22.461,-125.488
1532281475.668,38.086,28.809,34.180,22.461,-235.840
1532281475.672,35.645,28.320,33.691,23.438,154.297
1532281475.676,35.156,25.391,36.621,25.391,317.383
1532281475.679,35.645,23.438,35.156,21.973,-63.477
1532281475.683,38.086,24.414,32.227,24.414,-276.855
1532281475.687,37.598,22.949,32.227,30.762,53.223
1532281475.691,35.645,21.973,33.203,29.785,354.980
1532281475.695,31.250,24.414,32.227,26.855,88.379
1532281475.699,28.809,25.391,31.250,25.879,-285.645
1532281475.703,33.203,24.414,30.273,31.250,-89.844
1532281475.707,36.133,25.391,29.297,34.180,290.527
1532281475.711,38.574,25.879,29.297,33.203,193.848
1532281475.715,40.527,24.902,29.297,35.645,-227.051
1532281475.719,46.387,26.367,31.250,36.133,-251.465
1532281475.722,46.387,25.391,31.738,35.645,195.801
1532281475.726,41.992,24.902,32.227,37.598,267.090
1532281475.730,43.945,24.902,32.715,35.645,-125.488
1532281475.734,42.969,21.484,31.738,35.645,-257.324
1532281475.738,35.156,22.949,31.250,37.598,92.773
1532281475.742,31.250,25.879,31.738,35.156,299.805
1532281475.746,31.250,24.902,32.227,33.691,-39.062
1532281475.750,31.738,28.320,31.738,34.180,-270.508
1532281475.754,34.180,31.250,30.762,33.691,13.672
1532281475.758,34.180,26.855,28.809,29.297,313.965
1532281475.761,31.738,25.879,32.715,26.367,104.492
1532281475.765,31.250,24.902,33.203,24.414,-259.277
1532281475.769,30.273,24.902,32.227,27.344,-122.559
1532281475.773,31.250,26.855,33.691,32.227,279.785
1532281475.777,35.156,27.344,32.227,25.391,223.145
1532281475.781,39.551,28.809,30.273,20.508,-208.008
1532281475.785,38.574,27.344,31.250,27.832,-213.867
1532281475.789,33.691,25.879,31.250,30.273,200.684
1532281475.793,28.809,24.414,32.227,27.344,305.176
1532281475.797,25.879,25.879,32.715,24.414,-82.031
1532281475.801,31.738,26.855,30.762,25.391,-268.066
1532281475.804,31.738,23.438,30.762,26.855,84.961
1532281475.808,26.855,24.414,33.203,27.832,328.613
1532281475.812,31.738,27.832,35.645,31.250,32.715
1532281475.816,37.109,27.832,36.621,32.715,-296.387
1532281475.820,43.457,27.344,37.109,36.133,-41.992
1532281475.824,42.969,26.855,34.180,40.527,353.516
1532281475.828,43.945,27.832,32.227,38.086,176.270
1532281475.832,50.293,30.762,33.203,36.621,-231.445
1532281475.836,44.434,32.227,29.785,35.645,-153.320
1532281475.840,39.551,32.715,26.367,32.715,271.973
1532281475.844,36.133,34.180,26.855,28.809,282.715
1532281475.847,32.227,33.691,28.320,26.367,-133.789
1532281475.851,30.762,30.762,29.297,26.367,-217.285
1532281475.855,28.320,31.738,27.832,25.391,140.625
1532281475.859,30.762,32.715,26.855,19.043,281.250
1532281475.863,33.691,30.762,27.344,18.066,-50.781
1532281475.867,28.809,29.297,29.785,21.973,-259.766
1532281475.871,24.902,27.344,34.668,26.855,81.543
1532281475.875,22.949,29.297,34.668,25.391,380.859
1532281475.879,20.508,28.320,34.668,23.438,72.266
1532281475.883,17.578,27.832,35.645,25.391,-271.484
1532281475.886,22.949,29.785,34.668,30.762,-59.082
1532281475.890,32.227,28.809,33.691,35.645,306.152
1532281475.894,29.297,30.273,34.668,30.273,164.062
1532281475.898,30.762,34.668,36.621,26.855,-233.887
1532281475.902,38.086,35.645,37.109,31.738,-162.109
1532281475.906,40.527,36.133,40.039,38.086,266.602
1532281475.910,38.574,38.086,40.039,40.527,301.758
1532281475.914,38.086,39.551,39.062,39.062,-117.676
1532281475.918,39.551,40.527,41.504,37.598,-264.160
1532281475.922,42.969,42.969,38.086,45.410,137.207
1532281475.926,45.410,45.410,36.621,50.293,339.355
1532281475.929,41.992,45.410,39.062,46.387,-17.090
1532281475.933,44.922,45.898,38.086,47.852,-277.832
1532281475.937,45.898,43.457,37.598,45.410,-8.301
1532281475.941,38.574,41.016,37.109,38.574,316.895
1532281475.945,37.109,42.969,38.574,38.574,104.492
1532281475.949,41.016,43.945,37.598,39.062,-252.441
1532281475.953,38.086,41.504,31.738,38.574,-106.934
1532281475.957,32.227,40.039,29.297,35.645,265.137
1532281475.961,33.203,38.086,32.227,32.715,223.633
1532281475.965,37.598,37.109,31.250,29.297,-184.082
1532281475.969,40.527,39.551,27.832,28.809,-207.520
1532281475.972,39.551,38.574,27.832,33.691,201.660
1532281475.976,35.156,33.691,27.344,30.273,289.551
1532281475.980,36.621,33.691,27.344,22.949,-148.926
1532281475.984,36.133,32.715,24.414,20.508,-292.969
1532281475.988,31.250,31.738,21.484,22.461,105.469
1532281475.992,26.855,34.180,24.414,26.367,321.777
1532281475.996,29.297,34.180,27.832,24.414,-21.484
1532281476.000,29.297,32.227,28.320,20.020,-317.383
1532281476.004,28.809,28.320,26.855,25.879,-5.371
1532281476.008,33.691,29.297,24.414,27.832,335.449
1532281476.011,38.574,34.668,24.414,25.391,134.766
1532281476.015,41.016,36.621,25.391,20.020,-252.441
1532281476.019,41.992,36.621,24.902,18.066,-158.691
1532281476.023,43.945,33.691,24.902,24.414,272.461
1532281476.027,44.434,35.645,25.391,27.344,229.492
1532281476.031,40.527,39.551,27.344,31.738,-179.199
1532281476.035,37.598,35.645,26.855,37.598,-216.309
1532281476.039,32.715,32.715,26.367,41.504,181.641
1532281476.043,29.297,31.738,26.855,41.992,314.453
1532281476.047,22.461,29.297,26.855,35.156,-73.242
1532281476.051,26.855,31.738,24.414,32.715,-284.668
1532281476.054,30.273,33.203,22.949,37.598,67.871
1532281476.058,29.297,33.691,23.438,33.203,329.102
1532281476.062,35.156,36.133,24.414,29.297,48.340
1532281476.066,30.762,34.668,27.344,28.809,-265.625
1532281476.070,24.902,32.227,25.879,27.344,-49.805
1532281476.074,27.344,32.227,22.949,27.344,321.777
1532281476.078,31.250,33.203,24.414,24.902,147.461
1532281476.082,32.227,30.762,25.879,24.414,-249.023
1532281476.086,31.250,29.297,25.879,26.855,-133.301
1532281476.090,33.203,32.715,29.297,30.273,275.391
1532281476.093,30.762,34.668,29.785,28.809,267.090
1532281476.097,28.320,34.180,25.879,21.484,-185.547
1532281476.101,31.738,33.203,25.879,22.949,-273.438
1532281476.105,32.715,32.227,28.320,33.203,178.223
1532281476.109,35.156,33.691,29.297,33.691,339.844
1532281476.113,37.109,34.180,31.250,29.785,-29.785
1532281476.117,36.133,34.180,32.715,31.738,-256.836
1532281476.121,31.738,34.180,30.762,35.645,49.805
1532281476.125,30.762,34.180,31.738,37.598,336.914
1532281476.129,30.273,34.180,32.227,33.203,85.938
1532281476.133,31.738,34.180,30.762,32.227,-277.832
1532281476.136,34.180,35.156,30.762,31.250,-94.238
1532281476.140,35.645,34.180,33.203,30.762,288.574
1532281476.144,34.668,33.203,33.203,33.691,193.848
1532281476.148,28.320,32.715,31.738,30.762,-199.707
1532281476.152,24.414,33.203,33.691,32.227,-197.266
1532281476.156,27.344,33.691,30.762,33.203,211.426
1532281476.160,27.832,29.785,29.785,30.273,295.898
1532281476.164,27.344,30.762,32.715,28.809,-83.008
1532281476.168,28.809,34.668,32.715,30.762,-256.348
1532281476.172,23.926,32.227,33.691,29.297,103.027
1532281476.176,22.461,29.785,32.715,25.391,317.871
1532281476.179,24.902,32.715,33.691,24.902,10.254
1532281476.183,26.855,32.715,35.156,29.297,-274.414
1532281476.187,30.273,31.250,34.668,32.715,-17.090
1532281476.191,32.715,32.227,33.203,35.156,346.191
1532281476.195,35.645,33.691,32.715,31.250,96.680
1532281476.199,35.156,33.691,30.762,20.996,-337.402
1532281476.203,35.156,30.762,29.785,24.902,-165.039
1532281476.207,34.668,30.762,32.227,32.715,290.039
1532281476.211,34.180,34.180,33.691,30.762,252.930
1532281476.215,38.574,34.668,34.668,32.227,-170.410
1532281476.218,41.016,32.227,34.668,36.133,-223.145
1532281476.222,41.992,31.738,34.180,40.527,189.453
1532281476.226,41.992,32.227,35.645,39.551,287.598
1532281476.230,37.109,30.762,37.109,35.156,-101.074
1532281476.234,38.574,30.762,35.156,36.133,-279.785
1532281476.238,44.434,31.738,34.180,37.109,42.480
1532281476.242,41.504,30.762,34.668,36.133,291.992
1532281476.246,36.133,29.297,32.227,30.762,14.648
1532281476.250,32.227,27.344,30.273,26.855,-277.832
1532281476.254,33.203,27.344,31.738,31.250,-19.531
1532281476.258,37.598,27.344,31.250,32.227,320.801
1532281476.261,35.156,25.391,31.250,26.855,152.832
1532281476.265,31.738,27.344,32.227,25.391,-217.773
1532281476.269,30.762,29.297,32.715,26.367,-147.461
1532281476.273,31.250,27.344,30.762,25.879,266.113
1532281476.277,34.668,26.367,28.809,24.902,261.719
1532281476.281,37.598,27.832,30.273,24.414,-157.715
1532281476.285,37.109,28.320,27.832,25.391,-218.750
1532281476.289,38.086,28.809,28.320,30.273,182.129
1532281476.293,40.039,29.297,32.227,36.621,334.473
1532281476.297,40.039,29.297,33.203,26.855,-73.242
1532281476.301,38.086,27.832,32.227,22.461,-295.898
1532281476.304,34.180,26.855,32.715,35.645,55.664
1532281476.308,31.250,26.855,34.180,39.062,332.031
1532281476.312,32.227,24.902,32.227,34.668,67.871
1532281476.316,34.668,23.926,31.250,32.715,-275.879
1532281476.320,34.180,23.926,32.715,35.645,-33.203
1532281476.324,33.691,24.902,35.156,44.434,345.703
1532281476.328,34.668,28.320,39.551,44.434,188.477
1532281476.332,35.156,30.762,39.062,41.992,-206.543
1532281476.336,40.039,35.156,39.551,44.922,-190.430
1532281476.340,37.598,37.109,40.527,39.062,201.172
1532281476.343,34.180,35.645,40.039,36.621,279.297
1532281476.347,36.133,38.086,41.016,39.551,-109.375
1532281476.351,42.480,41.992,42.969,41.016,-232.910
1532281476.355,45.410,41.992,41.504,44.922,159.668
1532281476.359,40.039,41.504,38.086,42.969,379.395
1532281476.363,37.109,38.086,41.016,38.086,18.066
1532281476.367,38.086,36.621,43.457,39.062,-277.832
1532281476.371,40.527,38.086,38.574,42.480,26.855
1532281476.375,42.480,38.574,38.086,43.457,339.844
1532281476.379,38.574,39.062,40.039,35.156,86.426
1532281476.383,41.504,42.969,38.574,33.203,-265.625
1532281476.386,45.898,42.480,39.551,45.898,-61.035
1532281476.390,41.992,39.062,40.039,51.270,324.219
1532281476.394,41.992,42.480,40.527,46.387,199.219
1532281476.398,42.480,43.945,41.016,42.969,-223.145
1532281476.402,45.898,41.016,38.574,47.852,-213.867
1532281476.406,51.270,39.551,38.574,51.758,199.219
1532281476.410,47.852,40.039,37.109,43.457,284.668
1532281476.414,39.551,40.527,37.598,34.668,-123.047
1532281476.418,34.668,39.062,37.109,38.086,-281.250
1532281476.422,35.645,36.621,35.156,44.434,93.750
1532281476.425,36.133,34.668,37.598,43.457,340.332
1532281476.429,36.133,34.668,37.598,41.504,20.508
1532281476.433,37.598,36.133,36.133,42.969,-267.578
1532281476.437,35.645,36.133,36.133,41.504,-17.090
1532281476.441,34.180,35.156,31.738,39.551,297.363
1532281476.445,33.691,33.691,29.785,34.668,140.625
1532281476.449,31.250,34.668,28.809,30.273,-243.164
1532281476.453,33.691,33.691,24.414,31.738,-130.859
1532281476.457,36.133,32.227,25.879,27.344,267.578
1532281476.461,34.668,34.180,27.344,20.020,229.492
1532281476.465,36.133,35.156,26.367,21.973,-161.621
1532281476.468,38.086,35.156,28.320,27.832,-226.074
1532281476.472,39.551,34.668,28.809,33.203,167.480
1532281476.476,38.574,34.668,27.832,28.809,296.387
1532281476.480,34.668,32.715,29.297,19.043,-67.871
1532281476.484,33.203,28.320,27.832,24.902,-270.996
1532281476.488,36.621,25.391,25.879,33.203,74.707
1532281476.492,37.598,23.926,24.902,34.180,335.449
1532281476.496,36.621,19.531,23.926,28.320,14.648
1532281476.500,36.621,17.090,23.438,26.367,-282.715
1532281476.504,34.180,15.625,22.461,31.250,-24.414
1532281476.508,29.785,15.137,25.391,31.738,322.754
1532281476.511,28.809,15.625,26.367,29.297,150.879
1532281476.515,27.832,12.695,23.926,20.996,-251.953
1532281476.519,26.855,9.277,21.973,15.625,-177.246
1532281476.523,28.809,8.301,21.973,21.973,253.906
1532281476.527,30.762,9.277,22.461,23.438,278.809
1532281476.531,35.156,10.254,23.438,19.531,-134.766
1532281476.535,36.621,9.277,23.438,20.996,-249.512
1532281476.539,37.109,8.301,22.949,28.809,167.480
1532281476.543,35.645,9.766,22.949,31.738,331.543
1532281476.547,30.273,10.742,23.926,27.344,-70.312
1532281476.550,29.297,7.812,22.949,28.320,-296.875
1532281476.554,31.250,7.324,21.484,32.715,40.527
1532281476.558,29.297,7.324,20.996,32.715,326.660
1532281476.562,26.367,7.324,23.926,31.250,62.012
1532281476.566,26.367,9.277,24.902,30.762,-283.691
1532281476.570,29.785,10.254,23.438,32.715,-96.191
1532281476.574,33.203,11.230,21.973,33.203,294.922
1532281476.578,30.762,10.742,24.902,27.344,170.410
1532281476.582,31.250,10.742,23.926,23.438,-223.145
1532281476.586,32.715,12.207,19.531,29.785,-155.762
1532281476.590,31.250,13.184,20.508,36.133,242.188
1532281476.593,29.297,15.625,21.973,33.203,279.297
1532281476.597,30.273,18.066,20.508,24.414,-147.461
1532281476.601,32.227,16.602,20.508,26.855,-296.875
1532281476.605,28.809,15.625,17.578,37.598,119.141
1532281476.609,30.762,16.113,15.625,38.574,357.910
1532281476.613,36.621,16.602,19.531,38.086,20.996
1532281476.617,32.715,20.508,18.066,30.273,-277.832
1532281476.621,27.344,22.461,15.625,26.367,-14.648
1532281476.625,30.762,22.461,16.602,31.250,311.523
1532281476.629,31.738,21.973,16.602,27.344,88.379
1532281476.632,34.180,23.438,17.090,24.414,-275.879
1532281476.636,36.621,24.902,16.602,23.438,-87.402
1532281476.640,36.133,27.832,15.625,24.902,309.570
1532281476.644,35.645,31.250,15.625,23.926,224.609
1532281476.648,34.668,30.273,18.066,20.996,-164.551
1532281476.652,32.227,30.762,19.043,26.367,-188.965
1532281476.656,25.391,33.203,19.043,27.344,173.340
1532281476.660,20.508,34.668,19.531,23.438,272.949
1532281476.664,20.020,37.109,17.578,24.902,-72.754
1532281476.668,22.461,36.133,16.113,27.344,-255.371
1532281476.672,23.926,35.645,15.625,33.203,83.496
1532281476.675,24.902,37.109,15.625,31.738,338.867
1532281476.679,29.785,42.480,17.090,26.855,31.738
1532281476.683,34.180,46.387,16.602,25.879,-278.320
1532281476.687,37.109,46.875,14.648,30.762,-26.855
1532281476.691,36.133,45.410,14.160,31.738,334.961
1532281476.695,37.598,45.410,17.090,27.344,163.574
1532281476.699,36.133,47.363,19.531,24.414,-246.094
1532281476.703,31.250,46.875,20.996,25.391,-151.855
1532281476.707,33.691,43.945,18.555,29.297,273.926
1532281476.711,32.715,43.457,13.672,25.879,239.746
1532281476.715,32.227,42.969,13.672,20.020,-167.969
1532281476.718,34.668,41.504,17.578,22.949,-246.582
1532281476.722,36.621,42.969,20.996,29.785,142.090
1532281476.726,38.086,41.016,22.949,32.715,312.988
1532281476.730,37.109,40.039,26.367,31.250,-40.039
1532281476.734,27.832,39.062,24.902,29.785,-246.582
1532281476.738,24.414,36.133,24.414,32.227,71.289
1532281476.742,24.414,35.156,27.344,35.156,342.285
1532281476.746,24.902,34.180,29.297,33.203,66.895
1532281476.750,32.227,36.621,27.832,35.156,-264.648
1532281476.754,38.086,36.133,25.391,39.062,-77.637
1532281476.757,36.621,36.133,24.414,32.715,280.762
1532281476.761,32.715,39.551,24.414,26.367,142.578
1532281476.765,32.715,39.551,21.973,27.832,-234.863
1532281476.769,30.273,38.574,20.996,30.762,-159.180
1532281476.773,28.809,38.086,23.438,35.156,265.137
1532281476.777,29.785,38.574,24.902,34.180,285.645
1532281476.781,31.738,38.086,26.855,27.832,-134.277
1532281476.785,35.156,39.062,28.320,27.832,-229.492
1532281476.789,39.062,38.574,26.855,29.297,145.508
1532281476.793,39.062,38.574,26.855,29.297,335.449
1532281476.797,41.504,41.504,28.809,26.855,-18.066
1532281476.800,46.387,43.457,28.809,23.438,-301.270
1532281476.804,47.363,43.945,28.809,30.762,12.207
1532281476.808,47.363,43.457,29.297,35.645,322.754
1532281476.812,39.062,43.457,29.297,30.762,82.520
1532281476.816,28.809,42.480,28.320,30.273,-250.488
1532281476.820,27.832,40.527,26.367,36.133,-69.336
1532281476.824,32.715,42.480,25.391,37.109,307.617
1532281476.828,37.109,43.945,27.832,35.156,219.727
1532281476.832,33.203,41.016,25.879,32.715,-188.965
1532281476.836,33.691,40.527,24.902,34.668,-175.293
1532281476.840,38.574,42.480,25.879,36.621,225.586
1532281476.843,35.156,40.039,26.855,29.785,285.156
1532281476.847,33.691,38.574,27.832,26.855,-87.402
1532281476.851,34.180,40.039,27.344,30.273,-225.586
1532281476.855,31.250,38.574,25.391,31.250,107.910
1532281476.859,32.227,41.016,27.832,28.320,293.457
1532281476.863,36.133,41.504,30.762,30.273,-14.160
1532281476.867,40.039,39.551,27.344,32.715,-280.273
1532281476.871,42.480,39.062,25.879,39.062,-1.465
1532281476.875,40.527,38.086,26.367,41.992,342.773
1532281476.879,39.062,38.086,26.367,38.086,126.953
1532281476.882,40.527,38.574,27.344,36.133,-262.207
1532281476.886,44.434,37.109,29.785,40.039,-141.113
1532281476.890,46.875,38.086,30.762,43.945,264.648
1532281476.894,36.621,36.133,30.762,37.109,219.727
1532281476.898,30.273,37.109,34.668,26.367,-205.566
1532281476.902,28.320,37.598,34.668,25.391,-237.305
1532281476.906,25.391,35.645,32.715,32.227,177.246
1532281476.910,27.832,37.598,32.715,31.738,289.551
1532281476.914,33.691,39.551,31.738,29.785,-67.871
1532281476.918,37.598,39.551,31.250,30.762,-269.043
1532281476.922,37.109,39.551,33.203,35.645,62.988
1532281476.925,36.621,39.551,31.738,39.062,330.566
1532281476.929,37.109,42.480,31.250,37.109,30.273
1532281476.933,37.598,44.434,34.668,41.016,-280.273
1532281476.937,38.086,44.922,33.203,43.457,-48.340
1532281476.941,40.527,44.434,31.738,41.504,316.895
1532281476.945,39.551,43.945,32.715,41.504,194.336
1532281476.949,38.574,43.945,30.762,37.109,-222.168
1532281476.953,37.598,43.457,29.297,36.621,-157.227
1532281476.957,34.180,41.016,29.297,40.527,252.441
1532281476.961,32.715,40.039,26.367,33.691,253.418
1532281476.964,33.691,42.969,25.391,28.809,-136.230
1532281476.968,35.156,43.457,25.879,31.738,-205.566
1532281476.972,33.203,43.457,25.391,32.715,176.270
1532281476.976,32.227,44.922,25.879,27.344,307.617
1532281476.980,36.133,44.922,27.344,22.461,-66.895
1532281476.984,36.133,41.016,26.855,26.855,-269.531
1532281476.988,35.156,42.969,25.879,33.203,63.477
1532281476.992,34.180,41.992,23.438,29.297,348.633
1532281476.996,33.203,38.086,23.926,22.949,71.289
1532281477.000,35.156,40.527,23.926,23.926,-298.828
1532281477.004,34.180,41.992,22.461,30.273,-91.797
1532281477.007,35.156,41.992,24.414,34.180,311.523
1532281477.011,36.621,40.039,27.344,33.203,209.961
1532281477.015,34.668,39.062,27.832,31.250,-211.914
1532281477.019,34.180,39.062,25.879,31.738,-187.500
1532281477.023,36.133,38.574,25.879,33.691,243.652
1532281477.027,31.738,37.109,25.879,30.273,253.418
1532281477.031,24.902,33.203,25.391,27.832,-144.531
1532281477.035,30.273,34.180,22.461,25.879,-264.648
1532281477.039,33.691,34.180,20.508,20.508,90.820
1532281477.043,32.715,31.738,22.949,24.414,311.523
1532281477.047,32.227,31.250,23.926,28.320,0.977
1532281477.050,31.738,33.203,24.902,29.785,-273.926
1532281477.054,36.133,33.691,24.902,34.668,7.812
1532281477.058,39.551,33.203,25.391,36.621,349.609
1532281477.062,35.645,32.227,24.414,32.227,121.094
1532281477.066,31.738,30.762,23.438,27.832,-244.629
1532281477.070,33.203,28.809,22.461,29.297,-115.234
1532281477.074,32.227,28.320,21.973,32.227,259.766
1532281477.078,28.320,27.832,22.461,23.438,180.176
1532281477.082,25.879,28.809,23.438,18.066,-230.469
1532281477.086,25.879,29.297,23.438,25.391,-211.914
1532281477.089,29.785,27.344,22.949,28.320,193.359
1532281477.093,31.738,27.832,22.949,26.855,291.016
1532281477.097,34.668,29.297,24.414,26.367,-85.449
1532281477.101,35.645,27.832,22.949,25.879,-255.371
1532281477.105,34.180,25.879,20.996,28.809,118.652
1532281477.109,29.297,28.809,21.484,27.344,360.840
1532281477.113,26.855,32.715,24.902,28.320,41.504
1532281477.117,31.250,31.738,24.902,29.297,-273.926
1532281477.121,33.203,29.297,24.902,34.180,-31.250
1532281477.125,31.250,30.762,28.809,35.156,331.543
1532281477.129,25.391,30.762,28.809,24.902,145.996
1532281477.132,22.461,26.855,27.832,22.949,-245.117
1532281477.136,23.438,26.367,28.320,24.902,-141.113
1532281477.140,22.949,29.297,26.367,23.438,240.723
1532281477.144,26.367,29.297,22.461,21.484,235.352
1532281477.148,28.809,29.297,21.973,16.113,-164.062
1532281477.152,30.273,33.691,25.391,20.996,-212.891
1532281477.156,30.762,32.715,24.902,28.320,181.152
1532281477.160,33.203,31.738,22.949,24.902,314.941
1532281477.164,37.109,34.668,24.414,21.484,-43.945
1532281477.168,36.621,33.691,24.902,23.926,-256.836
1532281477.172,34.180,32.715,25.391,29.297,73.242
1532281477.175,31.250,31.250,23.926,26.367,328.613
1532281477.179,28.809,31.250,22.461,19.043,30.762
1532281477.183,25.879,32.227,22.949,22.461,-251.953
1532281477.187,28.809,32.227,24.414,27.832,-39.062
1532281477.191,29.785,32.227,26.855,32.227,298.828
1532281477.195,25.879,32.715,27.832,29.785,166.504
1532281477.199,24.902,32.715,27.344,25.391,-229.980
1532281477.203,25.391,31.738,26.855,29.785,-168.945
1532281477.207,30.273,33.691,29.297,35.645,222.168
1532281477.211,31.250,35.156,30.762,35.645,272.949
1532281477.214,28.320,32.715,27.832,29.297,-134.277
1532281477.218,32.227,32.227,28.809,33.203,-266.113
1532281477.222,38.086,34.668,28.320,38.574,140.625
1532281477.226,35.156,33.203,27.344,33.203,313.477
1532281477.230,34.180,34.180,29.785,29.297,-35.156
1532281477.234,34.668,37.109,31.250,32.715,-264.160
1532281477.238,28.320,36.133,28.809,30.762,14.160
1532281477.242,27.344,33.203,28.320,30.762,325.684
1532281477.246,29.785,34.180,30.762,29.297,100.586
1532281477.250,31.738,38.086,28.809,25.391,-243.652
1532281477.254,35.156,40.039,25.879,31.738,-84.473
1532281477.257,38.086,39.062,25.391,31.738,283.203
1532281477.261,36.133,38.086,30.273,23.926,176.270
1532281477.265,30.273,35.156,35.645,24.414,-218.262
1532281477.269,25.391,32.227,34.668,24.902,-197.266
1532281477.273,27.344,33.691,33.691,27.344,220.703
1532281477.277,30.762,35.645,35.156,24.414,280.273
1532281477.281,32.227,34.180,35.156,20.508,-109.863
1532281477.285,32.227,33.203,36.133,24.414,-236.328
1532281477.289,33.203,33.691,35.645,29.297,132.812
1532281477.293,37.109,34.668,32.715,28.320,349.121
1532281477.296,38.086,33.203,30.273,26.855,3.906
1532281477.300,38.574,35.645,29.785,30.762,-278.320
1532281477.304,39.551,35.156,29.785,31.738,-12.695
1532281477.308,41.504,31.738,29.297,34.180,313.477
1532281477.312,41.016,31.738,29.785,33.691,104.004
1532281477.316,41.016,32.227,28.809,31.250,-285.645
1532281477.320,44.434,34.180,29.297,33.691,-162.109
1532281477.324,46.875,35.645,26.367,31.250,265.137
1532281477.328,43.457,32.715,23.438,26.367,223.145
1532281477.332,44.922,31.738,23.438,25.391,-184.570
1532281477.336,49.316,34.668,24.414,28.320,-213.867
1532281477.339,47.363,35.645,24.414,33.203,205.566
1532281477.343,43.945,33.691,23.926,33.203,336.426
1532281477.347,44.434,34.180,25.879,32.715,-55.664
1532281477.351,44.434,33.203,27.832,33.203,-252.441
1532281477.355,45.410,33.203,28.320,33.691,56.641
1532281477.359,46.875,34.180,30.273,29.297,286.621
1532281477.363,37.109,33.691,29.297,24.414,31.250
1532281477.367,34.668,32.227,26.367,27.832,-251.953
1532281477.371,38.086,30.273,26.855,35.156,-29.785
1532281477.375,36.621,28.809,27.344,36.621,305.664
1532281477.379,32.715,28.809,25.391,30.762,127.441
1532281477.382,30.762,29.785,27.344,29.785,-242.676
1532281477.386,31.250,28.809,28.320,33.691,-128.906
1532281477.390,32.715,28.320,24.414,36.133,274.902
1532281477.394,38.086,30.273,25.879,36.621,262.695
1532281477.398,42.480,31.250,26.855,34.668,-161.621
1532281477.402,43.457,34.180,24.414,34.180,-232.422
1532281477.406,43.945,36.133,24.414,35.645,185.059
1532281477.410,40.039,34.668,26.367,33.691,328.125
1532281477.414,34.668,32.227,28.320,31.250,-30.273
1532281477.418,32.715,32.715,29.785,25.391,-294.434
1532281477.421,34.180,32.227,29.785,27.344,15.625
1532281477.425,37.109,30.762,30.273,34.180,365.234
1532281477.429,36.621,32.715,32.715,30.762,89.355
1532281477.433,38.574,33.203,32.227,31.250,-263.672
1532281477.437,40.039,30.762,31.738,33.691,-83.496
1532281477.441,37.598,32.715,32.715,34.180,271.484
1532281477.445,40.039,35.645,31.738,34.668,193.359
1532281477.449,40.527,35.156,33.691,34.668,-207.031
1532281477.453,31.250,33.691,31.738,34.668,-174.316
1532281477.457,32.227,33.203,28.320,29.297,221.680
1532281477.461,38.574,32.715,29.785,27.832,233.398
1532281477.464,36.133,32.715,32.227,29.785,-142.578
1532281477.468,36.621,31.250,32.227,31.738,-229.004
1532281477.472,37.598,29.785,30.273,37.109,128.906
1532281477.476,41.504,32.715,30.273,37.109,323.730
1532281477.480,45.410,35.156,31.250,33.203,7.812
1532281477.484,42.480,35.156,32.715,35.156,-257.324
1532281477.488,41.504,33.691,33.691,38.086,26.855
1532281477.492,40.527,33.203,29.785,36.621,340.820
1532281477.496,40.039,34.180,28.809,31.738,109.863
1532281477.500,39.551,35.156,28.809,21.484,-274.902
1532281477.504,38.086,34.668,28.320,27.832,-95.703
1532281477.507,38.086,34.180,27.344,36.133,310.547
1532281477.511,36.133,33.203,25.391,32.715,195.312
1532281477.515,36.133,32.227,25.879,30.273,-210.449
1532281477.519,37.109,31.738,25.879,34.668,-216.309
1532281477.523,35.156,30.273,29.785,38.574,193.848
1532281477.527,34.668,31.738,32.715,34.180,288.086
1532281477.531,32.715,32.227,29.785,27.344,-99.609
1532281477.535,34.180,30.273,30.273,26.367,-250.488
1532281477.539,39.062,30.762,29.785,31.738,97.656
1532281477.543,36.133,31.738,28.320,29.297,331.055
1532281477.546,28.809,33.203,30.273,22.461,17.578
1532281477.550,29.785,34.668,30.762,24.902,-282.715
1532281477.554,41.016,32.715,28.809,30.762,-25.879
1532281477.558,48.340,32.715,28.320,26.367,293.457
1532281477.562,46.875,34.180,29.297,18.555,116.211
1532281477.566,43.945,34.668,32.227,24.902,-246.582
1532281477.570,43.457,33.203,30.762,37.598,-134.277
1532281477.574,38.574,29.785,31.250,41.992,270.996
1532281477.578,34.668,27.344,34.180,44.434,240.234
1532281477.582,32.227,24.902,36.621,44.434,-161.621
1532281477.586,31.250,25.879,39.062,46.387,-226.562
1532281477.589,31.250,27.832,38.574,52.246,175.293
1532281477.593,31.250,28.809,35.156,50.781,300.781
1532281477.597,37.598,31.250,32.715,47.852,-98.145
1532281477.601,43.945,31.250,32.227,47.852,-293.457
1532281477.605,46.387,31.738,31.250,49.316,79.102
1532281477.609,43.945,34.668,32.227,46.387,354.980
1532281477.613,39.062,32.715,32.227,38.574,57.129
1532281477.617,39.551,29.297,32.227,34.180,-289.062
1532281477.621,37.598,29.785,33.691,37.109,-67.383
1532281477.625,35.156,29.297,29.785,37.598,309.570
1532281477.628,36.133,28.320,29.297,31.738,154.297
1532281477.632,36.133,28.320,31.738,29.785,-246.094
1532281477.636,39.062,29.297,32.227,34.180,-190.430
1532281477.640,40.039,30.762,30.762,32.227,210.449
1532281477.644,37.598,31.738,30.762,34.180,254.395
1532281477.648,38.086,33.203,32.715,35.156,-157.227
1532281477.652,37.109,30.762,29.297,34.668,-246.094
1532281477.656,36.133,28.320,26.855,36.621,155.762
1532281477.660,35.156,28.320,25.391,30.273,314.941
1532281477.664,35.156,29.785,24.902,27.344,-43.457
1532281477.668,35.645,32.227,25.391,30.762,-268.066
1532281477.671,41.504,32.715,24.902,36.621,49.316
1532281477.675,45.410,30.762,27.832,37.109,334.961
1532281477.679,42.480,34.180,29.785,32.715,73.730
1532281477.683,41.504,33.203,29.785,35.156,-269.043
1532281477.687,41.504,27.832,29.785,38.086,-62.012
1532281477.691,41.504,29.297,30.762,41.016,332.520
1532281477.695,41.992,30.762,31.738,38.574,204.590
1532281477.699,40.527,30.762,32.227,32.715,-230.957
1532281477.703,44.922,31.738,30.273,42.480,-186.035
1532281477.707,52.734,35.156,27.344,50.781,228.516
1532281477.711,51.270,37.598,27.832,40.527,273.438
1532281477.714,45.410,34.180,29.785,31.738,-102.539
1532281477.718,41.504,33.203,30.762,31.250,-260.742
1532281477.722,40.039,35.156,29.785,37.598,116.211
1532281477.726,37.598,34.180,28.320,34.180,346.680
1532281477.730,33.691,34.180,27.832,26.367,-14.160
1532281477.734,33.203,33.691,27.832,27.344,-315.918
1532281477.738,34.668,33.203,28.320,31.738,-23.926
1532281477.742,33.691,30.762,28.809,33.203,339.844
1532281477.746,36.621,29.297,31.250,34.668,142.578
1532281477.750,39.062,30.273,30.762,34.180,-221.191
1532281477.753,39.551,29.297,30.273,37.598,-93.750
1532281477.757,42.480,30.273,31.250,38.086,272.461
1532281477.761,39.062,29.785,29.785,36.621,220.703
1532281477.765,35.645,28.320,29.297,36.133,-168.945
1532281477.769,35.645,27.344,28.320,35.645,-200.684
1532281477.773,37.109,28.809,28.809,39.062,200.684
1532281477.777,40.039,29.785,28.809,37.109,287.109
1532281477.781,40.039,29.297,27.832,34.180,-85.938
1532281477.785,41.992,31.250,27.832,36.621,-265.625
1532281477.789,44.922,32.227,28.809,42.480,80.566
1532281477.793,42.480,28.809,26.367,41.504,364.746
1532281477.796,41.504,28.320,27.832,37.598,48.828
1532281477.800,42.480,28.320,31.250,36.133,-284.668
1532281477.804,42.480,27.832,30.273,40.039,-25.879
1532281477.808,38.086,28.320,29.297,38.086,343.750
1532281477.812,37.109,29.297,29.297,30.762,164.551
1532281477.816,40.039,31.250,30.273,25.879,-262.207
1532281477.820,39.551,32.227,30.273,26.367,-170.410
1532281477.824,36.621,29.297,30.762,33.203,266.113
1532281477.828,34.668,26.367,33.203,31.738,259.277
1532281477.832,32.227,26.367,30.762,27.344,-152.832
1532281477.836,29.297,31.250,30.273,24.902,-234.375
1532281477.839,27.344,35.156,29.297,21.973,149.902
1532281477.843,25.879,35.156,27.344,20.020,303.223
1532281477.847,23.438,35.156,28.320,17.578,-46.875
1532281477.851,22.949,36.621,27.344,21.484,-283.203
1532281477.855,26.855,35.156,24.902,29.785,12.207
1532281477.859,24.414,36.133,24.414,26.367,297.852
1532281477.863,22.461,39.551,24.902,20.996,62.500
1532281477.867,25.391,38.574,25.391,24.902,-278.320
1532281477.871,29.297,37.598,25.391,28.809,-92.285
1532281477.875,31.250,38.574,25.879,31.250,306.641
1532281477.878,31.738,39.551,25.879,23.926,175.293
1532281477.882,32.227,39.551,21.973,14.160,-235.840
1532281477.886,33.203,40.039,20.996,20.508,-178.711
1532281477.890,31.738,40.039,22.949,26.855,243.164
1532281477.894,27.832,38.086,24.414,25.391,273.926
1532281477.898,27.344,36.133,23.438,23.438,-115.234
1532281477.902,25.391,35.156,20.508,26.855,-211.914
1532281477.906,28.809,34.668,19.531,32.227,142.090
1532281477.910,32.227,34.668,21.484,32.715,337.402
1532281477.914,29.785,35.156,22.461,28.320,8.301
1532281477.918,30.273,35.645,23.438,23.438,-291.016
1532281477.921,32.715,36.133,26.855,29.785,-33.203
1532281477.925,29.785,34.180,26.855,36.621,332.520
1532281477.929,26.855,33.203,26.367,29.297,119.629
1532281477.933,25.391,34.180,27.832,25.391,-239.746
1532281477.937,23.926,34.180,25.879,26.855,-86.914
1532281477.941,27.344,34.668,24.902,31.250,294.434
1532281477.945,28.809,35.156,25.391,30.273,213.867
1532281477.949,27.832,35.156,26.855,28.809,-206.055
1532281477.953,26.855,35.156,28.320,31.738,-198.730
1532281477.957,28.320,36.133,27.832,33.203,207.520
1532281477.960,36.133,41.016,28.320,35.156,272.949
1532281477.964,37.598,41.504,28.809,32.227,-138.672
1532281477.968,34.180,39.551,27.832,30.273,-275.391
1532281477.972,38.086,41.504,28.809,38.574,101.562
1532281477.976,41.992,42.480,30.762,37.109,312.988
1532281477.980,41.504,42.480,30.273,26.855,-16.602
1532281477.984,40.039,41.016,27.344,28.320,-310.547
1532281477.988,42.969,41.504,28.809,38.086,-37.109
1532281477.992,46.387,41.992,28.320,40.039,333.496
1532281477.996,39.551,39.062,27.344,33.203,132.324
1532281478.000,38.086,36.133,28.320,31.250,-260.254
1532281478.003,40.527,35.645,28.809,34.668,-131.836
1532281478.007,34.668,36.621,31.738,35.156,265.137
1532281478.011,37.109,36.621,32.715,35.645,229.492
1532281478.015,39.062,37.109,32.715,28.320,-180.176
1532281478.019,34.180,34.668,28.809,19.531,-236.328
1532281478.023,29.297,32.227,26.855,22.949,173.340
1532281478.027,26.367,31.738,29.785,28.320,332.520
1532281478.031,29.785,32.227,31.738,29.785,-50.293
1532281478.035,33.203,36.621,33.203,30.273,-267.578
1532281478.039,34.180,39.062,33.691,31.738,64.941
1532281478.043,37.598,37.598,32.715,35.156,343.750
1532281478.046,40.039,38.086,32.715,35.156,74.219
1532281478.050,39.551,40.039,30.273,33.691,-267.090
1532281478.054,44.434,42.480,26.855,37.109,-56.152
1532281478.058,46.875,40.527,27.832,38.086,319.336
1532281478.062,40.527,37.109,30.273,31.738,174.805
1532281478.066,31.250,38.574,29.785,24.414,-241.211
1532281478.070,30.273,38.574,26.855,22.461,-185.547
1532281478.074,30.762,37.598,26.855,25.391,236.816
1532281478.078,26.367,37.598,25.391,16.113,239.746
1532281478.082,29.297,37.598,24.902,10.742,-209.961
1532281478.085,30.762,36.621,24.902,22.949,-278.809
1532281478.089,33.203,36.621,26.367,33.691,145.020
1532281478.093,39.551,38.574,28.809,39.062,311.523
1532281478.097,42.480,41.504,29.297,41.504,-39.062
1532281478.101,40.527,38.574,28.809,43.457,-261.719
1532281478.105,41.016,35.156,28.809,44.922,54.688
1532281478.109,44.434,38.574,28.809,44.922,349.121
1532281478.113,42.969,37.598,30.762,41.016,104.492
1532281478.117,41.016,33.691,31.738,34.668,-253.906
1532281478.121,40.039,32.227,29.297,32.227,-98.145
1532281478.125,36.133,28.809,28.809,36.133,294.922
1532281478.128,37.109,32.227,31.738,36.621,205.566
1532281478.132,41.016,32.715,32.715,36.133,-210.449
1532281478.136,49.316,31.738,31.250,43.457,-201.172
1532281478.140,54.688,33.203,32.227,50.293,241.211
1532281478.144,49.805,33.691,35.156,48.340,319.336
1532281478.148,49.805,32.715,34.668,45.410,-134.277
1532281478.152,54.688,31.250,33.203,48.828,-272.949
1532281478.156,55.664,33.203,31.250,53.711,120.605
1532281478.160,54.688,35.156,32.715,49.805,291.992
1532281478.164,48.828,35.156,32.715,43.945,-35.156
1532281478.168,45.410,36.133,32.227,41.992,-282.227
1532281478.171,44.434,36.133,31.250,42.480,9.766
1532281478.175,39.551,34.180,31.250,38.086,331.055
1532281478.179,38.086,36.133,32.227,31.250,101.074
1532281478.183,41.992,40.527,30.273,31.738,-265.625
1532281478.187,41.504,41.016,30.762,37.598,-117.676
1532281478.191,44.922,39.551,32.715,43.945,295.410
1532281478.195,46.387,41.016,31.250,44.922,235.352
1532281478.199,48.828,43.945,32.715,46.387,-192.871
1532281478.203,58.594,46.387,35.156,52.246,-217.285
1532281478.207,60.547,43.945,34.668,55.664,187.500
1532281478.210,56.152,42.969,31.738,52.246,300.781
1532281478.214,53.711,44.922,32.227,49.316,-70.312
1532281478.218,56.152,45.898,34.668,45.410,-261.719
1532281478.222,53.711,44.434,33.203,44.922,82.031
1532281478.226,50.293,45.410,33.203,50.781,351.074
1532281478.230,47.363,45.410,33.691,48.828,54.199
1532281478.234,43.945,42.969,35.156,44.434,-276.855
1532281478.238,49.316,44.434,34.180,49.316,-32.715
1532281478.242,51.758,45.410,33.691,52.246,327.148
1532281478.246,48.340,46.387,35.645,45.898,144.531
1532281478.250,46.875,45.898,34.180,43.457,-245.117
1532281478.253,53.223,46.387,30.762,47.852,-138.672
1532281478.257,56.641,49.805,34.180,46.387,248.047
1532281478.261,45.898,47.852,35.645,38.086,201.660
1532281478.265,41.016,43.457,32.715,35.645,-177.734
1532281478.269,42.969,43.945,32.227,40.039,-217.773
1532281478.273,41.992,42.480,34.180,42.480,180.664
1532281478.277,38.574,42.480,32.227,37.598,335.449
1532281478.281,41.504,45.898,30.762,33.203,-41.992
1532281478.285,43.945,45.410,31.738,34.668,-241.699
1532281478.289,41.016,43.945,31.250,38.574,65.918
1532281478.292,40.527,44.922,32.227,38.574,357.910
1532281478.296,39.062,43.457,31.738,30.273,88.379
1532281478.300,39.062,42.969,31.250,27.832,-298.340
1532281478.304,43.945,42.480,34.668,39.062,-106.934
1532281478.308,44.434,41.992,36.133,42.969,286.133
1532281478.312,36.621,41.016,35.156,37.598,187.012
1532281478.316,37.598,40.527,34.668,33.691,-211.914
1532281478.320,44.434,41.504,37.109,38.086,-185.547
1532281478.324,41.016,40.527,36.621,35.645,235.352
1532281478.328,39.551,41.992,35.156,25.879,288.086
1532281478.332,40.527,44.922,37.598,22.949,-104.492
1532281478.335,37.109,42.969,39.062,23.926,-253.906
1532281478.339,41.992,41.016,41.016,24.902,130.371
1532281478.343,44.434,41.504,40.039,25.391,347.168
1532281478.347,39.551,41.992,38.086,22.949,-3.906
1532281478.351,39.062,43.945,39.062,28.320,-261.230
1532281478.355,36.133,42.969,39.551,36.133,36.133
1532281478.359,31.250,41.992,39.551,35.156,314.453
1532281478.363,28.809,41.992,39.551,31.250,86.914
1532281478.367,30.762,43.945,38.086,32.715,-226.074
1532281478.371,31.250,44.434,39.062,40.039,-76.172
1532281478.375,28.809,42.969,40.527,44.434,301.758
1532281478.378,31.250,42.480,40.527,40.039,209.473
1532281478.382,31.738,41.504,40.527,35.645,-221.680
1532281478.386,26.855,40.039,39.551,32.715,-235.840
1532281478.390,26.855,37.109,38.086,29.785,208.008
1532281478.394,30.762,36.133,39.062,29.297,294.922
1532281478.398,25.879,39.551,37.598,20.020,-125.000
1532281478.402,24.414,41.992,38.574,18.066,-283.691
1532281478.406,28.809,40.039,40.039,33.203,86.426
1532281478.410,26.855,37.598,39.062,29.297,329.590
1532281478.414,25.391,39.062,41.016,25.879,28.320
1532281478.417,28.809,40.527,40.527,27.832,-270.996
1532281478.421,26.855,38.574,36.621,24.414,15.625
1532281478.425,26.367,36.621,38.574,21.484,372.070
1532281478.429,28.809,36.133,38.086,17.090,170.898
1532281478.433,29.297,36.621,35.156,15.625,-233.398
1532281478.437,22.949,32.715,35.645,17.090,-154.785
1532281478.441,20.020,33.203,37.598,17.578,230.957
1532281478.445,22.949,36.621,36.621,20.996,217.773
1532281478.449,26.855,37.598,34.180,21.973,-164.062
1532281478.453,30.273,36.133,35.645,27.832,-205.566
1532281478.457,33.691,33.203,36.133,34.180,195.312
1532281478.460,36.621,32.715,33.691,31.250,312.500
1532281478.464,35.156,35.645,32.715,27.344,-61.035
1532281478.468,33.691,33.691,33.691,28.809,-232.422
1532281478.472,33.691,31.250,33.203,32.715,92.285
1532281478.476,28.320,29.785,32.227,30.762,337.402
1532281478.480,26.367,31.250,32.715,25.879,50.293
1532281478.484,27.344,33.203,31.250,23.438,-270.020
1532281478.488,31.738,32.715,30.273,26.367,-43.945
1532281478.492,32.227,32.227,30.273,31.250,332.031
1532281478.496,27.344,31.738,30.762,31.250,167.969
1532281478.500,30.273,32.227,30.273,28.320,-240.723
1532281478.503,39.062,31.250,27.344,30.273,-152.344
1532281478.507,41.504,32.715,29.785,39.551,270.020
1532281478.511,40.039,33.203,31.250,41.504,263.184
1532281478.515,42.480,33.691,31.250,36.133,-167.969
1532281478.519,44.434,34.668,33.203,28.320,-283.691
1532281478.523,43.457,33.203,33.203,31.250,129.883
1532281478.527,41.016,32.715,29.785,37.109,318.359
1532281478.531,43.457,32.227,30.273,37.598,-26.855
1532281478.535,46.875,31.250,31.738,41.992,-264.160
1532281478.539,50.293,34.180,33.691,42.480,17.090
1532281478.542,50.293,33.691,34.180,44.434,321.777
1532281478.546,44.922,30.273,33.691,46.387,85.449
1532281478.550,44.434,29.297,34.180,46.387,-277.344
1532281478.554,48.340,28.809,34.668,48.340,-88.379
1532281478.558,51.758,28.320,34.668,50.293,284.180
1532281478.562,52.734,29.785,34.180,48.340,165.527
1532281478.566,50.781,31.738,34.180,45.898,-222.656
1532281478.570,48.828,29.297,32.715,47.852,-176.758
1532281478.574,49.805,27.344,28.320,48.828,258.789
1532281478.578,48.340,28.320,28.809,41.016,266.602
1532281478.582,46.387,28.809,32.715,35.156,-142.578
1532281478.585,45.898,29.297,30.762,42.480,-239.746
1532281478.589,44.922,28.809,29.297,44.434,134.766
1532281478.593,43.457,28.809,29.785,42.480,340.332
1532281478.597,41.504,28.809,29.297,41.992,-21.973
1532281478.601,41.016,26.855,28.809,41.016,-289.551
1532281478.605,39.551,24.414,25.879,40.039,15.137
1532281478.609,43.945,25.391,24.414,40.527,352.539
1532281478.613,46.387,28.320,27.344,41.504,117.188
1532281478.617,44.922,30.273,27.832,41.016,-292.480
1532281478.621,45.898,31.250,25.879,42.969,-150.391
1532281478.624,44.434,29.297,27.344,42.969,294.434
1532281478.628,43.945,27.832,28.809,41.504,255.371
1532281478.632,39.062,27.344,28.809,40.527,-168.457
1532281478.636,39.062,27.344,31.738,39.551,-219.238
1532281478.640,41.016,27.344,31.738,37.598,182.617
1532281478.644,38.574,26.367,30.273,35.645,286.621
1532281478.648,40.039,27.344,31.250,33.203,-75.195
1532281478.652,40.527,28.809,29.785,32.227,-250.488
1532281478.656,38.086,29.297,28.320,34.180,77.637
1532281478.660,35.156,29.785,27.344,32.227,320.312
1532281478.664,29.785,27.832,28.809,29.297,15.137
1532281478.667,30.273,27.344,32.715,32.227,-294.434
1532281478.671,34.668,28.320,31.250,39.062,-44.922
1532281478.675,38.574,28.809,29.785,40.527,304.199
1532281478.679,38.574,30.273,32.715,28.809,115.723
1532281478.683,35.156,28.809,32.715,25.879,-250.000
1532281478.687,35.156,26.367,30.762,38.086,-123.535
1532281478.691,39.062,26.855,30.762,41.504,279.297
1532281478.695,38.086,27.832,32.227,38.574,243.164
1532281478.699,38.086,33.203,33.203,35.156,-184.570
1532281478.703,43.457,33.203,36.133,38.574,-250.000
1532281478.707,42.969,32.227,39.062,46.387,172.363
1532281478.710,38.574,34.668,39.551,43.457,343.262
1532281478.714,40.527,37.109,40.039,37.109,-28.809
1532281478.718,44.434,38.086,39.062,35.156,-280.762
1532281478.722,41.992,35.156,39.551,38.574,41.016
1532281478.726,40.527,31.250,39.062,41.504,345.703
1532281478.730,41.504,31.250,39.062,38.086,57.617
1532281478.734,42.969,31.250,40.039,37.109,-280.762
1532281478.738,41.504,32.715,38.574,41.504,-82.031
1532281478.742,39.062,34.180,38.574,41.504,302.246
1532281478.746,41.016,34.180,41.504,36.621,188.477
1532281478.749,41.504,34.180,41.504,35.156,-197.266
1532281478.753,41.992,31.250,40.039,38.086,-134.766
1532281478.757,41.504,30.762,38.574,41.016,252.930
1532281478.761,40.527,32.227,38.574,39.062,256.836
1532281478.765,42.969,35.645,40.039,38.086,-146.484
1532281478.769,42.480,36.621,41.504,38.574,-257.324
1532281478.773,47.852,35.645,40.039,44.922,154.785
1532281478.777,51.270,37.109,42.480,43.945,329.102
1532281478.781,43.457,35.156,42.480,37.598,-43.945
1532281478.785,43.457,36.621,40.039,39.551,-247.559
1532281478.789,49.805,39.551,40.039,43.945,51.758
1532281478.792,49.805,37.598,40.039,43.945,320.312
1532281478.796,47.852,38.086,40.039,35.156,78.613
1532281478.800,44.922,40.039,40.039,33.691,-258.301
1532281478.804,42.480,36.621,39.062,38.574,-89.844
1532281478.808,44.434,37.109,37.598,40.039,293.457
1532281478.812,40.039,40.039,38.086,40.039,219.727
1532281478.816,34.668,38.086,41.992,33.203,-200.195
1532281478.820,34.180,38.086,40.039,30.762,-206.055
1532281478.824,35.156,39.062,37.598,37.598,220.703
1532281478.828,39.551,40.039,41.992,38.574,288.574
1532281478.832,36.621,40.527,42.969,32.227,-100.098
1532281478.835,33.691,41.504,41.504,27.832,-254.883
1532281478.839,36.133,40.039,42.480,30.762,105.957
1532281478.843,34.180,39.551,44.434,30.273,338.867
1532281478.847,29.785,41.504,46.387,22.949,1.953
1532281478.851,24.902,41.016,44.434,19.043,-250.000
1532281478.855,24.414,39.551,41.992,21.973,26.855
1532281478.859,28.320,39.551,42.480,15.625,318.848
1532281478.863,24.414,38.574,44.434,7.812,118.164
1532281478.867,23.438,36.621,46.387,14.160,-259.766
1532281478.871,24.902,36.621,44.922,17.578,-145.996
1532281478.874,20.020,38.574,43.945,15.137,264.648
1532281478.878,20.508,43.457,45.410,15.137,214.844
1532281478.882,19.531,45.410,43.945,12.695,-176.270
1532281478.886,17.578,41.504,41.504,13.672,-179.199
1532281478.890,13.184,38.574,42.480,15.625,213.379
1532281478.894,13.184,39.551,44.434,12.207,312.988
1532281478.898,18.555,42.969,44.434,9.766,-62.500
1532281478.902,20.020,45.410,43.457,9.277,-257.812
1532281478.906,14.160,40.039,46.387,10.254,83.496
1532281478.910,10.254,38.086,51.758,9.277,328.613
1532281478.914,16.602,39.062,51.758,9.766,49.316
1532281478.917,20.508,38.574,50.781,4.883,-284.180
1532281478.921,17.578,39.062,49.316,4.883,-67.383
1532281478.925,11.230,36.621,46.387,10.742,332.520
1532281478.929,8.301,34.180,48.340,4.395,175.781
1532281478.933,8.301,34.180,49.805,4.395,-235.352
1532281478.937,11.719,33.691,49.316,10.742,-175.781
1532281478.941,14.160,31.738,50.293,16.113,243.164
1532281478.945,13.184,30.762,50.293,17.578,261.719
1532281478.949,13.184,33.691,50.293,12.207,-153.320
1532281478.953,12.695,34.668,48.828,13.184,-226.074
1532281478.956,16.113,36.133,45.410,11.230,154.297
1532281478.960,20.996,41.016,43.457,6.348,292.480
1532281478.964,21.484,39.062,43.457,7.812,-54.199
1532281478.968,17.578,35.645,43.457,7.324,-269.531
1532281478.972,15.625,35.645,45.410,14.648,66.406
1532281478.976,19.043,36.621,45.410,19.531,363.281
1532281478.980,18.066,36.133,41.016,12.695,73.730
1532281478.984,15.137,38.086,39.062,11.230,-273.438
1532281478.988,15.625,38.086,39.062,18.066,-91.309
1532281478.992,14.160,35.156,38.574,20.020,287.109
1532281478.996,14.160,35.645,37.598,11.230,187.012
1532281478.999,14.160,35.156,38.574,4.883,-233.887
1532281479.003,14.160,34.180,41.016,12.207,-200.684
1532281479.007,21.484,37.109,41.504,20.508,224.609
1532281479.011,25.391,36.133,40.527,22.461,281.250
1532281479.015,21.484,35.156,38.574,17.090,-114.258
1532281479.019,19.043,37.109,39.062,13.184,-246.094
1532281479.023,16.113,34.668,37.109,16.602,128.906
1532281479.027,17.578,32.715,35.645,16.602,330.566
1532281479.031,24.414,31.738,37.598,17.090,2.930
1532281479.035,26.855,33.691,38.086,22.949,-243.652
1532281479.039,25.879,35.645,36.133,20.508,10.742
1532281479.042,25.879,35.156,37.109,19.043,328.613
1532281479.046,21.484,32.715,39.062,20.996,108.398
1532281479.050,20.996,30.762,40.527,19.043,-266.113
1532281479.054,25.391,31.250,41.016,20.020,-101.562
1532281479.058,22.949,34.668,38.574,17.578,256.348
1532281479.062,15.625,32.715,38.086,9.766,197.754
1532281479.066,11.719,31.250,39.062,10.742,-205.566
1532281479.070,17.090,32.715,38.574,19.531,-219.238
1532281479.074,22.949,31.738,37.598,21.484,203.613
1532281479.078,20.508,34.180,36.133,16.602,279.785
1532281479.081,14.160,35.156,36.133,12.207,-101.074
1532281479.085,15.625,34.180,38.086,8.789,-275.879
1532281479.089,17.090,32.715,37.109,10.742,71.777
1532281479.093,16.113,31.250,36.133,13.672,356.934
1532281479.097,21.484,36.621,39.551,7.812,21.973
1532281479.101,24.414,40.527,39.062,2.441,-282.715
1532281479.105,28.809,37.109,35.156,11.230,-4.883
1532281479.109,34.180,31.738,36.621,17.090,331.543
1532281479.113,36.133,26.855,36.621,16.602,147.949
1532281479.117,36.133,22.949,35.156,20.996,-258.789
1532281479.121,35.156,19.043,34.180,27.832,-119.141
1532281479.124,31.250,14.648,34.668,30.762,310.547
1532281479.128,26.367,11.719,39.551,33.691,244.141
1532281479.132,29.297,8.789,42.969,39.062,-190.430
1532281479.136,34.180,7.812,42.969,36.621,-257.324
1532281479.140,28.809,7.812,39.551,28.320,163.086
1532281479.144,22.461,7.324,38.574,30.762,310.059
1532281479.148,24.414,7.812,40.527,34.668,-78.613
1532281479.152,26.855,5.859,41.504,36.133,-259.766
1532281479.156,25.391,2.441,40.527,38.086,83.496
1532281479.160,26.367,1.465,39.062,39.062,326.172
1532281479.164,32.227,2.441,39.551,38.574,41.504
1532281479.167,31.250,4.395,36.133,32.715,-287.598
1532281479.171,25.391,3.906,33.203,31.738,-63.477
1532281479.175,24.414,3.418,34.180,29.297,305.176
1532281479.179,26.855,3.906,35.645,21.973,152.344
1532281479.183,23.438,3.906,34.668,20.996,-238.281
1532281479.187,23.438,5.859,34.180,27.344,-165.527
1532281479.191,25.879,5.371,33.691,31.250,250.000
1532281479.195,20.508,3.906,31.738,26.855,281.738
1532281479.199,15.137,4.883,29.785,16.113,-152.344
1532281479.203,18.066,6.348,24.902,14.648,-251.953
1532281479.206,25.879,6.348,23.926,22.461,148.926
1532281479.210,25.879,4.883,24.414,20.508,333.008
1532281479.214,23.926,6.836,24.902,19.043,-6.348
1532281479.218,25.391,7.812,25.879,20.020,-273.926
1532281479.222,23.438,4.395,24.902,21.973,38.574
1532281479.226,21.484,4.395,24.902,21.973,347.168
1532281479.230,21.484,6.348,25.879,18.066,78.125
1532281479.234,23.926,8.789,27.344,17.578,-275.391
1532281479.238,24.902,8.301,27.832,22.949,-96.191
1532281479.242,25.879,5.859,25.879,23.438,312.012
1532281479.246,29.297,10.254,24.902,19.531,209.961
1532281479.249,28.320,16.113,25.391,20.508,-208.008
1532281479.253,23.926,17.578,24.414,23.926,-174.316
1532281479.257,26.367,19.043,23.438,30.273,229.004
1532281479.261,33.691,21.484,25.879,32.715,282.715
1532281479.265,36.621,23.438,27.344,29.297,-116.211
1532281479.269,39.062,23.926,27.344,29.785,-268.555
1532281479.273,37.598,23.926,24.902,31.250,101.562
1532281479.277,33.203,27.344,25.879,23.438,312.012
1532281479.281,30.273,32.227,27.832,14.648,-2.441
1532281479.285,31.738,30.762,25.879,22.461,-247.559
1532281479.288,35.156,28.809,24.414,29.297,18.066
1532281479.292,36.133,32.227,22.949,28.809,341.797
1532281479.296,34.668,37.598,25.391,27.832,117.188
1532281479.300,35.645,40.527,27.344,28.320,-253.418
1532281479.304,44.434,41.016,27.344,33.691,-140.137
1532281479.308,48.828,39.551,24.902,36.133,280.762
1532281479.312,50.293,41.016,25.391,36.133,258.301
1532281479.316,51.270,43.945,28.320,35.156,-169.922
1532281479.320,49.316,40.527,27.832,37.598,-186.035
1532281479.324,48.340,38.086,28.320,44.922,203.613
1532281479.328,47.852,41.992,28.320,47.852,303.223
1532281479.331,49.316,42.969,30.762,46.387,-72.754
1532281479.335,49.316,42.480,28.809,43.945,-271.484
1532281479.339,46.875,43.457,23.438,40.039,68.848
1532281479.343,42.969,41.992,24.902,40.039,308.594
1532281479.347,42.480,41.992,28.320,39.551,45.410
1532281479.351,45.410,43.457,26.855,37.109,-236.328
1532281479.355,44.434,40.039,26.367,39.551,-28.320
1532281479.359,44.434,39.062,28.320,39.062,326.660
1532281479.363,43.945,40.527,26.855,35.645,196.289
1532281479.367,42.969,41.504,28.320,34.668,-230.469
1532281479.371,44.434,43.457,30.273,38.086,-154.785
1532281479.374,45.410,42.969,29.785,45.410,273.438
1532281479.378,46.875,40.527,30.762,42.480,231.934
1532281479.382,47.852,42.969,30.762,39.062,-168.457
1532281479.386,49.316,43.457,28.809,42.480,-217.285
1532281479.390,48.340,41.992,31.250,43.457,156.250
1532281479.394,43.945,44.434,34.180,43.945,321.289
1532281479.398,40.039,41.016,33.203,38.086,-35.156
1532281479.402,41.504,37.598,31.738,39.062,-268.555
1532281479.406,45.410,37.109,31.738,47.363,48.340
1532281479.410,44.434,36.133,34.180,46.387,335.449
1532281479.413,39.062,38.086,34.668,41.504,78.125
1532281479.417,39.062,40.527,34.180,39.062,-285.645
1532281479.421,44.434,39.062,33.203,41.016,-71.289
1532281479.425,44.434,37.109,31.738,39.062,314.941
1532281479.429,38.574,39.551,32.715,35.156,177.246
1532281479.433,37.109,40.039,32.715,35.156,-211.914
1532281479.437,40.527,36.133,34.180,34.668,-187.012
1532281479.441,41.992,32.715,35.156,35.645,210.938
1532281479.445,42.480,32.227,34.668,40.527,273.438
1532281479.449,44.434,33.691,35.156,41.504,-125.488
1532281479.453,45.410,34.180,33.691,41.992,-230.469
1532281479.456,42.480,34.180,33.691,43.457,126.465
1532281479.460,39.062,34.668,34.668,40.527,316.895
1532281479.464,39.551,34.180,32.227,39.062,10.742
1532281479.468,43.945,35.156,34.180,41.016,-273.926
1532281479.472,49.805,36.133,35.156,48.340,10.742
1532281479.476,51.270,36.621,35.156,54.199,334.473
1532281479.480,47.852,38.086,35.645,49.805,97.168
1532281479.484,47.363,37.109,38.086,45.898,-233.887
1532281479.488,49.805,36.621,41.016,48.340,-73.242
1532281479.492,45.898,36.621,40.039,48.828,307.129
1532281479.496,41.992,36.621,37.598,41.504,233.398
1532281479.499,42.480,37.598,38.086,33.203,-203.125
1532281479.503,41.016,37.598,37.598,35.645,-205.566
1532281479.507,39.062,35.645,35.156,41.016,219.727
1532281479.511,34.668,35.645,36.621,38.086,280.273
1532281479.515,37.598,36.133,40.039,37.109,-122.070
1532281479.519,43.945,37.109,37.598,35.645,-297.363
1532281479.523,45.898,39.551,38.574,36.133,72.266
1532281479.527,38.574,39.062,41.992,40.527,319.336
1532281479.531,32.715,39.062,41.992,41.504,3.418
1532281479.535,32.715,40.527,41.504,38.574,-284.180
1532281479.538,31.250,38.086,39.551,38.086,-41.992
1532281479.542,35.645,37.109,35.156,41.016,318.359
1532281479.546,41.504,39.551,35.645,36.621,150.391
1532281479.550,41.992,40.039,40.527,35.645,-250.000
1532281479.554,40.527,37.598,41.016,42.480,-166.504
1532281479.558,43.945,35.156,39.062,45.898,247.070
1532281479.562,46.387,35.156,38.086,46.387,231.934
1532281479.566,45.898,38.086,41.016,45.410,-176.758
1532281479.570,49.805,38.086,41.992,45.410,-223.633
1532281479.574,53.711,35.645,41.992,53.223,193.848
1532281479.578,55.176,38.086,41.992,49.805,295.410
1532281479.581,54.199,40.039,40.527,38.574,-107.422
1532281479.585,50.781,38.574,41.016,42.969,-274.902
1532281479.589,46.875,36.621,41.504,51.270,64.941
1532281479.593,45.410,37.598,41.016,53.223,338.867
1532281479.597,44.434,36.133,40.039,47.852,55.176
1532281479.601,44.434,33.691,40.527,41.504,-273.926
1532281479.605,45.898,34.180,42.480,41.504,-64.941
1532281479.609,43.945,35.645,41.016,41.992,299.316
1532281479.613,37.598,37.109,40.527,38.574,169.434
1532281479.617,33.203,36.621,44.434,32.715,-247.559
1532281479.620,32.227,36.133,45.410,32.715,-194.336
1532281479.624,34.668,37.109,43.945,36.621,271.484
1532281479.628,42.969,39.551,44.922,41.016,288.086
1532281479.632,45.410,39.551,46.875,40.527,-139.648
1532281479.636,38.086,39.551,47.852,37.109,-251.953
1532281479.640,38.574,40.039,44.922,38.086,133.301
1532281479.644,44.434,41.016,42.969,35.645,316.406
1532281479.648,42.969,40.527,42.480,31.250,-43.945
1532281479.652,39.551,40.039,41.504,33.691,-269.043
1532281479.656,34.668,39.551,41.016,33.691,29.785
1532281479.660,28.809,39.551,41.016,27.344,301.758
1532281479.663,28.320,37.109,41.016,22.949,75.195
1532281479.667,26.367,38.086,41.016,26.367,-260.742
1532281479.671,25.391,39.551,43.457,31.738,-74.707
1532281479.675,27.344,37.109,44.434,30.273,320.801
1532281479.679,31.738,38.086,44.922,29.785,202.637
1532281479.683,32.715,40.527,43.945,27.344,-224.121
1532281479.687,28.809,40.039,41.992,26.367,-205.566
1532281479.691,26.855,36.133,41.992,30.273,222.656
1532281479.695,24.902,34.668,41.992,25.879,259.277
1532281479.699,24.414,37.109,38.574,18.066,-167.969
1532281479.703,27.832,40.527,36.621,21.973,-274.902
1532281479.706,30.762,40.039,38.086,28.320,159.180
1532281479.710,34.180,41.016,38.574,28.809,367.188
1532281479.714,29.297,41.016,39.551,27.832,9.766
1532281479.718,28.320,38.574,41.016,28.320,-297.363
1532281479.722,34.668,36.621,39.062,38.086,-19.531
1532281479.726,37.598,40.039,40.039,47.852,349.609
1532281479.730,38.574,41.504,41.016,43.457,129.395
1532281479.734,41.016,38.086,39.551,41.016,-241.211
1532281479.738,46.875,37.109,39.062,48.828,-88.867
1532281479.742,49.316,40.039,38.574,51.270,286.621
1532281479.745,45.410,40.527,38.574,45.898,206.055
1532281479.749,41.016,40.039,39.551,40.527,-212.402
1532281479.753,40.527,38.574,39.551,38.574,-213.379
1532281479.757,41.504,34.668,39.062,42.969,208.984
1532281479.761,39.551,35.645,40.039,42.969,303.711
1532281479.765,39.062,34.668,42.480,39.062,-72.754
1532281479.769,40.039,31.250,42.480,41.504,-228.516
1532281479.773,41.992,30.762,42.480,46.875,115.234
1532281479.777,42.969,31.738,46.875,45.410,336.426
1532281479.781,41.016,35.156,51.270,39.062,18.555
1532281479.785,40.527,37.109,52.734,40.527,-273.438
1532281479.788,48.340,41.016,53.711,48.828,-30.762
1532281479.792,50.781,41.504,56.152,51.270,345.215
1532281479.796,46.875,41.504,54.688,42.480,173.828
1532281479.800,46.387,42.480,52.246,40.527,-250.000
1532281479.804,48.828,41.504,54.688,46.875,-138.184
1532281479.808,49.805,41.504,54.199,47.363,288.574
1532281479.812,45.898,41.016,53.223,43.457,285.156
1532281479.816,42.480,40.527,54.688,41.016,-143.555
1532281479.820,45.898,42.480,54.688,45.410,-240.723
1532281479.824,47.363,43.945,52.734,55.664,173.828
1532281479.828,46.387,44.922,52.246,55.176,346.191
1532281479.831,47.363,42.480,52.734,48.828,-21.484
1532281479.835,47.852,38.086,50.293,49.316,-268.066
1532281479.839,48.828,39.062,50.293,54.688,61.523
1532281479.843,46.875,40.039,51.758,55.176,345.703
1532281479.847,45.898,39.062,51.758,48.828,58.105
1532281479.851,46.387,37.598,48.828,45.410,-258.789
1532281479.855,47.363,35.645,45.898,44.922,-48.340
1532281479.859,49.805,37.598,44.922,38.086,278.809
1532281479.863,46.875,40.527,45.898,37.598,148.926
1532281479.867,41.992,38.574,46.875,41.992,-202.637
1532281479.870,41.504,37.109,45.410,46.387,-157.715
1532281479.874,46.387,41.504,48.340,53.711,235.352
1532281479.878,47.852,43.457,47.363,48.340,241.699
1532281479.882,44.922,38.574,47.852,41.992,-146.484
1532281479.886,50.293,41.016,50.293,43.945,-257.324
1532281479.890,55.664,45.410,46.875,46.875,107.910
1532281479.894,58.105,45.410,45.898,46.387,312.012
1532281479.898,62.012,49.805,47.852,37.598,-45.410
1532281479.902,61.523,50.293,46.387,34.180,-307.129
1532281479.906,62.988,49.316,44.922,41.504,7.324
1532281479.910,66.895,49.316,45.898,43.945,335.449
1532281479.913,63.477,46.875,44.922,41.016,94.238
1532281479.917,56.152,45.898,42.969,39.551,-272.949
1532281479.921,43.945,43.945,41.016,45.410,-109.863
1532281479.925,34.180,41.504,38.574,49.805,293.457
1532281479.929,31.250,39.062,38.574,45.898,226.562
1532281479.933,29.297,36.621,38.086,42.480,-183.105
1532281479.937,31.250,36.621,40.039,42.480,-229.980
1532281479.941,30.762,35.645,39.062,40.039,157.715
1532281479.945,31.250,35.645,39.062,39.062,279.785
1532281479.949,30.762,35.156,40.039,32.715,-100.098
1532281479.952,30.273,34.180,36.621,28.320,-244.629
1532281479.956,30.762,33.203,37.598,31.250,108.887
1532281479.960,29.297,33.691,37.109,28.809,309.570
1532281479.964,23.438,31.738,35.156,20.996,14.648
1532281479.968,19.531,33.203,37.598,20.508,-244.629
1532281479.972,19.531,32.715,35.156,24.902,-3.906
1532281479.976,20.996,32.227,31.738,23.438,303.223
1532281479.980,18.066,32.227,33.691,16.602,107.422
1532281479.984,17.090,32.227,36.133,17.578,-246.582
1532281479.988,21.973,36.133,34.668,20.996,-132.812
1532281479.992,21.484,35.645,33.203,21.973,291.016
1532281479.995,17.578,33.203,34.180,20.996,257.324
1532281479.999,19.531,36.133,35.645,16.113,-200.684
1532281480.003,19.531,35.156,35.645,20.020,-218.750
1532281480.007,23.438,31.250,36.133,29.297,212.402
1532281480.011,29.785,30.273,37.598,29.785,345.215
1532281480.015,30.273,30.762,38.574,24.902,-36.621
1532281480.019,32.227,35.156,35.156,20.508,-261.230
1532281480.023,28.320,36.621,31.738,19.043,63.477
1532281480.027,14.160,33.691,33.691,13.672,338.379
1532281480.031,9.277,32.715,35.645,6.836,53.223
1532281480.035,16.602,35.156,38.574,9.766,-281.738
1532281480.038,20.020,36.621,39.062,5.859,-65.918
1532281480.042,17.090,33.203,34.180,0.977,305.664
1532281480.046,12.695,32.227,29.297,2.441,183.105
1532281480.050,14.160,36.621,29.785,0.488,-211.426
1532281480.054,14.160,35.156,33.203,3.906,-150.391
1532281480.058,10.254,32.715,32.715,4.395,256.836
1532281480.062,8.789,34.668,32.715,2.441,270.508
1532281480.066,5.371,35.156,31.738,1.465,-125.977
1532281480.070,5.859,34.668,31.738,2.441,-212.891
1532281480.074,6.836,32.715,30.273,6.348,147.949
1532281480.077,3.906,31.738,27.344,-1.953,304.199
1532281480.081,9.277,35.156,31.250,-3.906,-41.992
1532281480.085,16.113,35.156,33.203,4.883,-260.254
1532281480.089,12.207,31.738,31.250,6.836,54.688
1532281480.093,8.301,31.738,33.691,7.812,332.520
1532281480.097,10.742,33.691,33.203,5.371,46.875
1532281480.101,12.695,34.180,32.715,3.418,-303.711
1532281480.105,9.766,30.762,33.203,7.812,-76.660
1532281480.109,11.719,26.855,30.762,11.719,343.750
1532281480.113,17.578,30.273,31.250,11.719,218.750
1532281480.117,14.648,29.297,29.785,7.324,-216.309
1532281480.120,16.602,28.809,27.832,11.230,-207.520
1532281480.124,16.602,30.762,28.809,12.695,206.543
1532281480.128,15.137,27.832,30.273,9.277,271.484
1532281480.132,19.531,28.320,31.738,7.812,-123.535
1532281480.136,19.531,32.227,27.344,2.441,-248.535
1532281480.140,20.020,32.715,25.391,1.465,109.375
1532281480.144,18.066,31.738,25.879,0.488,324.707
1532281480.148,12.695,31.250,24.902,-4.395,-7.324
1532281480.152,12.207,29.297,23.438,-1.465,-296.387
1532281480.156,11.230,27.344,22.949,3.906,-22.949
1532281480.160,7.812,26.367,24.414,4.883,306.641
1532281480.163,6.836,23.926,27.344,8.301,106.445
1532281480.167,10.742,22.461,26.855,6.348,-270.508
1532281480.171,12.207,24.902,27.344,9.277,-134.766
1532281480.175,12.207,26.367,29.785,14.160,269.531
1532281480.179,15.625,25.879,30.273,6.348,197.754
1532281480.183,19.043,27.832,31.250,9.766,-183.594
1532281480.187,20.996,29.785,30.762,17.578,-176.758
1532281480.191,22.461,31.738,28.320,19.531,219.238
1532281480.195,24.414,31.738,27.344,21.973,307.617
1532281480.199,25.391,36.133,24.414,20.020,-110.840
1532281480.202,25.879,37.109,25.879,17.578,-277.344
1532281480.206,23.438,34.180,29.297,21.973,112.793
1532281480.210,20.508,34.180,28.320,20.996,368.164
1532281480.214,20.020,34.668,26.367,16.113,29.785
1532281480.218,20.508,34.668,24.902,10.254,-305.176
1532281480.222,21.484,32.715,25.879,10.742,-31.738
1532281480.226,19.531,31.738,26.367,19.043,335.938
1532281480.230,17.578,33.203,26.367,19.531,192.383
1532281480.234,20.508,34.668,25.391,20.020,-204.102
1532281480.238,22.461,33.203,27.832,25.879,-163.086
1532281480.242,23.926,31.738,31.250,32.227,241.699
1532281480.245,22.949,32.715,28.320,27.832,244.629
1532281480.249,20.508,35.156,22.949,18.555,-174.805
1532281480.253,20.020,39.551,20.020,18.555,-225.098
1532281480.257,18.555,40.039,19.531,22.461,196.289
1532281480.261,16.113,36.621,23.438,21.484,306.641
1532281480.265,17.578,36.621,28.320,18.066,-62.500
1532281480.269,20.508,37.598,26.855,17.090,-276.367
1532281480.273,22.461,36.133,24.902,20.508,39.062
1532281480.277,26.367,34.668,28.320,20.020,312.500
1532281480.281,22.949,33.203,30.762,12.695,33.691
1532281480.284,17.090,31.738,31.250,13.672,-285.645
1532281480.288,15.625,30.273,28.809,20.508,-49.805
1532281480.292,20.508,29.785,27.344,22.949,349.121
1532281480.296,25.879,28.809,27.344,23.926,205.566
1532281480.300,27.344,26.367,27.344,25.391,-203.125
1532281480.304,29.785,27.344,30.762,29.785,-168.457
1532281480.308,33.203,31.738,29.297,32.715,231.445
1532281480.312,32.715,34.180,25.879,32.227,279.785
1532281480.316,25.879,31.738,30.762,22.949,-142.090
1532281480.320,25.879,30.762,31.738,15.625,-283.203
1532281480.324,28.320,31.250,27.344,20.508,128.418
1532281480.327,28.320,28.809,26.367,22.949,310.059
1532281480.331,29.785,24.902,30.762,23.438,-52.734
1532281480.335,30.273,24.414,34.180,22.949,-264.648
1532281480.339,30.273,25.879,30.762,22.461,26.367
1532281480.343,28.320,24.414,27.344,25.391,349.121
1532281480.347,22.949,23.438,31.250,19.531,118.164
1532281480.351,21.973,23.926,33.203,20.996,-263.672
1532281480.355,28.809,23.438,32.715,27.832,-131.836
1532281480.359,27.344,25.391,32.715,19.043,241.699
1532281480.363,20.020,25.879,34.180,16.113,211.914
1532281480.367,17.578,23.926,35.156,22.949,-174.805
1532281480.370,20.020,23.438,30.762,26.367,-170.410
1532281480.374,23.926,26.367,27.832,30.273,239.258
1532281480.378,25.391,27.832,26.367,28.320,299.316
1532281480.382,24.414,28.320,27.832,22.949,-84.961
1532281480.386,23.438,26.367,26.855,22.949,-246.582
1532281480.390,28.809,25.879,24.902,29.785,100.098
1532281480.394,29.297,26.855,23.438,30.762,343.750
1532281480.398,24.414,27.344,24.902,22.461,34.668
1532281480.402,21.973,28.809,27.832,21.973,-281.738
1532281480.406,26.367,30.273,27.344,25.879,-41.016
1532281480.409,28.809,28.809,26.855,24.902,328.125
1532281480.413,24.902,27.832,25.391,18.555,153.320
1532281480.417,20.508,27.344,24.414,12.207,-250.977
1532281480.421,16.113,25.391,24.414,12.207,-110.840
1532281480.425,18.555,25.391,26.367,20.508,306.641
1532281480.429,21.484,25.391,30.762,20.508,264.648
1532281480.433,19.043,23.926,30.762,17.578,-146.973
1532281480.437,21.973,22.949,31.250,20.508,-217.285
1532281480.441,21.973,20.508,30.762,24.902,192.383
1532281480.445,12.695,16.602,31.738,26.367,318.848
1532281480.449,12.695,15.625,35.645,22.949,-76.172
1532281480.452,19.531,17.578,32.227,27.832,-291.992
1532281480.456,22.949,17.578,29.297,32.227,41.992
1532281480.460,21.973,15.625,28.320,27.832,339.355
1532281480.464,23.438,16.113,28.320,24.414,65.918
1532281480.468,28.320,17.090,27.832,27.344,-295.410
1532281480.472,34.180,21.973,22.949,31.250,-70.801
1532281480.476,37.598,23.926,19.531,30.273,306.152
1532281480.480,31.250,20.996,19.043,18.066,125.977
1532281480.484,30.762,21.484,23.926,18.555,-267.090
1532281480.488,36.133,25.391,24.902,33.203,-153.320
1532281480.492,36.621,23.438,20.508,38.086,269.531
1532281480.495,33.203,21.484,20.020,33.203,276.855
1532281480.499,28.809,18.555,21.973,23.438,-150.879
1532281480.503,26.855,16.113,23.438,22.949,-231.445
1532281480.507,26.367,16.602,20.020,28.809,166.992
1532281480.511,27.832,19.043,19.043,30.273,328.613
1532281480.515,29.297,21.484,20.508,30.273,-5.859
1532281480.519,28.809,22.461,17.090,25.879,-250.977
1532281480.523,28.809,22.461,17.090,26.855,63.965
1532281480.527,24.902,21.484,20.020,29.785,378.906
1532281480.531,23.438,23.438,19.043,25.879,89.844
1532281480.534,25.879,22.949,20.020,24.414,-278.809
1532281480.538,27.344,18.555,20.996,24.902,-81.055
1532281480.542,26.855,18.555,20.508,23.438,308.105
1532281480.546,21.973,19.043,23.926,20.996,190.430
1532281480.550,21.973,17.090,25.391,22.461,-225.586
1532281480.554,28.320,17.578,20.996,31.250,-196.777
1532281480.558,31.250,17.090,20.996,33.203,191.406
1532281480.562,27.832,19.043,21.484,25.879,259.766
1532281480.566,30.762,21.484,19.531,25.391,-89.844
1532281480.570,37.598,22.461,21.484,32.227,-238.770
1532281480.574,36.621,22.949,23.926,38.574,141.602
1532281480.577,32.715,22.949,22.949,33.203,331.543
1532281480.581,32.715,25.391,23.926,31.738,5.859
1532281480.585,37.109,29.297,23.926,36.621,-241.211
1532281480.589,38.574,27.832,19.531,39.062,-15.137
1532281480.593,31.738,26.367,19.531,39.062,316.895
1532281480.597,29.785,28.809,20.020,27.832,113.281
1532281480.601,33.203,29.785,19.531,22.949,-280.273
1532281480.605,33.691,27.832,19.531,31.250,-116.699
1532281480.609,33.203,28.320,20.996,35.156,296.387
1532281480.613,30.273,28.320,22.461,32.715,244.629
1532281480.616,30.762,27.832,26.367,31.250,-171.875
1532281480.620,35.156,28.320,25.879,33.691,-200.684
1532281480.624,37.109,30.273,21.973,36.133,230.469
1532281480.628,33.203,30.762,23.926,31.250,324.707
1532281480.632,30.762,30.273,25.879,27.344,-65.430
1532281480.636,29.785,27.832,25.391,28.320,-248.535
1532281480.640,28.809,28.320,25.391,22.461,63.965
1532281480.644,28.809,29.785,26.367,24.414,320.801
1532281480.648,24.902,25.391,26.855,29.297,36.133
1532281480.652,26.855,23.926,28.320,32.715,-290.039
1532281480.656,27.832,23.926,26.855,37.109,-32.227
1532281480.659,25.391,23.926,26.855,37.109,353.516
1532281480.663,25.879,25.879,29.785,36.621,177.246
1532281480.667,26.855,26.367,29.785,35.156,-229.492
1532281480.671,29.297,26.367,27.344,37.598,-133.301
1532281480.675,33.691,27.832,27.832,41.992,265.625
1532281480.679,36.621,30.273,30.273,36.133,256.348
1532281480.683,38.574,31.250,30.273,30.762,-138.672
1532281480.687,39.551,29.297,27.832,29.785,-229.004
1532281480.691,39.062,30.273,27.344,32.715,173.828
1532281480.695,34.668,30.273,25.879,30.762,336.426
1532281480.699,36.621,29.297,23.926,24.902,-66.406
1532281480.702,39.062,31.738,24.414,25.391,-299.316
1532281480.706,35.156,32.715,24.414,30.762,61.523
1532281480.710,35.156,32.715,24.902,31.738,359.375
1532281480.714,37.598,32.715,22.461,26.855,78.125
1532281480.718,39.551,33.203,22.461,24.902,-287.109
1532281480.722,42.480,36.133,22.949,26.367,-78.613
1532281480.726,43.457,36.133,23.926,22.461,325.195
1532281480.730,41.504,34.668,24.902,17.578,183.105
1532281480.734,43.457,31.738,24.414,21.973,-242.676
1532281480.738,40.527,29.297,27.832,21.484,-197.754
1532281480.741,29.297,28.320,29.297,25.879,230.957
1532281480.745,27.832,30.273,30.762,38.574,291.504
1532281480.749,29.785,33.203,31.738,40.039,-121.094
1532281480.753,25.391,33.203,28.320,38.086,-250.488
1532281480.757,22.461,33.203,30.273,38.574,127.930
1532281480.761,18.066,29.785,30.273,35.156,317.871
1532281480.765,19.043,27.832,30.273,31.250,-40.527
1532281480.769,25.391,30.762,30.273,30.762,-288.574
1532281480.773,28.320,32.715,27.832,33.691,38.086
1532281480.777,27.832,30.762,29.297,30.762,327.637
1532281480.781,26.367,31.250,28.809,20.508,76.660
1532281480.784,30.762,32.715,25.879,18.555,-255.859
1532281480.788,35.645,31.738,25.391,26.855,-69.824
1532281480.792,36.133,29.785,28.809,35.645,315.918
1532281480.796,31.738,27.344,32.715,32.715,187.988
1532281480.800,29.785,28.320,32.227,26.367,-224.121
1532281480.804,30.273,27.344,27.832,29.785,-193.848
1532281480.808,29.785,23.926,28.809,35.156,216.797
1532281480.812,30.273,25.879,31.738,33.203,307.129
1532281480.816,27.832,26.855,33.691,26.855,-112.793
1532281480.820,20.996,22.949,31.738,25.879,-294.434
1532281480.824,20.020,21.484,28.809,32.227,99.609
1532281480.827,21.484,22.949,31.738,32.227,338.379
1532281480.831,24.902,22.949,33.691,29.297,12.207
1532281480.835,29.785,24.414,32.715,34.180,-291.504
1532281480.839,27.832,24.902,31.738,32.715,-41.992
1532281480.843,27.344,26.855,31.738,30.762,309.082
1532281480.847,34.668,27.832,31.250,33.691,116.699
1532281480.851,39.551,26.855,29.785,35.156,-270.020
1532281480.855,41.504,27.344,28.809,39.062,-133.301
1532281480.859,41.504,28.809,25.879,38.086,281.250
1532281480.863,38.086,31.250,28.809,32.715,242.676
1532281480.866,31.250,28.809,34.668,29.297,-154.785
1532281480.870,25.879,24.902,34.668,28.809,-184.082
1532281480.874,26.367,26.367,35.156,34.180,201.172
1532281480.878,30.762,27.344,34.180,28.809,272.949
1532281480.882,34.180,29.785,33.203,21.484,-119.629
1532281480.886,31.738,30.762,34.180,27.832,-283.691
1532281480.890,33.203,29.785,30.762,31.738,71.289
1532281480.894,35.156,32.715,29.297,32.227,354.492
1532281480.898,27.344,34.180,32.715,26.367,47.852
1532281480.902,20.508,33.691,35.156,15.625,-270.508
1532281480.906,21.973,30.762,35.156,18.066,-31.738
1532281480.909,26.367,27.832,36.133,26.367,340.332
1532281480.913,31.250,31.738,35.156,25.391,183.594
1532281480.917,33.691,33.203,35.156,25.391,-228.027
1532281480.921,27.344,30.273,36.133,24.414,-143.066
1532281480.925,21.484,31.250,35.645,22.461,267.090
1532281480.929,22.461,33.203,36.133,22.461,248.535
1532281480.933,27.832,30.273,36.621,27.832,-154.785
1532281480.937,36.133,29.297,37.109,32.715,-241.211
1532281480.941,40.527,35.156,39.551,33.691,155.762
1532281480.945,36.621,35.156,38.574,34.180,330.078
1532281480.948,34.668,33.203,36.133,27.344,-40.039
1532281480.952,41.016,35.156,35.156,24.902,-280.273
1532281480.956,44.434,36.133,37.109,30.273,40.527
1532281480.960,41.504,38.574,37.109,32.715,346.680
1532281480.964,38.574,38.086,36.133,28.320,98.633
1532281480.968,35.156,39.551,32.715,20.508,-251.465
1532281480.972,40.527,41.016,30.762,27.832,-82.520
1532281480.976,41.992,39.062,36.133,36.621,322.266
1532281480.980,37.598,40.039,38.574,28.809,186.035
1532281480.984,38.086,42.480,36.133,28.320,-232.910
1532281480.988,35.645,40.527,36.133,33.691,-174.805
1532281480.991,35.156,38.574,37.598,36.621,250.488
1532281480.995,42.480,40.527,35.156,34.180,294.922
1532281480.999,45.898,41.504,30.762,23.926,-126.953
1532281481.003,37.598,39.551,30.762,21.973,-240.723
1532281481.007,31.250,38.574,34.668,25.879,123.047
1532281481.011,29.785,40.039,32.715,24.414,304.199
1532281481.015,30.762,40.039,29.297,18.555,-18.555
1532281481.019,35.156,38.086,29.785,18.066,-316.406
1532281481.023,32.715,40.039,31.250,22.461,-29.297
1532281481.027,25.391,37.598,34.180,23.438,336.426
1532281481.031,21.484,37.109,32.715,20.020,104.980
1532281481.034,19.043,36.133,30.273,18.555,-275.391
1532281481.038,23.926,31.738,29.785,21.973,-124.023
1532281481.042,29.785,28.809,30.273,23.438,280.762
1532281481.046,26.855,23.926,31.738,20.996,239.746
1532281481.050,24.902,19.531,34.180,20.508,-183.105
1532281481.054,25.879,16.113,32.227,19.531,-207.031
1532281481.058,24.902,14.160,29.297,15.137,189.941
1532281481.062,20.508,15.137,31.738,13.672,276.855
1532281481.066,22.949,12.695,33.203,13.672,-85.449
1532281481.070,24.414,8.789,30.762,16.602,-245.117
1532281481.073,19.531,5.859,29.297,18.066,111.816
1532281481.077,18.555,4.395,32.227,11.719,316.895
1532281481.081,25.391,5.859,33.203,15.137,12.207
1532281481.085,35.156,7.324,34.668,28.320,-270.020
1532281481.089,37.598,4.395,35.156,35.156,-32.227
1532281481.093,35.156,2.441,35.645,31.250,320.801
1532281481.097,29.785,3.906,39.062,25.391,114.746
1532281481.101,28.809,3.906,39.551,25.879,-273.926
1532281481.105,33.203,2.441,37.109,32.715,-141.602
1532281481.109,34.668,2.930,37.109,35.156,281.250
1532281481.113,30.762,6.348,33.691,26.367,261.719
1532281481.116,22.461,7.812,31.738,16.113,-178.223
1532281481.120,20.020,8.301,33.203,13.184,-266.113
1532281481.124,28.320,10.742,33.691,20.020,150.391
1532281481.128,26.367,12.695,31.250,20.996,315.918
1532281481.132,14.160,12.207,30.273,15.137,-43.945
1532281481.136,11.719,12.695,28.809,17.578,-270.020
1532281481.140,14.160,15.137,29.297,20.996,63.965
1532281481.144,19.043,18.066,31.250,21.973,355.469
1532281481.148,24.414,21.973,33.203,20.996,54.199
1532281481.152,25.391,21.484,34.180,23.926,-263.184
1532281481.156,26.367,19.531,31.738,32.227,-63.477
