timestamps,TP9,AF7,AF8,TP10,Right AUX
1532373315.431,37.598,14.648,-70.801,52.734,36.133
1532373315.435,33.691,16.113,-72.266,41.504,71.289
1532373315.439,36.133,16.602,-69.336,36.133,28.320
1532373315.443,50.293,14.160,-64.453,47.852,-12.207
1532373315.447,42.480,14.648,-65.430,53.711,40.527
1532373315.451,29.785,17.090,-66.895,54.688,53.711
1532373315.454,34.180,18.066,-65.430,54.688,27.832
1532373315.458,37.598,20.020,-62.988,54.688,17.090
1532373315.462,34.180,25.391,-57.617,52.246,3.418
1532373315.466,39.062,26.855,-55.176,53.711,48.340
1532373315.470,35.156,23.438,-57.129,44.922,35.645
1532373315.474,30.273,24.902,-58.594,25.879,7.324
1532373315.478,34.180,26.855,-60.547,21.973,20.020
1532373315.482,41.016,26.367,-59.570,20.508,34.180
1532373315.486,54.199,25.879,-54.199,17.578,47.852
1532373315.490,52.734,25.391,-53.711,17.090,36.621
1532373315.494,49.805,24.902,-53.711,17.090,8.789
1532373315.497,49.316,24.902,-48.828,32.715,30.273
1532373315.501,42.969,28.320,-43.457,45.898,46.875
1532373315.505,37.598,28.320,-45.410,47.852,11.719
1532373315.509,30.762,24.414,-48.340,47.363,27.344
1532373315.513,24.902,24.902,-49.316,42.969,52.246
1532373315.517,24.414,25.391,-48.340,42.480,43.457
1532373315.521,20.996,20.996,-46.875,44.434,29.297
1532373315.525,10.254,19.043,-52.246,33.691,22.461
1532373315.529,8.301,21.484,-50.293,25.879,39.062
1532373315.533,19.531,23.438,-44.922,32.227,62.012
1532373315.536,30.762,25.879,-43.945,26.367,55.176
1532373315.540,19.531,25.879,-44.434,19.043,8.789
1532373315.544,9.766,25.879,-43.457,22.949,-13.672
1532373315.548,8.789,26.367,-40.527,20.020,37.109
1532373315.552,0.977,25.391,-40.527,13.672,49.805
1532373315.556,3.906,23.926,-41.504,13.672,31.738
1532373315.560,11.719,25.879,-40.039,8.301,18.066
1532373315.564,8.301,27.832,-38.086,0.977,23.926
1532373315.568,4.883,27.832,-39.551,5.371,49.805
1532373315.572,8.301,29.785,-39.551,9.277,32.227
1532373315.576,7.324,30.273,-39.551,9.766,27.344
1532373315.579,6.348,32.227,-40.039,10.254,21.973
1532373315.583,3.906,34.180,-33.691,5.859,30.273
1532373315.587,3.418,33.203,-33.203,7.324,37.109
1532373315.591,6.836,32.715,-37.109,6.348,1.953
1532373315.595,15.137,34.180,-36.133,-7.324,0.977
1532373315.599,20.508,35.156,-36.133,-12.695,33.203
1532373315.603,10.742,34.180,-34.180,-5.371,31.738
1532373315.607,8.789,33.691,-34.668,2.441,6.836
1532373315.611,12.207,36.621,-34.668,5.371,2.930
1532373315.615,15.137,40.039,-34.668,7.812,35.156
1532373315.618,14.160,41.504,-36.133,9.277,58.105
1532373315.622,8.301,36.621,-27.344,2.930,17.578
1532373315.626,4.883,29.297,-22.461,0.488,-19.531
1532373315.630,6.836,29.297,-25.391,10.254,27.832
1532373315.634,13.184,30.762,-24.414,11.230,71.289
1532373315.638,18.555,35.156,-24.414,14.160,32.715
1532373315.642,13.672,36.133,-26.855,10.742,8.301
1532373315.646,8.301,31.738,-29.297,15.137,28.809
1532373315.650,22.949,33.203,-29.297,29.297,55.664
1532373315.654,25.391,30.762,-28.809,24.902,53.223
1532373315.658,20.996,27.344,-28.809,15.625,5.371
1532373315.661,31.738,27.344,-27.832,20.508,4.883
1532373315.665,37.109,26.855,-28.320,24.414,58.105
1532373315.669,31.250,27.832,-28.320,20.996,56.152
1532373315.673,26.855,26.367,-29.785,20.020,19.531
1532373315.677,28.320,24.902,-32.715,23.926,4.395
1532373315.681,26.855,25.391,-31.738,24.414,4.395
1532373315.685,27.832,23.438,-30.762,32.227,2.930
1532373315.689,33.203,22.949,-34.668,29.785,-32.227
1532373315.693,40.039,23.926,-34.668,19.043,-16.113
1532373315.697,42.969,24.414,-31.738,18.066,17.578
1532373315.701,38.574,24.414,-31.250,22.461,10.742
1532373315.704,35.645,25.391,-35.645,36.621,-5.371
1532373315.708,31.738,28.320,-38.086,40.527,16.602
1532373315.712,33.691,31.250,-36.621,35.645,5.859
1532373315.716,40.039,27.832,-32.227,42.480,9.277
1532373315.720,41.992,23.438,-32.715,47.363,31.738
1532373315.724,35.156,24.414,-34.668,49.805,-2.930
1532373315.728,39.062,25.391,-31.738,48.828,-7.812
1532373315.732,36.621,28.320,-31.250,50.293,13.672
1532373315.736,32.715,29.785,-33.203,54.688,30.762
1532373315.740,37.598,27.832,-34.180,56.152,-5.859
1532373315.743,31.738,28.809,-31.250,57.617,-26.855
1532373315.747,27.344,28.320,-28.809,58.105,14.648
1532373315.751,31.250,29.297,-24.902,58.105,41.504
1532373315.755,26.367,30.762,-26.367,60.547,32.227
1532373315.759,26.855,27.832,-29.297,65.430,29.297
1532373315.763,28.809,23.926,-26.855,62.500,18.555
1532373315.767,29.785,25.391,-22.461,70.312,13.184
1532373315.771,34.668,28.320,-20.996,70.801,27.832
1532373315.775,28.809,27.344,-30.273,52.246,2.441
1532373315.779,23.438,28.809,-29.785,49.316,-6.348
1532373315.783,28.809,32.715,-18.555,51.758,38.086
1532373315.786,34.668,35.645,-16.602,49.316,23.438
1532373315.790,39.551,35.645,-19.531,53.711,-9.277
1532373315.794,31.250,30.273,-20.508,41.992,0.000
1532373315.798,18.555,28.320,-18.066,33.691,19.043
1532373315.802,16.602,28.320,-13.184,40.039,17.090
1532373315.806,16.602,30.762,-19.043,35.645,11.230
1532373315.810,15.137,33.203,-26.855,35.156,28.809
1532373315.814,16.602,31.250,-21.973,39.551,58.594
1532373315.818,22.461,32.227,-19.531,42.480,52.734
1532373315.822,22.461,36.133,-11.719,30.762,-3.418
1532373315.825,10.254,33.203,-9.766,21.973,-33.691
1532373315.829,2.441,31.250,-16.602,24.414,10.742
1532373315.833,9.766,35.645,-15.625,27.344,47.363
1532373315.837,10.742,32.715,-10.254,33.691,43.457
1532373315.841,1.953,27.832,-1.953,35.645,16.113
1532373315.845,7.324,29.297,0.488,40.527,8.301
1532373315.849,19.531,31.738,0.000,50.781,47.363
1532373315.853,21.484,34.668,-11.230,51.758,66.895
1532373315.857,17.090,34.668,-36.133,35.645,29.297
1532373315.861,8.789,35.645,-28.320,19.043,11.719
1532373315.865,1.953,36.133,1.953,17.090,33.203
1532373315.868,2.441,35.645,5.371,20.508,43.945
1532373315.872,5.859,34.668,0.977,15.625,32.227
1532373315.876,3.418,37.598,-0.977,10.254,13.672
1532373315.880,1.953,39.062,-4.883,9.766,18.066
1532373315.884,9.277,36.621,-4.883,13.672,54.688
1532373315.888,12.207,36.621,-4.395,19.531,27.344
1532373315.892,11.230,37.109,-5.859,13.672,7.812
1532373315.896,10.254,35.645,-2.930,14.160,73.730
1532373315.900,11.719,38.086,-2.441,15.137,66.406
1532373315.904,9.277,36.621,-7.812,10.254,11.719
1532373315.908,1.465,31.250,-9.766,11.719,3.906
1532373315.911,-0.488,26.855,-6.836,14.160,19.043
1532373315.915,6.348,27.832,-7.812,17.578,56.641
1532373315.919,7.324,31.738,-11.719,21.484,78.613
1532373315.923,5.859,34.668,-11.719,14.648,35.156
1532373315.927,9.766,35.156,-8.301,14.648,17.578
1532373315.931,9.766,33.203,-5.859,25.879,71.289
1532373315.935,16.113,32.715,-3.906,32.227,99.609
1532373315.939,18.555,32.227,-2.441,27.832,83.008
1532373315.943,1.465,30.273,-4.395,16.602,39.062
1532373315.947,-2.930,30.762,-3.906,19.043,52.246
1532373315.950,6.836,34.180,1.465,26.855,91.797
1532373315.954,10.254,36.621,2.930,27.832,73.242
1532373315.958,6.348,34.180,0.000,22.949,37.109
1532373315.962,12.695,33.691,0.977,24.902,52.734
1532373315.966,14.648,37.109,1.465,25.391,84.473
1532373315.970,12.695,39.062,-0.977,27.832,50.293
1532373315.974,13.672,40.039,-2.930,27.344,35.645
1532373315.978,11.719,38.086,-1.465,25.391,58.594
1532373315.982,15.625,39.551,2.930,29.297,53.223
1532373315.986,11.230,41.992,1.953,32.227,50.781
1532373315.990,13.184,41.504,1.953,30.762,38.574
1532373315.993,15.137,40.527,4.395,27.344,30.273
1532373315.997,12.207,41.504,4.883,25.879,29.785
1532373316.001,11.230,42.969,6.348,25.879,58.105
1532373316.005,14.648,41.992,8.789,28.809,55.176
1532373316.009,13.184,43.457,7.812,29.785,27.832
1532373316.013,14.648,44.434,5.371,25.391,37.109
1532373316.017,20.020,41.016,8.789,27.344,61.035
1532373316.021,20.020,41.504,12.695,25.391,17.090
1532373316.025,19.043,43.945,14.160,25.391,-0.977
1532373316.029,15.137,42.969,13.672,31.250,29.785
1532373316.032,11.230,41.992,10.254,22.949,85.449
1532373316.036,15.137,42.969,7.812,20.508,90.332
1532373316.040,6.836,43.945,10.742,11.719,15.137
1532373316.044,6.348,44.434,13.672,-6.836,11.230
1532373316.048,13.184,45.410,11.230,-1.465,52.734
1532373316.052,11.719,48.340,9.766,3.906,51.758
1532373316.056,16.602,48.340,13.672,8.789,35.645
1532373316.060,20.508,47.852,16.113,21.973,18.555
1532373316.064,18.066,47.363,18.066,16.602,6.348
1532373316.068,18.066,47.852,19.531,6.348,37.598
1532373316.072,23.438,46.875,16.602,11.719,45.410
1532373316.075,23.438,48.828,14.160,20.996,33.691
1532373316.079,33.691,50.781,13.184,23.438,21.973
1532373316.083,25.879,50.293,14.160,22.461,7.324
1532373316.087,16.602,49.805,19.043,25.879,38.086
1532373316.091,20.508,49.805,17.578,21.973,21.484
1532373316.095,15.625,51.270,16.113,10.254,14.160
1532373316.099,17.578,52.246,17.090,15.137,38.574
1532373316.103,22.461,52.734,16.113,19.043,50.781
1532373316.107,17.578,51.758,15.625,18.555,47.363
1532373316.111,12.695,49.316,17.090,21.484,24.902
1532373316.114,10.742,48.828,19.043,20.020,28.320
1532373316.118,8.789,48.340,20.996,11.230,48.828
1532373316.122,5.859,48.340,21.973,3.418,-11.230
1532373316.126,7.812,44.922,22.949,1.465,-36.133
1532373316.130,9.277,44.922,23.926,0.977,26.367
1532373316.134,15.625,50.781,27.344,-3.418,53.711
1532373316.138,17.090,52.734,34.180,-2.441,16.602
1532373316.142,13.672,52.246,31.250,0.977,-3.906
1532373316.146,11.719,52.734,29.297,0.977,23.438
1532373316.150,9.766,52.246,29.297,2.441,51.270
1532373316.154,7.324,50.781,26.367,-4.395,31.250
1532373316.157,8.301,51.270,27.832,-10.742,-14.160
1532373316.161,16.113,51.758,28.809,-2.930,-12.695
1532373316.165,14.160,53.223,29.785,4.883,35.156
1532373316.169,15.137,56.641,33.691,0.977,48.340
1532373316.173,18.555,57.129,35.645,-3.906,29.785
1532373316.177,17.578,59.082,35.156,-5.371,24.414
1532373316.181,15.625,56.641,33.203,-5.859,34.180
1532373316.185,10.742,52.734,27.832,-10.254,57.617
1532373316.189,16.602,53.223,29.785,-13.672,40.527
1532373316.193,16.113,52.734,34.668,-6.348,29.785
1532373316.197,9.277,54.688,33.203,-4.395,36.133
1532373316.200,16.602,59.082,34.668,-6.348,41.016
1532373316.204,25.391,57.617,36.621,-8.789,42.969
1532373316.208,26.855,57.129,35.645,-17.578,30.273
1532373316.212,23.438,60.059,32.715,-17.090,50.781
1532373316.216,24.902,60.547,30.273,-11.719,74.707
1532373316.220,20.508,58.594,33.691,-8.789,56.152
1532373316.224,7.324,55.176,38.086,-5.859,21.484
1532373316.228,2.930,55.664,39.062,9.277,27.344
1532373316.232,0.000,58.105,39.062,15.625,38.086
1532373316.236,-1.953,57.129,38.086,6.348,47.363
1532373316.239,3.418,58.105,37.598,7.812,34.180
1532373316.243,9.766,59.570,38.086,14.160,-0.977
1532373316.247,4.395,57.129,41.016,6.836,22.461
1532373316.251,-13.672,52.734,48.828,-9.277,86.426
1532373316.255,-9.277,51.758,47.363,-6.348,93.750
1532373316.259,9.277,55.176,44.922,-0.488,19.043
1532373316.263,8.789,56.152,51.758,0.000,-24.414
1532373316.267,8.789,53.711,50.781,4.883,42.480
1532373316.271,11.230,54.688,45.898,5.371,85.449
1532373316.275,11.230,55.664,44.922,6.348,56.152
1532373316.279,18.066,54.688,46.387,10.254,54.199
1532373316.282,16.113,54.688,48.828,7.324,66.895
1532373316.286,14.160,52.734,45.410,3.418,62.012
1532373316.290,20.508,52.246,42.969,5.859,36.621
1532373316.294,21.973,51.270,49.316,12.695,18.066
1532373316.298,16.602,49.805,50.781,10.742,42.969
1532373316.302,13.184,50.781,48.340,5.371,46.387
1532373316.306,15.137,49.316,46.387,4.395,36.621
1532373316.310,12.695,45.898,44.434,7.324,35.156
1532373316.314,11.719,48.828,46.875,6.348,63.477
1532373316.318,17.578,51.758,46.387,5.371,66.895
1532373316.321,17.090,51.758,43.457,8.301,39.062
1532373316.325,14.160,50.781,42.480,2.441,41.992
1532373316.329,10.254,51.270,44.922,4.395,64.453
1532373316.333,5.371,51.758,46.387,4.883,79.590
1532373316.337,6.836,49.805,47.852,1.953,46.387
1532373316.341,3.906,46.387,46.875,3.418,29.785
1532373316.345,9.277,46.875,43.945,9.277,20.996
1532373316.349,14.648,49.316,44.434,22.461,29.785
1532373316.353,13.672,50.293,43.945,28.320,15.137
1532373316.357,17.578,48.340,42.969,25.391,-19.531
1532373316.361,19.531,49.316,44.922,22.949,-19.043
1532373316.364,11.719,51.270,45.898,18.555,29.297
1532373316.368,7.324,50.781,47.363,8.789,52.734
1532373316.372,9.277,50.293,46.875,5.371,40.527
1532373316.376,3.418,51.758,41.016,1.465,25.879
1532373316.380,3.418,51.270,40.039,-4.883,2.930
1532373316.384,6.836,50.781,42.969,0.000,13.672
1532373316.388,3.906,51.758,47.852,4.395,28.320
1532373316.392,8.789,52.734,48.340,0.977,14.160
1532373316.396,11.230,52.734,44.922,-1.465,19.043
1532373316.400,8.789,52.734,46.387,-3.906,27.344
1532373316.404,12.207,53.711,45.410,0.977,44.922
1532373316.407,17.090,50.781,45.898,8.789,20.508
1532373316.411,12.207,50.781,50.293,9.277,-4.883
1532373316.415,7.324,51.270,53.711,5.859,20.996
1532373316.419,10.742,51.758,52.246,4.395,25.879
1532373316.423,15.625,54.688,45.898,8.301,29.297
1532373316.427,10.254,53.711,48.340,1.953,10.254
1532373316.431,8.301,54.688,51.270,-9.277,-27.344
1532373316.435,13.184,57.129,47.852,-11.719,2.930
1532373316.439,7.812,56.641,46.875,-11.719,6.836
1532373316.443,13.184,55.664,50.781,-13.184,-38.574
1532373316.446,20.020,57.129,52.246,-11.719,-23.438
1532373316.450,11.719,57.617,55.664,-4.395,39.062
1532373316.454,9.766,56.641,56.152,-9.277,43.457
1532373316.458,14.648,56.152,51.270,-17.090,8.789
1532373316.462,12.695,54.688,52.246,-13.184,4.883
1532373316.466,9.766,55.664,51.270,-10.742,2.930
1532373316.470,0.488,56.152,47.363,-15.625,18.066
1532373316.474,-4.883,55.176,42.969,-19.531,1.953
1532373316.478,2.441,53.223,42.969,-16.602,-11.719
1532373316.482,3.418,53.711,48.340,-17.578,13.184
1532373316.486,-1.465,53.223,50.781,-30.762,19.043
1532373316.489,-1.465,57.617,46.387,-41.504,45.898
1532373316.493,1.953,60.059,44.922,-40.527,59.570
1532373316.497,8.789,56.641,49.316,-32.227,27.832
1532373316.501,6.348,57.617,49.316,-26.367,13.672
1532373316.505,-4.395,56.152,44.922,-26.855,11.230
1532373316.509,-2.441,54.199,44.434,-22.949,8.301
1532373316.513,10.254,57.129,45.410,-11.719,36.621
1532373316.517,16.602,58.594,46.387,-6.836,51.758
1532373316.521,4.395,56.152,47.363,-8.789,42.480
1532373316.525,-1.465,52.734,47.852,-4.395,30.762
1532373316.528,-0.977,54.199,46.387,-3.906,22.949
1532373316.532,-2.930,55.176,45.898,-8.301,37.598
1532373316.536,-7.812,55.664,47.363,-5.859,43.457
1532373316.540,-7.812,56.641,42.480,-9.766,31.738
1532373316.544,-5.371,54.688,41.504,-14.648,26.855
1532373316.548,-10.742,54.199,43.945,-12.695,36.133
1532373316.552,-13.672,55.176,40.527,-12.695,43.457
1532373316.556,-8.301,53.711,43.457,-14.160,22.949
1532373316.560,-7.324,50.293,49.316,-12.695,5.371
1532373316.564,-11.719,48.340,46.387,-8.301,41.992
1532373316.568,-7.324,52.246,45.410,-3.906,93.262
1532373316.571,2.930,56.152,48.340,-1.953,67.383
1532373316.575,-0.488,55.176,46.387,-4.395,-16.602
1532373316.579,-0.977,54.688,46.387,-10.254,-20.996
1532373316.583,3.418,61.035,49.316,-12.695,18.066
1532373316.587,3.906,63.965,47.852,-11.719,22.949
1532373316.591,-1.953,60.547,50.293,-10.254,-8.789
1532373316.595,2.441,58.594,53.711,-17.090,-1.953
1532373316.599,4.883,59.082,50.781,-23.926,24.414
1532373316.603,-1.465,60.059,49.316,-20.996,-8.301
1532373316.607,2.930,60.547,50.781,-11.719,-32.227
1532373316.611,7.324,60.059,54.199,-0.488,-11.719
1532373316.614,2.930,60.059,52.734,1.953,27.832
1532373316.618,5.859,60.547,53.223,4.395,51.270
1532373316.622,6.836,57.129,55.176,0.488,16.602
1532373316.626,4.395,57.617,53.223,-5.371,1.953
1532373316.630,4.883,60.059,51.758,-7.812,23.438
1532373316.634,2.441,58.594,51.270,-10.254,31.738
1532373316.638,0.488,57.129,56.641,-10.742,15.625
1532373316.642,4.883,59.082,60.059,-15.137,-35.645
1532373316.646,3.418,60.059,60.547,-18.066,10.742
1532373316.650,8.301,62.500,60.547,-20.996,68.359
1532373316.653,12.695,62.500,58.594,-24.902,36.133
1532373316.657,10.254,59.082,57.129,-29.297,3.906
1532373316.661,5.859,56.152,52.734,-30.762,6.836
1532373316.665,1.953,54.688,52.734,-36.133,49.805
1532373316.669,8.301,57.129,57.617,-35.645,45.898
1532373316.673,13.184,59.082,59.570,-26.855,17.090
1532373316.677,3.906,56.641,56.152,-29.785,2.441
1532373316.681,1.953,56.641,58.105,-34.668,-11.230
1532373316.685,2.930,58.594,63.477,-28.320,18.555
1532373316.689,-0.488,58.594,62.012,-26.855,25.879
1532373316.693,-0.977,59.082,59.082,-29.785,32.227
1532373316.696,0.488,56.641,60.547,-26.367,62.500
1532373316.700,-2.441,54.688,63.477,-23.926,76.172
1532373316.704,-9.277,57.617,63.965,-29.297,64.453
1532373316.708,-8.301,58.105,60.547,-30.273,23.438
1532373316.712,-4.395,59.082,60.547,-27.344,38.574
1532373316.716,-8.789,61.035,60.059,-29.297,62.988
1532373316.720,-7.324,60.547,56.641,-29.785,30.762
1532373316.724,-0.488,61.035,54.688,-26.367,1.953
1532373316.728,-3.418,59.082,56.641,-20.508,21.484
1532373316.732,-5.371,58.594,58.594,-21.484,41.504
1532373316.735,-3.418,60.547,54.199,-22.461,51.758
1532373316.739,-4.395,60.547,53.223,-26.367,48.828
1532373316.743,2.441,60.547,57.617,-22.949,41.016
1532373316.747,3.906,61.523,59.570,-17.090,37.598
1532373316.751,-3.906,59.570,60.059,-15.625,46.387
1532373316.755,10.742,51.758,64.941,1.465,26.367
1532373316.759,14.160,56.641,58.594,5.371,11.719
1532373316.763,8.789,65.430,49.805,-1.465,34.668
1532373316.767,10.254,67.383,50.293,-5.371,46.387
1532373316.771,2.930,74.219,49.316,-17.578,33.691
1532373316.775,7.812,70.801,51.758,-9.277,34.668
1532373316.778,16.602,69.824,50.781,-7.812,20.508
1532373316.782,4.883,77.637,42.969,-26.855,6.836
1532373316.786,-0.488,80.566,43.457,-27.832,43.945
1532373316.790,1.465,81.543,42.480,-23.926,38.086
1532373316.794,8.301,83.496,39.062,-25.391,18.555
1532373316.798,2.441,81.543,42.969,-21.484,30.273
1532373316.802,-9.277,82.520,42.480,-14.160,39.551
1532373316.806,-14.160,82.520,40.527,-23.926,21.484
1532373316.810,-20.996,80.566,41.016,-35.156,-13.184
1532373316.814,-26.367,80.566,43.457,-39.062,27.832
1532373316.818,-22.949,81.055,45.410,-40.527,50.293
1532373316.821,-20.020,79.590,47.363,-41.504,2.930
1532373316.825,-27.832,80.078,48.340,-54.199,4.883
1532373316.829,-23.926,78.613,44.922,-64.453,13.184
1532373316.833,-21.484,76.172,43.945,-62.012,24.414
1532373316.837,-31.250,76.660,44.434,-59.082,23.926
1532373316.841,-29.297,74.707,42.480,-60.547,-8.301
1532373316.845,-25.391,73.730,39.551,-61.035,12.207
1532373316.849,-17.578,72.754,38.086,-55.176,29.785
1532373316.853,-17.578,69.336,40.039,-50.781,39.551
1532373316.857,-18.066,66.895,40.039,-56.152,30.762
1532373316.860,-5.371,67.383,41.992,-63.477,-7.812
1532373316.864,-2.930,66.406,41.504,-54.199,20.020
1532373316.868,-6.348,62.012,42.480,-41.504,39.062
1532373316.872,-5.371,58.594,47.852,-37.598,21.973
1532373316.876,-8.789,55.176,51.270,-31.250,26.855
1532373316.880,-16.113,53.223,55.664,-20.996,42.480
1532373316.884,-17.578,54.688,55.176,-18.066,48.828
1532373316.888,-13.672,56.152,54.688,-18.555,16.602
1532373316.892,-5.371,53.711,56.641,-11.719,1.465
1532373316.896,-5.859,52.246,57.617,-13.184,44.434
1532373316.900,-3.906,52.734,58.105,-14.648,65.430
1532373316.903,-3.418,50.293,52.734,-13.672,34.180
1532373316.907,0.000,51.270,51.270,-11.230,13.672
1532373316.911,13.672,55.176,53.223,-14.648,1.953
1532373316.915,6.348,54.688,52.734,-17.578,22.461
1532373316.919,-1.953,54.199,57.129,-14.648,56.641
1532373316.923,6.836,55.664,58.105,-18.066,39.062
1532373316.927,14.160,58.594,57.617,-28.809,22.461
1532373316.931,18.066,62.500,59.570,-33.691,39.062
1532373316.935,17.090,60.059,60.547,-29.297,62.500
1532373316.939,12.207,56.641,58.594,-28.320,21.484
1532373316.942,0.000,53.711,59.082,-19.043,8.789
1532373316.946,-12.207,51.758,61.523,-18.555,41.504
1532373316.950,-10.254,52.734,62.988,-28.320,35.156
1532373316.954,-9.766,53.223,64.941,-20.508,27.344
1532373316.958,-11.719,52.734,61.523,-18.066,23.438
1532373316.962,-15.137,53.223,65.430,-18.066,9.277
1532373316.966,-19.043,51.270,71.777,-20.996,24.414
1532373316.970,-18.066,50.781,70.801,-29.297,36.621
1532373316.974,-20.508,51.758,67.871,-27.832,14.160
1532373316.978,-23.926,49.316,68.848,-26.367,16.113
1532373316.982,-25.391,47.363,70.312,-19.531,66.406
1532373316.985,-19.531,48.828,65.918,-11.719,64.453
1532373316.989,-15.137,53.711,65.430,-9.277,26.855
1532373316.993,-16.113,53.711,66.406,-6.348,42.480
1532373316.997,-5.859,55.664,65.918,-2.441,70.312
1532373317.001,-7.812,57.617,64.453,-9.766,65.918
1532373317.005,-3.906,56.641,62.988,-7.324,31.250
1532373317.009,0.000,54.688,61.035,0.488,28.809
1532373317.013,-5.371,54.688,61.523,5.371,53.711
1532373317.017,1.953,58.105,66.895,9.277,68.848
1532373317.021,-0.977,56.641,67.871,10.742,48.340
1532373317.025,-3.418,54.688,64.453,10.742,46.875
1532373317.028,-4.395,57.617,64.941,-0.977,67.383
1532373317.032,-14.160,56.152,64.453,-7.812,74.219
1532373317.036,-15.137,54.199,64.453,-8.301,73.242
1532373317.040,-5.859,54.688,63.965,-13.184,22.949
1532373317.044,-6.348,55.664,60.547,-15.137,4.883
1532373317.048,-7.812,54.688,62.500,-7.812,47.363
1532373317.052,5.371,56.641,62.012,-7.812,43.457
1532373317.056,6.836,60.059,62.988,-13.184,21.484
1532373317.060,-2.441,59.082,67.383,-18.066,3.418
1532373317.064,-3.906,58.105,63.477,-23.926,17.090
1532373317.067,-0.488,58.105,61.035,-22.949,72.754
1532373317.071,2.441,58.594,64.941,-21.973,50.781
1532373317.075,2.441,57.617,64.453,-22.461,16.602
1532373317.079,-1.465,55.176,63.965,-27.344,35.645
1532373317.083,-0.977,56.152,67.383,-25.391,65.918
1532373317.087,-1.953,58.105,63.965,-30.273,50.293
1532373317.091,-3.906,57.129,61.523,-35.645,32.227
1532373317.095,-0.488,54.688,64.453,-28.320,44.922
1532373317.099,7.324,55.664,67.871,-26.367,39.551
1532373317.103,4.883,58.594,70.312,-31.250,2.930
1532373317.107,-0.488,58.594,68.848,-30.273,-2.441
1532373317.110,7.324,55.664,67.383,-27.832,7.324
1532373317.114,7.324,55.176,68.848,-19.043,49.805
1532373317.118,10.254,56.641,68.359,-18.066,61.035
1532373317.122,5.859,56.641,72.266,-21.973,16.113
1532373317.126,-5.371,53.223,75.684,-18.555,3.418
1532373317.130,-4.883,55.176,74.219,-15.625,11.230
1532373317.134,-5.371,58.105,73.730,-14.648,28.320
1532373317.138,-5.371,59.082,72.754,-17.090,2.930
1532373317.142,-4.883,57.617,73.242,-20.996,-11.230
1532373317.146,-8.789,57.129,74.707,-26.367,11.719
1532373317.149,-7.812,58.105,74.219,-31.250,25.879
1532373317.153,-13.184,59.082,75.195,-31.738,29.297
1532373317.157,-25.391,60.547,76.660,-28.809,5.371
1532373317.161,-24.414,61.523,74.707,-38.086,-15.625
1532373317.165,-18.066,61.523,73.242,-41.992,23.438
1532373317.169,-11.230,62.012,74.707,-33.691,61.035
1532373317.173,-12.695,60.059,78.125,-25.391,44.922
1532373317.177,-14.648,59.570,77.637,-17.090,44.434
1532373317.181,-9.766,65.430,74.707,-21.973,67.383
1532373317.185,-9.277,69.824,75.684,-25.879,71.289
1532373317.189,-5.859,69.824,75.684,-20.020,24.902
1532373317.192,-4.395,70.312,75.684,-17.578,22.949
1532373317.196,-11.719,71.777,73.242,-26.367,70.312
1532373317.200,-13.184,71.289,69.824,-31.738,73.242
1532373317.204,-5.371,70.801,68.848,-24.414,39.062
1532373317.208,-4.883,68.359,69.824,-20.996,45.410
1532373317.212,-4.883,62.988,73.242,-20.508,46.875
1532373317.216,-2.441,63.965,73.730,-14.648,43.457
1532373317.220,2.441,64.941,69.824,-10.254,20.508
1532373317.224,-3.418,57.617,68.359,-10.742,11.719
1532373317.228,-0.977,55.664,69.336,-9.277,35.645
1532373317.231,6.836,56.641,72.266,-2.930,54.688
1532373317.235,1.953,56.641,77.637,0.000,68.359
1532373317.239,0.488,55.176,75.684,-5.371,8.301
1532373317.243,-4.395,54.199,70.801,-14.160,-39.551
1532373317.247,0.977,51.270,71.777,-14.648,3.906
1532373317.251,9.766,49.805,74.707,-5.859,36.621
1532373317.255,10.742,50.781,76.172,-1.465,20.996
1532373317.259,11.230,48.828,75.195,-1.465,19.531
1532373317.263,12.207,46.875,72.266,1.953,29.785
1532373317.267,15.137,46.387,71.777,5.371,33.203
1532373317.271,15.137,46.387,72.266,4.395,41.992
1532373317.274,13.184,46.875,70.312,3.418,15.625
1532373317.278,21.484,50.293,71.777,6.836,15.625
1532373317.282,29.297,50.293,73.730,5.859,31.738
1532373317.286,27.344,51.270,73.730,11.719,25.879
1532373317.290,21.973,54.199,75.684,20.020,-0.488
1532373317.294,22.461,56.152,75.195,22.949,14.648
1532373317.298,24.902,56.152,74.707,23.926,49.316
1532373317.302,20.508,56.641,78.613,26.367,25.879
1532373317.306,20.996,55.176,75.684,25.391,-0.488
1532373317.310,16.113,54.688,73.242,30.273,0.000
1532373317.314,20.508,57.129,77.637,42.969,20.508
1532373317.317,32.715,56.152,76.660,44.434,58.594
1532373317.321,23.926,53.711,74.707,36.133,34.180
1532373317.325,14.160,50.293,74.707,34.180,19.043
1532373317.329,17.578,50.293,75.195,33.691,41.992
1532373317.333,15.625,52.246,75.684,33.203,36.621
1532373317.337,20.996,52.246,76.172,36.133,52.734
1532373317.341,27.344,53.223,75.195,32.227,16.113
1532373317.345,15.137,54.199,74.707,26.855,-5.859
1532373317.349,8.789,55.176,72.754,21.484,60.547
1532373317.353,10.742,56.152,75.195,16.113,64.453
1532373317.356,14.648,57.129,80.078,18.555,40.039
1532373317.360,19.531,59.082,79.590,22.949,34.668
1532373317.364,15.137,59.082,79.102,22.461,48.340
1532373317.368,14.160,58.105,80.566,21.484,48.828
1532373317.372,9.277,55.664,75.684,12.695,7.324
1532373317.376,5.859,53.223,77.148,6.836,-7.812
1532373317.380,12.207,55.664,81.055,12.207,2.441
1532373317.384,9.766,56.641,80.078,15.625,15.137
1532373317.388,5.859,55.176,78.125,20.996,21.484
1532373317.392,11.719,55.664,79.590,24.902,31.738
1532373317.396,13.672,57.129,82.031,20.996,52.246
1532373317.399,16.113,58.105,82.031,17.578,60.547
1532373317.403,16.602,58.105,83.496,18.555,41.992
1532373317.407,15.625,57.617,83.984,17.090,23.926
1532373317.411,10.254,55.176,78.613,19.531,56.152
1532373317.415,8.789,55.664,76.660,28.320,62.988
1532373317.419,7.324,54.688,80.078,28.809,30.762
1532373317.423,3.906,50.781,82.520,34.180,26.367
1532373317.427,4.395,50.293,81.543,43.457,10.254
1532373317.431,1.953,50.781,82.031,43.457,53.223
1532373317.435,5.371,49.316,84.473,49.805,80.078
1532373317.438,9.766,50.293,83.984,59.082,35.156
1532373317.442,12.695,52.734,82.520,68.359,20.508
1532373317.446,17.090,50.781,82.520,70.801,33.691
1532373317.450,17.090,51.758,83.496,65.918,44.434
1532373317.454,13.184,53.223,83.008,71.777,49.316
1532373317.458,15.137,51.270,83.984,73.730,38.574
1532373317.462,15.137,50.781,83.008,62.012,23.926
1532373317.466,14.160,52.734,81.055,55.176,41.504
1532373317.470,9.277,52.734,80.566,53.711,43.457
1532373317.474,12.207,52.734,78.125,52.734,27.344
1532373317.478,18.066,55.176,80.078,53.711,4.395
1532373317.481,19.043,57.129,84.961,48.828,-5.371
1532373317.485,19.043,57.617,87.891,43.457,28.320
1532373317.489,15.137,55.664,85.938,39.551,23.438
1532373317.493,16.602,58.594,84.473,44.434,4.883
1532373317.497,22.461,63.477,87.891,56.152,20.996
1532373317.501,29.785,65.430,89.355,55.664,29.297
1532373317.505,30.273,68.359,90.332,56.152,54.688
1532373317.509,28.809,68.359,91.797,52.246,71.777
1532373317.513,26.855,69.824,92.285,42.969,42.480
1532373317.517,28.809,72.266,93.750,34.668,56.152
1532373317.521,28.809,72.754,92.773,34.180,55.176
1532373317.524,20.020,71.289,92.285,35.156,31.250
1532373317.528,11.719,70.312,94.238,28.809,64.941
1532373317.532,9.277,71.289,93.262,19.531,97.656
1532373317.536,13.184,70.801,91.309,21.484,75.684
1532373317.540,9.766,68.359,93.262,22.949,51.758
1532373317.544,8.789,66.406,96.680,20.508,27.344
1532373317.548,12.207,66.406,99.121,26.367,34.180
1532373317.552,11.230,65.918,98.633,29.297,65.430
1532373317.556,4.395,64.453,98.145,20.996,44.434
1532373317.560,6.348,63.477,94.727,10.742,24.414
1532373317.563,2.441,66.895,90.820,6.348,24.902
1532373317.567,0.488,69.824,91.797,8.301,52.734
1532373317.571,0.000,66.406,100.098,3.906,69.336
1532373317.575,-7.324,61.523,105.957,-5.859,53.223
1532373317.579,-1.465,60.059,102.051,-7.324,29.297
1532373317.583,3.906,59.570,98.633,0.000,54.199
1532373317.587,-1.465,58.594,100.098,5.371,73.730
1532373317.591,-1.953,56.641,102.539,3.906,50.781
1532373317.595,6.836,53.223,100.098,1.953,36.133
1532373317.599,5.859,55.176,94.238,2.441,31.250
1532373317.603,4.883,58.594,94.238,1.465,28.320
1532373317.606,8.301,56.152,97.168,-0.488,9.766
1532373317.610,5.859,53.711,95.703,-5.371,28.809
1532373317.614,14.160,55.664,93.262,-1.953,57.617
1532373317.618,22.949,56.641,93.262,1.465,48.340
1532373317.622,29.297,57.129,85.938,-3.906,37.109
1532373317.626,32.227,56.641,84.961,4.883,45.898
1532373317.630,29.785,54.199,94.238,11.230,63.477
1532373317.634,16.602,51.758,98.633,4.883,73.242
1532373317.638,6.348,51.758,94.727,10.254,49.316
1532373317.642,15.137,52.246,93.750,20.020,13.184
1532373317.645,12.207,54.199,91.797,30.273,29.297
1532373317.649,10.742,55.176,91.309,38.086,50.293
1532373317.653,17.578,53.711,95.215,34.180,37.598
1532373317.657,12.695,54.199,93.262,31.250,-6.348
1532373317.661,10.254,53.711,89.355,29.297,-14.648
1532373317.665,15.137,54.199,89.844,30.762,32.715
1532373317.669,27.344,56.152,91.309,29.785,34.668
1532373317.673,29.785,55.176,88.867,35.645,1.465
1532373317.677,20.996,54.199,85.449,44.922,12.695
1532373317.681,21.973,56.641,84.961,44.434,18.066
1532373317.685,23.926,57.617,86.426,42.480,42.480
1532373317.688,21.973,55.664,83.984,41.992,35.156
1532373317.692,17.090,53.223,81.055,40.527,21.484
1532373317.696,23.926,53.711,79.590,39.551,46.387
1532373317.700,18.555,53.711,79.590,29.785,43.457
1532373317.704,12.207,53.223,78.613,21.484,20.020
1532373317.708,22.949,56.152,77.637,21.973,0.488
1532373317.712,26.855,57.129,83.984,27.344,12.695
1532373317.716,34.668,58.105,88.379,40.039,34.668
1532373317.720,37.109,61.523,83.984,37.109,20.020
1532373317.724,26.855,59.082,80.078,26.367,16.602
1532373317.728,24.414,56.641,79.102,23.926,41.992
1532373317.731,23.438,58.594,78.125,26.855,50.781
1532373317.735,24.414,62.012,77.637,21.484,62.500
1532373317.739,29.297,65.918,80.078,13.184,18.066
1532373317.743,25.879,62.988,81.543,12.207,-12.207
1532373317.747,22.949,60.547,74.707,11.230,41.016
1532373317.751,25.391,62.500,76.172,18.555,54.199
1532373317.755,23.926,62.012,75.195,23.926,32.715
1532373317.759,19.531,62.012,71.777,20.508,-0.977
1532373317.763,16.113,62.012,76.660,21.973,-4.395
1532373317.767,17.578,61.523,74.707,30.273,47.363
1532373317.770,18.555,59.082,71.289,27.832,62.012
1532373317.774,11.230,58.105,69.336,22.949,38.086
1532373317.778,11.230,62.012,70.801,25.879,26.367
1532373317.782,21.484,63.477,72.266,29.785,32.227
1532373317.786,19.531,60.059,72.754,28.809,30.273
1532373317.790,14.160,58.594,77.637,22.461,7.812
1532373317.794,20.508,60.059,72.266,20.020,7.324
1532373317.798,18.066,60.059,64.453,22.461,15.625
1532373317.802,9.766,59.570,70.312,20.508,23.926
1532373317.806,16.113,58.594,72.266,20.996,25.391
1532373317.810,20.996,57.617,71.777,24.414,12.695
1532373317.813,10.742,57.617,71.777,25.391,26.855
1532373317.817,10.254,57.129,71.289,32.227,49.805
1532373317.821,13.184,56.641,69.824,32.227,17.090
1532373317.825,17.578,58.594,69.824,32.715,16.113
1532373317.829,18.066,59.570,74.219,31.250,38.574
1532373317.833,20.996,58.594,74.219,25.879,41.992
1532373317.837,20.508,59.082,69.336,20.508,34.180
1532373317.841,23.926,60.059,64.453,16.602,-4.395
1532373317.845,25.391,62.012,61.523,14.160,8.301
1532373317.849,17.578,62.988,62.988,9.277,52.734
1532373317.852,23.926,66.406,62.988,8.789,45.898
1532373317.856,19.531,68.359,62.988,11.230,19.531
1532373317.860,16.602,65.918,64.941,5.859,-14.160
1532373317.864,20.508,67.383,63.965,3.906,19.043
1532373317.868,17.090,67.383,62.988,5.371,69.824
1532373317.872,17.578,62.988,64.453,13.672,72.266
1532373317.876,19.043,63.965,67.871,17.090,33.691
1532373317.880,24.902,65.918,66.406,14.160,33.203
1532373317.884,25.879,63.965,64.941,15.625,76.172
1532373317.888,21.973,62.500,66.406,14.160,46.387
1532373317.892,18.066,62.012,65.430,11.719,-9.766
1532373317.895,10.742,61.035,63.477,4.883,-0.977
1532373317.899,16.113,59.082,64.453,4.395,20.020
1532373317.903,21.484,57.617,66.895,8.789,41.504
1532373317.907,12.207,57.129,70.801,7.324,31.738
1532373317.911,12.207,58.594,71.777,1.953,17.090
1532373317.915,11.719,57.617,70.312,5.371,49.316
1532373317.919,14.160,57.617,68.359,12.207,37.109
1532373317.923,18.555,60.059,68.359,11.230,-9.277
1532373317.927,16.602,60.059,69.336,16.113,22.949
1532373317.931,18.555,59.082,69.336,19.043,57.617
1532373317.935,21.484,60.059,71.289,22.461,54.688
1532373317.938,18.066,58.105,66.406,14.160,17.578
1532373317.942,9.766,54.199,64.941,-1.953,1.465
1532373317.946,11.719,53.223,70.312,4.883,42.480
1532373317.950,13.184,54.199,68.848,8.789,36.133
1532373317.954,10.742,57.617,67.383,5.859,32.715
1532373317.958,15.137,58.594,68.359,9.277,23.926
1532373317.962,15.137,53.223,73.242,16.602,27.344
1532373317.966,7.812,51.758,73.242,19.043,69.336
1532373317.970,9.277,57.617,67.871,9.766,50.781
1532373317.974,17.090,58.105,66.895,4.883,37.109
1532373317.977,13.672,52.734,69.824,9.766,37.109
1532373317.981,14.648,53.223,72.754,18.555,46.875
1532373317.985,20.508,54.688,69.824,17.090,43.945
1532373317.989,22.949,56.152,69.824,18.555,2.441
1532373317.993,26.855,59.570,71.289,25.391,7.324
1532373317.997,23.438,60.547,75.684,30.762,52.246
1532373318.001,19.043,62.012,77.637,31.250,36.133
1532373318.005,25.879,60.059,73.242,24.414,-0.977
1532373318.009,20.020,59.570,72.266,27.344,-7.324
1532373318.013,14.160,60.547,72.266,38.086,12.695
1532373318.017,19.531,59.082,72.266,43.457,45.410
1532373318.020,21.973,58.105,68.848,40.039,12.207
1532373318.024,20.508,59.570,67.383,38.086,20.996
1532373318.028,11.230,58.594,70.801,42.480,31.738
1532373318.032,15.625,58.105,68.848,37.109,30.762
1532373318.036,22.949,56.641,67.871,42.480,53.223
1532373318.040,22.949,55.664,71.777,48.340,27.344
1532373318.044,26.855,58.594,77.148,50.293,5.859
1532373318.048,30.762,58.105,83.008,57.617,39.062
1532373318.052,22.949,55.664,82.520,54.199,47.363
1532373318.056,19.043,57.129,76.172,42.480,25.879
1532373318.059,20.020,57.129,76.660,38.086,-11.719
1532373318.063,16.602,56.641,80.078,39.062,24.902
1532373318.067,21.973,60.059,81.055,42.480,83.496
1532373318.071,30.273,57.617,80.078,47.363,52.246
1532373318.075,21.973,56.152,78.125,41.992,20.508
1532373318.079,14.160,58.105,78.125,45.898,22.949
1532373318.083,25.391,58.594,79.102,58.594,32.715
1532373318.087,22.461,58.594,80.078,56.152,61.523
1532373318.091,23.926,59.570,80.078,55.176,31.738
1532373318.095,31.738,61.035,80.566,56.152,17.578
1532373318.099,28.320,60.547,84.473,52.734,59.082
1532373318.102,27.832,59.570,90.332,50.781,63.965
1532373318.106,21.484,60.059,87.891,45.410,52.734
1532373318.110,16.602,61.523,84.961,41.504,52.734
1532373318.114,18.066,61.035,87.402,41.504,57.129
1532373318.118,14.160,62.012,87.891,38.574,55.664
1532373318.122,12.695,61.523,84.961,33.203,39.551
1532373318.126,16.113,62.500,82.031,28.809,24.902
1532373318.130,18.555,63.477,81.543,32.227,32.227
1532373318.134,11.230,59.570,82.031,36.133,64.941
1532373318.138,4.395,58.105,81.543,26.855,54.199
1532373318.141,7.812,58.594,78.613,24.902,1.465
1532373318.145,13.184,56.152,80.078,32.715,8.789
1532373318.149,4.883,53.223,80.078,31.738,30.273
1532373318.153,6.348,52.734,79.102,30.273,34.668
1532373318.157,7.324,53.711,77.148,30.762,0.977
1532373318.161,5.371,53.223,74.219,31.738,14.160
1532373318.165,7.324,55.664,78.125,40.039,56.641
1532373318.169,18.066,57.129,86.914,48.340,46.875
1532373318.173,26.367,63.965,96.191,55.664,27.832
1532373318.177,33.203,71.289,99.121,58.105,38.086
1532373318.181,35.645,70.801,97.168,58.105,50.781
1532373318.184,37.109,72.266,92.773,50.293,81.543
1532373318.188,39.062,69.824,86.914,49.316,83.496
1532373318.192,34.180,65.918,89.355,54.688,41.016
1532373318.196,30.273,65.430,93.262,46.387,34.668
1532373318.200,28.809,66.895,90.820,40.527,55.664
1532373318.204,18.066,67.383,87.891,38.574,64.453
1532373318.208,14.648,62.012,87.891,36.133,38.574
1532373318.212,16.113,59.082,91.797,45.898,39.551
1532373318.216,20.996,62.988,96.191,56.641,55.176
1532373318.220,26.855,65.918,97.168,60.547,42.969
1532373318.224,24.902,67.383,96.680,64.941,12.695
1532373318.227,21.484,69.824,96.191,61.523,-4.883
1532373318.231,15.625,66.406,99.121,59.570,6.348
1532373318.235,17.578,63.477,96.680,62.988,39.551
1532373318.239,24.902,70.312,94.727,64.453,30.273
1532373318.243,28.320,78.613,103.027,64.453,21.484
1532373318.247,33.203,77.637,104.980,57.617,21.973
1532373318.251,37.109,73.730,103.027,53.711,34.668
1532373318.255,35.645,74.219,101.562,56.641,36.621
1532373318.259,32.227,72.266,96.680,57.617,15.625
1532373318.263,33.691,71.289,94.238,52.246,6.836
1532373318.266,31.738,72.266,100.098,47.363,4.883
1532373318.270,28.809,69.824,100.098,46.875,23.926
1532373318.274,33.203,67.871,95.703,46.875,34.668
1532373318.278,33.203,71.289,97.168,48.340,15.625
1532373318.282,38.574,70.801,98.145,46.875,55.176
1532373318.286,33.203,69.824,92.773,39.062,76.660
1532373318.290,27.832,70.801,91.797,35.156,29.785
1532373318.294,32.715,69.336,92.285,32.227,30.273
1532373318.298,32.227,68.848,88.867,28.320,53.711
1532373318.302,29.785,67.383,89.355,29.297,50.781
1532373318.306,31.250,66.406,95.215,33.203,36.133
1532373318.309,26.855,63.965,96.680,29.785,20.996
1532373318.313,22.461,62.012,94.238,19.531,66.406
1532373318.317,21.484,61.523,93.262,11.719,76.172
1532373318.321,19.043,59.082,90.332,4.883,22.461
1532373318.325,20.996,59.082,87.891,-2.441,3.418
1532373318.329,28.809,58.105,84.961,1.465,45.410
1532373318.333,33.203,58.105,85.938,9.277,88.867
1532373318.337,34.180,57.617,87.402,10.742,63.477
1532373318.341,27.832,54.688,87.891,16.113,13.184
1532373318.345,18.066,53.711,85.938,18.066,8.789
1532373318.348,10.254,52.734,82.031,14.648,52.734
1532373318.352,-2.441,48.828,84.961,13.672,62.012
1532373318.356,-0.977,46.875,83.984,10.254,-15.625
1532373318.360,2.930,47.852,83.008,11.719,-16.602
1532373318.364,1.465,47.363,85.449,16.113,35.645
1532373318.368,-3.418,44.922,83.984,15.137,49.316
1532373318.372,-0.977,45.410,78.125,16.602,23.438
1532373318.376,12.695,49.805,76.660,22.949,20.020
1532373318.380,24.414,50.293,76.172,27.832,18.555
1532373318.384,18.066,45.410,76.172,34.180,-13.672
1532373318.388,2.930,40.039,80.566,28.809,-5.371
1532373318.391,9.277,39.062,81.055,27.344,14.160
1532373318.395,23.926,40.527,81.543,41.992,24.902
1532373318.399,22.461,41.992,83.496,46.387,17.578
1532373318.403,29.297,44.434,83.984,38.086,-5.859
1532373318.407,24.902,44.922,79.590,33.203,-21.973
1532373318.411,13.184,40.527,76.172,33.691,-14.648
1532373318.415,11.230,42.480,77.148,32.227,29.297
1532373318.419,16.602,43.945,80.078,30.273,23.438
1532373318.423,20.996,41.504,80.078,35.645,-4.395
1532373318.427,22.949,42.480,79.102,35.645,0.000
1532373318.431,26.367,45.898,81.543,31.250,8.301
1532373318.434,22.949,47.852,82.031,36.621,69.824
1532373318.438,19.043,46.875,78.125,32.227,57.617
1532373318.442,22.949,44.922,76.660,32.227,-0.488
1532373318.446,26.367,45.898,77.637,41.504,28.320
1532373318.450,22.949,48.828,77.148,43.457,63.477
1532373318.454,16.602,43.945,75.195,33.203,57.617
1532373318.458,10.742,42.969,71.289,31.250,41.016
1532373318.462,13.672,46.387,68.359,38.574,28.320
1532373318.466,20.996,45.898,71.777,41.992,61.035
1532373318.470,19.531,46.387,72.266,48.340,65.430
1532373318.473,23.438,45.410,72.754,47.852,40.527
1532373318.477,23.438,43.457,76.172,47.363,24.902
1532373318.481,15.625,44.434,72.266,50.293,28.320
1532373318.485,16.113,43.945,69.336,47.363,65.430
1532373318.489,16.602,43.457,68.848,47.852,56.641
1532373318.493,19.531,43.457,66.895,47.363,32.227
1532373318.497,20.508,45.410,68.848,45.410,23.926
1532373318.501,30.273,50.781,70.312,50.781,40.039
1532373318.505,27.832,54.199,68.359,53.223,45.410
1532373318.509,17.578,55.176,65.918,45.898,16.113
1532373318.513,14.160,56.641,66.895,42.480,21.973
1532373318.516,12.207,57.617,67.871,39.551,45.898
1532373318.520,14.160,54.688,71.289,20.020,49.805
1532373318.524,10.742,51.270,73.242,7.324,38.574
1532373318.528,8.789,55.176,70.801,5.371,41.016
1532373318.532,5.371,59.082,68.359,3.418,39.551
1532373318.536,5.859,61.035,71.777,5.371,44.434
1532373318.540,9.766,60.059,77.148,8.789,36.621
1532373318.544,10.254,57.129,79.590,14.160,27.832
1532373318.548,16.113,62.500,72.754,17.578,46.387
1532373318.552,18.555,68.359,62.988,5.859,34.668
1532373318.555,18.555,64.941,66.406,-4.395,18.066
1532373318.559,9.766,63.965,70.312,-8.301,12.695
1532373318.563,0.000,62.500,73.242,-8.301,-18.555
1532373318.567,4.883,58.594,74.707,-4.883,20.020
1532373318.571,1.953,57.129,73.242,-5.859,62.500
1532373318.575,2.441,57.129,71.777,-8.789,41.016
1532373318.579,10.742,56.152,71.777,6.348,39.551
1532373318.583,20.508,57.129,70.801,20.508,49.316
1532373318.587,17.090,56.152,68.848,17.090,38.574
1532373318.591,16.602,54.199,69.336,16.602,21.484
1532373318.595,21.484,55.664,66.895,18.066,19.531
1532373318.598,16.602,56.641,64.453,14.160,44.922
1532373318.602,20.020,53.711,67.871,10.254,36.621
1532373318.606,18.555,49.805,69.824,17.578,15.137
1532373318.610,20.508,48.340,67.871,31.738,37.109
1532373318.614,22.461,49.316,68.359,40.039,72.266
1532373318.618,21.484,51.270,70.801,40.039,83.984
1532373318.622,16.602,50.781,66.895,35.156,47.363
1532373318.626,15.137,50.781,64.941,32.227,27.832
1532373318.630,20.508,50.293,65.918,29.297,33.691
1532373318.634,13.672,49.805,66.406,24.902,55.176
1532373318.638,11.230,48.828,63.477,24.414,45.410
1532373318.641,23.926,48.340,64.453,22.949,9.766
1532373318.645,26.855,50.293,64.453,15.625,23.926
1532373318.649,27.344,50.293,63.965,12.207,63.477
1532373318.653,34.180,51.270,67.871,17.578,86.914
1532373318.657,37.109,52.734,69.336,18.066,46.875
1532373318.661,28.809,49.805,66.895,16.602,37.109
1532373318.665,24.414,47.852,62.988,21.973,50.781
1532373318.669,29.297,47.852,65.918,33.203,67.871
1532373318.673,29.785,46.875,63.965,33.691,53.223
1532373318.677,25.879,46.875,60.547,27.832,12.695
1532373318.680,23.926,48.340,61.035,20.020,13.672
1532373318.684,29.785,50.293,61.523,20.508,48.340
1532373318.688,35.156,49.316,61.035,28.809,48.340
1532373318.692,32.715,48.340,61.523,29.297,43.457
1532373318.696,26.855,45.898,62.988,24.902,54.688
1532373318.700,22.949,46.387,60.059,22.461,65.430
1532373318.704,28.809,50.293,61.523,21.484,72.266
1532373318.708,32.715,46.387,63.477,19.531,37.109
1532373318.712,22.949,44.434,61.523,17.090,27.344
1532373318.716,18.555,48.340,59.570,18.066,56.641
1532373318.720,31.738,49.316,61.523,19.043,44.434
1532373318.723,31.250,46.875,61.523,17.578,-4.395
1532373318.727,30.762,46.387,60.547,20.020,22.949
1532373318.731,36.133,48.340,58.594,20.020,27.832
1532373318.735,30.762,49.316,60.547,20.508,29.297
1532373318.739,26.855,47.852,64.941,17.090,-5.859
1532373318.743,27.832,48.340,64.941,12.207,-34.180
1532373318.747,21.484,48.828,65.430,5.859,47.363
1532373318.751,17.578,49.805,65.918,5.859,78.125
1532373318.755,15.137,48.828,66.895,8.301,51.758
1532373318.759,12.695,46.875,63.477,1.953,37.109
1532373318.762,16.602,46.875,62.012,0.000,36.621
1532373318.766,19.531,51.270,67.383,2.441,75.195
1532373318.770,15.625,50.781,68.359,3.906,71.777
1532373318.774,19.531,46.875,66.895,-0.977,28.320
1532373318.778,17.578,46.875,65.430,-8.789,18.555
1532373318.782,7.324,47.363,61.035,-13.672,19.043
1532373318.786,11.719,49.805,61.523,-8.789,50.781
1532373318.790,16.113,51.758,65.430,-4.395,59.082
1532373318.794,20.508,51.270,68.848,2.930,12.207
1532373318.798,21.484,49.316,67.871,4.395,2.930
1532373318.802,17.578,49.805,67.383,-1.465,32.715
1532373318.805,17.090,51.270,69.824,-2.441,36.621
1532373318.809,10.254,46.875,67.383,-4.883,26.855
1532373318.813,16.113,46.387,67.383,-4.395,19.043
1532373318.817,22.461,51.270,70.312,4.395,43.945
1532373318.821,20.996,51.758,71.289,12.695,49.805
1532373318.825,19.531,50.293,70.312,13.672,39.062
1532373318.829,20.508,50.781,69.824,16.602,54.199
1532373318.833,18.555,51.270,73.242,16.113,63.477
1532373318.837,15.625,52.734,71.289,0.977,57.129
1532373318.841,19.531,53.711,69.824,-0.977,-5.859
1532373318.845,18.555,49.316,69.336,9.277,1.465
1532373318.848,18.555,48.828,65.918,11.230,51.270
1532373318.852,17.090,50.293,65.918,5.371,67.383
1532373318.856,13.672,47.852,66.895,5.371,56.641
1532373318.860,20.996,50.781,69.336,8.301,27.832
1532373318.864,24.414,51.758,74.219,1.465,52.246
1532373318.868,23.926,49.316,72.266,-5.859,72.754
1532373318.872,23.926,49.316,71.777,1.465,22.461
1532373318.876,20.508,49.805,72.266,-24.414,11.230
1532373318.880,18.555,50.781,66.895,-62.500,7.324
1532373318.884,26.367,51.270,69.336,-72.754,14.648
1532373318.887,25.879,51.270,71.289,-80.078,28.809
1532373318.891,16.602,50.781,66.406,-86.914,4.395
1532373318.895,19.043,51.758,68.848,-99.121,27.344
1532373318.899,28.809,55.664,74.707,-114.746,28.809
1532373318.903,35.645,57.617,73.730,-127.930,-1.953
1532373318.907,28.809,54.199,70.801,-124.023,10.742
1532373318.911,25.879,51.270,73.242,-115.234,6.348
1532373318.915,28.809,53.711,74.219,-110.840,20.508
1532373318.919,25.391,53.711,72.266,-110.840,30.762
1532373318.923,17.578,53.223,73.242,-118.652,9.277
1532373318.927,16.113,51.270,74.219,-121.094,24.414
1532373318.930,19.531,48.340,73.242,-117.676,39.062
1532373318.934,15.625,48.340,74.219,-115.234,58.594
1532373318.938,16.602,51.758,75.195,-111.328,30.273
1532373318.942,14.648,53.711,75.195,-101.074,12.695
1532373318.946,14.160,50.293,73.242,-93.750,37.109
1532373318.950,17.090,47.852,71.777,-65.918,71.777
1532373318.954,20.508,50.293,71.289,-22.949,62.500
1532373318.958,21.484,48.828,69.824,-8.301,16.602
1532373318.962,20.020,46.875,71.777,-1.953,15.137
1532373318.966,22.949,50.293,74.707,19.043,31.738
1532373318.969,27.344,51.270,70.801,32.227,33.203
1532373318.973,23.438,46.875,68.848,36.133,27.344
1532373318.977,16.602,44.922,67.871,38.086,25.391
1532373318.981,15.137,46.387,68.848,36.621,26.855
1532373318.985,15.625,45.898,69.824,47.852,47.852
1532373318.989,13.672,46.387,66.406,56.641,22.949
1532373318.993,16.602,46.387,66.895,65.918,17.578
1532373318.997,17.090,46.875,68.848,75.195,36.133
1532373319.001,14.160,45.898,63.965,67.871,42.480
1532373319.005,17.578,44.922,62.012,69.824,21.973
1532373319.009,26.367,45.898,68.848,81.543,29.785
1532373319.012,29.297,47.363,68.848,84.473,61.523
1532373319.016,30.273,48.340,64.941,81.543,71.777
1532373319.020,31.250,46.387,65.430,75.195,51.758
1532373319.024,33.691,48.828,66.895,64.941,0.488
1532373319.028,38.574,52.734,65.918,58.105,4.395
1532373319.032,40.039,53.223,62.012,54.688,52.246
1532373319.036,40.527,53.223,61.523,56.152,60.059
1532373319.040,44.922,50.781,62.988,58.594,25.879
1532373319.044,37.109,48.828,66.895,58.105,35.156
1532373319.048,21.484,49.316,65.918,55.664,75.684
1532373319.052,22.949,51.758,62.012,62.012,90.820
1532373319.055,22.461,48.340,68.848,70.312,71.777
1532373319.059,21.484,45.410,69.336,67.871,24.902
1532373319.063,21.973,49.316,64.941,72.754,30.762
1532373319.067,18.555,49.316,65.918,70.312,54.688
1532373319.071,19.531,48.340,64.941,61.035,20.996
1532373319.075,21.484,45.410,62.012,61.523,12.695
1532373319.079,27.344,44.434,61.035,57.129,12.207
1532373319.083,21.973,47.363,60.059,51.270,-1.953
1532373319.087,7.324,49.805,60.059,47.852,20.508
1532373319.091,10.742,46.387,59.570,44.922,32.715
1532373319.094,21.973,46.387,58.594,51.758,38.086
1532373319.098,20.996,48.340,58.105,55.176,69.824
1532373319.102,18.555,44.922,57.617,51.270,83.984
1532373319.106,20.508,42.969,57.129,49.316,50.781
1532373319.110,21.973,43.457,58.105,53.223,30.762
1532373319.114,21.973,44.434,60.547,56.152,43.945
1532373319.118,20.020,43.457,58.105,48.340,51.270
1532373319.122,20.508,41.016,54.688,42.480,4.883
1532373319.126,21.973,43.457,55.664,44.922,-1.465
1532373319.130,21.484,48.340,55.176,51.270,29.297
1532373319.134,24.414,47.852,52.734,48.828,40.039
1532373319.137,23.926,45.410,50.781,42.480,15.137
1532373319.141,17.578,44.434,51.758,40.527,-17.578
1532373319.145,18.555,46.875,50.781,40.527,15.137
1532373319.149,20.996,46.875,51.758,41.992,35.645
1532373319.153,21.484,47.363,52.246,40.527,28.809
1532373319.157,23.926,45.898,51.270,35.156,26.367
1532373319.161,20.996,43.945,54.199,36.621,29.297
1532373319.165,26.855,45.410,54.688,36.621,61.523
1532373319.169,31.250,45.410,52.246,39.551,75.684
1532373319.173,23.926,42.969,48.340,45.898,46.387
1532373319.176,23.926,42.480,43.945,41.016,16.602
1532373319.180,26.367,42.969,45.898,38.086,13.672
1532373319.184,26.855,41.992,48.828,46.875,47.852
1532373319.188,28.809,40.527,49.316,50.293,46.875
1532373319.192,27.344,38.086,53.223,42.969,5.371
1532373319.196,36.133,40.527,54.688,46.387,10.742
1532373319.200,41.016,42.480,51.270,55.176,35.156
1532373319.204,26.855,41.016,55.664,57.129,26.367
1532373319.208,22.949,40.039,58.594,57.129,31.250
1532373319.212,25.879,41.016,53.711,52.246,35.156
1532373319.216,26.855,41.992,53.223,44.434,50.781
1532373319.219,31.250,42.969,53.223,36.133,58.105
1532373319.223,35.645,43.945,55.664,31.250,22.949
1532373319.227,30.762,42.480,56.641,40.039,39.062
1532373319.231,32.227,43.457,51.270,44.434,67.383
1532373319.235,32.715,46.875,48.340,37.109,81.055
1532373319.239,29.297,42.480,48.828,38.086,76.660
1532373319.243,25.879,39.062,48.828,35.645,34.668
1532373319.247,22.461,39.551,47.363,30.273,9.277
1532373319.251,28.320,38.574,48.340,39.551,28.809
1532373319.255,22.461,37.598,52.734,44.434,31.738
1532373319.258,16.113,38.086,53.223,37.109,18.066
1532373319.262,24.902,39.062,52.246,34.668,33.691
1532373319.266,30.762,38.574,54.688,41.016,53.223
1532373319.270,25.391,34.180,53.711,39.551,52.246
1532373319.274,30.762,32.227,49.805,41.504,25.391
1532373319.278,36.133,37.109,50.781,46.875,16.602
1532373319.282,30.273,38.574,50.781,42.480,41.504
1532373319.286,23.926,38.086,45.898,39.551,63.477
1532373319.290,23.926,36.133,45.410,32.715,61.523
1532373319.294,22.949,36.621,46.387,31.250,57.129
1532373319.298,23.926,37.109,46.875,37.598,49.316
1532373319.301,26.367,35.645,46.875,36.133,24.902
1532373319.305,21.973,35.645,48.340,32.715,6.348
1532373319.309,18.555,36.621,48.828,34.668,32.715
1532373319.313,18.066,38.574,48.828,33.691,58.594
1532373319.317,23.438,40.039,50.781,43.457,73.242
1532373319.321,25.879,39.062,51.270,50.293,40.039
1532373319.325,25.879,39.062,51.270,45.898,15.625
1532373319.329,28.809,38.574,51.270,50.293,53.223
1532373319.333,23.926,37.598,49.316,53.711,70.312
1532373319.337,21.973,37.598,46.875,51.270,45.898
1532373319.341,30.762,41.016,42.480,49.316,2.441
1532373319.344,34.180,39.062,41.504,48.828,12.695
1532373319.348,16.113,33.203,43.945,41.016,36.133
1532373319.352,10.254,31.250,44.922,39.551,11.230
1532373319.356,21.484,27.344,47.852,40.039,-6.836
1532373319.360,23.438,24.414,46.875,29.785,-7.324
1532373319.364,19.043,22.461,42.480,30.273,37.598
1532373319.368,18.555,24.414,37.109,34.668,67.871
1532373319.372,23.438,28.320,38.574,40.527,29.297
1532373319.376,28.320,25.879,40.527,44.922,34.180
1532373319.380,31.250,25.391,39.062,39.551,45.898
1532373319.383,31.738,26.367,40.527,38.086,48.340
1532373319.387,32.715,28.320,33.203,37.598,48.340
1532373319.391,18.555,25.879,28.809,36.621,32.715
1532373319.395,14.648,23.438,36.621,38.574,39.062
1532373319.399,24.414,27.832,38.574,41.016,32.227
1532373319.403,28.320,26.855,37.598,47.852,25.391
1532373319.407,28.320,23.438,38.574,49.805,11.719
1532373319.411,25.879,22.461,40.527,49.805,14.160
1532373319.415,18.555,24.414,39.551,50.293,58.594
1532373319.419,16.113,24.414,36.621,44.922,49.805
1532373319.423,17.090,21.973,38.086,44.434,-2.930
1532373319.426,16.113,21.484,39.551,45.410,21.484
1532373319.430,13.672,23.438,38.086,41.504,63.965
1532373319.434,15.137,23.926,38.086,46.387,83.008
1532373319.438,16.602,24.902,34.668,39.551,30.273
1532373319.442,18.066,24.414,34.180,33.691,1.953
1532373319.446,19.531,23.438,34.668,41.992,51.270
1532373319.450,14.648,25.391,33.691,40.039,66.895
1532373319.454,16.602,25.391,33.691,39.062,57.129
1532373319.458,23.438,22.949,30.273,42.480,-8.301
1532373319.462,22.949,22.461,28.320,41.016,-42.969
1532373319.465,31.250,21.973,28.809,41.504,21.973
1532373319.469,37.598,21.484,24.902,43.945,37.109
1532373319.473,33.203,18.555,24.902,45.898,-10.254
1532373319.477,33.203,17.578,26.367,51.270,-27.832
1532373319.481,41.992,19.531,23.438,51.758,2.930
1532373319.485,41.992,19.043,21.973,39.062,56.152
1532373319.489,30.273,15.625,20.508,30.762,27.344
1532373319.493,25.391,15.137,22.949,31.738,9.766
1532373319.497,30.273,17.090,21.973,32.227,52.734
1532373319.501,28.320,17.090,20.020,27.344,61.523
1532373319.505,39.551,15.137,20.508,18.555,33.691
1532373319.508,35.645,13.184,17.578,7.324,2.441
1532373319.512,22.949,10.742,15.137,0.488,-2.930
1532373319.516,36.133,11.230,13.672,7.324,28.320
1532373319.520,38.574,13.672,13.672,3.418,23.438
1532373319.524,31.738,14.160,14.648,5.859,12.207
1532373319.528,31.250,11.719,12.207,19.043,16.113
1532373319.532,31.250,10.742,9.766,17.578,20.508
1532373319.536,32.227,11.230,4.883,14.160,37.109
1532373319.540,26.855,7.812,3.418,9.766,-6.348
1532373319.544,27.832,6.836,6.836,9.277,-30.273
1532373319.548,34.180,8.789,6.836,15.625,22.949
1532373319.551,34.668,6.348,6.348,21.973,48.828
1532373319.555,39.062,5.859,3.418,30.273,34.180
1532373319.559,40.039,6.836,-3.418,26.855,22.461
1532373319.563,38.086,5.371,-2.930,23.438,24.414
1532373319.567,39.062,7.812,1.465,35.156,37.109
1532373319.571,38.086,8.301,0.977,40.527,49.316
1532373319.575,41.992,6.348,0.000,41.504,27.344
1532373319.579,51.270,6.348,-0.488,40.039,15.625
1532373319.583,53.223,4.883,2.441,41.992,33.203
1532373319.587,54.688,3.418,3.906,42.480,43.945
1532373319.590,48.828,1.465,0.000,36.621,4.395
1532373319.594,43.457,0.977,-2.930,34.668,0.488
1532373319.598,44.922,0.977,-0.488,35.156,32.715
1532373319.602,45.898,2.930,-1.953,37.109,39.551
1532373319.606,52.734,5.859,-5.371,42.969,23.926
1532373319.610,57.617,5.371,0.488,49.805,15.137
1532373319.614,51.758,6.348,2.930,44.922,25.391
1532373319.618,41.016,7.812,-1.465,34.668,36.133
1532373319.622,40.039,10.742,-4.395,35.156,11.230
1532373319.626,44.434,7.812,-2.930,34.668,14.160
1532373319.630,46.387,3.906,2.930,35.645,58.105
1532373319.633,52.246,6.836,4.883,41.504,82.031
1532373319.637,57.129,11.719,2.930,42.480,34.668
1532373319.641,47.363,11.230,-1.465,35.156,-21.973
1532373319.645,41.992,9.766,-6.348,36.621,18.066
1532373319.649,41.504,11.230,-5.371,40.039,45.410
1532373319.653,37.598,8.789,1.465,37.598,34.180
1532373319.657,41.016,7.324,3.906,35.645,34.668
1532373319.661,44.434,9.277,2.441,30.273,41.504
1532373319.665,40.039,6.836,2.441,30.762,55.664
1532373319.669,47.852,5.859,1.953,36.133,35.156
1532373319.672,49.316,6.348,1.953,40.527,5.859
1532373319.676,41.016,3.906,3.418,42.480,3.418
1532373319.680,41.504,5.371,3.418,40.039,1.953
1532373319.684,53.711,10.742,1.953,45.410,35.156
1532373319.688,62.012,9.766,1.953,47.852,50.293
1532373319.692,50.781,7.324,1.465,41.016,32.227
1532373319.696,40.527,7.812,4.395,38.574,46.387
1532373319.700,47.363,8.789,7.324,42.480,38.574
1532373319.704,55.664,11.230,6.348,45.898,32.227
1532373319.708,48.340,9.277,4.883,46.875,27.344
1532373319.712,45.410,6.836,3.906,45.898,14.648
1532373319.715,43.945,7.324,1.953,42.969,40.527
1532373319.719,46.875,13.672,4.883,48.828,18.066
1532373319.723,57.129,15.137,8.789,54.199,-15.137
1532373319.727,58.594,12.695,2.441,51.270,8.301
1532373319.731,61.523,16.602,-0.977,46.387,24.902
1532373319.735,63.965,17.090,-1.465,43.457,35.645
1532373319.739,65.430,15.625,3.906,39.551,3.906
1532373319.743,70.801,17.090,4.883,31.738,-12.695
1532373319.747,62.500,19.043,2.441,37.598,20.996
1532373319.751,54.199,18.066,8.301,38.086,34.180
1532373319.755,50.293,17.090,9.277,28.809,41.992
1532373319.758,41.016,19.043,9.277,31.250,-10.254
1532373319.762,39.551,19.531,11.719,31.738,-33.203
1532373319.766,36.621,19.043,9.766,37.598,29.297
1532373319.770,27.344,19.531,9.277,37.598,21.484
1532373319.774,26.855,17.578,13.672,33.691,4.395
1532373319.778,38.574,19.531,12.695,37.109,26.855
1532373319.782,42.480,23.926,12.207,37.109,45.410
1532373319.786,31.738,24.414,17.090,28.809,32.227
1532373319.790,25.879,23.438,15.625,24.414,10.742
1532373319.794,26.855,20.508,15.625,30.762,19.531
1532373319.797,29.297,18.555,18.555,39.062,41.504
1532373319.801,44.434,19.043,18.066,47.852,51.758
1532373319.805,52.246,19.043,15.625,48.340,23.926
1532373319.809,44.434,18.555,9.277,44.434,-13.184
1532373319.813,41.504,19.043,4.883,40.527,10.254
1532373319.817,37.109,18.555,6.836,34.180,57.617
1532373319.821,30.273,11.719,7.324,35.156,36.133
1532373319.825,36.133,7.812,6.836,40.527,22.461
1532373319.829,40.527,9.277,10.742,41.016,38.086
1532373319.833,46.875,10.742,9.277,45.410,58.594
1532373319.837,48.828,11.719,7.324,45.410,57.617
1532373319.840,45.898,11.230,8.789,41.504,20.508
1532373319.844,47.852,13.184,7.324,51.758,-4.883
1532373319.848,41.992,13.672,5.859,55.664,41.504
1532373319.852,38.574,13.672,7.324,49.316,75.684
1532373319.856,36.133,13.672,9.766,48.828,31.738
1532373319.860,27.832,11.719,6.836,42.480,2.441
1532373319.864,28.809,11.719,3.418,37.109,18.555
1532373319.868,33.203,13.672,8.789,41.504,51.758
1532373319.872,31.738,12.695,9.277,44.434,27.344
1532373319.876,34.180,13.184,5.859,41.992,25.879
1532373319.879,41.504,17.090,5.859,41.992,72.266
1532373319.883,47.852,16.113,8.301,55.664,74.219
1532373319.887,44.922,13.672,11.719,61.035,41.016
1532373319.891,38.574,14.160,12.207,54.199,43.945
1532373319.895,40.527,13.184,9.766,58.105,42.480
1532373319.899,44.434,13.184,8.301,58.105,34.180
1532373319.903,47.852,11.230,8.301,51.758,17.578
1532373319.907,45.410,12.207,8.301,48.340,-17.090
1532373319.911,37.598,13.672,8.301,42.969,3.418
1532373319.915,42.969,13.184,8.789,45.898,77.148
1532373319.919,42.969,14.160,5.859,43.945,56.641
1532373319.922,39.062,12.695,2.930,33.691,-21.973
1532373319.926,46.387,10.254,3.906,39.551,-10.742
1532373319.930,56.641,14.648,0.000,48.828,34.180
1532373319.934,64.941,21.973,-3.418,51.758,55.176
1532373319.938,55.664,21.484,-2.930,48.340,22.949
1532373319.942,42.969,16.602,-2.441,42.480,3.906
1532373319.946,43.457,16.113,0.000,45.410,31.250
1532373319.950,41.016,21.484,0.000,41.992,17.578
1532373319.954,40.527,23.926,0.488,42.480,27.832
1532373319.958,46.875,21.973,0.977,45.898,33.203
1532373319.962,44.922,21.484,-0.488,42.969,18.555
1532373319.965,39.551,22.949,3.418,38.086,29.785
1532373319.969,42.969,23.926,2.930,42.480,28.809
1532373319.973,38.086,22.949,1.953,41.504,24.902
1532373319.977,30.762,21.484,5.371,30.762,16.113
1532373319.981,41.992,23.438,5.859,31.250,10.254
1532373319.985,50.781,26.367,4.883,39.062,24.902
1532373319.989,44.434,27.832,0.000,38.574,24.414
1532373319.993,46.387,29.785,-5.371,35.645,28.809
1532373319.997,49.805,35.156,-4.395,41.504,38.574
1532373320.001,40.527,36.133,-1.465,34.668,28.809
1532373320.004,31.738,31.250,-0.977,21.973,46.387
1532373320.008,27.344,28.809,0.488,24.902,53.223
1532373320.012,28.320,27.832,4.883,26.367,47.852
1532373320.016,30.273,23.926,5.371,32.227,68.848
1532373320.020,33.691,26.855,3.418,39.062,34.668
1532373320.024,18.555,30.273,0.488,20.020,5.371
1532373320.028,9.766,25.391,3.418,12.207,30.762
1532373320.032,15.137,24.414,6.348,24.414,56.152
1532373320.036,21.973,23.438,3.906,28.809,39.551
1532373320.040,21.973,17.090,3.906,34.180,-2.930
1532373320.044,23.438,13.672,2.930,30.762,-5.371
1532373320.047,33.203,20.020,-1.465,19.531,24.414
1532373320.051,33.203,24.414,-4.883,26.367,48.340
1532373320.055,30.273,20.508,-5.859,25.879,26.367
1532373320.059,22.461,14.648,-2.930,19.531,-16.113
1532373320.063,35.156,18.555,-0.488,24.902,12.695
1532373320.067,46.387,22.461,1.953,28.809,37.598
1532373320.071,27.344,18.555,3.906,22.461,37.598
1532373320.075,22.461,15.137,4.395,19.043,7.324
1532373320.079,17.090,14.648,2.441,11.719,-0.977
1532373320.083,21.973,15.625,1.465,8.301,36.621
1532373320.086,35.156,15.625,2.441,15.625,66.406
1532373320.090,35.156,15.137,4.395,22.461,40.039
1532373320.094,27.832,15.137,4.883,27.832,17.090
1532373320.098,21.973,16.602,2.930,18.555,41.992
1532373320.102,27.832,18.555,2.441,11.719,41.504
1532373320.106,35.645,14.160,7.324,15.625,32.227
1532373320.110,31.250,8.789,11.230,18.555,28.320
1532373320.114,29.785,9.766,10.742,20.996,41.504
1532373320.118,41.504,10.742,9.277,28.320,62.500
1532373320.122,44.434,9.277,6.348,32.227,34.180
1532373320.126,34.180,9.766,4.395,33.203,0.000
1532373320.129,35.645,7.812,3.418,28.809,30.762
1532373320.133,42.480,9.277,5.859,26.367,66.406
1532373320.137,44.922,13.184,8.301,30.762,33.691
1532373320.141,38.574,15.137,5.859,28.809,-13.184
1532373320.145,29.785,14.160,3.418,23.438,-5.859
1532373320.149,30.273,12.207,5.859,23.926,38.086
1532373320.153,23.926,11.719,6.348,27.832,30.273
1532373320.157,26.855,9.766,2.930,32.227,-22.461
1532373320.161,36.621,11.719,1.465,30.762,15.625
1532373320.165,37.598,13.184,-0.977,27.832,63.477
1532373320.169,35.645,14.160,0.000,31.738,65.430
1532373320.172,30.762,14.160,4.395,30.762,48.828
1532373320.176,32.227,13.672,5.371,20.508,13.672
1532373320.180,30.762,16.113,1.953,18.555,28.809
1532373320.184,32.227,20.020,-1.953,29.785,21.973
1532373320.188,35.645,17.090,0.488,35.645,0.000
1532373320.192,37.598,16.113,7.324,40.039,4.395
1532373320.196,37.598,18.555,6.836,41.992,28.320
1532373320.200,35.156,17.578,2.441,37.109,17.578
1532373320.204,39.062,16.602,2.441,31.738,5.859
1532373320.208,38.086,14.648,0.488,36.621,7.812
1532373320.211,45.410,15.625,2.930,41.992,24.902
1532373320.215,50.293,19.043,1.953,45.410,39.062
1532373320.219,37.598,17.578,-0.977,42.969,11.230
1532373320.223,32.715,15.137,-0.977,38.574,-0.977
1532373320.227,32.227,14.648,-2.930,41.016,0.488
1532373320.231,40.527,14.160,-1.953,46.875,17.090
1532373320.235,47.852,15.137,-3.418,55.664,53.223
1532373320.239,45.898,19.043,-9.766,53.223,30.762
1532373320.243,56.152,19.043,-4.883,60.547,7.324
1532373320.247,48.828,20.020,-3.418,70.312,17.090
1532373320.251,29.297,30.273,-13.672,54.199,27.832
1532373320.254,30.762,32.715,-16.602,47.852,51.270
1532373320.258,34.180,26.367,-5.859,54.199,15.137
1532373320.262,32.715,26.367,-1.465,49.805,-20.020
1532373320.266,36.133,28.809,-5.371,55.664,32.227
1532373320.270,37.109,26.855,2.441,63.965,36.621
1532373320.274,30.273,22.461,4.395,57.129,18.066
1532373320.278,34.180,23.438,1.465,49.316,42.969
1532373320.282,41.016,24.902,3.906,45.898,29.297
1532373320.286,38.574,25.391,3.906,49.805,-5.371
1532373320.290,34.668,26.367,2.441,51.758,13.184
1532373320.293,34.668,28.809,0.977,50.293,29.297
1532373320.297,46.387,35.156,2.441,59.570,34.180
1532373320.301,45.898,34.180,8.301,64.453,57.129
1532373320.305,40.527,32.715,10.254,60.059,62.012
1532373320.309,43.945,32.227,6.348,59.082,52.734
1532373320.313,48.828,31.250,3.418,57.129,51.758
1532373320.317,41.992,32.227,2.930,52.246,50.781
1532373320.321,27.832,29.785,4.395,49.805,34.180
1532373320.325,19.043,27.832,9.277,44.434,17.578
1532373320.329,17.578,27.344,14.160,50.293,33.691
1532373320.333,19.531,27.344,16.113,56.641,60.059
1532373320.336,19.043,32.227,14.160,57.617,61.523
1532373320.340,26.367,31.250,10.254,59.082,12.695
1532373320.344,26.855,26.367,9.766,61.035,9.277
1532373320.348,27.344,28.320,12.207,63.477,53.711
1532373320.352,37.109,29.785,9.277,63.965,62.012
1532373320.356,39.062,29.297,9.277,65.430,41.992
1532373320.360,27.344,28.320,14.160,65.430,23.438
1532373320.364,20.996,27.832,13.184,62.500,60.059
1532373320.368,29.297,31.250,14.160,64.453,57.617
1532373320.372,33.203,31.738,16.113,64.941,27.344
1532373320.375,28.809,29.785,14.648,60.059,20.508
1532373320.379,30.762,31.738,12.695,60.059,15.137
1532373320.383,33.203,32.715,12.695,57.617,29.297
1532373320.387,34.180,30.273,13.672,53.223,27.344
1532373320.391,28.809,30.273,10.742,43.457,8.301
1532373320.395,27.344,30.273,9.277,45.410,18.555
1532373320.399,34.180,29.785,12.695,49.316,32.227
1532373320.403,30.762,26.855,12.695,49.805,52.246
1532373320.407,27.832,24.902,12.207,52.734,30.762
1532373320.411,37.109,26.367,12.207,62.012,18.066
1532373320.415,32.227,26.367,13.672,65.918,73.730
1532373320.418,31.250,23.926,16.113,60.547,82.031
1532373320.422,33.203,20.020,16.602,56.641,24.902
1532373320.426,30.762,20.508,14.648,55.176,29.297
1532373320.430,32.715,24.414,16.113,60.547,65.918
1532373320.434,48.828,23.438,21.484,65.918,79.590
1532373320.438,53.711,22.461,18.555,65.918,50.781
1532373320.442,41.992,24.902,14.648,63.477,10.254
1532373320.446,31.738,25.879,18.555,60.059,38.574
1532373320.450,26.855,23.926,21.484,63.965,83.008
1532373320.454,27.832,23.438,21.484,69.336,52.734
1532373320.458,21.973,22.949,20.996,60.059,-8.301
1532373320.461,8.789,22.949,18.066,45.410,0.488
1532373320.465,7.324,24.902,18.555,43.945,44.434
1532373320.469,16.113,24.414,19.531,46.387,60.059
1532373320.473,22.461,23.926,19.531,44.922,38.086
1532373320.477,29.785,24.902,21.484,38.574,5.371
1532373320.481,30.273,28.320,20.508,28.809,-7.324
1532373320.485,27.832,30.273,21.484,30.273,31.738
1532373320.489,27.832,26.855,15.137,37.598,57.129
1532373320.493,30.273,24.902,14.160,38.086,25.879
1532373320.497,32.715,27.344,21.484,38.574,7.812
1532373320.500,33.203,27.832,20.508,39.551,21.973
1532373320.504,31.738,30.273,17.578,42.969,41.992
1532373320.508,28.809,32.227,17.578,48.340,32.227
1532373320.512,27.344,30.762,17.578,50.781,35.645
1532373320.516,29.785,32.715,18.066,50.293,48.340
1532373320.520,34.668,29.785,17.090,47.363,0.977
1532373320.524,36.133,25.391,17.090,39.551,3.906
1532373320.528,31.250,28.320,18.555,36.133,28.809
1532373320.532,33.203,33.203,16.113,46.387,55.664
1532373320.536,36.133,33.203,17.090,49.805,68.848
1532373320.540,31.250,31.738,17.090,45.898,15.625
1532373320.543,27.344,29.297,15.137,45.898,17.090
1532373320.547,29.297,26.367,16.602,48.828,34.668
1532373320.551,27.344,25.391,19.043,53.711,48.340
1532373320.555,27.832,26.855,19.531,51.758,52.734
1532373320.559,31.250,28.809,15.137,49.805,5.371
1532373320.563,33.691,30.762,16.113,42.480,0.488
1532373320.567,22.461,32.227,20.020,37.598,51.270
1532373320.571,20.508,32.227,18.066,38.574,66.406
1532373320.575,28.320,33.691,15.625,45.410,59.082
1532373320.579,27.344,32.227,15.625,51.270,56.641
1532373320.582,35.645,31.250,20.508,52.246,53.711
1532373320.586,36.621,34.180,22.949,51.758,47.363
1532373320.590,23.926,36.133,23.926,47.852,31.738
1532373320.594,26.367,33.203,26.367,38.086,14.648
1532373320.598,30.762,34.180,23.438,35.645,44.922
1532373320.602,26.855,36.621,23.926,36.621,66.406
1532373320.606,14.160,32.715,31.738,34.180,13.184
1532373320.610,7.324,27.832,33.203,33.691,2.441
1532373320.614,22.461,34.668,33.203,39.062,38.574
1532373320.618,25.391,41.016,30.762,42.480,64.941
1532373320.622,23.926,35.645,30.762,39.062,41.504
1532373320.625,14.160,34.180,31.738,33.691,-1.465
1532373320.629,-4.395,34.180,29.297,25.879,25.391
1532373320.633,-4.883,31.738,30.273,35.156,63.965
1532373320.637,0.977,27.832,33.691,45.898,45.410
1532373320.641,0.000,26.855,36.621,40.039,23.438
1532373320.645,8.789,32.227,37.598,38.574,33.203
1532373320.649,19.531,37.109,34.180,47.852,62.012
1532373320.653,13.672,35.645,35.156,56.152,47.363
1532373320.657,8.789,34.668,36.621,52.734,-2.441
1532373320.661,5.859,36.621,35.645,51.758,-18.555
1532373320.665,3.906,35.645,39.551,53.223,24.902
1532373320.668,6.836,32.715,41.016,52.246,64.453
1532373320.672,7.812,31.250,41.504,59.082,47.852
1532373320.676,-0.977,29.785,42.480,58.594,6.836
1532373320.680,2.930,29.785,41.992,50.781,14.160
1532373320.684,6.348,30.273,46.387,54.199,51.270
1532373320.688,1.953,26.367,48.828,47.852,57.617
1532373320.692,4.395,25.391,45.898,44.434,40.527
1532373320.696,10.254,26.855,40.039,53.223,22.461
1532373320.700,4.395,26.367,38.574,52.246,38.086
1532373320.704,0.000,23.926,40.527,40.039,15.137
1532373320.707,-3.418,24.902,41.992,31.250,6.348
1532373320.711,-1.465,27.344,40.039,42.969,28.809
1532373320.715,12.695,25.391,39.062,50.293,33.691
1532373320.719,13.184,26.855,38.574,39.062,22.461
1532373320.723,10.254,30.273,36.133,34.668,3.906
1532373320.727,9.766,26.367,33.691,37.598,6.348
1532373320.731,2.930,23.926,36.621,35.645,19.043
1532373320.735,4.395,23.926,36.133,41.504,30.273
1532373320.739,26.367,23.926,35.156,49.805,9.766
1532373320.743,39.062,26.367,29.785,47.363,-6.836
1532373320.747,21.484,27.344,29.297,44.434,10.742
1532373320.750,15.137,25.391,33.203,46.387,26.367
1532373320.754,22.461,22.461,34.180,52.246,20.020
1532373320.758,23.926,20.996,32.227,46.875,-8.789
1532373320.762,20.508,29.297,23.926,43.945,-17.090
1532373320.766,35.156,35.156,24.414,52.246,27.344
1532373320.770,37.109,33.691,28.320,47.852,39.062
1532373320.774,24.902,31.250,24.414,47.363,7.812
1532373320.778,27.344,30.762,22.461,52.734,-1.465
1532373320.782,24.902,33.203,23.926,49.805,34.668
1532373320.786,29.297,36.621,23.438,55.664,78.613
1532373320.789,41.504,38.086,20.020,64.453,40.527
1532373320.793,43.945,39.062,20.996,72.754,10.254
1532373320.797,42.480,37.598,25.391,79.102,-0.488
1532373320.801,44.434,37.598,26.367,69.336,-7.812
1532373320.805,47.852,36.133,24.902,66.895,26.855
1532373320.809,42.969,33.203,20.996,63.965,16.602
1532373320.813,36.133,33.691,20.996,63.965,23.926
1532373320.817,46.387,33.203,23.438,70.801,45.410
1532373320.821,51.270,31.738,20.996,72.754,43.457
1532373320.825,52.246,32.227,15.625,69.824,27.344
1532373320.829,56.152,33.691,11.719,65.918,30.762
1532373320.832,48.340,32.715,15.137,73.730,50.293
1532373320.836,42.969,31.250,17.090,79.590,29.297
1532373320.840,42.480,32.227,17.578,74.707,15.625
1532373320.844,45.898,30.762,20.508,70.312,16.602
1532373320.848,48.828,28.809,20.020,72.754,41.504
1532373320.852,49.805,28.809,19.531,72.754,56.152
1532373320.856,45.410,26.367,16.602,61.523,35.156
1532373320.860,43.457,26.367,14.160,54.199,41.504
1532373320.864,44.434,27.344,17.578,55.664,44.434
1532373320.868,39.551,24.414,18.066,58.105,63.477
1532373320.872,37.598,21.484,19.043,63.965,47.363
1532373320.875,39.062,23.926,22.949,63.477,-3.906
1532373320.879,42.969,27.344,20.508,61.523,19.531
1532373320.883,44.922,28.320,17.090,67.871,72.266
1532373320.887,42.480,28.809,20.996,67.383,36.133
1532373320.891,46.875,30.273,20.508,59.082,4.395
1532373320.895,43.457,29.297,15.137,60.059,27.832
1532373320.899,36.621,30.273,19.531,62.988,7.324
1532373320.903,38.086,31.250,22.461,63.965,-2.930
1532373320.907,35.645,28.320,20.996,63.477,2.441
1532373320.911,29.785,25.879,20.996,60.547,-2.441
1532373320.914,32.715,26.855,20.508,56.152,39.062
1532373320.918,40.039,26.855,19.043,57.617,82.031
1532373320.922,42.480,23.926,15.137,65.430,38.086
1532373320.926,37.598,23.438,12.207,65.430,30.273
1532373320.930,34.668,25.879,13.184,60.547,52.246
1532373320.934,38.086,26.855,13.184,60.547,54.199
1532373320.938,41.504,25.391,14.160,64.941,35.645
1532373320.942,42.969,25.391,10.742,68.848,11.230
1532373320.946,40.527,24.902,7.812,70.801,47.852
1532373320.950,43.457,22.461,8.789,77.637,93.750
1532373320.954,47.363,22.461,12.207,80.078,84.473
1532373320.957,43.945,21.484,12.695,72.754,38.086
1532373320.961,39.062,18.066,9.766,63.965,43.457
1532373320.965,34.180,19.531,7.324,55.664,101.074
1532373320.969,34.180,18.555,4.395,54.199,88.379
1532373320.973,31.250,14.648,5.371,48.340,22.949
1532373320.977,36.621,7.812,12.695,51.758,20.020
1532373320.981,42.969,5.371,16.113,66.406,34.180
1532373320.985,44.434,16.602,5.371,55.664,32.715
1532373320.989,41.016,28.320,-5.371,38.086,31.738
1532373320.993,36.133,23.926,0.000,43.945,32.715
1532373320.996,24.902,17.090,5.859,37.109,44.434
1532373321.000,20.508,20.996,8.301,31.250,62.500
1532373321.004,33.691,25.391,4.883,35.645,71.289
1532373321.008,36.133,25.391,-4.883,30.273,33.203
1532373321.012,20.996,22.949,-5.371,26.367,37.109
1532373321.016,25.879,19.531,-0.977,32.227,90.332
1532373321.020,38.574,22.949,-5.859,35.645,57.129
1532373321.024,37.109,23.926,-11.230,36.621,26.367
1532373321.028,44.922,19.043,-8.789,46.387,62.500
1532373321.032,47.852,15.625,-7.324,53.223,43.945
1532373321.036,38.086,14.648,-8.789,58.105,20.020
1532373321.039,40.039,13.672,-11.230,56.152,13.184
1532373321.043,42.480,11.719,-13.184,56.152,-18.555
1532373321.047,50.293,15.625,-15.625,60.547,3.906
1532373321.051,60.547,18.066,-20.508,64.453,60.547
1532373321.055,66.895,10.742,-25.391,67.871,28.809
1532373321.059,57.129,6.836,-25.391,64.453,3.906
1532373321.063,51.758,5.371,-22.461,67.871,40.527
1532373321.067,61.035,7.324,-21.484,71.777,46.875
1532373321.071,67.871,9.766,-23.438,67.871,39.551
1532373321.075,65.430,9.277,-27.832,66.895,44.922
1532373321.079,64.453,10.254,-27.344,59.082,31.738
1532373321.082,66.895,8.789,-21.484,55.664,37.109
1532373321.086,61.035,5.371,-19.531,60.547,61.035
1532373321.090,60.547,5.371,-18.066,62.500,36.133
1532373321.094,54.199,6.348,-18.555,61.035,45.410
1532373321.098,50.781,5.859,-17.578,57.129,36.133
1532373321.102,47.363,6.836,-19.043,53.711,25.391
1532373321.106,49.316,7.324,-20.508,50.293,9.277
1532373321.110,55.664,4.883,-21.484,46.875,7.324
1532373321.114,55.176,4.395,-22.949,45.898,50.293
1532373321.118,59.082,8.301,-22.949,53.223,40.039
1532373321.121,62.988,8.301,-27.344,51.758,14.648
1532373321.125,62.012,4.395,-30.273,46.387,1.465
1532373321.129,64.453,3.418,-25.879,51.270,30.273
1532373321.133,66.406,3.906,-21.973,47.852,76.172
1532373321.137,78.613,6.348,-25.879,43.945,46.875
1532373321.141,79.590,6.348,-27.344,49.316,24.414
1532373321.145,68.359,2.441,-24.414,54.199,36.621
1532373321.149,63.477,0.488,-23.926,53.711,60.547
1532373321.153,56.152,2.441,-23.926,62.012,54.688
1532373321.157,54.199,0.488,-23.926,74.219,-0.977
1532373321.161,57.617,-2.441,-25.879,71.777,-5.371
1532373321.164,56.641,0.977,-27.344,73.730,1.465
1532373321.168,52.734,5.371,-24.902,81.543,20.020
1532373321.172,56.641,3.418,-21.484,78.125,41.992
1532373321.176,59.082,-0.977,-22.461,73.242,29.785
1532373321.180,61.523,-1.953,-22.949,68.848,19.531
1532373321.184,61.035,1.953,-24.414,68.848,46.387
1532373321.188,55.664,1.953,-24.414,66.895,28.809
1532373321.192,58.594,2.930,-23.438,62.988,14.160
1532373321.196,64.453,5.371,-22.949,68.848,31.250
1532373321.200,56.641,3.418,-23.438,73.242,42.969
1532373321.203,49.805,4.395,-23.438,70.801,18.066
1532373321.207,53.711,6.348,-24.414,71.777,-7.812
1532373321.211,51.270,7.324,-27.344,73.730,29.297
1532373321.215,51.270,6.836,-29.297,67.871,32.715
1532373321.219,47.852,5.371,-24.414,63.965,15.137
1532373321.223,39.062,5.371,-20.996,69.824,23.438
1532373321.227,45.410,5.859,-24.414,75.684,20.508
1532373321.231,48.340,8.301,-25.879,76.660,25.879
1532373321.235,47.852,8.301,-24.902,82.031,41.016
1532373321.239,53.223,9.766,-22.949,81.543,31.250
1532373321.243,53.223,13.672,-21.973,78.613,12.207
1532373321.246,52.734,13.672,-20.508,79.102,13.672
1532373321.250,62.500,13.672,-20.508,80.078,40.527
1532373321.254,62.500,12.695,-20.996,81.543,33.691
1532373321.258,55.664,9.766,-23.926,73.730,6.836
1532373321.262,57.617,10.742,-24.414,71.777,-0.977
1532373321.266,57.129,11.230,-19.043,66.895,32.227
1532373321.270,54.199,10.742,-20.020,59.570,41.504
1532373321.274,48.828,9.277,-20.020,57.617,22.949
1532373321.278,55.664,7.812,-19.043,55.664,32.715
1532373321.282,56.152,9.766,-19.531,51.758,21.973
1532373321.286,53.711,9.766,-18.066,47.363,41.504
1532373321.289,60.547,10.254,-17.090,51.270,26.855
1532373321.293,62.012,8.301,-19.043,55.664,10.742
1532373321.297,62.988,7.324,-20.508,51.270,42.480
1532373321.301,60.547,12.207,-20.020,43.457,47.363
1532373321.305,57.129,12.695,-25.391,45.898,26.855
1532373321.309,49.316,11.230,-26.367,43.945,12.207
1532373321.313,48.828,8.301,-19.531,46.387,50.781
1532373321.317,51.758,7.812,-18.066,51.270,59.082
1532373321.321,43.945,10.742,-19.043,40.039,23.438
1532373321.325,45.410,12.695,-18.066,38.086,16.602
1532373321.328,47.363,12.207,-15.137,42.480,6.348
1532373321.332,44.434,11.230,-15.625,41.504,44.434
1532373321.336,41.016,10.742,-18.555,36.133,43.945
1532373321.340,36.621,15.137,-21.973,35.645,-10.254
1532373321.344,37.109,17.578,-22.461,39.062,4.395
1532373321.348,39.062,19.043,-23.926,38.574,30.762
1532373321.352,50.293,24.414,-28.320,49.805,34.668
1532373321.356,49.805,19.531,-22.949,55.176,20.020
1532373321.360,30.273,15.625,-18.555,38.086,17.578
1532373321.364,34.180,17.578,-21.484,40.527,32.227
1532373321.368,38.574,20.996,-23.438,52.734,48.828
1532373321.371,39.551,20.996,-26.855,49.316,36.621
1532373321.375,36.133,17.090,-30.762,50.781,12.695
1532373321.379,27.832,16.602,-30.273,42.480,10.742
1532373321.383,31.738,17.090,-28.809,33.203,26.855
1532373321.387,38.574,15.625,-24.902,34.668,63.965
1532373321.391,37.598,14.160,-20.508,39.551,23.926
1532373321.395,39.062,13.184,-18.066,53.223,4.395
1532373321.399,40.527,8.301,-17.090,60.059,49.316
1532373321.403,36.133,8.301,-17.578,63.477,41.016
1532373321.407,40.039,10.742,-19.531,69.824,4.395
1532373321.410,47.363,13.184,-21.484,70.312,5.371
1532373321.414,47.852,11.230,-16.602,68.848,43.945
1532373321.418,39.062,8.301,-16.113,62.988,40.527
1532373321.422,33.203,6.348,-18.555,49.805,19.043
1532373321.426,36.133,6.348,-20.996,46.387,27.832
1532373321.430,43.457,11.719,-23.438,55.176,14.648
1532373321.434,45.898,12.207,-19.043,65.918,38.086
1532373321.438,42.480,12.695,-19.531,71.289,41.016
1532373321.442,47.852,13.184,-20.508,73.242,-25.391
1532373321.446,45.898,12.695,-20.996,75.195,5.859
1532373321.450,43.945,12.207,-20.020,80.566,58.105
1532373321.453,47.363,10.254,-18.555,74.707,34.180
1532373321.457,46.387,12.207,-19.043,62.500,29.785
1532373321.461,44.922,13.672,-19.043,74.707,39.551
1532373321.465,42.969,13.184,-18.555,83.008,40.039
1532373321.469,47.363,14.160,-19.531,72.266,48.340
1532373321.473,53.711,14.160,-20.996,68.359,56.641
1532373321.477,54.199,18.066,-23.926,67.383,25.879
1532373321.481,55.176,20.996,-24.414,66.406,37.109
1532373321.485,49.316,19.531,-23.438,61.035,63.477
1532373321.489,43.945,16.602,-25.391,52.246,61.035
1532373321.492,46.875,14.160,-24.902,62.012,50.293
1532373321.496,50.293,13.672,-22.949,63.477,52.734
1532373321.500,44.922,16.113,-21.484,48.828,50.781
1532373321.504,38.086,13.672,-22.461,52.734,63.965
1532373321.508,40.039,11.719,-23.926,52.246,43.457
1532373321.512,43.945,15.625,-23.438,45.410,20.996
1532373321.516,43.457,14.160,-21.973,43.945,40.527
1532373321.520,44.922,12.695,-23.438,42.969,62.012
1532373321.524,52.246,14.648,-21.484,51.270,43.945
1532373321.528,49.805,14.648,-18.555,58.594,-14.648
1532373321.532,43.457,13.672,-20.020,63.477,12.695
1532373321.535,41.016,13.672,-19.531,69.824,72.266
1532373321.539,36.133,15.137,-16.602,67.871,15.137
1532373321.543,38.574,16.602,-20.996,52.246,-19.531
1532373321.547,40.527,16.602,-23.926,40.039,25.879
1532373321.551,28.809,19.043,-20.020,34.668,49.316
1532373321.555,27.832,18.066,-20.020,30.273,26.367
1532373321.559,37.109,18.555,-21.484,28.809,-13.184
1532373321.563,37.598,20.508,-19.531,33.691,15.625
1532373321.567,34.180,21.484,-17.090,33.203,50.293
1532373321.571,29.785,24.414,-15.137,21.973,25.391
1532373321.575,31.738,27.344,-14.160,27.832,19.531
1532373321.578,28.320,27.832,-13.184,40.039,34.668
1532373321.582,19.531,26.855,-12.207,39.062,49.316
1532373321.586,27.344,26.367,-11.230,35.645,46.875
1532373321.590,36.133,24.902,-10.742,36.133,9.766
1532373321.594,25.879,26.367,-11.230,30.762,30.273
1532373321.598,18.555,30.273,-11.719,20.020,51.270
1532373321.602,22.949,32.715,-11.719,16.602,28.809
1532373321.606,23.926,33.691,-13.672,13.672,29.785
1532373321.610,16.113,34.668,-13.184,15.137,16.113
1532373321.614,9.766,32.227,-8.789,26.855,16.113
1532373321.617,14.160,31.738,-7.812,26.367,42.969
1532373321.621,8.789,34.180,-9.277,16.602,35.156
1532373321.625,5.859,37.598,-10.742,19.531,14.160
1532373321.629,19.043,42.969,-10.254,18.066,22.461
1532373321.633,20.508,45.898,-6.836,17.090,50.293
1532373321.637,11.230,45.410,-4.395,17.578,54.688
1532373321.641,6.348,47.363,-7.324,5.859,10.254
1532373321.645,5.859,47.852,-8.301,1.953,-6.348
1532373321.649,11.719,45.410,-8.789,5.859,37.109
1532373321.653,4.395,39.551,-4.395,4.883,41.016
1532373321.657,-2.930,36.133,-0.977,2.930,20.996
1532373321.660,4.395,40.039,-3.906,6.348,19.043
1532373321.664,9.277,42.480,-3.906,5.371,39.551
1532373321.668,11.230,45.410,-5.371,0.977,62.500
1532373321.672,12.695,47.852,-10.254,7.812,48.828
1532373321.676,4.395,44.434,-6.836,10.742,19.043
1532373321.680,1.953,39.551,0.488,7.812,21.484
1532373321.684,2.441,34.668,2.930,17.090,46.387
1532373321.688,0.977,30.273,5.371,16.602,52.734
1532373321.692,16.602,29.785,0.000,12.207,39.062
1532373321.696,24.414,34.668,-7.324,12.695,48.340
1532373321.699,23.438,37.598,-4.395,13.184,31.738
1532373321.703,21.973,35.156,1.465,20.996,29.297
1532373321.707,15.625,29.785,7.324,20.508,28.809
1532373321.711,12.207,27.832,7.324,20.020,-5.859
1532373321.715,14.160,32.715,3.418,34.180,29.785
1532373321.719,19.531,36.621,0.977,38.574,58.594
1532373321.723,23.438,38.086,4.395,30.762,25.391
1532373321.727,26.855,37.598,1.953,33.203,1.953
1532373321.731,34.668,36.621,-1.953,39.062,6.836
1532373321.735,39.062,38.086,0.000,40.527,41.504
1532373321.739,20.996,35.645,6.348,29.785,21.973
1532373321.742,11.719,31.738,10.742,25.391,-25.391
1532373321.746,15.625,29.785,13.184,29.785,11.719
1532373321.750,9.277,25.879,15.137,26.367,46.387
1532373321.754,6.348,23.438,15.625,25.391,64.453
1532373321.758,7.324,22.949,18.555,32.227,54.688
1532373321.762,8.301,22.461,18.066,36.621,27.832
1532373321.766,12.207,25.391,13.672,34.668,42.969
1532373321.770,17.090,29.297,15.137,36.133,66.406
1532373321.774,14.160,31.250,14.648,38.574,40.039
1532373321.778,17.090,36.621,10.254,32.227,-6.348
1532373321.782,24.902,39.062,14.160,33.691,16.113
1532373321.785,23.926,37.598,18.555,39.551,50.293
1532373321.789,31.250,40.039,17.090,42.969,24.414
1532373321.793,35.645,41.504,17.578,41.992,19.043
1532373321.797,30.762,38.574,15.625,37.109,23.438
1532373321.801,27.344,37.109,15.137,38.086,25.391
1532373321.805,22.949,36.621,20.996,42.480,22.949
1532373321.809,32.227,37.598,20.508,43.457,25.879
1532373321.813,37.109,41.016,15.625,37.598,44.922
1532373321.817,24.902,40.527,16.113,31.250,51.270
1532373321.821,26.855,36.621,21.484,34.668,20.996
1532373321.824,34.668,34.180,23.926,43.457,-13.672
1532373321.828,37.598,36.621,21.973,43.945,5.859
1532373321.832,40.527,44.922,11.230,38.574,39.062
1532373321.836,39.062,43.457,7.324,42.480,26.367
1532373321.840,43.457,37.109,11.230,39.551,-5.371
1532373321.844,29.297,39.551,8.789,26.367,19.043
1532373321.848,23.438,39.062,6.836,31.250,10.742
1532373321.852,39.062,39.551,4.395,43.457,28.320
1532373321.856,42.480,40.039,-1.465,41.504,26.367
1532373321.860,34.180,41.992,-0.488,22.949,-26.367
1532373321.864,31.738,43.945,3.906,18.066,3.418
1532373321.867,45.898,45.898,4.395,23.438,51.758
1532373321.871,63.477,55.176,5.859,21.484,37.598
1532373321.875,64.941,61.035,4.395,24.414,-5.859
1532373321.879,52.246,62.012,6.836,23.926,-13.672
1532373321.883,51.270,62.500,10.742,26.367,9.766
1532373321.887,58.594,60.547,8.301,45.898,35.645
1532373321.891,52.246,58.594,7.324,54.688,24.414
1532373321.895,39.551,59.082,9.766,53.711,6.836
1532373321.899,37.598,60.547,8.789,55.664,22.949
1532373321.903,36.133,59.082,11.230,53.223,28.809
1532373321.906,41.016,55.664,14.648,51.270,-4.395
1532373321.910,38.086,51.758,12.695,46.875,-8.789
1532373321.914,30.762,51.758,11.230,42.969,24.414
1532373321.918,33.203,51.758,12.695,39.062,24.414
1532373321.922,32.715,49.805,11.719,38.574,13.672
1532373321.926,41.504,49.805,4.395,37.598,22.461
1532373321.930,42.480,50.293,3.418,38.086,29.785
1532373321.934,32.227,48.340,9.766,37.109,21.973
1532373321.938,40.039,48.340,12.695,35.156,-8.789
1532373321.942,51.270,50.293,11.719,39.551,-44.434
1532373321.946,54.199,53.223,13.672,42.480,-30.273
1532373321.949,51.758,55.176,12.207,42.480,37.109
1532373321.953,44.434,49.805,13.184,45.410,74.219
1532373321.957,39.551,45.898,13.672,44.434,34.668
1532373321.961,41.504,48.828,4.883,47.852,21.484
1532373321.965,52.246,53.223,1.953,55.664,52.246
1532373321.969,41.992,53.223,5.859,39.062,69.824
1532373321.973,32.227,49.316,4.395,27.344,40.039
1532373321.977,31.738,45.898,4.883,24.902,26.855
1532373321.981,28.320,42.969,8.301,23.926,38.086
1532373321.985,30.762,41.016,7.812,31.738,54.688
1532373321.989,32.227,41.016,11.230,35.645,71.289
1532373321.992,35.645,39.062,10.742,36.621,55.664
1532373321.996,34.668,37.109,8.301,36.621,39.062
1532373322.000,37.109,37.598,7.812,36.621,56.152
1532373322.004,30.273,36.621,8.789,34.180,54.688
1532373322.008,24.902,31.250,8.789,30.273,31.738
1532373322.012,26.855,25.879,8.789,30.273,24.414
1532373322.016,28.320,26.855,11.230,30.273,47.852
1532373322.020,27.344,32.715,7.812,26.855,51.270
1532373322.024,26.855,32.715,4.395,22.949,16.113
1532373322.028,22.949,29.785,4.395,17.090,22.461
1532373322.031,15.137,27.344,6.836,17.578,50.293
1532373322.035,15.137,26.855,6.836,22.949,74.707
1532373322.039,14.648,26.855,4.883,24.902,65.430
1532373322.043,16.602,22.949,9.766,27.832,30.762
1532373322.047,23.438,22.461,7.324,32.715,48.828
1532373322.051,24.414,28.809,3.418,27.832,80.566
1532373322.055,27.832,32.715,7.324,33.691,69.824
1532373322.059,28.320,29.297,9.277,37.109,29.297
1532373322.063,19.043,24.902,9.766,23.926,2.930
1532373322.067,16.602,25.391,10.742,23.438,34.668
1532373322.071,27.832,31.738,9.277,27.832,42.480
1532373322.074,36.133,33.691,6.348,29.297,10.742
1532373322.078,30.762,28.809,8.301,34.668,-4.395
1532373322.082,20.996,28.320,8.301,36.133,15.625
1532373322.086,12.695,29.297,8.789,35.645,33.691
1532373322.090,23.438,25.391,13.184,39.551,10.254
1532373322.094,29.785,28.809,8.789,31.250,-0.488
1532373322.098,25.391,37.109,2.441,29.297,18.555
1532373322.102,26.855,36.133,1.465,32.227,31.250
1532373322.106,16.602,31.738,6.348,25.879,20.996
1532373322.110,14.648,29.785,9.766,23.438,-0.488
1532373322.113,23.926,30.273,6.348,28.809,23.926
1532373322.117,37.109,34.180,3.418,34.180,79.102
1532373322.121,33.203,34.668,0.977,37.598,40.039
1532373322.125,24.414,33.203,-0.977,41.992,23.438
1532373322.129,30.273,33.203,0.488,41.504,42.969
1532373322.133,22.949,33.691,4.395,34.668,61.035
1532373322.137,11.719,35.156,5.371,27.832,66.406
1532373322.141,17.578,35.645,3.906,28.320,21.973
1532373322.145,26.367,32.715,5.859,36.621,39.062
1532373322.149,29.785,32.715,3.418,44.434,33.691
1532373322.153,32.227,35.645,0.977,41.016,24.902
1532373322.156,25.879,37.109,1.465,31.738,12.207
1532373322.160,24.902,35.645,1.465,19.043,-25.879
1532373322.164,25.879,35.645,3.906,16.113,-3.418
1532373322.168,19.531,37.598,3.906,25.879,40.039
1532373322.172,15.137,35.645,5.859,27.344,49.805
1532373322.176,17.578,31.738,9.277,27.832,21.973
1532373322.180,20.508,34.180,8.789,35.156,22.949
1532373322.184,20.996,39.551,7.812,33.203,60.547
1532373322.188,18.555,40.039,6.836,25.391,64.453
1532373322.192,19.043,38.574,6.348,18.066,60.059
1532373322.196,16.113,34.180,9.277,15.137,59.082
1532373322.199,13.184,28.809,10.254,20.020,37.109
1532373322.203,19.531,30.273,9.277,22.461,50.781
1532373322.207,13.184,37.598,3.906,20.996,45.898
1532373322.211,0.977,39.062,4.395,17.090,37.598
1532373322.215,4.395,37.598,11.230,17.090,37.109
1532373322.219,12.207,39.062,15.625,25.879,38.574
1532373322.223,7.812,39.551,17.578,35.645,29.297
1532373322.227,8.789,36.621,14.648,37.109,21.973
1532373322.231,9.766,36.133,13.672,36.133,40.527
1532373322.235,7.812,39.062,14.648,43.457,72.754
1532373322.238,18.066,39.062,20.508,47.363,62.988
1532373322.242,24.414,40.039,23.926,40.039,46.875
1532373322.246,19.531,37.109,22.949,33.203,35.645
1532373322.250,21.973,36.133,23.926,37.598,35.645
1532373322.254,35.156,40.527,23.438,44.922,51.758
1532373322.258,33.691,38.086,22.461,51.758,0.488
1532373322.262,22.949,33.203,20.508,55.664,-4.395
1532373322.266,24.414,37.598,17.090,49.316,39.551
1532373322.270,25.391,37.598,23.438,41.016,34.180
1532373322.274,16.113,32.227,30.273,39.551,20.996
1532373322.278,11.719,32.227,29.297,47.363,32.227
1532373322.281,21.973,33.203,31.250,53.711,46.875
1532373322.285,30.273,32.715,32.715,56.152,55.176
1532373322.289,27.832,34.668,29.297,58.594,19.043
1532373322.293,34.180,40.039,25.879,61.523,-3.418
1532373322.297,32.227,41.504,23.438,57.129,42.969
1532373322.301,23.926,37.598,27.832,46.387,41.504
1532373322.305,26.367,35.645,31.738,51.270,-1.953
1532373322.309,31.250,40.039,23.438,62.500,20.508
1532373322.313,28.809,40.039,20.996,63.965,41.504
1532373322.317,21.973,35.645,27.832,66.406,46.387
1532373322.320,18.066,34.668,35.645,59.082,14.160
1532373322.324,14.160,35.645,33.691,48.828,-6.836
1532373322.328,17.090,34.668,27.832,57.617,3.906
1532373322.332,15.137,33.691,29.297,64.453,5.859
1532373322.336,18.555,33.203,30.762,61.523,38.086
1532373322.340,25.879,33.203,33.691,65.918,14.160
1532373322.344,23.926,36.133,34.180,67.383,11.719
1532373322.348,25.391,40.527,31.738,69.824,47.852
1532373322.352,31.250,41.992,31.738,78.613,41.504
1532373322.356,32.227,41.504,33.203,83.008,6.836
1532373322.360,26.855,41.504,34.180,79.102,-16.602
1532373322.363,34.180,43.945,37.109,82.520,-2.930
1532373322.367,37.598,44.434,38.574,92.285,43.945
1532373322.371,31.250,41.992,35.645,86.914,62.012
1532373322.375,25.879,41.016,33.203,80.566,23.926
1532373322.379,24.414,44.922,34.180,80.078,-14.160
1532373322.383,25.879,43.945,33.203,80.078,24.902
1532373322.387,28.809,39.062,35.156,83.496,35.645
1532373322.391,34.180,42.480,38.574,86.426,6.348
1532373322.395,32.715,47.363,41.016,79.102,15.137
1532373322.399,22.461,46.387,44.434,77.637,20.020
1532373322.402,17.090,44.434,43.457,82.520,18.555
1532373322.406,12.695,44.434,37.598,75.684,7.324
1532373322.410,15.137,43.457,33.691,74.707,16.602
1532373322.414,16.602,44.922,33.691,76.660,30.273
1532373322.418,18.555,45.410,35.156,71.289,21.973
1532373322.422,21.484,44.434,36.133,65.430,32.227
1532373322.426,17.578,43.457,37.598,70.312,39.551
1532373322.430,19.531,43.945,35.156,69.336,25.391
1532373322.434,25.391,46.875,30.762,69.336,52.246
1532373322.438,17.578,47.363,34.180,70.312,20.996
1532373322.442,10.742,45.410,35.645,59.082,-25.391
1532373322.445,12.695,43.945,36.133,59.082,7.324
1532373322.449,14.648,45.898,37.109,66.406,26.855
1532373322.453,19.531,48.340,37.109,69.824,25.391
1532373322.457,13.672,48.828,37.598,69.824,-2.930
1532373322.461,11.719,49.805,37.598,68.848,-0.977
1532373322.465,12.207,48.340,40.039,60.547,66.406
1532373322.469,8.301,46.875,42.969,53.711,84.961
1532373322.473,8.301,48.340,40.527,58.594,22.461
1532373322.477,11.230,49.805,37.598,56.152,5.371
1532373322.481,14.648,51.758,40.527,50.781,14.648
1532373322.485,19.531,51.758,40.527,52.246,1.953
1532373322.488,15.137,48.828,40.527,47.852,18.066
1532373322.492,11.230,45.898,42.969,43.945,29.297
1532373322.496,17.090,47.363,41.992,43.945,18.066
1532373322.500,15.625,49.316,39.551,42.969,58.105
1532373322.504,10.742,51.758,40.039,42.480,60.059
1532373322.508,15.625,53.711,42.969,46.875,48.828
1532373322.512,12.695,51.270,44.434,46.387,55.176
1532373322.516,13.184,52.734,40.527,39.551,69.336
1532373322.520,15.137,54.199,37.109,36.621,88.867
1532373322.524,12.207,51.270,39.062,40.039,57.129
1532373322.527,11.719,50.293,41.504,42.969,37.598
1532373322.531,8.789,50.781,45.410,44.922,54.688
1532373322.535,8.301,50.293,50.781,45.898,67.383
1532373322.539,9.277,49.316,51.270,37.598,45.898
1532373322.543,8.301,48.828,52.246,38.574,33.203
1532373322.547,8.301,49.316,54.199,50.293,70.312
1532373322.551,9.277,52.246,54.199,50.293,68.359
1532373322.555,14.160,52.734,55.176,50.781,67.383
1532373322.559,12.695,50.293,57.129,61.523,29.297
1532373322.563,11.230,47.852,58.105,65.430,1.465
1532373322.567,22.949,49.805,58.105,72.754,56.641
1532373322.570,23.438,54.199,56.641,69.336,87.402
1532373322.574,16.113,54.688,56.152,54.688,43.457
1532373322.578,12.695,53.223,57.617,49.316,-4.395
1532373322.582,9.766,56.641,59.570,45.898,8.789
1532373322.586,12.207,56.641,64.453,42.480,47.363
1532373322.590,21.484,54.199,65.430,33.691,22.461
1532373322.594,19.043,55.664,63.965,33.203,18.066
1532373322.598,17.578,59.082,61.035,40.527,40.527
1532373322.602,25.879,61.523,59.082,38.086,30.273
1532373322.606,31.250,62.500,56.152,36.133,46.875
1532373322.609,40.527,64.453,51.758,41.016,37.598
1532373322.613,45.410,65.430,50.781,45.410,36.621
1532373322.617,43.457,63.965,57.129,43.945,50.293
1532373322.621,45.410,59.082,59.570,54.688,33.203
1532373322.625,32.715,56.641,55.176,65.918,-10.254
1532373322.629,21.484,58.105,55.176,60.059,9.766
1532373322.633,28.809,56.641,58.105,57.129,73.730
1532373322.637,31.250,54.199,63.477,61.035,64.941
1532373322.641,28.320,52.734,65.918,54.688,2.930
1532373322.645,20.996,52.734,64.453,53.223,8.789
1532373322.649,11.719,54.688,61.035,45.898,61.035
1532373322.652,15.625,57.617,60.059,42.480,74.707
1532373322.656,17.090,56.152,64.453,53.711,28.809
1532373322.660,12.207,53.711,66.895,57.617,-9.766
1532373322.664,20.996,51.270,64.453,55.664,15.137
1532373322.668,20.508,50.293,62.988,48.340,42.969
1532373322.672,11.719,53.711,61.035,47.852,43.945
1532373322.676,16.602,52.246,59.082,51.270,28.809
1532373322.680,18.555,49.316,61.523,49.805,25.879
1532373322.684,19.531,51.270,64.941,59.570,32.227
1532373322.688,20.996,53.223,63.477,66.406,34.668
1532373322.692,15.137,51.270,61.523,58.105,26.855
1532373322.695,19.531,52.734,62.988,56.152,30.273
1532373322.699,26.855,53.711,64.941,66.406,61.523
1532373322.703,25.391,53.223,70.312,67.871,62.988
1532373322.707,21.973,53.223,71.289,58.105,9.766
1532373322.711,20.508,53.711,68.359,53.711,11.719
1532373322.715,24.414,55.664,66.895,58.105,23.926
1532373322.719,25.879,56.152,66.406,58.594,35.645
1532373322.723,16.602,55.664,65.918,61.035,33.203
1532373322.727,14.160,50.293,73.242,65.918,12.207
1532373322.731,23.926,47.363,79.102,64.453,33.203
1532373322.734,22.461,52.734,68.848,60.059,57.129
1532373322.738,15.625,57.129,65.430,51.758,17.578
1532373322.742,19.043,55.664,71.777,50.293,-20.508
1532373322.746,19.043,58.594,67.383,41.504,13.672
1532373322.750,21.973,68.848,59.570,41.016,41.504
1532373322.754,17.578,70.312,60.059,50.293,25.879
1532373322.758,0.000,63.965,66.895,44.922,11.719
1532373322.762,3.906,64.453,67.871,33.203,9.277
1532373322.766,20.996,63.477,65.430,42.969,46.875
1532373322.770,17.578,64.453,64.453,51.758,68.848
1532373322.774,8.789,64.453,63.965,42.969,34.668
1532373322.777,12.695,62.988,61.523,41.504,20.020
1532373322.781,17.090,63.965,63.477,40.039,27.832
1532373322.785,13.672,63.477,64.941,34.668,55.664
1532373322.789,16.602,61.035,62.988,37.598,38.574
1532373322.793,4.883,59.570,64.453,38.086,9.277
1532373322.797,-8.301,56.641,68.848,39.062,35.645
1532373322.801,8.301,49.316,72.266,52.246,30.762
1532373322.805,31.738,48.828,66.406,63.965,28.320
1532373322.809,33.203,57.129,57.617,57.129,22.461
1532373322.813,23.438,62.012,56.152,41.504,-5.371
1532373322.816,22.461,56.641,64.453,41.504,3.418
1532373322.820,13.184,55.664,67.383,32.715,27.344
1532373322.824,7.324,59.570,63.965,27.344,20.508
1532373322.828,18.066,59.082,62.500,35.156,1.465
1532373322.832,27.832,60.547,62.012,35.156,31.250
1532373322.836,29.785,62.012,65.430,34.180,60.059
1532373322.840,21.973,59.082,68.848,30.762,-2.930
1532373322.844,12.207,55.176,71.289,28.809,-48.828
1532373322.848,12.695,53.223,74.219,38.086,14.648
1532373322.852,8.789,51.758,77.637,40.039,56.152
1532373322.856,7.812,49.805,82.520,37.109,19.531
1532373322.859,11.719,46.387,86.426,43.945,-19.531
1532373322.863,6.348,44.434,86.914,45.410,-12.207
1532373322.867,5.859,43.457,85.938,44.922,34.180
1532373322.871,9.277,42.480,83.008,44.922,37.598
1532373322.875,4.883,41.504,83.496,40.527,10.254
1532373322.879,6.348,37.109,92.773,42.480,15.625
1532373322.883,13.672,39.062,91.309,47.363,44.922
1532373322.887,18.555,46.875,79.590,38.086,39.551
1532373322.891,10.742,50.293,74.707,27.344,-11.719
1532373322.895,3.906,49.316,72.266,23.438,-17.090
1532373322.899,5.371,47.363,74.219,19.531,21.973
1532373322.902,3.418,48.340,72.266,19.531,15.625
1532373322.906,1.465,49.316,67.383,11.719,3.906
1532373322.910,-4.883,48.340,70.312,10.254,12.695
1532373322.914,-5.371,47.363,75.195,24.902,45.898
1532373322.918,10.742,42.969,75.684,32.715,42.969
1532373322.922,17.090,43.945,71.289,24.414,-17.578
1532373322.926,16.113,51.270,64.453,19.531,9.766
1532373322.930,26.367,56.152,60.059,21.484,49.805
1532373322.934,24.414,56.152,61.523,23.926,58.594
1532373322.938,11.230,49.805,69.336,13.672,55.176
1532373322.941,8.789,45.898,65.918,9.277,12.207
1532373322.945,18.066,49.316,58.105,25.391,-0.977
1532373322.949,20.508,45.898,64.941,25.391,21.973
1532373322.953,8.789,43.457,71.777,18.066,36.133
1532373322.957,3.418,44.434,68.359,21.484,26.855
1532373322.961,6.348,41.992,63.965,24.414,-1.953
1532373322.965,1.953,40.527,66.406,22.461,18.066
1532373322.969,2.930,42.969,64.941,12.207,63.965
1532373322.973,7.812,48.828,60.059,6.836,31.738
1532373322.977,10.254,51.270,60.059,12.207,21.973
1532373322.981,4.883,45.410,66.895,15.625,33.691
1532373322.984,-7.324,43.457,72.266,19.043,56.152
1532373322.988,-5.859,41.992,71.777,21.484,55.664
1532373322.992,1.953,37.598,72.754,24.414,37.598
1532373322.996,2.441,43.457,67.871,35.645,32.227
1532373323.000,0.977,51.270,59.570,30.273,34.180
1532373323.004,2.441,51.270,61.523,19.531,31.738
1532373323.008,6.836,47.852,64.941,25.879,27.832
1532373323.012,4.395,47.852,65.918,30.762,33.203
1532373323.016,-3.418,48.828,68.848,32.227,67.871
1532373323.020,-6.348,42.969,68.359,32.715,66.406
1532373323.023,2.441,42.480,68.359,31.738,34.180
1532373323.027,10.742,48.828,63.965,32.715,23.926
1532373323.031,14.160,51.270,62.500,35.156,25.879
1532373323.035,11.230,46.387,67.383,31.738,65.918
1532373323.039,4.395,45.410,68.359,23.438,32.715
1532373323.043,6.836,45.898,69.336,27.832,10.742
1532373323.047,5.371,42.969,75.195,38.086,42.480
1532373323.051,7.324,41.016,81.543,46.387,62.500
1532373323.055,16.602,39.062,77.148,53.711,57.617
1532373323.059,15.625,42.969,69.824,44.434,20.508
1532373323.063,3.418,44.922,67.871,27.344,32.715
1532373323.066,4.395,45.898,66.406,25.391,82.520
1532373323.070,16.113,50.293,67.871,32.227,112.305
1532373323.074,19.043,49.316,71.777,38.574,72.754
1532373323.078,19.531,51.270,76.660,33.691,38.574
1532373323.082,21.973,54.199,77.637,32.227,34.180
1532373323.086,24.414,51.758,75.684,41.504,59.082
1532373323.090,10.742,47.363,79.102,35.645,35.645
1532373323.094,3.906,44.922,82.031,27.344,22.461
1532373323.098,9.277,46.387,84.961,32.227,63.965
1532373323.102,12.695,43.457,85.938,32.715,46.875
1532373323.106,15.625,42.480,83.496,38.086,39.062
1532373323.109,20.996,45.898,81.543,50.293,33.691
1532373323.113,24.902,43.945,84.961,51.270,42.969
1532373323.117,26.367,46.875,80.566,47.363,65.430
1532373323.121,22.949,51.270,77.637,46.875,45.898
1532373323.125,18.555,49.805,83.008,47.363,24.414
1532373323.129,14.160,49.316,87.891,52.734,34.668
1532373323.133,13.184,45.898,91.309,53.223,61.523
1532373323.137,17.578,41.992,91.309,56.641,33.691
1532373323.141,34.668,44.922,77.637,55.176,-16.113
1532373323.145,39.551,50.293,67.383,47.363,3.418
1532373323.148,10.742,47.852,77.637,40.527,27.832
1532373323.152,1.465,43.945,84.961,39.551,37.109
1532373323.156,7.812,41.504,86.426,51.758,38.574
1532373323.160,8.789,39.551,86.914,48.828,13.672
1532373323.164,23.926,42.969,85.449,57.129,26.855
1532373323.168,26.855,44.922,84.473,74.707,46.875
1532373323.172,20.996,41.504,83.984,83.496,30.273
1532373323.176,19.531,39.551,88.379,87.891,11.719
1532373323.180,17.578,39.062,88.867,86.914,27.344
1532373323.184,19.531,42.480,84.961,89.355,47.363
1532373323.188,20.020,46.875,80.566,83.496,46.387
1532373323.191,24.414,47.852,80.078,79.590,46.387
1532373323.195,22.461,46.875,80.566,82.520,36.621
1532373323.199,22.461,45.898,81.543,80.566,43.945
1532373323.203,28.320,43.457,83.984,82.520,56.641
1532373323.207,15.137,41.504,83.984,80.078,32.227
1532373323.211,8.789,42.480,84.473,74.707,7.812
1532373323.215,17.090,42.969,86.426,76.660,15.625
1532373323.219,20.508,40.039,86.914,79.102,37.109
1532373323.223,26.367,39.062,89.355,81.055,22.949
1532373323.227,36.133,41.992,89.355,84.473,20.020
1532373323.230,33.691,44.922,88.867,87.891,42.480
1532373323.234,23.926,46.875,90.332,93.262,54.199
1532373323.238,27.344,46.875,88.379,89.355,10.254
1532373323.242,29.297,44.922,86.426,83.984,-40.039
1532373323.246,19.531,42.969,86.914,91.797,-3.906
1532373323.250,17.090,41.504,90.332,92.773,31.250
1532373323.254,19.043,35.645,93.262,98.145,36.621
1532373323.258,32.715,35.645,87.891,97.168,-5.859
1532373323.262,32.715,45.410,75.195,69.336,-33.691
1532373323.266,28.320,50.293,72.266,56.641,1.465
1532373323.270,24.902,45.898,80.566,62.988,41.016
1532373323.273,20.508,42.480,83.008,71.777,12.695
1532373323.277,31.738,44.434,82.520,78.613,-5.371
1532373323.281,42.480,45.410,81.543,80.078,-2.441
1532373323.285,38.086,46.387,82.031,82.031,27.344
1532373323.289,25.391,44.922,86.426,72.266,47.852
1532373323.293,22.461,42.969,85.449,68.359,29.297
1532373323.297,25.879,39.062,83.496,73.242,48.828
1532373323.301,22.949,38.086,85.449,75.195,66.895
1532373323.305,27.832,39.551,86.914,72.754,34.668
1532373323.309,30.762,39.062,84.473,74.219,1.953
1532373323.313,34.668,38.086,84.961,79.102,16.113
1532373323.316,33.691,40.527,88.379,82.031,41.992
1532373323.320,24.414,42.969,89.355,83.008,34.668
1532373323.324,25.879,39.551,87.402,81.543,7.812
1532373323.328,26.367,38.086,86.914,83.008,21.973
1532373323.332,26.855,38.574,89.844,81.543,39.551
1532373323.336,26.367,39.551,85.938,78.125,46.875
1532373323.340,23.438,40.527,82.520,67.871,0.977
1532373323.344,32.227,41.992,83.984,61.523,-4.883
1532373323.348,37.109,41.504,83.984,63.965,48.340
1532373323.352,26.855,41.016,85.938,66.406,79.590
1532373323.355,35.156,41.016,87.402,75.195,30.762
1532373323.359,46.387,46.387,84.473,85.449,-23.438
1532373323.363,36.133,50.781,85.449,91.797,20.996
1532373323.367,29.297,48.340,87.891,85.938,41.992
1532373323.371,25.879,49.805,86.426,83.008,28.320
1532373323.375,19.531,52.246,83.496,78.613,1.953
1532373323.379,16.113,50.293,80.566,67.383,-4.883
1532373323.383,20.020,47.363,82.031,67.383,35.156
1532373323.387,17.090,44.922,84.473,74.707,50.781
1532373323.391,6.836,41.504,86.914,82.031,6.836
1532373323.395,4.395,38.086,92.285,89.844,-0.488
1532373323.398,2.930,36.133,95.703,87.402,29.785
1532373323.402,9.277,33.203,99.121,88.379,61.035
1532373323.406,5.859,32.227,100.586,94.238,41.992
1532373323.410,-0.977,33.691,97.168,86.426,20.020
1532373323.414,0.977,37.598,97.168,84.473,26.855
1532373323.418,13.184,42.969,95.215,87.891,16.602
1532373323.422,17.578,42.480,89.355,87.402,3.906
1532373323.426,16.602,39.551,91.797,82.031,8.789
1532373323.430,15.625,38.574,92.773,85.449,35.645
1532373323.434,21.973,38.086,91.797,87.891,74.707
1532373323.437,30.762,41.504,91.309,73.730,29.297
1532373323.441,32.227,49.316,87.891,75.195,-11.230
1532373323.445,39.062,50.293,88.867,81.055,38.086
1532373323.449,33.691,44.922,94.727,83.496,57.129
1532373323.453,22.949,43.945,93.750,79.102,34.668
1532373323.457,27.344,44.922,87.402,71.289,-16.113
1532373323.461,37.598,45.410,86.426,75.195,-1.953
1532373323.465,38.574,46.875,88.867,81.055,50.293
1532373323.469,36.133,47.852,90.820,77.148,64.941
1532373323.473,36.621,49.316,85.938,70.801,53.223
1532373323.477,35.156,50.293,83.008,75.684,29.297
1532373323.480,35.156,49.805,87.402,75.684,9.277
1532373323.484,24.902,50.293,86.426,68.359,26.367
1532373323.488,17.090,50.781,83.984,60.059,65.430
1532373323.492,26.367,49.805,83.008,58.594,52.734
1532373323.496,25.879,49.316,83.984,60.059,49.316
1532373323.500,16.113,49.316,85.449,55.664,82.031
1532373323.504,10.254,47.852,83.984,51.270,66.895
1532373323.508,-0.488,47.852,85.449,60.547,16.113
1532373323.512,2.441,52.734,84.473,73.730,15.137
1532373323.516,9.766,52.734,82.520,82.031,50.293
1532373323.519,10.254,49.316,82.520,86.426,41.992
1532373323.523,7.324,50.781,80.566,80.078,-4.883
1532373323.527,2.930,50.781,80.078,74.219,23.926
1532373323.531,1.465,54.199,82.031,71.777,52.734
1532373323.535,-0.977,54.199,81.543,67.871,48.340
1532373323.539,6.836,51.758,80.566,62.988,33.691
1532373323.543,11.719,52.246,80.078,62.012,31.250
1532373323.547,13.184,58.105,74.219,62.988,38.574
1532373323.551,20.020,65.430,66.895,52.246,54.199
1532373323.555,10.254,63.477,71.777,35.645,37.598
1532373323.559,9.766,58.594,78.125,28.809,0.977
1532373323.562,18.555,57.617,79.102,34.668,7.324
1532373323.566,13.184,55.664,80.566,40.039,44.434
1532373323.570,17.090,56.152,79.590,41.016,60.059
1532373323.574,23.926,55.664,81.543,40.039,34.668
1532373323.578,27.344,55.664,79.102,44.922,8.301
1532373323.582,26.367,55.176,77.637,48.828,14.648
1532373323.586,12.207,51.270,81.055,40.527,48.340
1532373323.590,12.695,46.387,81.055,37.598,54.688
1532373323.594,27.832,49.805,81.543,36.621,21.484
1532373323.598,20.996,56.641,75.684,32.227,19.043
1532373323.602,14.160,58.105,72.266,35.156,50.781
1532373323.605,6.836,51.270,81.543,30.273,29.785
1532373323.609,0.488,43.457,86.426,35.645,9.766
1532373323.613,7.324,43.945,84.473,44.922,62.500
1532373323.617,7.812,49.316,79.590,42.480,86.914
1532373323.621,9.277,51.270,74.707,44.434,23.438
1532373323.625,6.348,46.875,75.684,43.945,-2.930
1532373323.629,1.953,44.922,80.566,44.922,24.414
1532373323.633,-0.488,43.945,84.473,43.457,52.246
1532373323.637,13.672,45.410,87.402,39.551,46.387
1532373323.641,12.695,45.410,82.520,47.852,-11.230
1532373323.644,3.418,43.457,79.590,55.176,11.230
1532373323.648,10.254,41.992,83.984,60.547,39.062
1532373323.652,14.160,40.039,86.426,53.223,30.762
1532373323.656,5.371,41.016,84.473,40.039,46.387
1532373323.660,2.441,40.527,83.496,36.133,6.348
1532373323.664,15.137,41.016,83.496,41.504,16.113
1532373323.668,21.973,43.457,79.102,52.246,79.102
1532373323.672,19.043,46.387,77.637,54.688,55.176
1532373323.676,15.625,47.363,78.613,53.223,14.648
1532373323.680,18.066,45.898,78.125,52.246,25.879
1532373323.684,24.414,48.340,75.684,47.852,68.359
1532373323.687,16.602,44.434,77.148,43.945,62.500
1532373323.691,11.230,37.598,80.078,45.410,15.625
1532373323.695,8.301,35.156,81.055,37.598,51.270
1532373323.699,9.277,35.645,80.566,35.645,16.113
1532373323.703,21.484,39.551,77.637,42.480,-7.324
1532373323.707,14.648,38.574,75.195,37.109,35.645
1532373323.711,9.277,35.645,77.637,40.039,30.273
1532373323.715,23.926,36.133,80.566,50.293,49.316
1532373323.719,22.949,35.645,80.566,48.340,64.941
1532373323.723,23.438,35.156,80.078,46.875,34.180
1532373323.726,32.715,32.715,80.566,52.246,27.344
1532373323.730,28.320,31.738,83.496,54.688,41.016
1532373323.734,27.832,33.691,85.938,53.711,56.152
1532373323.738,37.598,35.156,83.496,53.711,55.176
1532373323.742,35.156,34.668,83.984,54.199,50.781
1532373323.746,31.738,32.227,84.473,61.523,76.660
1532373323.750,40.039,34.180,84.473,69.824,72.754
1532373323.754,45.898,42.480,78.125,74.219,48.828
1532373323.758,48.828,46.875,70.801,72.754,10.254
1532373323.762,39.551,46.387,73.730,75.684,-21.484
1532373323.766,25.879,43.457,71.777,70.312,36.621
1532373323.769,24.902,45.410,69.824,62.500,65.430
1532373323.773,25.391,47.363,71.777,51.758,34.180
1532373323.777,20.996,43.457,73.730,48.340,16.602
1532373323.781,20.508,43.945,76.172,55.664,26.367
1532373323.785,24.414,44.434,72.754,57.617,70.312
1532373323.789,28.320,43.945,68.359,56.641,38.574
1532373323.793,22.461,42.480,74.707,54.199,-17.578
1532373323.797,19.531,41.504,80.566,56.641,4.395
1532373323.801,20.996,41.504,79.590,61.035,48.340
1532373323.805,25.879,40.039,76.660,56.641,24.902
1532373323.809,26.855,40.039,73.730,48.340,-1.465
1532373323.812,24.414,39.062,75.684,53.711,42.480
1532373323.816,24.414,33.691,78.125,63.965,52.246
1532373323.820,26.367,33.203,76.172,66.406,23.438
1532373323.824,32.715,43.457,71.777,66.895,14.160
1532373323.828,34.180,54.199,68.848,73.730,38.574
1532373323.832,31.250,57.617,66.895,76.172,71.289
1532373323.836,30.273,55.176,63.477,75.684,74.219
1532373323.840,20.508,54.199,62.988,65.430,39.551
1532373323.844,20.508,53.223,66.895,49.316,32.227
1532373323.848,25.391,52.734,69.336,46.875,54.688
1532373323.851,15.137,54.688,69.824,47.363,82.031
1532373323.855,12.695,53.711,72.266,44.434,58.594
1532373323.859,28.809,53.223,73.242,44.922,-0.977
1532373323.863,35.156,55.176,70.801,48.828,21.973
1532373323.867,23.438,57.129,72.754,54.199,60.547
1532373323.871,28.320,58.594,72.266,51.758,31.250
1532373323.875,32.715,54.688,70.801,50.293,25.879
1532373323.879,25.879,52.734,74.707,51.758,23.926
1532373323.883,26.855,51.758,80.078,55.664,34.180
1532373323.887,33.203,46.387,82.031,57.617,62.012
1532373323.891,37.598,40.527,84.473,67.871,43.457
1532373323.894,43.945,44.434,78.125,65.430,27.832
1532373323.898,42.969,54.688,70.801,44.434,35.645
1532373323.902,44.434,57.129,66.895,41.504,9.277
1532373323.906,41.016,57.129,63.477,41.016,-7.324
1532373323.910,24.414,52.734,69.824,42.480,6.348
1532373323.914,22.949,50.781,74.219,52.246,30.762
1532373323.918,28.320,50.293,73.730,63.477,49.316
1532373323.922,27.832,46.387,79.102,63.477,38.574
1532373323.926,19.531,42.969,79.102,56.641,0.000
1532373323.930,19.531,43.945,77.148,60.547,-0.977
1532373323.933,23.926,45.410,74.219,66.406,43.457
1532373323.937,23.926,43.457,70.801,68.848,41.016
1532373323.941,18.066,41.504,68.359,62.988,16.113
1532373323.945,12.695,42.480,68.359,55.176,18.066
1532373323.949,16.602,43.945,69.336,54.688,41.016
1532373323.953,16.602,41.504,72.754,56.641,30.273
1532373323.957,16.113,38.574,72.266,52.246,19.531
1532373323.961,16.602,38.574,67.383,47.363,20.996
1532373323.965,24.414,41.504,66.406,50.293,31.738
1532373323.969,23.926,43.945,68.359,51.758,61.523
1532373323.973,13.672,43.945,68.848,49.316,35.156
1532373323.976,18.066,44.434,63.477,49.805,13.672
1532373323.980,25.879,42.480,62.012,49.316,31.738
1532373323.984,18.066,40.039,65.430,44.922,27.344
1532373323.988,11.719,41.504,68.848,42.969,20.020
1532373323.992,8.301,39.062,68.848,35.645,36.621
1532373323.996,3.906,37.109,65.430,33.203,36.621
1532373324.000,5.371,38.086,63.965,33.203,30.273
1532373324.004,12.207,37.598,63.477,34.668,23.926
1532373324.008,16.602,37.109,64.941,37.598,20.508
1532373324.012,14.160,37.598,64.941,33.691,33.691
1532373324.016,13.672,39.551,65.918,29.785,42.969
1532373324.019,17.578,42.969,63.965,33.691,20.020
1532373324.023,25.391,44.434,61.523,39.551,14.648
1532373324.027,23.926,42.480,64.453,41.016,27.832
1532373324.031,22.949,41.992,70.801,44.434,7.324
1532373324.035,21.484,39.062,68.359,49.316,25.879
1532373324.039,18.066,37.109,63.965,48.828,-0.977
1532373324.043,10.742,38.574,64.941,47.852,-34.668
1532373324.047,17.090,38.574,64.453,48.340,27.344
1532373324.051,23.438,40.039,64.941,50.293,46.875
1532373324.055,17.578,42.480,63.965,48.340,19.043
1532373324.058,23.438,42.480,61.523,47.852,12.695
1532373324.062,28.320,41.016,62.012,53.711,41.016
1532373324.066,43.945,41.504,68.359,63.477,72.266
1532373324.070,52.734,41.504,70.801,57.617,73.730
1532373324.074,51.270,41.992,67.871,40.527,13.184
1532373324.078,48.828,44.434,64.941,37.109,-5.859
1532373324.082,42.480,43.457,66.895,34.180,35.156
1532373324.086,40.039,40.527,70.801,36.621,45.410
1532373324.090,34.668,40.527,69.336,40.527,36.621
1532373324.094,28.320,45.898,67.871,38.574,12.207
1532373324.098,18.066,50.293,64.453,32.227,8.301
1532373324.101,19.043,50.293,61.523,40.039,34.180
1532373324.105,11.230,46.875,67.383,35.156,45.898
1532373324.109,-3.418,43.945,74.219,22.461,11.719
1532373324.113,-4.395,44.922,73.242,30.762,15.625
1532373324.117,-0.488,47.852,74.219,31.250,41.504
1532373324.121,2.441,47.852,74.707,23.926,25.391
1532373324.125,3.906,42.969,76.172,22.461,-8.789
1532373324.129,5.371,37.109,78.613,28.320,0.977
1532373324.133,-2.930,34.668,74.219,32.227,66.406
1532373324.137,-1.953,39.062,75.684,31.250,76.660
1532373324.140,10.254,41.016,79.102,30.273,44.434
1532373324.144,12.695,41.016,75.195,25.879,47.852
1532373324.148,12.695,42.969,73.242,28.320,62.988
1532373324.152,13.184,44.434,76.172,32.227,63.965
1532373324.156,17.090,44.434,74.707,28.320,15.625
1532373324.160,24.902,47.363,70.312,25.391,16.602
1532373324.164,26.855,48.828,71.289,30.273,45.410
1532373324.168,15.137,45.410,78.613,31.738,31.738
1532373324.172,6.348,43.457,81.055,26.367,17.578
1532373324.176,11.230,42.969,76.172,26.367,6.836
1532373324.180,14.648,42.480,74.219,38.574,10.254
1532373324.183,13.184,39.062,81.543,40.039,47.363
1532373324.187,7.324,36.133,84.961,30.273,39.551
1532373324.191,13.184,37.109,83.496,31.738,19.531
1532373324.195,18.555,37.598,84.473,31.250,35.645
1532373324.199,6.836,38.086,83.984,27.344,46.387
1532373324.203,12.207,38.574,83.496,33.203,38.574
1532373324.207,22.949,36.621,80.566,40.527,10.742
1532373324.211,13.672,35.156,79.590,37.598,17.578
1532373324.215,7.812,37.109,84.961,30.762,33.691
1532373324.219,13.184,41.504,83.984,26.367,27.832
1532373324.223,12.207,46.387,76.172,18.555,32.227
1532373324.226,9.766,47.852,74.219,14.648,31.738
1532373324.230,9.766,44.434,79.590,17.578,13.184
1532373324.234,9.766,46.387,79.102,17.090,16.602
1532373324.238,14.160,47.363,79.102,20.508,20.020
1532373324.242,27.344,45.898,78.125,31.738,-4.395
1532373324.246,25.391,44.922,75.684,33.691,2.930
1532373324.250,21.973,44.922,80.078,35.156,43.945
1532373324.254,18.555,44.434,85.938,40.039,54.199
1532373324.258,20.020,40.039,85.449,38.574,43.945
1532373324.262,20.996,40.527,83.496,33.691,44.922
1532373324.265,17.090,44.434,84.961,29.297,58.105
1532373324.269,31.250,42.480,84.961,32.227,87.891
1532373324.273,50.781,40.527,83.008,41.016,63.965
1532373324.277,49.805,44.922,78.125,41.016,43.945
1532373324.281,41.992,49.805,71.289,34.180,54.199
1532373324.285,35.645,51.270,72.754,32.715,60.547
1532373324.289,33.203,47.852,77.148,38.086,46.387
1532373324.293,32.227,42.969,78.125,45.410,33.203
1532373324.297,41.504,41.992,78.125,52.734,42.480
1532373324.301,47.363,49.316,71.777,48.340,61.523
1532373324.305,35.645,51.758,65.918,44.922,64.941
1532373324.308,33.691,49.316,67.871,38.086,44.922
1532373324.312,31.738,47.852,69.336,34.180,48.340
1532373324.316,28.320,45.410,68.359,41.504,74.219
1532373324.320,25.879,42.969,72.266,41.504,71.777
1532373324.324,23.926,41.016,74.707,40.527,54.688
1532373324.328,31.250,43.945,70.801,44.434,58.105
1532373324.332,32.715,48.340,67.871,45.898,53.223
1532373324.336,32.227,48.340,71.289,50.781,63.477
1532373324.340,33.203,43.945,74.219,58.105,54.199
1532373324.344,29.297,40.527,71.289,56.152,26.855
1532373324.347,13.672,40.039,69.824,52.734,37.598
1532373324.351,7.812,38.574,75.195,56.152,60.059
1532373324.355,22.461,39.551,74.707,59.570,60.059
1532373324.359,28.320,40.527,68.359,59.570,14.160
1532373324.363,25.391,41.504,64.941,50.781,-2.930
1532373324.367,26.855,41.504,65.430,43.457,42.480
1532373324.371,24.414,37.598,68.359,45.898,51.270
1532373324.375,29.297,39.062,67.383,46.875,36.621
1532373324.379,33.203,39.551,64.453,44.434,22.461
1532373324.383,38.574,36.133,65.430,44.434,23.926
1532373324.387,43.457,34.668,66.895,39.062,40.527
1532373324.390,38.574,34.668,64.453,39.551,34.180
1532373324.394,43.945,37.109,61.523,42.480,20.508
1532373324.398,47.852,40.527,59.570,40.039,26.367
1532373324.402,40.527,40.527,58.594,40.039,43.457
1532373324.406,38.574,36.621,60.059,36.133,17.578
1532373324.410,53.223,36.621,60.547,32.715,-20.996
1532373324.414,45.898,39.062,61.523,36.621,8.789
1532373324.418,31.250,40.039,62.988,36.621,31.250
1532373324.422,31.738,37.598,66.406,34.180,1.465
1532373324.426,27.832,37.598,67.871,35.156,0.977
1532373324.430,28.809,39.551,64.453,33.691,45.410
1532373324.433,25.879,41.992,65.430,32.227,73.242
1532373324.437,33.203,43.945,64.941,28.320,24.902
1532373324.441,33.691,41.992,68.359,25.391,-3.418
1532373324.445,18.555,39.551,70.801,26.855,42.480
1532373324.449,16.602,39.551,70.312,28.809,44.434
1532373324.453,27.832,40.039,70.801,27.832,18.555
1532373324.457,28.320,40.039,71.777,29.785,-9.277
1532373324.461,23.438,40.527,70.312,35.645,-0.977
1532373324.465,23.926,42.969,68.359,40.527,41.016
1532373324.469,19.043,41.992,71.289,46.387,46.875
1532373324.472,20.020,36.621,72.266,47.363,30.273
1532373324.476,25.879,39.551,68.848,44.922,10.254
1532373324.480,24.902,48.340,63.965,39.551,-4.883
1532373324.484,12.695,51.270,64.453,34.180,26.367
1532373324.488,12.695,48.828,65.430,29.785,46.875
1532373324.492,2.441,43.945,69.824,22.949,19.531
1532373324.496,-8.301,43.945,76.172,23.438,22.949
1532373324.500,1.465,43.945,76.660,30.762,36.621
1532373324.504,11.719,39.551,78.613,34.668,19.531
1532373324.508,17.090,35.645,79.590,38.574,-2.441
1532373324.512,20.508,41.504,80.078,39.062,15.137
1532373324.515,26.855,45.898,79.102,35.156,54.688
1532373324.519,32.227,46.875,76.172,32.715,54.199
1532373324.523,28.320,49.316,73.242,31.250,21.973
1532373324.527,32.715,50.781,70.312,40.527,15.137
1532373324.531,41.992,51.270,69.336,47.852,55.664
1532373324.535,41.504,48.828,70.801,49.316,49.316
1532373324.539,39.062,47.852,73.242,42.969,6.348
1532373324.543,42.480,49.316,72.754,40.527,-10.254
1532373324.547,42.480,48.340,74.707,48.340,15.137
1532373324.551,42.480,46.875,71.289,47.852,66.895
1532373324.554,41.016,48.828,67.383,47.363,67.383
1532373324.558,38.574,50.293,67.383,41.992,15.137
1532373324.562,36.133,47.852,70.312,41.992,4.395
1532373324.566,30.762,46.387,72.266,46.387,36.621
1532373324.570,28.809,44.434,71.289,38.086,43.457
1532373324.574,28.320,40.527,70.312,35.156,55.664
1532373324.578,39.062,38.574,74.219,47.852,57.129
1532373324.582,43.945,41.504,75.684,59.082,49.805
1532373324.586,35.645,47.363,69.336,50.781,63.965
1532373324.590,30.762,49.316,66.895,39.062,35.156
1532373324.594,23.438,45.898,67.871,40.527,8.789
1532373324.597,24.414,45.410,70.312,43.945,22.949
1532373324.601,27.832,43.945,73.730,42.969,7.324
1532373324.605,22.949,42.969,69.336,43.457,33.203
1532373324.609,21.484,43.457,67.383,43.945,29.785
1532373324.613,24.414,41.992,72.754,42.480,21.973
1532373324.617,23.926,40.039,71.777,41.016,45.898
1532373324.621,21.973,37.598,67.383,31.250,54.199
1532373324.625,16.113,38.574,68.848,25.879,38.086
1532373324.629,16.602,41.504,71.289,25.879,31.250
1532373324.633,20.508,41.992,73.242,19.531,47.363
1532373324.636,16.602,42.480,68.848,19.043,48.828
1532373324.640,18.555,42.969,66.895,16.113,7.324
1532373324.644,20.020,42.480,69.824,11.230,13.184
