timestamps,TP9,AF7,AF8,TP10,Right AUX
1532202935.091,6.836,15.137,48.828,35.156,20.020
1532202935.095,16.113,24.414,54.199,38.086,54.688
1532202935.099,30.273,17.090,44.434,47.852,58.594
1532202935.103,27.832,1.953,38.086,44.434,46.875
1532202935.107,17.578,7.324,36.621,36.133,41.016
1532202935.111,18.555,28.809,39.062,38.574,18.066
1532202935.115,25.391,36.133,41.992,40.039,12.695
1532202935.118,32.715,36.621,29.785,45.898,18.066
1532202935.122,34.668,29.297,32.227,50.781,25.879
1532202935.126,38.574,25.879,49.316,53.223,47.363
1532202935.130,41.992,23.438,57.617,53.223,43.457
1532202935.134,36.621,15.137,50.293,45.898,35.156
1532202935.138,36.621,21.973,39.062,45.898,22.949
1532202935.142,33.691,33.691,36.133,47.852,16.113
1532202935.146,30.273,28.320,38.086,42.480,39.551
1532202935.150,33.691,22.461,40.039,40.039,45.410
1532202935.154,32.715,32.227,37.109,41.016,35.156
1532202935.157,33.203,33.203,31.250,41.992,24.414
1532202935.161,31.738,38.086,32.227,41.016,28.320
1532202935.165,35.645,42.969,37.598,39.062,52.246
1532202935.169,41.016,28.320,25.879,44.434,48.828
1532202935.173,44.922,25.879,37.598,48.828,-3.418
1532202935.177,45.898,29.297,52.246,44.922,16.113
1532202935.181,39.551,25.391,39.551,41.504,81.055
1532202935.185,45.410,35.156,31.250,47.363,46.387
1532202935.189,52.246,41.016,22.949,47.852,14.648
1532202935.193,48.340,30.762,38.086,48.828,23.438
1532202935.197,53.223,29.785,38.574,49.316,30.762
1532202935.200,54.688,36.133,28.809,38.574,30.762
1532202935.204,45.410,36.621,41.016,36.621,16.602
1532202935.208,40.039,35.645,35.645,40.039,25.879
1532202935.212,43.457,30.762,21.484,42.480,9.766
1532202935.216,53.711,32.715,25.391,48.340,4.883
1532202935.220,51.758,40.527,36.133,46.387,14.160
1532202935.224,35.156,35.645,34.668,37.598,27.344
1532202935.228,26.367,30.762,27.344,36.133,66.406
1532202935.232,28.809,31.738,39.062,39.062,45.898
1532202935.236,34.180,27.832,56.152,39.551,2.930
1532202935.240,33.203,21.484,46.387,38.086,8.789
1532202935.243,19.531,16.602,37.598,30.762,8.301
1532202935.247,19.043,13.184,45.898,35.645,26.855
1532202935.251,17.578,0.977,50.293,38.086,27.832
1532202935.255,5.371,1.953,41.504,29.785,-3.418
1532202935.259,12.695,16.602,42.480,38.086,22.949
1532202935.263,18.555,16.113,53.711,41.992,41.016
1532202935.267,23.926,3.418,49.805,45.898,27.832
1532202935.271,32.227,3.418,44.922,50.293,0.000
1532202935.275,38.574,8.301,51.758,51.758,-9.766
1532202935.279,39.062,12.207,51.758,57.129,18.066
1532202935.282,42.480,15.137,44.922,59.082,21.973
1532202935.286,45.410,11.719,47.852,61.035,17.578
1532202935.290,62.500,42.480,75.195,72.754,3.906
1532202935.294,45.410,35.156,56.152,54.688,9.766
1532202935.298,6.836,0.000,11.719,20.020,32.715
1532202935.302,13.672,18.066,23.438,30.762,33.691
1532202935.306,21.484,25.879,39.551,37.598,43.945
1532202935.310,29.297,16.602,45.898,35.645,37.598
1532202935.314,34.180,28.320,38.086,35.156,11.230
1532202935.318,37.598,41.016,26.855,42.969,57.617
1532202935.322,41.504,27.344,27.832,53.223,45.410
1532202935.325,41.016,18.066,28.809,51.758,16.113
1532202935.329,34.668,15.625,34.668,45.410,46.875
1532202935.333,36.133,14.160,28.809,44.434,59.570
1532202935.337,41.504,33.203,19.043,52.734,64.453
1532202935.341,38.086,41.504,45.410,52.246,28.809
1532202935.345,35.156,34.180,57.129,47.363,20.996
1532202935.349,36.133,34.180,21.484,44.434,37.109
1532202935.353,43.457,43.457,23.438,40.527,19.531
1532202935.357,48.340,38.086,45.898,45.410,-2.930
1532202935.361,44.922,22.461,32.715,44.434,26.367
1532202935.364,37.598,18.066,30.762,37.109,64.941
1532202935.368,27.832,21.973,38.086,39.062,65.918
1532202935.372,31.738,27.344,28.320,41.992,36.621
1532202935.376,40.039,27.832,26.367,44.434,41.016
1532202935.380,35.645,33.203,31.738,48.340,50.293
1532202935.384,36.133,27.344,26.367,53.223,38.086
1532202935.388,37.109,25.391,20.020,48.828,31.738
1532202935.392,37.109,39.062,28.320,45.410,12.695
1532202935.396,35.156,45.410,28.809,40.039,43.945
1532202935.400,36.133,36.133,34.668,37.598,59.082
1532202935.404,35.645,16.113,35.645,32.715,56.152
1532202935.407,34.180,16.113,28.320,33.203,44.922
1532202935.411,36.133,35.156,28.320,35.645,28.809
1532202935.415,35.645,36.621,24.414,30.273,39.551
1532202935.419,29.297,29.297,23.926,29.297,79.590
1532202935.423,30.273,37.598,23.438,37.109,82.520
1532202935.427,36.133,34.668,27.344,42.969,64.941
1532202935.431,41.504,37.598,27.344,37.109,74.707
1532202935.435,46.387,41.016,29.297,41.992,68.848
1532202935.439,35.645,33.691,36.133,41.504,64.453
1532202935.443,27.832,27.832,30.762,33.203,74.219
1532202935.447,27.832,24.902,26.855,32.715,94.727
1532202935.450,26.855,30.762,34.180,30.762,82.031
1532202935.454,32.715,31.738,34.180,28.320,55.176
1532202935.458,28.809,26.855,23.926,28.320,74.707
1532202935.462,20.020,24.902,12.207,29.297,98.145
1532202935.466,29.297,20.996,21.973,36.621,99.121
1532202935.470,36.133,22.461,34.668,41.016,79.590
1532202935.474,28.320,26.367,31.738,26.855,49.316
1532202935.478,26.367,32.227,34.668,25.879,70.312
1532202935.482,31.738,35.645,37.598,35.156,104.492
1532202935.486,34.180,34.668,34.180,35.156,94.727
1532202935.489,30.273,36.133,25.879,28.320,58.105
1532202935.493,28.320,41.016,19.043,27.832,56.152
1532202935.497,30.273,31.250,7.324,32.715,89.844
1532202935.501,26.855,17.090,21.973,30.273,84.473
1532202935.505,24.902,23.438,42.969,24.902,29.785
1532202935.509,26.855,34.668,43.457,28.809,20.508
1532202935.513,31.250,40.039,34.668,35.156,55.664
1532202935.517,36.133,34.668,25.391,38.574,72.754
1532202935.521,40.039,31.738,27.832,41.016,36.133
1532202935.525,33.203,29.297,27.832,31.738,11.230
1532202935.529,30.762,27.832,23.438,29.785,22.949
1532202935.532,29.297,31.250,23.926,30.273,-6.836
1532202935.536,27.344,31.250,20.996,29.785,-4.883
1532202935.540,26.855,32.715,27.344,28.320,9.766
1532202935.544,25.391,37.598,38.086,25.391,3.418
1532202935.548,23.438,40.039,35.156,25.391,4.883
1532202935.552,28.320,39.551,33.203,19.531,3.906
1532202935.556,20.996,36.621,33.691,14.160,-19.043
1532202935.560,6.836,33.691,30.762,8.789,-13.672
1532202935.564,0.000,34.180,32.715,-0.977,-16.113
1532202935.568,-8.301,38.086,37.109,-2.441,-1.465
1532202935.572,-14.160,35.156,43.457,-1.953,-11.719
1532202935.575,-20.508,32.227,42.480,-15.137,-16.602
1532202935.579,-34.180,36.621,35.645,-36.621,21.484
1532202935.583,-54.199,41.504,29.297,-55.664,20.020
1532202935.587,-62.012,47.852,33.203,-58.105,-13.184
1532202935.591,-63.477,46.387,39.551,-63.965,-39.551
1532202935.595,-66.895,49.805,42.480,-76.172,-34.668
1532202935.599,-70.312,49.805,54.688,-76.172,7.324
1532202935.603,-81.055,40.527,56.641,-85.449,19.531
1532202935.607,-89.844,41.016,57.617,-89.844,-12.207
1532202935.611,-76.172,52.246,55.176,-73.730,5.859
1532202935.614,-74.219,59.570,48.828,-76.660,50.293
1532202935.618,-73.730,54.688,46.875,-72.754,53.711
1532202935.622,-50.781,36.621,31.738,-49.316,12.695
1532202935.626,-41.504,27.344,33.203,-34.180,-2.441
1532202935.630,-26.855,35.645,52.734,-17.578,1.953
1532202935.634,-19.043,35.156,53.223,-14.648,-5.371
1532202935.638,-21.484,25.879,43.457,-18.066,-18.555
1532202935.642,-6.348,23.438,42.480,-6.348,-40.527
1532202935.646,12.695,18.066,47.852,11.719,-20.508
1532202935.650,21.484,18.555,48.340,21.973,3.418
1532202935.654,35.156,32.227,22.949,34.668,-13.184
1532202935.657,38.574,27.344,20.020,38.086,-27.344
1532202935.661,36.133,17.578,48.340,37.598,-27.344
1532202935.665,47.363,20.996,53.711,48.340,8.789
1532202935.669,52.734,9.766,47.363,49.805,10.254
1532202935.673,46.387,1.953,40.527,55.176,-29.785
1532202935.677,50.293,21.484,33.203,64.941,-29.785
1532202935.681,62.988,26.855,20.996,59.082,16.113
1532202935.685,58.594,19.531,9.277,58.105,31.250
1532202935.689,68.359,23.438,19.531,66.406,8.789
1532202935.693,69.824,24.902,39.062,65.430,-1.953
1532202935.696,62.500,23.438,39.551,60.547,-13.184
1532202935.700,64.941,26.367,31.250,62.500,-16.113
1532202935.704,62.500,27.832,25.879,68.359,-21.973
1532202935.708,63.965,28.809,26.367,69.824,-21.484
1532202935.712,65.918,32.227,29.785,66.895,-3.906
1532202935.716,69.336,31.738,22.949,69.824,29.785
1532202935.720,73.730,27.344,23.926,76.660,1.953
1532202935.724,76.660,25.879,20.996,75.684,-15.137
1532202935.728,73.242,26.367,20.020,69.336,6.836
1532202935.732,71.777,18.555,22.949,62.988,-22.949
1532202935.736,68.848,35.645,9.766,60.059,-36.621
1532202935.739,68.848,46.875,14.648,66.406,0.488
1532202935.743,70.801,23.438,29.785,69.824,36.621
1532202935.747,68.359,22.949,33.691,66.895,47.852
1532202935.751,69.336,41.016,31.250,63.477,37.109
1532202935.755,66.895,42.969,28.809,63.965,26.855
1532202935.759,63.965,35.156,24.414,65.430,6.836
1532202935.763,62.012,36.133,8.789,61.523,22.461
1532202935.767,65.918,33.691,14.648,62.988,49.805
1532202935.771,62.012,33.691,19.531,59.570,15.137
1532202935.775,55.664,29.297,12.695,51.270,2.441
1532202935.779,61.035,29.297,18.066,62.500,53.223
1532202935.782,65.430,37.109,20.020,69.824,58.105
1532202935.786,68.359,27.832,26.367,61.035,46.387
1532202935.790,68.359,28.320,32.227,64.453,41.992
1532202935.794,59.082,14.648,27.832,63.965,30.273
1532202935.798,64.941,11.230,21.973,60.059,43.457
1532202935.802,71.289,32.227,28.809,59.082,46.387
1532202935.806,52.734,30.762,34.180,54.688,-0.488
1532202935.810,40.527,37.598,32.715,46.875,12.695
1532202935.814,42.969,45.898,29.297,45.410,56.641
1532202935.818,44.922,36.133,21.484,54.199,36.133
1532202935.821,50.293,28.320,11.719,58.105,8.789
1532202935.825,54.199,27.832,21.973,55.176,17.578
1532202935.829,48.828,33.203,34.668,51.270,30.273
1532202935.833,50.293,32.227,28.320,38.574,19.531
1532202935.837,56.641,29.297,19.043,39.551,7.812
1532202935.841,53.223,33.203,20.996,48.828,19.531
1532202935.845,53.711,31.738,30.273,41.992,41.992
1532202935.849,67.383,37.109,25.391,40.527,39.062
1532202935.853,82.520,27.832,23.438,45.410,36.621
1532202935.857,65.918,23.438,29.297,38.574,25.879
1532202935.861,38.086,30.273,39.551,28.809,27.344
1532202935.864,26.367,31.738,37.598,24.902,36.133
1532202935.868,21.973,37.598,25.391,32.715,29.297
1532202935.872,19.531,34.180,21.973,35.645,7.324
1532202935.876,12.207,24.902,28.809,24.414,-9.277
1532202935.880,4.395,17.090,45.410,26.855,18.555
1532202935.884,-4.883,11.719,54.199,24.902,38.574
1532202935.888,-7.812,25.879,49.805,17.578,39.062
1532202935.892,-12.695,31.250,31.738,11.230,20.020
1532202935.896,-11.230,12.207,39.062,6.348,30.762
1532202935.900,-8.789,3.418,45.410,5.859,47.363
1532202935.904,3.418,12.207,25.391,18.555,34.668
1532202935.907,20.508,17.090,31.738,38.086,14.648
1532202935.911,14.648,15.625,56.152,22.949,19.531
1532202935.915,-1.953,27.344,50.293,10.254,26.855
1532202935.919,0.000,39.062,41.504,25.391,37.598
1532202935.923,19.043,36.621,27.344,37.598,33.203
1532202935.927,20.020,22.949,17.578,33.691,45.898
1532202935.931,11.230,18.555,29.297,19.531,49.805
1532202935.935,17.578,24.414,33.691,23.438,39.062
1532202935.939,27.344,15.625,25.391,34.668,47.852
1532202935.943,24.414,16.602,14.648,30.273,51.758
1532202935.946,30.762,32.227,34.668,40.527,46.875
1532202935.950,43.945,18.555,49.316,43.945,16.602
1532202935.954,37.598,11.230,32.227,28.320,11.230
1532202935.958,34.180,37.598,24.414,37.109,21.484
1532202935.962,40.039,35.645,28.809,46.387,19.531
1532202935.966,38.086,22.949,20.508,46.387,43.945
1532202935.970,46.875,27.344,19.043,50.293,26.855
1532202935.974,40.039,29.785,34.180,35.645,-7.812
1532202935.978,36.621,47.363,42.969,40.039,27.344
1532202935.982,57.617,52.734,53.711,62.012,36.621
1532202935.986,45.898,31.738,43.457,47.852,33.203
1532202935.989,34.668,28.320,24.414,35.156,16.602
1532202935.993,42.969,28.809,17.090,39.062,29.297
1532202935.997,45.410,20.996,6.348,41.504,50.293
1532202936.001,42.969,20.508,18.066,38.574,27.832
1532202936.005,42.969,30.273,39.551,40.527,17.090
1532202936.009,51.758,35.645,42.480,43.457,56.152
1532202936.013,49.316,38.086,35.156,33.691,23.438
1532202936.017,38.086,32.227,32.715,28.320,-6.348
1532202936.021,37.598,31.738,21.484,36.621,14.648
1532202936.025,41.504,29.297,12.695,44.922,10.742
1532202936.028,37.109,26.367,19.531,41.504,23.926
1532202936.032,33.691,37.598,22.949,34.180,35.156
1532202936.036,40.527,34.668,33.203,37.598,25.879
1532202936.040,42.969,30.273,47.363,46.875,31.250
1532202936.044,31.738,40.527,42.969,34.180,33.691
1532202936.048,31.250,35.645,29.297,29.785,10.254
1532202936.052,35.156,31.738,18.066,33.203,-5.859
1532202936.056,40.039,32.227,29.785,32.227,-25.879
1532202936.060,44.922,26.367,38.086,40.039,4.395
1532202936.064,39.062,22.461,27.344,39.551,46.875
1532202936.068,36.133,17.090,28.809,37.598,52.734
1532202936.071,35.156,18.066,37.109,32.227,32.227
1532202936.075,37.598,37.598,43.457,26.855,11.230
1532202936.079,33.203,44.922,38.086,30.273,31.250
1532202936.083,28.320,39.551,24.902,24.414,59.570
1532202936.087,31.250,38.574,25.879,27.832,56.152
1532202936.091,37.598,39.551,33.203,32.227,16.602
1532202936.095,43.945,26.855,35.645,37.598,3.418
1532202936.099,49.316,13.672,22.949,45.410,23.438
1532202936.103,56.152,25.391,12.695,45.410,46.387
1532202936.107,42.480,25.879,30.762,47.363,38.086
1532202936.111,30.273,31.250,46.875,39.062,20.508
1532202936.114,38.086,38.574,41.504,26.367,14.160
1532202936.118,33.691,32.715,32.715,28.320,11.230
1532202936.122,35.156,34.668,31.738,41.504,17.090
1532202936.126,36.133,41.992,36.133,40.527,44.434
1532202936.130,31.250,36.133,40.039,35.645,48.828
1532202936.134,30.762,27.832,31.738,37.598,22.949
1532202936.138,29.297,31.738,30.762,34.180,24.414
1532202936.142,30.762,33.203,33.203,28.809,16.602
1532202936.146,22.461,31.738,16.113,22.949,17.578
1532202936.150,13.184,38.574,13.184,15.625,31.738
1532202936.153,18.555,33.203,30.762,14.160,1.953
1532202936.157,22.461,10.254,32.715,22.461,-14.160
1532202936.161,26.367,11.230,28.809,31.738,26.855
1532202936.165,24.414,39.062,33.691,30.762,60.547
1532202936.169,17.090,52.734,25.391,24.902,25.391
1532202936.173,14.648,41.016,25.391,26.367,26.855
1532202936.177,14.160,30.273,32.227,27.832,32.227
1532202936.181,16.602,32.715,23.926,24.414,11.719
1532202936.185,23.438,31.250,19.531,30.273,14.648
1532202936.189,22.461,20.020,28.320,38.086,5.859
1532202936.193,20.508,28.320,37.109,22.949,-23.926
1532202936.196,17.578,36.133,38.574,18.555,-11.719
1532202936.200,21.973,34.668,32.227,30.762,35.156
1532202936.204,30.762,31.738,24.414,34.180,27.832
1532202936.208,29.297,32.715,28.320,35.645,23.926
1532202936.212,32.715,22.461,36.621,40.527,41.992
1532202936.216,35.156,11.230,19.043,51.758,58.105
1532202936.220,29.297,29.297,17.578,50.293,43.457
1532202936.224,24.902,38.574,23.926,39.551,40.527
1532202936.228,36.621,43.945,46.387,47.363,54.688
1532202936.232,29.785,40.039,57.129,40.039,47.363
1532202936.236,16.113,29.297,32.227,21.973,10.254
1532202936.239,25.879,28.809,31.250,27.344,-19.531
1532202936.243,35.645,35.156,43.945,31.738,-0.977
1532202936.247,38.086,32.715,20.996,30.762,30.762
1532202936.251,33.203,20.020,6.836,33.691,38.574
1532202936.255,38.574,23.438,30.273,36.621,0.000
1532202936.259,40.039,38.086,31.250,41.992,1.953
1532202936.263,35.156,43.457,33.691,44.922,46.387
1532202936.267,27.344,33.691,40.039,39.551,58.594
1532202936.271,24.902,34.668,30.762,32.227,8.301
1532202936.275,28.320,36.621,25.391,29.785,-10.254
1532202936.278,37.598,30.273,27.344,34.668,26.367
1532202936.282,42.969,26.855,28.809,33.203,41.016
1532202936.286,28.809,22.949,17.578,33.203,55.664
1532202936.290,27.344,13.184,16.602,31.250,34.668
1532202936.294,30.273,23.926,31.250,20.996,-2.930
1532202936.298,36.621,38.086,23.438,32.227,19.531
1532202936.302,34.668,30.273,16.602,35.156,46.875
1532202936.306,28.320,42.480,32.715,32.227,55.664
1532202936.310,34.668,47.852,37.109,30.762,40.039
1532202936.314,32.227,35.645,36.621,33.203,36.621
1532202936.318,33.691,19.531,35.156,38.086,47.363
1532202936.321,31.250,22.461,21.973,35.645,27.344
1532202936.325,32.715,38.086,15.137,33.203,31.250
1532202936.329,33.203,38.574,27.344,26.855,45.898
1532202936.333,27.344,32.227,35.645,23.926,27.344
1532202936.337,28.320,23.438,31.250,29.785,34.180
1532202936.341,42.480,31.250,25.879,40.039,36.133
1532202936.345,50.293,37.109,24.902,50.781,41.016
1532202936.349,28.320,23.438,30.273,37.109,69.336
1532202936.353,19.043,25.879,40.527,29.297,48.828
1532202936.357,23.438,30.273,40.039,37.109,12.207
1532202936.360,18.066,26.367,37.598,35.156,19.531
1532202936.364,20.508,29.297,36.621,36.621,45.410
1532202936.368,26.367,27.832,34.180,38.574,38.574
1532202936.372,25.391,17.090,30.762,35.645,24.902
1532202936.376,28.809,11.719,38.086,39.551,18.555
1532202936.380,22.461,15.137,47.852,42.480,28.320
1532202936.384,19.531,-2.930,44.434,44.434,45.410
1532202936.388,20.020,-10.742,28.809,43.945,32.227
1532202936.392,17.578,28.809,29.785,40.039,-10.254
1532202936.396,20.508,31.738,48.340,38.574,5.859
1532202936.400,26.367,6.348,51.270,43.945,54.199
1532202936.403,31.738,26.367,35.645,48.340,37.109
1532202936.407,31.738,37.598,31.250,43.945,22.949
1532202936.411,31.738,25.391,40.039,40.527,7.812
1532202936.415,29.297,26.367,28.320,38.086,24.414
1532202936.419,26.367,18.066,34.668,34.668,28.320
1532202936.423,31.250,10.742,52.246,42.480,4.395
1532202936.427,27.832,19.531,39.062,41.504,9.766
1532202936.431,25.391,16.113,33.691,33.691,3.906
1532202936.435,32.227,16.602,41.992,35.645,-9.277
1532202936.439,36.133,24.902,35.645,41.016,-2.930
1532202936.443,32.715,27.344,22.461,42.969,7.812
1532202936.446,27.344,22.949,26.855,34.180,55.664
1532202936.450,28.809,18.066,41.504,33.203,50.781
1532202936.454,30.273,23.926,36.621,35.645,18.066
1532202936.458,29.785,21.484,35.645,36.621,17.578
1532202936.462,35.645,23.438,31.738,41.504,22.461
1532202936.466,41.504,35.156,24.414,44.922,41.992
1532202936.470,41.992,32.227,25.391,43.945,30.273
1532202936.474,53.223,30.273,33.691,47.363,-14.160
1532202936.478,66.895,26.855,51.270,54.199,18.555
1532202936.482,46.875,15.137,38.086,36.621,42.480
1532202936.485,23.926,29.785,23.438,22.461,20.996
1532202936.489,23.926,39.062,27.832,23.438,4.883
1532202936.493,25.879,34.180,26.367,22.949,4.395
1532202936.497,27.832,25.879,26.367,29.785,23.926
1532202936.501,28.320,19.043,26.855,35.156,29.297
1532202936.505,30.762,20.020,17.578,34.180,22.949
1532202936.509,35.645,22.461,11.230,37.109,2.441
1532202936.513,31.738,26.367,21.973,36.133,9.277
1532202936.517,40.039,33.691,37.109,44.434,31.250
1532202936.521,37.109,32.227,38.086,40.527,23.926
1532202936.525,25.879,22.461,34.668,26.367,13.184
1532202936.528,33.203,21.973,34.668,29.297,34.180
1532202936.532,34.668,23.926,40.039,31.250,20.996
1532202936.536,24.414,22.461,36.133,22.461,-9.277
1532202936.540,18.066,26.367,20.508,20.996,9.277
1532202936.544,26.367,28.320,23.926,30.762,42.969
1532202936.548,30.273,35.645,33.203,34.668,58.594
1532202936.552,24.414,43.945,23.438,25.879,36.133
1532202936.556,19.043,35.645,26.855,23.926,20.508
1532202936.560,18.555,26.367,38.574,28.320,8.301
1532202936.564,25.879,33.203,26.367,30.762,13.672
1532202936.568,29.785,35.645,23.926,33.203,31.250
1532202936.571,36.133,32.227,39.062,29.785,7.324
1532202936.575,34.180,31.250,42.480,28.320,-15.625
1532202936.579,20.996,33.203,42.480,26.855,31.250
1532202936.583,17.090,37.598,35.156,19.043,64.941
1532202936.587,3.418,34.180,28.320,8.301,42.480
1532202936.591,-14.648,25.391,37.598,-2.930,20.020
1532202936.595,-13.672,21.973,42.480,1.465,46.875
1532202936.599,-7.812,35.645,35.645,0.488,73.242
1532202936.603,-17.090,46.875,35.645,-18.555,66.406
1532202936.607,-34.180,37.109,41.016,-31.738,66.895
1532202936.610,-40.527,39.062,40.039,-46.387,58.594
1532202936.614,-53.711,45.410,35.645,-67.383,32.227
1532202936.618,-51.270,37.109,34.668,-67.871,19.043
1532202936.622,-46.875,48.828,30.273,-70.312,12.695
1532202936.626,-63.965,54.688,36.621,-84.961,16.113
1532202936.630,-59.570,41.504,52.246,-80.078,30.273
1532202936.634,-54.688,48.340,51.758,-76.172,32.715
1532202936.638,-58.105,58.105,48.828,-79.102,23.926
1532202936.642,-55.176,54.199,56.641,-76.660,30.762
1532202936.646,-64.941,43.457,55.176,-83.008,55.664
1532202936.650,-68.848,40.527,50.293,-73.730,66.406
1532202936.653,-57.617,55.176,41.016,-52.246,23.438
1532202936.657,-56.152,54.199,37.109,-45.898,19.531
1532202936.661,-43.457,48.340,36.621,-30.273,37.109
1532202936.665,-30.273,47.363,32.227,-20.996,41.016
1532202936.669,-23.926,39.062,34.668,-23.438,28.809
1532202936.673,-2.930,36.621,31.738,-17.578,-13.672
1532202936.677,9.277,37.598,24.414,-9.766,9.766
1532202936.681,20.508,37.109,15.625,5.859,67.871
1532202936.685,25.879,40.039,19.531,9.277,51.758
1532202936.689,34.668,38.574,31.250,18.066,22.461
1532202936.692,49.805,37.598,28.809,35.156,24.414
1532202936.696,51.270,33.203,19.043,37.109,42.969
1532202936.700,54.199,22.949,14.160,43.457,50.293
1532202936.704,56.641,24.902,12.695,57.617,37.598
1532202936.708,60.547,30.273,13.672,60.059,30.762
1532202936.712,62.500,26.855,20.020,49.805,25.391
1532202936.716,60.547,24.902,14.160,44.434,16.602
1532202936.720,65.430,20.020,4.395,56.641,31.738
1532202936.724,77.148,24.414,2.930,75.195,19.043
1532202936.728,84.961,26.855,15.137,84.473,23.926
1532202936.732,85.449,25.879,25.391,81.055,61.035
1532202936.735,91.797,23.926,22.949,79.590,61.035
1532202936.739,85.449,25.879,19.531,83.496,33.203
1532202936.743,81.543,39.062,18.555,85.449,25.879
1532202936.747,79.102,36.621,15.625,79.590,33.691
1532202936.751,80.566,24.902,10.254,76.172,40.039
1532202936.755,90.332,20.996,6.348,79.102,11.719
1532202936.759,81.543,27.344,-0.977,75.684,6.836
1532202936.763,75.684,35.156,-7.812,72.754,6.348
1532202936.767,77.148,35.645,0.000,70.312,18.066
1532202936.771,90.820,34.668,9.277,73.730,20.508
1532202936.775,96.191,29.785,14.160,72.266,-1.465
1532202936.778,83.008,40.039,20.508,75.684,23.438
1532202936.782,82.520,43.457,20.996,80.566,42.969
1532202936.786,84.961,35.156,18.555,78.613,35.156
1532202936.790,83.496,32.227,10.742,79.102,25.879
1532202936.794,85.938,33.203,8.789,80.078,19.043
1532202936.798,87.891,26.855,16.113,82.031,21.484
1532202936.802,82.031,20.996,16.602,78.125,23.438
1532202936.806,83.008,37.598,5.371,77.148,32.715
1532202936.810,89.844,42.480,0.977,85.938,38.574
1532202936.814,80.566,34.180,13.672,76.172,16.113
1532202936.817,73.242,35.645,30.273,66.895,41.504
1532202936.821,72.266,37.109,26.367,70.801,34.180
1532202936.825,65.918,30.273,15.137,70.312,2.441
1532202936.829,67.383,25.879,19.531,73.242,15.137
1532202936.833,67.871,33.691,23.926,70.312,24.902
1532202936.837,64.453,33.691,23.926,58.594,25.879
1532202936.841,62.988,30.273,23.438,61.035,13.184
1532202936.845,67.871,32.227,18.066,63.965,0.488
1532202936.849,70.312,19.043,20.020,59.570,36.621
1532202936.853,64.941,13.184,20.996,55.664,18.555
1532202936.857,63.965,35.156,20.996,59.570,-14.160
1532202936.860,61.523,50.293,24.414,64.941,36.133
1532202936.864,62.500,41.992,25.391,65.430,61.035
1532202936.868,64.453,37.109,31.738,62.500,34.180
1532202936.872,60.059,31.738,37.598,61.035,2.441
1532202936.876,56.641,34.180,34.180,58.594,13.672
1532202936.880,55.176,36.133,22.949,56.641,41.504
1532202936.884,54.199,32.715,20.508,53.223,41.992
1532202936.888,58.105,39.062,26.367,55.664,44.434
1532202936.892,52.734,29.785,28.809,45.410,3.906
1532202936.896,43.945,16.113,27.832,32.227,4.395
1532202936.900,41.992,25.879,26.367,43.945,37.598
1532202936.903,44.922,37.109,24.902,56.152,34.668
1532202936.907,59.570,36.133,35.645,65.430,41.016
1532202936.911,55.664,42.480,32.715,49.316,43.457
1532202936.915,36.133,42.969,22.949,27.344,34.180
1532202936.919,31.250,41.504,22.949,28.809,27.344
1532202936.923,43.457,42.969,24.414,41.016,23.438
1532202936.927,48.340,34.180,17.578,37.109,23.926
1532202936.931,44.434,36.621,15.137,34.180,41.016
1532202936.935,44.434,43.945,12.695,32.715,51.758
1532202936.939,41.504,47.363,6.348,22.949,48.340
1532202936.942,36.621,39.551,8.301,17.578,16.113
1532202936.946,30.762,41.504,7.812,8.301,21.973
1532202936.950,33.691,46.387,14.160,17.578,17.578
1532202936.954,42.480,41.016,15.137,21.484,-22.949
1532202936.958,43.457,47.363,7.812,22.461,-4.883
1532202936.962,42.480,50.781,11.719,28.320,28.809
1532202936.966,46.387,43.945,24.414,29.785,49.316
1532202936.970,47.363,45.898,20.996,25.879,32.715
1532202936.974,41.504,45.898,14.648,25.391,30.273
1532202936.978,41.504,33.203,28.809,35.645,45.898
1532202936.982,43.457,31.738,27.344,41.504,41.992
1532202936.985,45.898,41.016,19.531,41.016,28.320
1532202936.989,48.340,36.621,21.973,40.527,-29.785
1532202936.993,52.734,19.531,16.113,42.969,-19.531
1532202936.997,57.617,24.414,18.066,48.340,27.344
1532202937.001,47.363,47.852,21.973,40.527,27.832
1532202937.005,43.945,51.758,20.508,39.062,6.348
1532202937.009,44.922,46.875,29.297,45.410,-5.371
1532202937.013,46.387,48.340,28.809,38.086,-0.977
1532202937.017,48.828,43.945,18.555,35.156,41.992
1532202937.021,48.340,33.203,23.926,37.109,62.988
1532202937.024,42.480,34.180,22.461,37.109,37.598
1532202937.028,38.086,41.016,20.996,43.945,39.062
1532202937.032,38.086,29.297,25.391,41.504,42.969
1532202937.036,41.504,27.832,21.484,40.039,42.480
1532202937.040,51.758,25.391,23.926,48.340,26.855
1532202937.044,53.223,22.949,26.855,46.875,32.715
1532202937.048,41.016,39.551,23.926,42.480,48.828
1532202937.052,34.180,41.016,21.973,37.598,12.207
1532202937.056,36.621,43.945,22.949,40.527,-5.371
1532202937.060,40.039,43.457,24.414,44.434,41.992
1532202937.064,41.504,36.133,16.602,44.922,52.734
1532202937.067,41.504,39.062,16.113,42.969,27.832
1532202937.071,38.574,46.387,20.996,34.668,3.418
1532202937.075,36.621,41.504,22.949,39.062,13.184
1532202937.079,34.180,28.809,27.832,43.945,37.598
1532202937.083,35.156,32.227,33.691,41.504,42.480
1532202937.087,45.410,25.879,35.645,56.152,38.086
1532202937.091,46.875,2.930,38.086,53.223,25.879
1532202937.095,35.156,15.625,11.719,30.273,11.230
1532202937.099,37.598,44.434,5.371,36.133,38.574
1532202937.103,36.621,52.734,31.738,43.457,41.504
1532202937.107,32.227,47.852,37.598,41.504,11.719
1532202937.110,40.527,39.551,32.715,43.945,22.949
1532202937.114,33.691,36.621,27.344,42.969,33.203
1532202937.118,36.621,37.598,24.414,40.527,36.133
1532202937.122,42.480,37.109,25.879,41.016,27.832
1532202937.126,36.621,35.156,26.855,39.551,47.363
1532202937.130,41.992,28.809,26.367,43.945,52.734
1532202937.134,45.410,17.090,32.715,39.551,23.926
1532202937.138,36.133,15.625,28.320,36.133,14.648
1532202937.142,33.691,32.227,26.855,40.527,10.254
1532202937.146,38.086,33.203,26.855,38.574,32.227
1532202937.149,37.109,22.461,24.414,38.574,32.715
1532202937.153,39.551,33.691,27.832,42.480,32.715
1532202937.157,41.504,47.852,29.297,34.180,29.297
1532202937.161,39.062,43.457,29.297,32.715,37.109
1532202937.165,34.180,35.645,27.344,37.598,42.480
1532202937.169,32.715,31.250,21.973,36.621,40.527
1532202937.173,33.691,28.809,20.508,38.086,29.785
1532202937.177,29.297,28.809,31.738,37.109,36.133
1532202937.181,29.297,26.367,35.645,34.180,62.012
1532202937.185,33.203,27.832,27.832,35.156,52.734
1532202937.189,39.062,26.855,27.344,40.039,45.898
1532202937.192,37.598,15.625,29.297,34.180,13.184
1532202937.196,27.832,25.391,21.973,21.973,16.113
1532202937.200,28.320,42.480,26.367,26.367,48.340
1532202937.204,33.203,31.738,26.855,31.738,55.176
1532202937.208,24.902,22.461,20.996,22.461,51.758
1532202937.212,21.484,38.086,19.043,18.066,43.457
1532202937.216,22.949,32.227,17.578,23.438,46.875
1532202937.220,27.344,17.090,28.809,27.832,20.020
1532202937.224,29.297,26.367,41.016,25.391,24.414
1532202937.228,26.855,36.621,35.156,27.344,51.758
1532202937.232,23.438,37.598,22.461,29.297,32.715
1532202937.235,25.391,33.203,25.879,27.344,20.508
1532202937.239,27.832,30.762,30.762,28.320,15.625
1532202937.243,31.738,18.066,36.621,36.133,27.344
1532202937.247,28.809,20.020,27.344,39.062,51.270
1532202937.251,23.926,37.598,24.902,32.227,42.969
1532202937.255,21.973,39.062,36.621,32.715,29.297
1532202937.259,18.066,34.668,33.203,27.832,14.648
1532202937.263,25.879,35.156,25.879,25.391,40.039
1532202937.267,27.344,35.156,17.578,28.320,63.965
1532202937.271,33.691,37.109,23.438,33.691,23.438
1532202937.274,34.180,26.855,30.762,31.250,1.465
1532202937.278,30.762,26.855,29.785,26.855,23.926
1532202937.282,33.691,21.973,26.855,32.227,53.223
1532202937.286,32.715,17.090,30.273,33.203,45.410
1532202937.290,33.203,31.738,38.086,38.574,24.902
1532202937.294,27.832,33.203,31.738,39.551,11.719
1532202937.298,26.855,36.621,21.973,34.180,8.789
1532202937.302,32.715,39.551,28.809,32.715,30.762
1532202937.306,39.062,32.715,26.855,34.180,44.922
1532202937.310,38.086,26.855,23.926,32.227,39.551
1532202937.314,28.320,27.832,23.438,24.902,39.062
1532202937.317,24.902,29.785,20.996,25.391,30.762
1532202937.321,30.273,17.578,24.414,27.344,22.461
1532202937.325,33.691,20.020,24.902,28.809,19.531
1532202937.329,32.227,27.344,16.602,32.715,21.973
1532202937.333,33.203,13.184,18.555,24.902,24.414
1532202937.337,30.762,25.879,25.879,20.996,27.832
1532202937.341,28.320,44.434,26.855,26.855,29.785
1532202937.345,31.250,41.504,23.438,26.367,52.734
1532202937.349,25.391,28.809,18.066,30.273,69.824
1532202937.353,38.086,32.227,28.320,33.691,31.738
1532202937.357,50.293,35.156,33.691,36.621,9.277
1532202937.360,39.551,24.902,32.715,43.945,27.832
1532202937.364,35.156,28.809,41.016,42.480,39.062
1532202937.368,32.715,35.156,35.645,39.551,36.621
1532202937.372,28.809,30.273,20.508,27.832,-18.066
1532202937.376,30.273,34.668,22.949,23.926,-44.922
1532202937.380,32.715,30.273,25.391,29.785,19.043
1532202937.384,43.945,20.996,17.090,29.297,40.039
1532202937.388,52.734,19.043,22.461,35.156,20.996
1532202937.392,45.898,21.973,30.762,38.086,1.953
1532202937.396,45.410,36.133,25.391,33.203,25.391
1532202937.399,46.875,37.598,23.926,30.762,56.641
1532202937.403,40.527,36.621,28.809,33.203,41.504
1532202937.407,35.645,41.016,29.785,36.621,23.926
1532202937.411,35.645,42.480,31.738,34.180,15.137
1532202937.415,25.391,28.809,28.809,34.180,24.414
1532202937.419,31.738,27.344,28.320,36.133,25.391
1532202937.423,36.133,36.133,23.926,34.668,14.648
1532202937.427,16.113,33.691,23.926,41.992,33.691
1532202937.431,15.137,34.668,27.344,41.504,44.922
1532202937.435,20.508,29.297,13.672,37.109,36.621
1532202937.439,21.973,21.973,19.531,38.574,22.949
1532202937.442,25.879,19.043,31.738,41.504,7.812
1532202937.446,28.809,16.602,31.738,37.109,24.414
1532202937.450,32.715,18.066,34.180,28.320,26.855
1532202937.454,24.902,31.738,34.668,22.949,7.324
1532202937.458,18.066,38.086,29.785,23.438,5.371
1532202937.462,22.949,32.227,25.391,24.902,36.133
1532202937.466,21.484,24.414,26.855,27.344,58.105
1532202937.470,22.461,26.855,23.926,28.809,28.320
1532202937.474,22.949,33.203,21.973,12.207,3.906
1532202937.478,20.996,23.438,29.785,16.113,25.879
1532202937.481,32.715,7.324,37.109,31.738,62.500
1532202937.485,29.785,13.184,38.086,35.156,74.707
1532202937.489,18.555,30.762,32.227,37.109,17.578
1532202937.493,9.766,31.738,19.531,27.344,-8.301
1532202937.497,8.301,30.762,12.695,24.414,58.105
1532202937.501,15.137,40.039,16.113,23.438,53.223
1532202937.505,17.578,35.156,32.227,22.461,17.090
1532202937.509,18.066,30.273,40.527,27.344,53.711
1532202937.513,15.137,32.227,34.668,22.461,52.246
1532202937.517,20.996,31.250,34.180,21.973,38.086
1532202937.521,28.320,32.715,28.809,28.809,21.484
1532202937.524,32.715,22.949,26.367,29.785,-3.906
1532202937.528,42.480,23.438,29.297,32.715,35.645
1532202937.532,41.992,30.762,25.391,32.715,20.508
1532202937.536,30.273,26.367,26.367,31.738,-3.418
1532202937.540,23.926,32.227,31.250,30.762,17.090
1532202937.544,31.250,41.016,25.391,30.762,17.578
1532202937.548,40.039,37.598,20.508,36.621,41.016
1532202937.552,40.527,32.227,19.043,39.551,38.574
1532202937.556,46.875,38.086,31.250,41.504,-7.812
1532202937.560,47.852,39.062,36.133,44.922,10.742
1532202937.564,44.922,27.344,32.227,43.945,38.574
1532202937.567,41.992,22.949,36.621,45.898,41.992
1532202937.571,44.434,17.090,36.621,60.547,20.996
1532202937.575,52.734,21.973,32.715,61.035,10.742
1532202937.579,47.363,36.133,30.273,46.875,4.883
1532202937.583,49.805,44.434,20.508,42.480,17.578
1532202937.587,59.082,54.688,12.695,40.039,35.156
1532202937.591,60.059,47.363,12.695,37.598,6.348
1532202937.595,67.871,45.410,8.789,40.039,14.160
1532202937.599,72.266,49.316,6.348,39.551,54.199
1532202937.603,78.613,48.828,7.812,44.922,38.574
1532202937.606,86.914,51.758,5.371,56.641,5.371
1532202937.610,92.773,55.176,0.977,56.152,28.320
1532202937.614,106.934,56.641,0.488,53.711,30.273
1532202937.618,114.746,56.641,-0.488,64.453,16.113
1532202937.622,118.164,57.617,-3.418,77.148,11.230
1532202937.626,123.047,62.500,-4.883,85.449,24.414
1532202937.630,125.488,66.406,-8.789,87.402,37.109
1532202937.634,131.836,66.895,-10.254,90.332,53.223
1532202937.638,130.859,71.289,-10.742,87.891,37.109
1532202937.642,129.883,76.172,-9.766,90.332,4.883
1532202937.646,135.254,77.148,-12.695,94.727,39.062
1532202937.649,134.277,73.242,-14.648,88.379,49.316
1532202937.653,133.789,62.500,-10.254,82.031,21.484
1532202937.657,126.953,73.242,-8.301,78.613,22.949
1532202937.661,115.234,88.379,-9.766,82.031,52.734
1532202937.665,113.770,80.566,-13.184,80.078,60.059
1532202937.669,111.816,75.195,-8.789,75.684,47.363
1532202937.673,106.445,72.754,-5.371,76.660,15.625
1532202937.677,108.887,64.453,-0.977,73.242,20.020
1532202937.681,105.469,58.594,4.883,70.312,45.410
1532202937.685,92.773,62.012,3.906,66.406,53.223
1532202937.689,86.426,61.035,-1.465,61.523,24.902
1532202937.692,76.660,55.664,0.000,48.340,-5.859
1532202937.696,73.730,57.617,6.836,42.969,42.480
1532202937.700,74.219,55.176,9.277,48.828,54.199
1532202937.704,69.336,47.363,2.441,51.270,30.273
1532202937.708,68.359,51.270,0.000,49.805,39.551
1532202937.712,70.801,49.316,10.254,50.293,47.363
1532202937.716,67.871,44.922,14.160,51.270,59.082
1532202937.720,65.918,54.688,16.602,48.828,50.293
1532202937.724,67.383,49.805,18.555,54.688,27.832
1532202937.728,60.059,41.504,16.113,53.711,13.184
1532202937.731,57.617,50.781,14.648,51.758,20.020
1532202937.735,61.035,49.805,16.113,55.176,13.672
1532202937.739,58.105,39.551,17.578,52.734,16.602
1532202937.743,64.453,47.852,10.742,53.711,23.926
1532202937.747,57.617,48.828,3.906,45.410,32.715
1532202937.751,54.688,41.504,14.648,37.109,20.508
1532202937.755,55.176,50.781,21.973,36.621,-11.719
1532202937.759,55.176,52.246,18.066,40.527,4.395
1532202937.763,56.152,44.922,18.066,44.434,34.180
1532202937.767,51.270,44.922,17.090,45.898,25.879
1532202937.771,44.434,39.551,16.602,37.109,-7.324
1532202937.774,41.992,32.715,23.438,34.668,-4.883
1532202937.778,41.504,40.039,27.832,40.039,31.250
1532202937.782,42.480,36.621,28.320,40.527,60.059
1532202937.786,45.898,29.785,28.320,39.551,58.105
1532202937.790,43.945,29.785,29.297,43.945,12.695
1532202937.794,39.062,39.551,24.902,39.551,-16.602
1532202937.798,39.062,50.781,18.555,31.738,18.555
1532202937.802,41.992,49.316,21.973,32.227,26.367
1532202937.806,40.039,46.875,24.414,29.297,20.508
1532202937.810,46.387,47.852,24.414,34.180,26.367
1532202937.813,50.293,46.875,22.949,41.992,35.156
1532202937.817,54.199,36.621,19.043,40.527,46.387
1532202937.821,54.688,27.344,22.949,41.504,15.625
1532202937.825,51.270,35.156,24.902,41.504,8.301
1532202937.829,42.480,40.039,20.020,34.668,20.020
1532202937.833,39.062,40.527,18.555,28.809,1.953
1532202937.837,43.457,36.621,19.531,28.320,4.883
1532202937.841,40.039,32.715,19.043,36.133,23.926
1532202937.845,44.922,33.203,18.066,40.039,43.945
1532202937.849,44.434,30.762,20.996,35.645,71.289
1532202937.853,34.668,37.598,19.531,37.598,41.992
1532202937.856,34.180,41.016,19.531,40.039,20.996
1532202937.860,33.691,31.250,24.902,35.645,31.738
1532202937.864,38.086,24.414,25.879,36.133,61.523
1532202937.868,34.668,20.020,24.414,37.598,73.730
1532202937.872,27.344,33.691,19.531,34.180,19.531
1532202937.876,25.391,47.852,19.043,30.762,4.395
1532202937.880,24.902,37.598,18.066,25.391,51.270
1532202937.884,23.438,32.715,17.578,23.438,60.547
1532202937.888,26.855,29.297,19.531,28.809,37.109
1532202937.892,30.273,28.320,25.391,25.879,1.953
1532202937.896,29.785,30.762,30.273,18.555,-16.602
1532202937.899,34.668,27.832,28.809,25.391,8.301
1532202937.903,33.691,17.578,28.809,33.691,26.367
1532202937.907,33.691,20.996,24.414,32.715,26.855
1532202937.911,29.785,31.738,16.113,28.809,42.480
1532202937.915,26.855,26.855,17.578,28.809,50.781
1532202937.919,29.785,27.832,26.855,26.855,29.297
1532202937.923,26.855,32.227,28.320,29.785,15.625
1532202937.927,28.809,26.855,23.438,32.227,25.391
1532202937.931,35.156,23.926,23.438,20.020,18.066
1532202937.935,22.461,27.832,29.785,13.672,12.207
1532202937.938,18.066,35.156,28.809,24.414,25.391
1532202937.942,25.391,31.250,26.367,28.809,33.203
1532202937.946,20.508,20.020,23.926,24.902,39.551
1532202937.950,19.043,32.715,22.461,16.602,24.414
1532202937.954,23.438,34.668,19.043,11.719,-5.371
1532202937.958,20.508,21.484,17.578,18.555,-12.695
1532202937.962,12.207,24.414,21.973,19.043,30.273
1532202937.966,15.137,29.785,20.996,17.578,35.645
1532202937.970,10.254,28.320,22.949,19.043,22.949
1532202937.974,5.859,23.926,27.344,12.695,-1.953
1532202937.978,11.719,25.879,28.320,14.160,8.301
1532202937.981,16.113,31.250,25.391,23.926,43.457
1532202937.985,18.555,28.809,23.438,20.020,45.898
1532202937.989,23.926,19.531,22.461,20.508,23.926
1532202937.993,24.902,17.090,20.508,26.367,15.625
1532202937.997,23.926,28.320,20.508,30.273,41.992
1532202938.001,20.996,32.715,24.902,30.273,49.316
1532202938.005,23.438,33.203,23.438,27.832,46.875
1532202938.009,34.668,30.273,25.879,35.156,44.434
1532202938.013,36.133,19.043,24.902,37.109,56.641
1532202938.017,26.855,18.555,14.160,28.809,36.133
1532202938.021,14.648,27.832,19.531,20.508,7.812
1532202938.024,14.160,33.691,24.414,23.438,34.180
1532202938.028,21.484,30.273,25.879,29.785,57.129
1532202938.032,24.414,17.090,24.902,25.391,26.367
1532202938.036,25.879,18.555,24.902,20.996,16.602
1532202938.040,22.949,30.273,24.414,22.461,49.316
1532202938.044,18.066,31.250,20.020,23.926,67.383
1532202938.048,14.648,28.320,25.391,29.785,58.594
1532202938.052,18.066,21.973,30.762,33.691,45.410
1532202938.056,24.414,15.625,30.273,33.691,32.715
1532202938.060,28.809,21.484,26.855,35.645,22.461
1532202938.063,31.738,28.809,26.855,35.645,35.645
1532202938.067,33.691,33.203,29.785,35.156,56.152
1532202938.071,29.297,24.902,29.785,29.785,35.645
1532202938.075,24.902,23.926,27.832,23.438,-7.812
1532202938.079,23.926,33.691,26.855,31.250,13.184
1532202938.083,20.996,34.668,31.738,33.691,36.621
1532202938.087,17.090,25.879,28.809,27.832,42.480
1532202938.091,20.996,26.367,29.297,33.691,19.043
1532202938.095,24.414,23.438,27.344,37.598,26.367
1532202938.099,23.438,19.043,20.996,33.691,49.316
1532202938.103,26.367,27.344,28.320,38.086,31.738
1532202938.106,23.438,30.273,31.738,33.203,7.812
1532202938.110,25.391,27.344,27.832,27.832,11.230
1532202938.114,23.438,25.879,25.391,26.855,48.828
1532202938.118,21.484,29.297,26.367,26.367,39.551
1532202938.122,35.156,27.344,26.367,38.574,13.672
1532202938.126,41.016,25.391,18.066,41.992,25.391
1532202938.130,34.668,30.273,13.672,36.621,35.645
1532202938.134,30.273,21.484,29.297,25.391,15.625
1532202938.138,32.715,12.207,33.203,23.926,26.367
1532202938.142,32.715,25.879,22.949,32.715,36.133
1532202938.145,32.227,32.715,20.020,34.180,57.129
1532202938.149,30.273,31.250,20.508,27.832,60.547
1532202938.153,34.668,33.691,28.809,26.855,32.227
1532202938.157,39.062,35.156,36.621,29.297,15.625
1532202938.161,34.180,27.344,32.227,25.391,35.645
1532202938.165,38.086,19.043,24.902,17.578,45.410
1532202938.169,42.969,29.297,28.320,14.648,33.203
1532202938.173,44.922,32.715,30.762,19.043,40.039
1532202938.177,46.875,26.367,27.832,22.949,31.738
1532202938.181,49.805,24.902,26.855,27.344,34.668
1532202938.185,39.062,25.879,32.227,28.809,50.293
1532202938.188,25.391,22.949,30.273,33.691,32.227
1532202938.192,17.578,20.508,21.973,32.715,0.977
1532202938.196,23.438,20.996,24.414,27.344,9.277
1532202938.200,27.832,18.066,25.391,37.109,39.551
1532202938.204,25.391,22.461,28.320,45.898,1.953
1532202938.208,27.344,23.438,34.668,43.945,10.254
1532202938.212,27.344,22.461,35.156,36.621,11.230
1532202938.216,36.133,33.691,33.691,34.668,24.414
1532202938.220,37.109,39.062,30.273,37.598,66.406
1532202938.224,35.156,28.320,24.414,35.156,50.293
1532202938.228,32.227,23.926,21.973,35.156,35.156
1532202938.231,22.949,23.926,26.855,35.156,25.391
1532202938.235,21.973,28.320,28.320,34.180,11.230
1532202938.239,24.414,28.809,24.902,30.273,6.348
1532202938.243,24.414,20.996,30.273,30.273,18.555
1532202938.247,20.996,23.926,33.691,31.250,19.043
1532202938.251,23.438,26.367,31.250,28.809,18.066
1532202938.255,36.133,28.809,22.461,23.438,-8.301
1532202938.259,31.250,30.273,19.043,25.391,-2.441
1532202938.263,29.297,24.902,28.320,27.344,41.504
1532202938.267,30.762,22.949,33.691,29.297,48.828
1532202938.270,28.809,31.250,34.180,30.762,19.531
1532202938.274,25.391,35.645,30.762,26.367,10.254
1532202938.278,23.438,33.691,28.809,26.855,46.387
1532202938.282,24.902,21.484,29.785,27.344,53.223
1532202938.286,20.020,16.602,30.762,25.879,44.922
1532202938.290,19.531,27.832,29.785,21.973,32.715
1532202938.294,21.484,34.180,26.367,18.555,7.324
1532202938.298,20.996,32.227,23.438,23.438,14.648
1532202938.302,22.949,23.926,29.297,27.832,28.320
1532202938.306,19.043,23.438,36.133,34.180,5.859
1532202938.310,11.719,28.320,37.109,28.320,8.301
1532202938.313,11.719,30.273,29.785,20.508,6.348
1532202938.317,18.066,23.438,29.785,29.297,17.578
1532202938.321,21.484,17.578,31.250,33.691,24.902
1532202938.325,27.344,24.902,31.250,35.645,17.090
1532202938.329,33.691,27.344,28.320,34.180,40.039
1532202938.333,26.855,26.855,24.902,27.832,22.949
1532202938.337,21.484,24.414,35.156,32.715,16.113
1532202938.341,28.809,26.855,34.668,37.109,6.836
1532202938.345,35.645,29.297,31.738,40.527,30.273
1532202938.349,28.320,32.227,29.297,38.574,46.875
1532202938.353,29.785,32.227,29.785,23.926,-3.418
1532202938.356,33.691,32.227,38.574,24.902,-7.324
1532202938.360,27.344,34.180,38.574,30.762,33.203
1532202938.364,30.273,25.879,36.621,31.250,37.109
1532202938.368,33.691,12.695,29.297,35.156,32.715
1532202938.372,36.133,15.137,25.391,36.133,9.766
1532202938.376,32.227,28.809,30.762,34.180,26.855
1532202938.380,20.020,32.715,37.109,26.367,67.383
1532202938.384,16.602,38.574,37.598,24.414,48.340
1532202938.388,23.926,39.062,38.086,27.344,5.859
1532202938.392,24.414,29.785,39.062,21.973,-9.277
1532202938.395,27.344,27.344,35.156,27.832,23.926
1532202938.399,36.133,30.762,35.156,36.621,58.594
1532202938.403,35.156,30.762,32.715,37.598,36.133
1532202938.407,33.203,24.902,28.320,41.992,18.066
1532202938.411,32.227,21.973,28.809,37.109,18.555
1532202938.415,35.156,22.461,26.855,32.715,19.043
1532202938.419,36.621,16.602,30.273,37.109,14.160
1532202938.423,24.902,23.438,35.156,33.691,7.324
1532202938.427,23.926,40.039,34.668,33.691,23.438
1532202938.431,30.273,45.898,34.180,33.203,10.254
1532202938.435,27.832,38.086,31.738,28.809,15.137
1532202938.438,32.715,37.598,24.414,33.691,13.672
1532202938.442,36.133,31.738,20.508,36.621,-8.789
1532202938.446,30.273,10.254,33.691,35.645,36.133
1532202938.450,25.879,19.531,44.922,37.598,44.922
1532202938.454,17.578,28.320,40.039,35.156,3.418
1532202938.458,14.648,26.855,35.645,33.203,-10.742
1532202938.462,21.973,21.484,35.156,39.551,8.301
1532202938.466,20.996,18.066,32.715,46.387,42.480
1532202938.470,20.020,18.555,33.203,46.387,13.184
1532202938.474,29.785,19.531,42.480,43.457,-17.578
1532202938.477,29.297,27.832,47.852,50.781,-10.254
1532202938.481,21.484,27.344,41.992,48.340,8.301
1532202938.485,33.203,20.508,39.551,43.945,10.742
1532202938.489,38.574,21.484,39.062,47.852,9.766
1532202938.493,32.227,29.785,38.574,35.645,-1.465
1532202938.497,33.691,32.715,38.574,32.227,-0.977
1532202938.501,34.668,20.508,36.133,42.480,50.293
1532202938.505,35.156,19.043,41.504,41.504,22.949
1532202938.509,31.250,26.367,43.457,44.434,-1.465
1532202938.513,20.508,25.879,41.504,43.945,33.691
1532202938.517,27.344,23.438,43.457,39.551,48.828
1532202938.520,35.645,6.836,42.480,41.016,14.648
1532202938.524,34.668,9.766,39.551,40.039,0.000
1532202938.528,29.785,33.203,32.715,40.039,32.715
1532202938.532,17.090,30.762,30.762,41.504,44.922
1532202938.536,20.996,19.531,42.480,38.574,23.438
1532202938.540,29.297,23.926,40.039,40.039,15.137
1532202938.544,35.156,22.949,32.227,35.645,27.832
1532202938.548,25.879,16.113,35.156,33.203,59.570
1532202938.552,22.461,23.926,37.598,36.133,34.180
1532202938.556,28.809,34.180,38.574,28.809,0.488
1532202938.560,34.180,20.508,35.156,37.109,5.371
1532202938.563,36.621,14.160,30.762,42.480,23.926
1532202938.567,34.668,30.762,30.273,38.086,56.641
1532202938.571,31.738,29.297,30.273,40.527,33.203
1532202938.575,25.879,27.344,30.273,34.180,24.414
1532202938.579,27.344,36.621,33.691,33.691,50.293
1532202938.583,32.227,32.227,36.621,37.598,42.480
1532202938.587,29.785,25.391,35.645,32.715,23.926
1532202938.591,27.344,21.973,29.785,31.250,-12.695
1532202938.595,25.391,18.066,27.832,28.320,-9.277
1532202938.599,32.227,17.090,32.715,33.203,17.090
1532202938.602,27.344,17.090,31.738,37.598,50.781
1532202938.606,20.508,27.832,29.785,36.621,47.363
1532202938.610,27.832,39.062,33.203,37.109,18.555
1532202938.614,26.855,40.039,34.180,36.133,21.484
1532202938.618,26.855,34.668,33.691,34.180,51.758
1532202938.622,29.785,30.762,33.691,33.691,40.039
1532202938.626,29.785,26.367,35.156,33.203,34.668
1532202938.630,30.762,23.926,31.738,28.809,48.828
1532202938.634,32.227,26.367,29.297,24.902,31.250
1532202938.638,26.855,30.762,26.367,27.832,25.391
1532202938.642,22.949,35.645,25.391,34.180,32.227
1532202938.645,30.273,18.555,34.180,39.062,51.270
1532202938.649,31.738,12.207,41.016,39.062,48.340
1532202938.653,25.879,32.715,32.715,31.250,22.949
1532202938.657,27.344,36.133,22.461,31.250,11.719
1532202938.661,27.344,32.715,32.227,37.109,4.395
1532202938.665,24.902,28.809,42.480,37.598,24.902
1532202938.669,25.879,30.273,40.039,38.086,46.875
1532202938.673,33.691,28.320,40.039,28.320,5.371
1532202938.677,38.086,19.531,34.668,23.926,-13.672
1532202938.681,28.320,20.020,30.762,35.156,22.949
1532202938.685,21.973,25.879,30.762,32.227,34.180
1532202938.688,21.484,25.879,26.367,29.785,26.367
1532202938.692,23.926,19.531,30.273,30.762,25.879
1532202938.696,30.762,21.484,37.598,36.133,46.875
1532202938.700,31.738,14.648,41.016,43.457,42.969
1532202938.704,25.391,15.137,39.551,37.598,15.625
1532202938.708,21.973,30.762,35.645,32.715,1.465
1532202938.712,24.414,34.180,31.738,32.715,8.789
1532202938.716,29.297,30.762,31.738,34.668,46.875
1532202938.720,27.344,25.879,35.645,32.715,38.086
1532202938.724,32.715,23.438,34.668,33.203,0.488
1532202938.727,32.715,23.438,34.180,36.621,28.320
1532202938.731,28.320,24.902,32.227,35.645,53.223
1532202938.735,31.738,20.020,23.438,33.691,52.734
1532202938.739,25.391,21.484,25.879,30.762,25.879
1532202938.743,25.879,31.250,36.621,31.250,22.461
1532202938.747,35.156,36.133,34.668,37.109,45.410
1532202938.751,39.062,25.879,30.273,39.062,29.785
1532202938.755,34.668,15.137,34.180,36.621,1.953
1532202938.759,32.715,22.461,33.691,32.715,-4.883
1532202938.763,24.902,23.926,30.273,31.738,11.230
1532202938.767,24.902,24.902,34.180,33.203,19.531
1532202938.770,38.574,24.902,43.457,39.551,15.137
1532202938.774,36.133,21.973,40.039,34.180,-31.738
1532202938.778,36.621,15.137,27.832,31.250,-20.508
1532202938.782,41.992,22.949,29.785,39.551,47.363
1532202938.786,33.691,30.273,34.180,33.691,64.453
1532202938.790,27.832,17.578,34.180,26.855,35.645
1532202938.794,25.391,34.180,42.969,33.203,7.324
1532202938.798,25.391,38.574,44.434,37.109,34.668
1532202938.802,25.391,27.344,34.180,30.273,68.359
1532202938.806,24.902,37.109,25.879,26.367,20.508
1532202938.809,29.785,41.504,24.414,32.227,22.461
1532202938.813,31.738,34.180,30.762,33.203,30.273
1532202938.817,28.809,27.832,30.273,28.809,17.578
1532202938.821,26.367,24.414,32.715,31.250,23.926
1532202938.825,29.297,24.414,34.180,33.203,24.902
1532202938.829,25.391,26.855,33.203,25.391,45.410
1532202938.833,26.855,34.180,41.016,27.344,32.715
1532202938.837,30.273,23.438,41.992,33.203,6.836
1532202938.841,31.250,19.043,37.109,36.621,20.508
1532202938.845,32.227,27.344,35.156,33.691,40.039
1532202938.849,33.203,26.855,32.227,31.250,67.383
1532202938.852,29.785,40.039,32.227,27.344,34.668
1532202938.856,25.391,34.668,35.645,28.320,-28.320
1532202938.860,27.832,9.766,32.715,38.574,12.695
1532202938.864,27.344,21.973,21.973,34.180,19.531
1532202938.868,29.785,32.715,24.414,30.762,16.113
1532202938.872,27.832,25.879,41.504,30.273,15.625
1532202938.876,17.578,36.133,43.457,25.879,-1.465
1532202938.880,20.508,41.504,38.086,31.250,49.805
1532202938.884,23.926,25.391,37.109,38.574,70.801
1532202938.888,24.414,19.043,35.156,34.668,33.203
1532202938.892,27.832,27.832,36.621,32.227,21.973
1532202938.895,24.902,21.973,36.133,34.668,21.973
1532202938.899,28.809,14.648,32.715,36.621,50.781
1532202938.903,35.645,23.926,30.273,31.738,58.105
1532202938.907,28.809,38.574,29.785,28.320,24.902
1532202938.911,26.855,39.551,31.738,25.879,12.695
1532202938.915,27.832,40.527,28.809,23.438,18.555
1532202938.919,22.461,47.852,19.531,20.996,23.438
1532202938.923,21.484,36.621,19.531,18.066,10.742
1532202938.927,26.367,27.832,23.438,23.438,17.090
1532202938.931,23.926,34.180,19.531,27.344,35.645
1532202938.934,18.066,41.504,29.785,24.414,28.320
1532202938.938,21.484,47.363,38.574,19.531,17.578
1532202938.942,35.645,34.180,32.715,21.484,15.137
1532202938.946,30.762,17.090,27.344,32.227,41.992
1532202938.950,27.832,27.344,28.320,32.227,43.945
1532202938.954,38.574,40.527,17.578,20.996,-4.883
1532202938.958,41.016,43.945,14.160,23.926,-17.578
1532202938.962,47.363,42.480,30.273,24.902,11.230
1532202938.966,54.688,30.762,35.645,22.461,43.457
1532202938.970,55.176,27.832,37.109,28.809,46.875
1532202938.974,52.246,36.133,32.715,25.391,5.859
1532202938.977,49.805,23.926,31.250,29.785,14.648
1532202938.981,42.969,29.297,27.344,44.922,52.246
1532202938.985,34.668,40.527,24.902,53.711,54.688
1532202938.989,27.832,32.227,27.832,50.293,29.297
1532202938.993,28.809,30.762,31.738,44.434,4.395
1532202938.997,29.297,24.902,34.180,46.875,17.578
1532202939.001,28.809,22.461,30.762,46.387,20.996
1532202939.005,31.250,31.738,33.691,46.387,10.254
1532202939.009,32.715,41.504,37.109,46.875,15.137
1532202939.013,41.016,39.062,38.574,43.945,30.273
1532202939.017,44.922,24.902,30.273,49.316,23.926
1532202939.020,42.969,22.461,15.137,52.734,26.367
1532202939.024,46.875,37.598,22.949,49.805,51.270
1532202939.028,40.527,30.273,37.598,46.387,56.152
1532202939.032,42.480,26.855,40.527,47.363,45.898
1532202939.036,49.316,38.086,34.180,46.387,32.715
1532202939.040,45.898,30.273,35.156,46.875,19.043
1532202939.044,44.434,28.809,40.527,48.828,29.297
1532202939.048,40.527,33.691,37.598,42.480,55.176
1532202939.052,37.598,35.645,38.574,37.109,22.949
1532202939.056,36.133,29.297,38.574,31.738,6.348
1532202939.059,41.016,29.297,33.203,30.762,30.273
1532202939.063,43.945,33.203,31.738,38.086,53.711
1532202939.067,36.621,24.414,35.645,44.922,67.871
1532202939.071,36.133,27.832,35.156,36.621,14.648
1532202939.075,36.621,33.203,29.785,32.227,-6.348
1532202939.079,35.156,30.762,30.762,45.898,38.574
1532202939.083,39.551,35.156,32.227,46.387,65.430
1532202939.087,33.691,24.902,32.227,34.668,31.250
1532202939.091,25.391,12.695,33.203,32.227,-15.137
1532202939.095,33.203,22.461,35.645,33.691,5.371
1532202939.099,35.645,29.785,38.574,34.180,19.043
1532202939.102,30.273,32.715,36.133,31.738,29.785
1532202939.106,29.297,33.203,35.645,37.109,50.293
1532202939.110,31.250,36.621,37.598,43.945,34.180
1532202939.114,27.832,35.156,31.250,29.297,16.602
1532202939.118,30.762,24.902,28.320,24.902,24.414
1532202939.122,39.551,29.297,32.715,32.715,21.484
1532202939.126,33.203,38.086,31.250,36.133,23.438
1532202939.130,36.621,34.668,30.762,39.551,32.227
1532202939.134,45.410,26.367,29.297,37.598,20.508
1532202939.138,42.480,16.113,31.738,39.062,20.020
1532202939.141,36.133,22.461,41.992,37.598,4.395
1532202939.145,38.086,36.133,44.922,31.738,12.695
1532202939.149,39.062,33.203,46.387,32.715,19.531
1532202939.153,29.297,30.273,46.387,28.320,-12.695
1532202939.157,27.832,30.273,40.527,29.297,-12.207
1532202939.161,25.879,34.668,35.645,30.762,15.137
1532202939.165,22.949,37.109,34.180,25.879,49.316
1532202939.169,29.785,24.902,35.645,31.250,48.340
1532202939.173,34.180,24.414,34.668,36.133,17.578
1532202939.177,32.715,28.320,33.203,35.156,18.066
1532202939.181,32.227,32.227,37.598,33.203,26.367
1532202939.184,36.133,37.598,36.133,34.180,21.973
1532202939.188,41.992,30.762,36.133,38.086,8.789
1532202939.192,39.062,28.320,36.133,35.156,-13.672
1532202939.196,31.250,32.227,29.297,31.738,8.789
1532202939.200,32.715,36.621,31.738,34.180,38.574
1532202939.204,36.133,33.691,41.016,36.133,15.137
1532202939.208,28.320,21.484,41.504,34.180,10.742
1532202939.212,28.320,24.414,37.598,39.062,32.227
1532202939.216,29.785,30.273,26.855,40.039,57.617
1532202939.220,27.832,22.461,23.926,28.809,42.969
1532202939.224,21.484,26.855,39.551,21.973,22.461
1532202939.227,20.020,36.133,46.387,27.344,43.457
1532202939.231,24.414,31.738,43.945,27.832,48.340
1532202939.235,21.973,27.344,41.504,31.738,55.664
1532202939.239,22.949,20.020,35.156,36.133,43.945
1532202939.243,15.625,16.602,34.180,32.227,37.598
1532202939.247,17.090,20.996,40.527,37.598,78.125
1532202939.251,22.949,26.367,45.410,36.133,52.246
1532202939.255,22.949,37.598,41.992,20.020,-6.836
1532202939.259,20.020,34.668,40.039,22.949,17.090
1532202939.263,16.113,22.461,42.969,30.273,53.711
1532202939.266,22.461,22.461,41.992,31.250,55.664
1532202939.270,21.973,22.949,40.039,33.203,45.410
1532202939.274,21.484,21.484,43.945,46.875,54.688
1532202939.278,22.461,28.320,41.016,41.992,54.199
1532202939.282,5.371,40.527,31.738,7.324,75.684
1532202939.286,-9.766,49.805,28.320,-10.742,86.914
1532202939.290,-15.625,45.410,30.762,-16.602,37.109
1532202939.294,-25.391,43.945,33.203,-34.180,8.789
1532202939.298,-35.645,39.551,30.273,-53.223,39.062
1532202939.302,-45.410,46.875,27.832,-67.871,33.691
1532202939.306,-62.012,70.312,29.297,-80.566,-8.301
1532202939.309,-74.219,75.195,30.762,-86.426,-4.883
1532202939.313,-95.215,74.707,30.273,-102.539,22.461
1532202939.317,-110.352,70.801,32.715,-108.398,55.176
1532202939.321,-113.281,68.359,33.691,-114.258,42.969
1532202939.325,-121.094,69.824,36.621,-131.836,-0.488
1532202939.329,-117.676,61.035,31.250,-130.859,0.977
1532202939.333,-113.770,54.688,38.574,-130.371,16.113
1532202939.337,-114.258,63.477,60.547,-130.859,0.000
1532202939.341,-110.840,61.523,53.711,-124.023,6.836
1532202939.345,-108.398,59.570,45.898,-124.023,23.438
1532202939.349,-85.938,68.359,55.664,-107.422,31.738
1532202939.352,-80.566,64.453,49.805,-95.703,20.996
1532202939.356,-84.961,57.129,40.527,-90.820,19.043
1532202939.360,-76.660,56.641,33.691,-80.566,45.410
1532202939.364,-59.570,48.828,28.320,-69.824,40.527
1532202939.368,-41.504,38.086,36.621,-51.270,41.504
1532202939.372,-41.016,44.434,41.992,-57.617,24.414
1532202939.376,-35.156,47.363,37.109,-53.223,-5.859
1532202939.380,-29.785,32.715,30.273,-34.668,15.625
1532202939.384,-18.555,27.344,24.414,-28.320,37.598
1532202939.388,-12.207,30.273,23.926,-20.508,43.945
1532202939.391,-3.906,19.531,35.156,-19.043,-3.906
1532202939.395,8.301,20.508,39.551,-10.742,-14.648
1532202939.399,9.277,27.832,31.738,2.930,19.531
1532202939.403,11.230,25.879,23.438,8.301,9.277
1532202939.407,17.090,17.090,26.367,17.578,1.465
1532202939.411,30.762,10.742,30.762,30.273,0.488
1532202939.415,34.668,13.672,32.715,35.156,29.297
1532202939.419,38.086,21.484,31.250,36.621,46.875
1532202939.423,44.434,29.785,27.344,43.457,15.137
1532202939.427,45.410,17.578,25.879,49.805,8.301
1532202939.431,50.293,11.230,30.273,55.664,21.484
1532202939.434,58.594,15.625,25.391,48.828,-19.043
1532202939.438,56.152,19.043,20.996,47.852,-25.391
1532202939.442,51.758,35.156,27.344,57.617,25.391
1532202939.446,56.641,40.039,26.367,62.500,32.227
1532202939.450,60.059,28.809,24.414,64.941,24.902
1532202939.454,57.617,23.926,30.762,66.895,17.578
1532202939.458,55.176,21.973,32.227,65.918,-3.418
1532202939.462,58.594,19.043,34.180,64.941,22.461
1532202939.466,66.895,13.672,37.109,72.266,31.738
1532202939.470,67.383,11.719,38.574,74.219,6.348
1532202939.473,59.570,24.902,40.039,65.430,-1.465
1532202939.477,61.523,33.203,35.156,61.035,23.438
1532202939.481,65.918,41.504,33.691,70.312,45.410
1532202939.485,67.871,33.203,33.203,73.242,26.855
1532202939.489,68.848,20.020,27.344,71.777,-3.418
1532202939.493,69.336,24.902,25.391,71.777,1.953
1532202939.497,70.312,21.973,24.414,65.918,44.922
1532202939.501,61.523,25.879,28.320,64.453,48.828
1532202939.505,62.988,21.484,34.180,62.500,19.531
1532202939.509,63.965,23.926,33.203,67.871,13.672
1532202939.513,58.105,24.414,30.273,73.242,18.555
1532202939.516,58.105,20.996,30.762,67.871,22.461
1532202939.520,50.293,37.598,38.086,61.523,15.137
1532202939.524,50.781,34.668,41.992,63.965,-2.441
1532202939.528,58.105,16.113,41.992,68.359,11.719
1532202939.532,61.523,20.508,37.109,60.547,6.348
1532202939.536,67.383,27.832,39.551,57.617,-12.695
1532202939.540,66.895,18.066,35.156,71.777,8.789
1532202939.544,68.359,25.879,19.531,73.730,11.230
1532202939.548,64.453,33.691,28.320,67.383,35.156
1532202939.552,50.781,24.414,37.598,62.012,33.203
1532202939.556,48.828,28.320,28.320,55.176,13.672
1532202939.559,46.875,42.480,28.809,55.664,43.457
1532202939.563,48.828,36.621,37.109,56.641,56.152
1532202939.567,56.152,28.320,41.016,58.105,41.504
1532202939.571,56.641,29.297,37.598,51.270,-3.906
1532202939.575,61.523,28.809,28.320,44.922,-35.156
1532202939.579,57.129,31.738,25.879,47.363,33.691
1532202939.583,43.945,40.039,32.715,49.316,80.078
1532202939.587,42.480,35.156,34.180,46.875,41.504
1532202939.591,48.828,30.273,32.715,44.922,7.812
1532202939.595,50.781,19.531,35.156,51.270,17.090
1532202939.598,45.898,16.113,29.785,53.223,45.898
1532202939.602,40.527,37.109,20.996,46.387,33.691
1532202939.606,44.434,40.527,23.926,48.828,17.090
1532202939.610,46.387,33.691,33.691,50.293,28.809
1532202939.614,41.992,28.809,42.480,46.875,20.996
1532202939.618,46.387,37.109,36.621,46.387,21.973
1532202939.622,40.527,36.133,26.855,49.316,44.434
1532202939.626,37.598,29.785,26.367,54.199,54.199
1532202939.630,37.598,26.855,31.738,48.828,37.598
1532202939.634,32.227,28.809,31.738,42.969,26.855
1532202939.638,38.574,24.902,35.156,45.410,12.695
1532202939.641,46.875,10.254,36.621,46.387,3.906
1532202939.645,41.504,24.902,29.785,41.504,20.508
1532202939.649,37.109,46.387,23.926,41.016,65.918
1532202939.653,40.039,42.480,15.625,43.457,36.621
1532202939.657,41.016,29.785,22.949,39.551,5.371
1532202939.661,44.922,24.902,35.156,40.527,27.832
1532202939.665,45.410,28.809,37.598,42.969,34.668
1532202939.669,44.434,32.715,35.156,44.922,47.363
1532202939.673,41.992,36.621,31.250,38.574,15.625
1532202939.677,34.668,42.480,34.180,31.250,-1.953
1532202939.681,36.133,27.344,33.691,40.527,37.109
1532202939.684,29.297,16.602,29.297,35.645,41.504
1532202939.688,38.574,24.414,29.785,37.109,31.250
1532202939.692,42.480,29.297,32.227,46.387,24.902
1532202939.696,30.762,33.203,35.156,44.434,34.180
1532202939.700,37.598,36.133,30.762,43.457,35.156
1532202939.704,33.691,31.250,29.785,41.992,28.809
1532202939.708,35.645,27.832,37.109,43.945,22.949
1532202939.712,46.387,34.668,32.715,42.969,11.719
1532202939.716,46.387,29.785,28.320,41.504,7.324
1532202939.720,45.410,29.297,26.855,41.016,24.902
1532202939.723,41.992,25.391,33.203,41.016,15.625
1532202939.727,43.457,20.508,41.016,44.922,15.137
1532202939.731,47.852,33.691,36.133,40.039,26.855
1532202939.735,49.805,38.574,37.109,33.203,23.926
1532202939.739,58.594,31.738,37.598,39.062,20.508
1532202939.743,58.105,29.297,33.203,47.363,21.973
1532202939.747,39.551,33.203,35.645,45.898,38.574
1532202939.751,37.598,30.762,41.504,51.758,34.180
1532202939.755,42.969,31.250,38.574,55.176,11.230
1532202939.759,37.598,27.344,33.203,52.734,-7.324
1532202939.763,26.367,18.555,40.039,53.223,23.926
1532202939.766,28.320,27.832,37.109,51.758,56.641
1532202939.770,32.227,28.320,25.391,47.363,39.062
1532202939.774,34.180,31.250,36.621,47.852,28.809
1532202939.778,37.109,31.738,44.434,47.363,23.926
1532202939.782,37.598,20.996,45.898,43.945,27.344
1532202939.786,40.039,27.344,47.363,45.410,37.109
1532202939.790,39.551,37.109,38.086,46.387,15.625
1532202939.794,41.016,32.227,27.832,41.992,-8.301
1532202939.798,32.715,40.527,29.785,33.691,22.461
1532202939.802,27.832,46.387,32.715,31.250,20.508
1532202939.805,37.598,35.156,31.738,35.156,3.906
1532202939.809,43.457,35.156,37.598,37.109,18.555
1532202939.813,46.875,38.574,40.527,36.133,16.113
1532202939.817,45.898,38.086,33.691,36.133,26.855
1532202939.821,41.016,36.621,33.691,41.504,20.508
1532202939.825,33.691,33.691,40.527,44.434,35.156
1532202939.829,27.832,33.691,42.480,39.551,55.664
1532202939.833,31.250,38.086,44.434,36.621,45.898
1532202939.837,36.621,44.434,45.898,35.156,58.105
1532202939.841,27.344,47.852,34.180,21.484,45.410
1532202939.845,20.996,42.969,34.668,13.184,30.273
1532202939.848,19.043,39.551,52.246,15.137,53.711
1532202939.852,1.465,43.457,49.316,-3.418,27.344
1532202939.856,-16.113,45.410,45.898,-26.855,-4.395
1532202939.860,-19.043,46.387,43.945,-23.438,17.090
1532202939.864,-19.531,50.293,42.969,-27.344,35.645
1532202939.868,-33.691,60.547,40.527,-42.480,51.758
1532202939.872,-31.738,62.500,45.410,-32.715,23.438
1532202939.876,-33.203,52.734,60.059,-33.691,20.996
1532202939.880,-47.363,48.340,58.105,-50.781,46.875
1532202939.884,-61.035,45.898,63.965,-60.059,54.199
1532202939.888,-76.660,53.223,77.148,-69.336,30.273
1532202939.891,-75.195,58.105,78.613,-80.078,13.672
1532202939.895,-70.312,57.617,71.777,-80.566,42.969
1532202939.899,-62.500,62.988,62.988,-62.500,63.477
1532202939.903,-51.758,60.059,54.688,-52.734,43.945
1532202939.907,-41.992,49.805,51.270,-48.340,41.992
1532202939.911,-37.598,54.688,59.570,-43.457,42.969
1532202939.915,-41.992,51.758,56.152,-47.363,22.461
1532202939.919,-40.527,38.574,41.016,-36.133,13.184
1532202939.923,-29.297,32.227,41.016,-18.555,4.395
1532202939.927,-12.695,41.992,48.340,-12.695,24.902
1532202939.930,-2.441,35.645,37.598,-9.277,36.133
1532202939.934,5.859,23.438,31.738,-0.977,27.344
1532202939.938,16.113,33.203,26.855,14.648,24.902
1532202939.942,25.879,37.598,19.043,29.785,6.348
1532202939.946,32.715,31.250,27.832,37.598,32.715
1532202939.950,40.039,20.996,34.668,45.898,48.340
1532202939.954,56.152,14.160,33.691,53.223,14.160
1532202939.958,63.965,14.648,35.156,57.129,35.156
1532202939.962,61.523,7.324,35.156,67.871,66.406
1532202939.966,56.152,6.348,24.902,66.895,39.062
1532202939.970,53.711,5.371,24.902,62.012,37.109
1532202939.973,60.059,7.812,27.832,67.383,30.762
1532202939.977,63.477,23.926,24.414,72.266,23.438
1532202939.981,66.406,25.879,21.973,74.219,45.898
1532202939.985,86.426,16.113,24.902,81.543,40.527
1532202939.989,86.914,7.812,29.297,81.543,24.414
1532202939.993,67.383,14.648,25.391,74.219,14.160
1532202939.997,60.547,18.555,11.719,74.707,26.855
1532202940.001,66.406,17.578,21.484,77.148,40.527
1532202940.005,70.801,21.484,40.527,79.590,42.480
1532202940.009,65.918,22.949,32.227,79.590,24.414
1532202940.013,72.754,24.902,26.367,81.543,18.066
1532202940.016,76.172,23.438,27.344,85.449,47.363
1532202940.020,66.406,18.555,25.879,82.520,44.434
1532202940.024,69.824,11.719,26.855,79.590,13.672
1532202940.028,71.777,14.160,25.879,81.055,28.320
1532202940.032,65.918,24.414,20.020,72.266,33.691
1532202940.036,69.824,21.484,20.996,65.918,51.758
1532202940.040,73.242,4.883,27.344,74.219,46.875
1532202940.044,70.312,11.719,29.297,78.613,3.906
1532202940.048,73.242,42.969,28.320,79.590,28.320
1532202940.052,69.336,33.203,27.832,74.219,48.340
1532202940.055,70.801,17.090,24.414,77.148,33.691
1532202940.059,72.754,26.367,23.438,84.961,12.695
1532202940.063,59.082,27.832,26.367,82.031,28.320
1532202940.067,56.641,26.855,27.344,80.566,61.035
1532202940.071,63.965,27.344,28.320,81.055,41.016
1532202940.075,65.430,31.738,36.133,77.637,21.484
1532202940.079,61.523,40.039,32.715,67.871,43.945
1532202940.083,58.594,27.344,30.273,65.430,28.320
1532202940.087,62.500,6.836,34.668,70.312,12.207
1532202940.091,63.965,5.371,26.367,65.430,-7.324
1532202940.095,52.246,28.809,30.762,60.059,-4.395
1532202940.098,52.246,42.480,35.156,61.523,19.043
1532202940.102,54.688,29.785,30.273,61.035,26.855
1532202940.106,62.500,21.484,29.785,64.453,45.410
1532202940.110,66.406,29.297,33.691,64.453,49.805
1532202940.114,57.129,36.133,33.203,56.641,33.691
1532202940.118,47.852,33.203,24.414,60.059,20.020
1532202940.122,41.992,33.203,22.949,61.523,27.832
1532202940.126,44.922,25.391,28.320,56.641,22.949
1532202940.130,53.711,23.438,37.598,64.453,45.410
1532202940.134,54.688,26.367,35.645,57.129,-2.441
1532202940.137,48.340,18.555,23.438,45.898,-24.414
1532202940.141,47.363,26.367,34.668,60.059,29.785
1532202940.145,56.641,34.180,48.828,70.801,30.762
1532202940.149,59.570,35.156,45.898,66.406,45.898
1532202940.153,49.805,40.527,37.109,47.852,26.855
1532202940.157,56.641,34.668,25.879,41.992,-1.465
1532202940.161,67.383,27.832,17.090,51.270,24.902
1532202940.165,61.035,42.969,15.137,47.852,50.781
1532202940.169,57.129,49.805,13.184,41.016,42.969
1532202940.173,65.430,49.316,12.695,46.875,1.953
1532202940.177,63.477,42.480,15.625,45.898,-6.348
1532202940.180,54.688,40.527,14.648,41.016,20.996
1532202940.184,59.082,51.270,12.695,46.387,40.039
1532202940.188,66.406,61.035,5.371,47.852,25.391
1532202940.192,70.801,55.176,9.277,45.898,-21.973
1532202940.196,72.754,38.086,23.926,48.828,-18.066
1532202940.200,71.777,36.133,24.414,54.199,34.180
1532202940.204,62.500,43.457,25.391,54.688,23.926
1532202940.208,53.711,49.316,32.227,50.781,21.973
1532202940.212,51.270,55.664,24.414,47.363,17.090
1532202940.216,55.176,50.293,15.137,51.758,8.301
1532202940.220,65.430,37.598,20.508,53.223,13.184
1532202940.223,65.430,33.691,22.949,57.129,-6.836
1532202940.227,64.453,38.086,23.438,62.012,15.625
1532202940.231,64.453,36.133,31.250,59.570,26.367
1532202940.235,66.895,43.457,33.203,59.570,2.930
1532202940.239,65.430,52.734,31.738,56.152,-7.324
1532202940.243,60.547,42.480,32.715,55.176,2.930
1532202940.247,57.129,29.297,30.762,56.641,4.395
1532202940.251,55.176,36.621,34.180,48.828,20.996
1532202940.255,54.688,50.781,37.598,46.387,21.484
1532202940.259,48.340,39.551,36.133,48.340,27.832
1532202940.262,44.434,28.320,32.715,41.504,53.223
1532202940.266,48.828,38.086,31.738,37.598,35.645
1532202940.270,52.734,38.574,30.273,42.969,16.602
1532202940.274,50.781,37.109,28.320,37.598,-42.480
1532202940.278,47.363,39.062,31.738,40.039,-43.457
1532202940.282,47.363,42.480,31.250,45.898,21.973
1532202940.286,46.875,41.016,34.180,44.922,43.457
1532202940.290,42.969,34.180,39.062,47.852,49.316
1532202940.294,40.039,30.273,37.598,44.922,36.621
1532202940.298,42.480,32.227,34.180,50.293,34.180
1532202940.302,51.758,39.062,37.598,55.664,50.781
1532202940.305,49.316,39.062,41.504,55.664,38.574
1532202940.309,43.945,40.527,39.551,48.340,31.738
1532202940.313,33.691,46.875,46.387,38.574,33.203
1532202940.317,16.113,46.875,48.828,25.391,19.531
1532202940.321,3.418,38.086,35.645,6.348,18.555
1532202940.325,-4.883,36.133,35.156,-3.418,12.207
1532202940.329,-7.324,44.434,40.527,-10.742,25.879
1532202940.333,-14.648,50.293,42.969,-24.902,2.930
1532202940.337,-22.949,52.734,47.852,-37.598,-43.457
1532202940.341,-28.320,48.828,52.246,-42.969,11.230
1532202940.345,-34.180,42.480,62.012,-48.828,52.246
1532202940.348,-57.617,48.828,77.637,-59.570,60.547
1532202940.352,-80.078,50.781,83.008,-79.102,54.688
1532202940.356,-93.262,38.574,79.590,-95.215,33.691
1532202940.360,-104.980,48.340,75.195,-102.539,41.504
1532202940.364,-103.027,64.941,69.336,-96.680,69.824
1532202940.368,-107.422,56.641,65.918,-95.215,66.895
1532202940.372,-113.770,51.270,72.266,-102.051,3.906
1532202940.376,-101.074,50.781,78.613,-99.609,-11.230
1532202940.380,-97.168,36.133,79.590,-80.566,34.180
1532202940.384,-101.074,28.809,80.566,-63.477,61.523
1532202940.387,-82.031,32.227,72.266,-50.781,61.523
1532202940.391,-69.336,21.973,72.754,-39.062,41.504
1532202940.395,-55.176,15.137,77.148,-27.344,37.598
1532202940.399,-46.387,21.484,69.824,-16.113,74.707
1532202940.403,-44.434,18.555,62.500,-5.859,48.340
1532202940.407,-30.762,7.324,56.152,10.742,45.410
1532202940.411,-14.648,0.000,50.293,21.484,54.688
1532202940.415,-4.395,7.324,50.293,24.414,18.555
1532202940.419,1.465,7.812,45.410,33.203,22.949
1532202940.423,8.301,-2.930,39.551,32.227,20.508
1532202940.427,20.020,5.859,41.504,36.133,48.828
1532202940.430,27.344,10.742,41.504,43.945,40.527
1532202940.434,37.109,-6.348,39.551,49.316,15.625
1532202940.438,47.852,-11.719,41.992,57.129,15.137
1532202940.442,49.316,-4.395,36.133,64.941,15.137
1532202940.446,47.852,11.719,27.344,76.660,46.387
1532202940.450,60.547,10.742,31.738,79.590,47.363
1532202940.454,73.730,3.418,35.645,76.660,6.348
1532202940.458,63.477,4.395,33.203,82.031,10.742
1532202940.462,68.359,4.395,37.109,93.262,44.434
1532202940.466,75.684,13.184,35.156,93.750,23.438
1532202940.470,68.848,2.441,30.762,88.867,19.043
1532202940.473,70.801,-4.883,37.598,84.473,15.625
1532202940.477,78.613,9.277,38.574,83.984,16.113
1532202940.481,78.613,15.137,32.715,88.867,26.367
1532202940.485,81.055,16.113,23.438,85.449,26.367
1532202940.489,87.402,14.160,20.996,82.031,-5.371
1532202940.493,95.215,12.207,28.809,80.566,-3.906
1532202940.497,102.051,13.184,30.762,81.543,38.086
1532202940.501,95.703,13.672,23.438,83.984,40.527
1532202940.505,87.891,20.508,27.344,87.891,34.668
1532202940.509,83.008,18.555,40.039,95.215,12.695
1532202940.512,75.195,15.137,33.203,99.609,28.809
1532202940.516,69.824,8.301,15.625,98.633,10.742
1532202940.520,62.988,-2.930,22.949,96.680,-4.883
1532202940.524,65.430,12.207,41.504,91.309,22.949
1532202940.528,72.754,24.414,41.992,90.820,62.012
1532202940.532,67.383,27.344,40.039,90.332,83.496
1532202940.536,61.523,25.879,32.715,80.078,58.594
1532202940.540,64.941,17.090,30.273,77.148,40.527
1532202940.544,58.594,20.508,32.715,78.613,34.180
1532202940.548,55.176,16.113,28.809,77.637,44.922
1532202940.552,61.523,9.766,28.320,70.801,36.133
1532202940.555,62.988,24.902,34.668,61.523,-31.250
1532202940.559,64.453,30.762,34.180,70.801,0.977
1532202940.563,57.617,28.809,26.855,73.242,51.270
1532202940.567,58.105,22.949,31.250,67.871,22.949
1532202940.571,65.918,8.301,37.598,68.848,19.043
1532202940.575,64.453,9.277,39.551,69.824,47.852
1532202940.579,58.105,30.762,38.574,65.430,67.871
1532202940.583,39.062,38.086,35.156,55.664,60.547
1532202940.587,37.109,32.715,27.344,53.711,54.688
1532202940.591,53.223,33.691,28.320,55.664,29.297
1532202940.594,54.688,28.809,35.645,57.617,8.301
1532202940.598,48.828,25.391,33.691,58.105,38.574
1532202940.602,49.805,28.809,34.668,52.246,40.527
1532202940.606,42.969,27.832,37.109,53.223,27.344
1532202940.610,40.039,20.996,32.715,61.523,32.227
1532202940.614,63.477,13.672,37.598,66.895,18.555
1532202940.618,72.266,16.113,35.645,57.617,13.672
1532202940.622,51.758,32.715,24.414,46.875,38.574
1532202940.626,44.434,52.246,21.484,47.852,40.527
1532202940.630,49.805,55.664,18.066,47.852,41.016
1532202940.634,59.082,51.758,20.508,46.875,49.316
1532202940.637,64.453,42.969,23.438,49.805,65.918
1532202940.641,62.988,43.457,21.973,42.969,39.551
1532202940.645,63.477,48.340,19.531,34.668,44.434
1532202940.649,60.059,46.875,20.996,43.457,50.293
1532202940.653,58.594,46.875,18.555,52.734,10.254
1532202940.657,60.059,44.922,19.043,55.664,15.137
1532202940.661,61.035,39.062,19.531,54.199,18.066
1532202940.665,60.059,29.785,12.695,46.875,50.293
1532202940.669,58.105,33.203,22.461,50.781,32.227
1532202940.673,61.035,36.133,34.180,48.340,-11.719
1532202940.677,58.105,48.828,20.508,42.480,-4.883
1532202940.680,52.734,49.805,18.555,42.480,19.043
1532202940.684,56.641,34.180,26.367,45.898,15.137
1532202940.688,61.523,39.551,27.832,48.828,10.254
1532202940.692,58.105,41.016,36.621,44.434,-11.719
1532202940.696,49.316,41.992,37.109,42.480,-3.906
1532202940.700,50.293,42.480,30.273,48.828,9.766
1532202940.704,46.875,29.785,25.391,47.363,3.906
1532202940.708,46.875,27.344,22.949,46.387,25.391
1532202940.712,58.105,38.086,25.879,51.758,25.879
1532202940.716,61.523,34.180,20.020,44.922,18.066
1532202940.719,58.105,35.645,24.414,44.434,26.855
1532202940.723,53.223,34.668,33.691,47.363,29.785
1532202940.727,51.758,28.809,30.762,46.875,46.387
1532202940.731,47.852,41.504,33.203,47.363,42.969
1532202940.735,45.898,41.016,30.273,39.551,5.371
1532202940.739,41.504,35.645,31.250,36.621,19.531
1532202940.743,38.086,35.645,34.668,41.016,47.363
1532202940.747,46.387,40.039,26.855,50.781,57.617
1532202940.751,52.734,38.086,22.949,49.316,46.387
1532202940.755,46.875,28.809,36.621,37.109,4.883
1532202940.759,48.828,32.715,37.598,41.016,4.883
1532202940.762,58.594,34.668,25.879,45.898,55.176
1532202940.766,59.082,38.574,33.203,53.223,72.266
1532202940.770,51.270,41.016,46.387,54.688,38.574
1532202940.774,45.410,28.809,41.016,46.387,40.527
1532202940.778,44.922,22.949,40.527,47.852,51.270
1532202940.782,40.039,30.273,41.992,47.852,33.691
1532202940.786,37.109,29.297,37.598,45.410,20.996
1532202940.790,42.480,24.414,34.180,47.852,6.348
1532202940.794,48.340,29.785,35.645,45.898,-11.719
1532202940.798,40.527,28.320,35.156,40.527,23.926
1532202940.802,38.086,30.273,34.180,47.852,61.523
1532202940.805,44.434,40.527,36.133,45.898,23.926
1532202940.809,33.691,38.574,35.645,40.039,8.789
1532202940.813,32.715,37.598,40.527,41.016,21.973
1532202940.817,41.992,30.762,39.062,36.133,35.645
1532202940.821,34.180,10.742,34.668,37.598,23.438
1532202940.825,27.832,7.812,37.109,41.504,7.812
1532202940.829,28.320,33.691,31.250,38.086,39.062
1532202940.833,35.156,48.828,28.320,37.109,37.109
1532202940.837,45.898,39.062,36.133,39.062,4.883
1532202940.841,36.621,30.762,40.039,40.039,20.996
1532202940.844,27.832,31.738,34.668,39.062,39.551
1532202940.848,31.738,28.809,34.668,37.598,44.434
1532202940.852,34.668,32.227,41.504,34.180,16.113
1532202940.856,36.133,41.016,39.551,31.250,17.578
1532202940.860,44.922,41.992,25.879,43.457,43.457
1532202940.864,48.340,37.598,25.879,56.152,31.738
1532202940.868,32.715,30.762,42.480,43.457,26.367
1532202940.872,26.367,17.578,48.828,31.250,3.418
1532202940.876,22.949,12.207,51.270,28.320,4.395
1532202940.880,19.531,22.461,51.758,23.926,57.617
1532202940.884,16.602,20.996,50.781,21.484,50.781
1532202940.887,7.324,12.207,53.711,26.855,8.789
1532202940.891,4.883,10.742,52.734,30.273,2.930
1532202940.895,0.000,16.113,47.363,20.020,-2.441
1532202940.899,0.000,19.531,46.387,23.438,28.809
1532202940.903,10.742,15.137,48.828,30.273,17.090
1532202940.907,11.230,9.766,45.410,29.297,-14.160
1532202940.911,6.836,14.648,45.898,25.391,3.418
1532202940.915,11.230,16.113,43.457,30.273,-8.301
1532202940.919,9.277,12.695,38.574,26.855,20.996
1532202940.923,3.418,20.020,40.527,23.438,20.996
1532202940.926,8.301,29.785,41.016,29.785,16.602
1532202940.930,13.184,29.785,44.922,27.832,17.578
1532202940.934,11.719,10.254,53.223,33.691,-9.766
1532202940.938,11.719,1.953,46.875,38.574,16.602
1532202940.942,18.066,22.949,40.527,35.156,42.480
1532202940.946,27.832,31.250,41.016,34.180,49.805
1532202940.950,28.809,25.391,47.852,33.691,22.461
1532202940.954,25.391,20.020,42.969,34.668,3.906
1532202940.958,22.949,23.438,33.691,39.062,14.160
1532202940.962,24.414,26.855,38.086,42.969,11.719
1532202940.966,25.391,22.461,43.945,42.969,19.043
1532202940.969,29.785,27.832,46.387,41.016,15.625
1532202940.973,30.762,20.020,48.340,37.109,-8.789
1532202940.977,36.621,17.578,42.969,44.434,13.672
1532202940.981,49.805,28.809,37.598,53.711,62.500
1532202940.985,33.691,17.090,45.898,42.969,56.641
1532202940.989,14.160,20.020,43.457,39.551,48.828
1532202940.993,24.414,30.273,38.574,48.828,23.926
1532202940.997,30.762,33.691,46.875,47.852,39.062
1532202941.001,27.344,33.203,47.363,42.480,40.039
1532202941.005,34.180,34.180,37.109,41.992,43.457
1532202941.009,41.992,24.414,37.109,45.410,46.875
1532202941.012,39.551,18.555,41.504,45.410,37.598
1532202941.016,38.086,32.715,42.480,40.527,20.996
1532202941.020,33.203,30.273,40.527,44.434,-6.836
1532202941.024,33.691,27.832,42.480,48.340,0.977
1532202941.028,40.527,32.715,40.039,46.387,34.180
1532202941.032,44.922,31.738,37.109,42.480,52.734
1532202941.036,46.387,31.250,46.387,37.598,11.230
1532202941.040,36.621,36.621,43.945,36.621,25.879
1532202941.044,34.180,40.527,31.250,40.039,53.711
1532202941.048,41.016,35.156,34.180,42.480,58.105
1532202941.051,38.086,32.227,47.852,42.969,64.941
1532202941.055,37.109,23.926,46.387,44.922,49.316
1532202941.059,41.992,24.902,36.133,45.410,30.762
1532202941.063,33.691,31.250,35.645,41.504,52.246
1532202941.067,30.762,34.180,44.922,42.480,67.871
1532202941.071,36.621,26.855,52.734,41.016,29.785
1532202941.075,34.668,23.438,48.340,34.668,-14.648
1532202941.079,31.738,25.879,41.992,37.109,8.789
1532202941.083,32.227,28.320,37.598,45.898,22.949
1532202941.087,39.062,41.992,37.598,55.176,21.973
1532202941.091,36.621,36.621,42.969,50.781,21.484
1532202941.094,28.809,19.531,46.387,41.504,26.367
1532202941.098,31.250,26.855,40.527,46.387,58.594
1532202941.102,37.109,38.574,33.691,50.293,47.852
1532202941.106,42.480,31.250,38.574,50.293,12.695
1532202941.110,36.133,29.785,45.410,46.875,-16.602
1532202941.114,25.391,35.645,43.945,40.039,-2.930
1532202941.118,25.879,33.691,32.715,36.133,42.480
1532202941.122,33.203,37.109,27.344,40.039,28.320
1532202941.126,37.598,31.738,42.969,42.969,-3.418
1532202941.130,33.203,25.879,52.734,39.062,2.441
1532202941.134,34.668,36.621,48.828,42.480,24.414
1532202941.137,44.434,35.645,47.852,48.340,31.250
1532202941.141,45.410,23.926,43.945,51.758,26.367
1532202941.145,46.875,26.367,45.410,56.641,32.715
1532202941.149,45.410,25.391,47.363,54.199,20.508
1532202941.153,37.109,33.691,44.922,45.410,2.441
1532202941.157,35.156,51.758,44.922,47.852,19.531
1532202941.161,33.691,45.898,43.457,47.363,41.992
1532202941.165,33.691,35.645,47.852,36.133,41.016
1532202941.169,35.645,37.109,43.457,36.133,18.066
1532202941.173,37.109,41.504,29.785,37.109,-4.883
1532202941.176,41.016,40.039,30.273,37.109,-0.488
1532202941.180,39.062,31.738,43.457,37.598,33.203
1532202941.184,39.062,24.414,56.152,39.062,64.453
1532202941.188,41.504,37.598,57.617,42.969,34.180
1532202941.192,35.645,56.152,40.527,36.133,9.277
1532202941.196,35.645,41.992,30.762,35.156,62.012
1532202941.200,39.551,22.461,41.016,39.551,83.496
1532202941.204,37.109,31.250,43.457,41.992,39.551
1532202941.208,33.203,34.668,43.945,41.504,31.738
1532202941.212,35.156,35.645,48.340,38.086,28.809
1532202941.216,35.156,46.387,40.039,27.832,22.949
1532202941.219,36.133,43.945,41.016,27.832,37.109
1532202941.223,33.691,25.391,43.945,32.227,32.227
1532202941.227,34.668,28.809,40.527,29.785,33.691
1532202941.231,36.621,40.527,41.504,31.250,44.434
1532202941.235,36.133,44.434,42.480,30.273,55.664
1532202941.239,39.551,40.039,42.480,23.926,31.738
1532202941.243,43.945,41.504,43.945,20.020,10.254
1532202941.247,49.316,38.086,48.340,26.855,21.973
1532202941.251,50.781,20.508,43.457,38.086,35.645
1532202941.255,37.598,30.273,38.574,36.621,20.508
1532202941.258,27.344,30.273,34.180,38.574,12.695
1532202941.262,25.391,23.926,36.621,42.480,34.668
1532202941.266,22.461,40.039,50.293,41.504,58.594
1532202941.270,15.625,39.062,54.199,41.992,38.086
1532202941.274,11.230,27.832,59.082,51.758,9.766
1532202941.278,22.949,30.273,54.199,60.547,33.691
1532202941.282,24.414,31.250,45.410,41.504,77.148
1532202941.286,14.648,29.297,45.898,18.555,68.848
1532202941.290,14.160,29.297,39.551,15.625,42.480
1532202941.294,21.484,34.180,34.180,21.484,42.480
1532202941.298,32.715,45.898,35.156,24.414,19.531
1532202941.301,31.250,47.852,30.762,20.020,26.855
1532202941.305,28.809,52.734,20.996,8.789,39.062
1532202941.309,26.367,56.641,16.602,7.324,41.992
1532202941.313,23.438,56.641,24.414,6.348,34.180
1532202941.317,20.020,55.176,29.297,4.883,24.414
1532202941.321,29.785,42.969,20.508,15.625,47.852
1532202941.325,39.551,42.969,19.043,26.367,38.574
1532202941.329,35.645,54.199,22.949,26.367,27.832
1532202941.333,40.039,55.176,15.625,17.090,23.926
1532202941.337,37.598,45.898,21.973,17.578,19.531
1532202941.341,25.391,44.922,34.180,28.809,28.809
1532202941.344,24.414,53.711,36.621,32.227,15.625
1532202941.348,38.574,50.781,33.691,37.109,28.320
1532202941.352,47.363,41.016,30.273,36.621,25.391
1532202941.356,46.387,38.574,24.414,33.691,20.020
1532202941.360,54.199,41.016,20.996,44.922,57.129
1532202941.364,52.734,34.180,23.438,45.898,62.012
1532202941.368,46.875,23.926,25.391,46.875,28.809
1532202941.372,48.828,26.367,26.855,40.039,18.555
1532202941.376,48.828,38.574,23.926,33.203,32.715
1532202941.380,47.852,41.016,35.156,37.598,41.992
1532202941.383,44.922,28.320,43.457,38.574,88.867
1532202941.387,44.434,29.297,41.992,43.945,71.777
1532202941.391,49.805,40.527,33.691,51.270,38.086
1532202941.395,47.852,38.574,25.391,44.922,29.785
1532202941.399,45.410,35.645,32.227,41.992,36.133
1532202941.403,52.246,37.598,26.367,49.316,59.082
1532202941.407,53.711,41.016,30.762,49.316,49.316
1532202941.411,48.828,35.156,34.180,49.805,46.387
1532202941.415,46.875,34.180,25.391,46.875,62.500
1532202941.419,51.758,37.598,31.738,45.898,65.918
1532202941.423,56.641,32.227,39.551,49.316,25.391
1532202941.426,55.176,32.715,38.086,47.363,34.180
1532202941.430,54.199,34.668,31.250,51.758,64.453
1532202941.434,46.875,27.832,31.250,47.852,68.359
1532202941.438,45.410,22.949,40.527,39.551,48.340
1532202941.442,52.734,32.227,27.344,39.062,13.672
1532202941.446,56.152,41.504,22.949,41.504,4.883
1532202941.450,56.641,36.133,35.645,41.992,24.414
1532202941.454,53.223,30.273,34.180,32.227,-14.648
1532202941.458,59.570,33.691,38.086,42.969,-22.461
1532202941.462,63.477,39.551,41.504,57.129,25.879
1532202941.466,36.621,46.875,38.574,25.879,41.504
1532202941.469,19.043,45.410,38.574,12.695,24.414
1532202941.473,25.879,39.551,37.598,20.508,29.297
1532202941.477,24.414,39.551,35.156,13.184,50.293
1532202941.481,21.484,40.527,31.250,11.719,29.785
1532202941.485,16.113,46.387,14.648,5.371,14.648
1532202941.489,12.695,47.363,13.672,0.977,16.602
1532202941.493,10.742,50.781,29.297,-9.766,8.789
1532202941.497,10.254,49.805,28.320,-14.160,11.719
1532202941.501,14.648,44.922,30.273,2.930,34.180
1532202941.505,18.066,53.223,40.039,11.230,21.973
1532202941.508,22.461,39.062,30.273,17.578,25.879
1532202941.512,17.090,26.855,25.391,15.137,53.223
1532202941.516,18.066,37.598,32.715,15.625,51.270
1532202941.520,32.227,41.992,33.203,20.996,29.297
1532202941.524,41.504,33.203,46.387,23.926,11.230
1532202941.528,45.898,15.137,42.480,28.320,14.648
1532202941.532,34.180,21.973,27.832,28.809,27.832
1532202941.536,27.832,51.758,26.855,31.250,44.434
1532202941.540,30.762,43.945,35.645,33.203,5.859
1532202941.544,25.879,38.086,33.203,31.738,8.789
1532202941.548,24.902,47.852,26.367,30.273,48.340
1532202941.551,27.344,38.086,35.156,30.273,21.973
1532202941.555,34.180,38.574,40.039,30.762,-3.418
1532202941.559,33.691,43.945,36.133,33.691,11.719
1532202941.563,31.738,28.320,35.156,38.574,28.809
1532202941.567,39.551,15.137,30.273,42.480,21.484
1532202941.571,41.016,24.414,37.109,42.480,26.855
1532202941.575,45.410,26.855,44.922,38.574,6.836
1532202941.579,51.270,39.551,38.574,41.504,15.625
1532202941.583,42.480,47.363,39.062,46.387,42.969
1532202941.587,39.062,41.504,40.039,44.922,31.738
1532202941.590,42.969,40.039,37.109,42.969,5.371
1532202941.594,33.203,34.180,31.738,40.527,-4.883
1532202941.598,30.762,26.855,34.180,38.086,27.832
1532202941.602,32.715,27.344,44.434,38.574,47.363
1532202941.606,22.949,32.715,41.992,36.133,30.762
1532202941.610,25.879,28.320,38.574,39.551,13.184
1532202941.614,36.621,27.344,39.062,41.992,24.902
1532202941.618,36.621,36.133,28.809,38.574,37.109
1532202941.622,35.645,31.738,32.227,49.316,-2.930
1532202941.626,34.668,24.414,42.480,51.270,-13.672
1532202941.630,39.062,26.367,25.879,55.176,36.133
1532202941.633,56.152,22.461,30.273,58.105,29.297
1532202941.637,51.758,22.949,49.316,34.668,-8.789
1532202941.641,32.227,39.062,47.363,20.020,3.906
1532202941.645,23.926,47.852,31.738,17.090,27.832
1532202941.649,30.762,45.410,27.832,22.949,39.551
1532202941.653,39.062,58.105,29.785,23.926,26.855
1532202941.657,37.598,55.664,21.484,24.414,13.672
1532202941.661,34.180,35.645,18.555,23.438,29.297
1532202941.665,25.879,45.410,23.926,13.672,46.875
1532202941.669,22.949,61.035,28.320,11.230,61.035
1532202941.673,36.133,60.547,26.855,11.719,38.086
1532202941.676,48.340,52.246,22.461,20.996,33.691
1532202941.680,36.621,51.270,25.391,27.344,64.941
1532202941.684,31.738,61.035,31.250,26.855,67.871
1532202941.688,37.598,55.664,28.320,31.250,47.363
1532202941.692,37.109,48.340,30.762,29.297,19.531
1532202941.696,42.969,43.457,26.855,29.297,5.371
1532202941.700,53.223,28.320,19.531,38.574,42.969
1532202941.704,47.363,41.504,30.762,30.273,39.062
1532202941.708,37.109,62.012,45.410,26.367,12.695
1532202941.712,37.109,51.270,41.016,28.809,17.578
1532202941.715,34.180,35.156,28.320,27.832,43.945
1532202941.719,34.668,41.992,28.809,28.809,20.020
1532202941.723,41.504,47.363,24.414,31.250,-15.137
1532202941.727,39.062,44.434,27.344,33.691,15.137
1532202941.731,36.133,38.574,32.715,34.668,47.852
1532202941.735,41.992,34.668,32.227,29.785,28.320
1532202941.739,40.527,35.645,40.039,31.250,2.930
1532202941.743,41.016,25.391,33.691,38.574,22.461
1532202941.747,46.875,16.602,25.879,34.180,58.105
1532202941.751,41.016,25.879,33.203,35.156,48.828
1532202941.755,38.086,40.527,36.621,33.203,33.691
1532202941.758,32.227,45.410,35.156,26.367,38.574
1532202941.762,28.320,40.039,30.762,34.180,40.039
1532202941.766,35.645,49.805,31.738,36.621,43.457
1532202941.770,38.574,46.387,27.832,39.062,24.414
1532202941.774,41.016,36.621,29.297,37.109,-18.555
1532202941.778,49.805,35.156,35.645,35.156,25.879
1532202941.782,45.898,32.715,35.645,37.598,71.777
1532202941.786,43.457,28.320,32.227,35.645,33.691
1532202941.790,41.992,28.809,27.832,35.156,2.930
1532202941.794,36.133,46.387,32.227,39.551,27.344
1532202941.798,41.504,34.668,35.645,43.945,49.805
1532202941.801,45.410,17.578,27.832,40.527,41.016
1532202941.805,44.434,39.551,26.367,39.551,16.113
1532202941.809,31.738,49.316,37.109,38.574,26.367
1532202941.813,24.902,41.016,33.691,29.297,22.949
1532202941.817,30.273,47.363,15.625,28.809,-4.883
1532202941.821,43.945,48.828,17.578,36.621,26.367
1532202941.825,47.363,37.598,41.016,44.434,28.320
1532202941.829,24.414,29.785,54.199,40.039,21.484
1532202941.833,8.301,20.508,52.734,27.832,38.574
1532202941.837,12.207,6.836,49.805,30.273,25.879
1532202941.840,13.184,20.508,43.945,32.715,-0.488
1532202941.844,11.230,31.250,37.598,34.668,25.879
1532202941.848,10.742,22.949,51.758,36.621,52.734
1532202941.852,3.418,8.301,53.711,33.691,30.762
1532202941.856,-5.859,-2.930,49.316,30.762,19.531
1532202941.860,-12.207,-3.418,59.570,27.832,10.254
1532202941.864,2.441,-8.301,73.242,38.574,7.324
1532202941.868,3.906,-8.789,75.684,43.945,30.762
1532202941.872,-4.883,-7.324,58.594,43.457,10.254
1532202941.876,-7.812,-7.812,56.641,38.574,-20.020
1532202941.880,-18.066,12.207,63.965,27.344,23.438
1532202941.883,-9.277,18.066,65.918,44.434,41.504
1532202941.887,-8.789,3.418,70.801,50.293,19.043
1532202941.891,-19.043,-9.277,78.613,38.086,4.883
1532202941.895,-18.555,-15.137,76.172,37.598,7.812
1532202941.899,-10.742,-21.973,71.289,41.992,40.039
1532202941.903,-1.465,-16.602,62.500,47.852,59.082
1532202941.907,1.465,-1.465,58.594,44.434,27.344
1532202941.911,12.207,2.930,58.105,50.781,16.113
1532202941.915,18.066,-2.441,51.758,46.387,23.438
1532202941.919,13.184,-18.066,59.082,41.504,34.180
1532202941.922,16.113,-2.441,71.289,52.734,31.738
1532202941.926,13.184,17.578,64.941,55.664,37.598
1532202941.930,11.719,12.695,59.570,53.223,51.270
1532202941.934,24.414,13.184,55.176,59.082,51.270
1532202941.938,33.203,11.719,45.898,63.477,46.387
1532202941.942,21.973,12.695,43.945,54.199,41.992
1532202941.946,15.625,15.137,48.340,51.270,47.852
1532202941.950,21.973,10.742,46.387,53.711,30.762
1532202941.954,25.391,15.625,48.340,52.246,27.344
1532202941.958,28.809,14.160,53.223,54.688,41.992
1532202941.962,28.809,5.859,51.270,52.246,51.758
1532202941.965,27.344,16.602,46.875,49.316,61.523
1532202941.969,28.320,24.414,41.504,52.734,19.043
1532202941.973,32.227,19.043,38.574,51.270,4.883
1532202941.977,38.086,20.020,41.504,43.457,13.672
1532202941.981,50.293,24.414,43.457,42.480,32.227
1532202941.985,61.035,18.555,39.551,39.551,53.223
1532202941.989,51.270,20.020,43.945,38.574,50.293
1532202941.993,47.363,31.738,52.734,41.016,40.527
1532202941.997,49.805,41.016,48.828,43.945,9.766
1532202942.001,41.504,31.250,39.551,55.176,38.574
1532202942.005,39.062,20.996,40.527,58.105,46.387
1532202942.008,39.062,31.250,43.457,57.617,30.273
1532202942.012,34.180,33.203,41.504,51.270,44.434
1532202942.016,25.879,28.809,40.527,47.363,46.387
1532202942.020,20.996,25.391,40.039,54.199,51.270
1532202942.024,22.949,14.160,33.203,51.758,41.016
1532202942.028,32.715,20.508,27.832,51.758,41.504
1532202942.032,39.062,34.668,36.621,52.734,41.504
1532202942.036,42.480,25.879,45.898,54.688,32.227
1532202942.040,41.504,18.555,47.363,58.594,35.645
1532202942.044,34.668,30.273,45.898,54.688,49.805
1532202942.047,41.016,34.668,43.457,62.012,51.758
1532202942.051,41.504,24.902,39.551,57.129,22.461
1532202942.055,38.086,31.738,43.945,48.828,19.043
1532202942.059,37.598,33.203,40.039,54.199,41.992
1532202942.063,28.320,23.926,29.785,46.875,53.223
1532202942.067,33.203,27.344,37.598,43.945,59.570
1532202942.071,39.062,10.742,42.480,47.363,25.391
1532202942.075,29.785,2.441,41.992,43.457,18.066
1532202942.079,34.180,37.109,42.969,47.363,42.480
1532202942.083,37.598,49.316,37.109,49.805,32.227
1532202942.087,42.480,37.109,30.273,48.828,4.883
1532202942.090,45.410,26.367,32.715,50.781,-29.297
1532202942.094,39.551,27.832,41.504,45.898,-7.324
1532202942.098,39.551,33.691,35.156,43.945,28.809
1532202942.102,35.645,27.344,35.156,39.551,20.996
1532202942.106,37.109,27.832,50.781,40.527,11.719
1532202942.110,41.016,24.902,44.922,44.922,26.855
1532202942.114,40.527,23.926,32.715,38.574,31.250
1532202942.118,37.598,29.297,21.973,36.621,34.180
1532202942.122,31.250,35.156,26.367,41.992,12.207
1532202942.126,32.227,41.504,41.992,46.387,20.020
1532202942.130,35.645,32.715,43.945,44.434,35.156
1532202942.133,43.457,28.320,40.527,44.922,34.668
1532202942.137,48.340,31.738,28.809,46.875,32.715
1532202942.141,48.340,22.949,18.555,41.992,31.250
1532202942.145,49.316,30.762,35.645,42.480,37.598
1532202942.149,48.828,32.715,41.504,41.016,36.621
1532202942.153,41.504,25.879,31.250,33.691,-3.418
1532202942.157,47.852,27.344,37.598,42.969,-40.039
1532202942.161,55.664,26.855,44.434,56.641,-5.859
1532202942.165,35.156,33.691,39.062,26.367,29.785
1532202942.169,31.738,43.945,30.762,11.230,40.039
1532202942.172,41.504,48.828,21.484,20.996,12.207
1532202942.176,30.273,38.086,20.020,8.301,17.090
1532202942.180,27.344,40.527,23.438,3.906,47.852
1532202942.184,22.949,46.387,20.020,2.930,55.664
1532202942.188,21.973,34.668,16.602,6.348,39.062
1532202942.192,20.020,46.387,2.441,-8.789,36.621
1532202942.196,16.113,60.059,9.277,-13.672,18.555
1532202942.200,19.531,49.316,20.020,7.324,58.594
1532202942.204,16.602,46.875,19.531,9.277,51.758
1532202942.208,27.344,43.457,26.367,16.602,1.953
1532202942.212,36.621,38.574,28.320,20.508,33.203
1532202942.215,36.133,32.715,22.461,13.672,53.711
1532202942.219,35.645,34.668,25.879,18.555,31.250
1532202942.223,35.645,47.852,32.715,22.949,24.902
1532202942.227,40.039,44.434,30.762,22.461,22.461
1532202942.231,44.434,37.598,26.367,29.297,25.391
1532202942.235,46.875,38.086,13.672,36.621,39.062
1532202942.239,44.434,38.574,20.020,34.668,29.785
1532202942.243,42.480,43.945,36.133,34.180,29.785
1532202942.247,50.781,44.922,34.668,44.922,59.570
1532202942.251,47.852,31.738,22.949,42.480,38.086
1532202942.254,29.785,33.691,27.832,26.855,-24.414
1532202942.258,25.879,36.133,41.016,32.715,4.883
1532202942.262,36.133,23.438,35.645,35.156,47.363
1532202942.266,38.086,29.785,32.227,31.250,33.203
1532202942.270,37.598,32.715,33.203,36.621,26.855
1532202942.274,40.039,26.367,27.832,39.551,-3.418
1532202942.278,33.691,42.480,14.160,37.598,28.320
1532202942.282,36.133,39.551,16.113,31.738,67.383
1532202942.286,37.109,37.598,36.133,29.785,39.062
1532202942.290,38.086,41.504,33.691,38.574,34.668
1532202942.294,38.574,29.785,30.273,38.574,21.484
1532202942.297,37.598,40.039,37.598,34.180,34.180
1532202942.301,46.875,40.039,35.156,40.527,57.129
1532202942.305,44.922,24.414,25.879,40.527,40.039
1532202942.309,33.203,37.109,27.832,36.133,-8.301
1532202942.313,31.250,46.387,37.109,31.250,24.414
1532202942.317,34.180,31.738,31.738,33.691,63.477
1532202942.321,37.598,28.809,24.414,39.062,52.734
1532202942.325,41.016,44.922,36.621,40.039,24.902
1532202942.329,49.316,41.992,37.109,46.387,28.809
1532202942.333,40.527,34.180,33.203,36.133,26.855
1532202942.337,33.691,32.227,36.133,31.738,22.461
1532202942.340,42.480,17.090,41.016,47.852,36.133
1532202942.344,45.898,14.160,38.086,51.758,53.223
1532202942.348,42.969,35.156,29.297,50.781,36.133
1532202942.352,44.434,49.316,28.809,49.316,9.277
1532202942.356,45.410,44.434,31.250,49.316,12.695
1532202942.360,37.109,39.062,41.992,46.387,5.371
1532202942.364,37.598,37.109,47.363,38.574,29.297
1532202942.368,39.551,35.645,41.504,42.480,34.180
1532202942.372,31.250,30.762,35.156,43.457,26.855
1532202942.376,25.391,28.809,34.668,40.527,14.160
1532202942.379,24.902,14.648,41.016,40.039,16.113
1532202942.383,28.809,13.184,40.527,46.875,42.969
1532202942.387,33.691,40.039,39.062,47.852,50.293
1532202942.391,37.598,51.270,39.551,39.062,12.695
1532202942.395,41.016,47.363,31.250,41.016,21.973
1532202942.399,41.992,40.039,27.832,42.969,44.434
1532202942.403,41.016,38.574,31.250,37.598,28.809
1532202942.407,42.480,39.551,33.691,42.969,20.508
1532202942.411,51.758,28.809,35.156,46.875,11.719
1532202942.415,53.223,17.090,32.715,41.504,-11.230
1532202942.419,44.434,31.250,23.926,32.227,9.766
1532202942.422,41.016,41.504,35.156,34.180,39.062
1532202942.426,38.086,22.949,47.852,43.457,7.812
1532202942.430,29.785,28.809,39.062,35.645,25.391
1532202942.434,32.227,48.828,32.227,31.738,37.598
1532202942.438,41.504,46.387,29.297,39.551,16.602
1532202942.442,37.598,46.387,27.832,42.969,7.324
1532202942.446,31.250,45.898,31.250,38.574,-5.859
1532202942.450,39.551,44.922,44.922,41.992,12.695
1532202942.454,36.133,43.945,46.875,39.551,20.996
1532202942.458,26.855,39.062,41.016,35.156,18.066
1532202942.462,22.949,37.109,35.645,37.109,37.109
1532202942.465,22.461,39.062,37.598,28.320,43.457
1532202942.469,20.020,38.086,43.457,15.137,31.738
1532202942.473,3.906,35.645,41.016,3.418,-2.930
1532202942.477,-5.371,40.527,43.457,-2.441,4.395
1532202942.481,-2.930,42.969,46.875,0.977,40.039
1532202942.485,-5.859,41.016,47.852,-4.883,49.316
1532202942.489,-16.602,46.387,39.062,-14.648,52.734
1532202942.493,-37.109,46.387,39.551,-27.344,6.348
1532202942.497,-57.617,48.340,50.781,-40.039,25.391
1532202942.501,-57.617,53.223,53.711,-43.945,41.016
1532202942.504,-61.035,38.574,61.035,-47.363,4.395
1532202942.508,-65.918,36.621,70.801,-55.664,21.973
1532202942.512,-68.848,46.875,68.848,-64.941,30.762
1532202942.516,-72.754,51.758,66.895,-72.754,39.551
1532202942.520,-72.754,59.082,69.824,-69.336,48.828
1532202942.524,-75.195,49.316,60.059,-65.430,28.320
1532202942.528,-78.125,48.340,46.387,-64.941,27.344
1532202942.532,-70.801,54.688,48.828,-63.965,32.715
1532202942.536,-57.129,47.852,60.547,-63.477,40.527
1532202942.540,-51.758,40.527,61.523,-49.805,34.668
1532202942.544,-37.109,41.992,47.363,-32.715,36.133
1532202942.547,-21.484,31.738,40.527,-19.531,72.266
1532202942.551,-18.555,23.438,53.711,-13.184,62.500
1532202942.555,-10.742,31.250,54.199,-10.254,34.180
1532202942.559,-3.906,28.320,41.016,-6.836,22.949
1532202942.563,5.859,23.438,34.180,1.953,18.555
1532202942.567,15.625,25.879,27.344,13.672,21.484
1532202942.571,23.438,21.973,18.555,23.926,-8.789
1532202942.575,25.879,22.461,28.320,25.391,-16.113
1532202942.579,31.250,22.949,43.457,37.598,30.762
1532202942.583,41.992,6.836,44.434,51.758,57.617
1532202942.586,47.852,16.602,39.062,52.734,39.551
1532202942.590,55.664,22.949,29.785,61.523,20.508
1532202942.594,56.641,21.484,27.832,62.500,33.203
1532202942.598,57.617,24.414,29.785,64.941,44.434
1532202942.602,62.500,13.184,33.203,69.824,32.227
1532202942.606,64.941,12.695,29.297,74.707,-0.488
1532202942.610,68.359,21.484,28.320,80.078,4.395
1532202942.614,68.848,9.277,33.691,72.266,10.742
1532202942.618,65.430,-6.836,28.320,72.754,-2.930
1532202942.622,64.453,6.836,26.855,80.566,21.484
1532202942.626,67.871,24.902,25.879,81.055,37.598
1532202942.629,65.918,11.719,18.066,77.148,31.738
1532202942.633,68.848,6.348,18.066,77.148,41.992
1532202942.637,71.777,26.855,22.949,78.125,39.551
1532202942.641,70.801,32.227,26.855,76.172,20.020
1532202942.645,71.289,29.785,30.273,78.125,37.109
1532202942.649,68.359,26.855,27.832,78.613,54.688
1532202942.653,71.289,19.531,23.926,75.684,35.645
1532202942.657,67.383,16.602,26.367,70.801,14.160
1532202942.661,65.918,13.672,24.414,68.359,10.742
1532202942.665,70.801,20.508,16.113,70.312,13.184
1532202942.669,63.477,27.832,11.719,70.801,22.949
1532202942.672,62.500,14.160,10.742,62.988,17.090
1532202942.676,68.359,25.391,9.277,60.547,5.859
1532202942.680,70.312,30.273,16.602,64.941,32.227
1532202942.684,66.895,18.066,25.391,67.871,63.965
1532202942.688,61.523,23.926,35.156,74.219,47.363
1532202942.692,58.594,29.297,31.738,65.918,19.531
1532202942.696,58.594,28.809,23.438,59.570,34.668
1532202942.700,55.664,26.855,23.926,65.918,36.133
1532202942.704,55.176,21.973,27.832,67.871,8.301
1532202942.708,56.641,22.461,36.133,71.289,8.301
1532202942.711,58.105,24.902,27.344,67.383,1.465
1532202942.715,64.453,23.926,21.973,62.988,-11.230
1532202942.719,63.477,21.484,21.484,69.336,18.555
1532202942.723,61.035,20.020,17.090,70.312,31.738
1532202942.727,69.336,29.785,27.832,65.430,33.203
1532202942.731,70.312,39.062,26.855,55.664,50.293
1532202942.735,69.336,32.715,25.879,53.223,42.480
1532202942.739,70.801,29.785,35.156,53.223,20.508
1532202942.743,71.289,35.645,36.133,49.316,39.551
1532202942.747,68.848,34.668,30.273,49.805,42.969
1532202942.751,67.383,42.480,20.508,53.711,26.855
1532202942.754,61.523,37.109,20.020,51.270,-14.160
1532202942.758,51.270,24.414,18.555,55.664,-12.207
1532202942.762,38.574,19.043,19.043,58.105,55.176
1532202942.766,38.086,20.996,25.879,56.152,68.848
1532202942.770,61.035,34.668,27.832,67.871,31.738
1532202942.774,50.293,31.738,31.738,65.918,38.086
1532202942.778,22.949,22.461,37.109,51.270,59.570
1532202942.782,24.414,23.438,34.180,46.387,59.570
1532202942.786,33.691,20.020,28.320,52.734,50.293
1532202942.790,42.969,16.602,32.227,62.988,21.973
1532202942.794,45.410,20.020,32.715,63.477,52.246
1532202942.797,36.621,18.066,31.738,59.570,63.965
1532202942.801,34.668,7.324,40.527,61.523,23.926
1532202942.805,40.039,-1.465,47.852,66.406,24.414
1532202942.809,40.039,-1.953,42.480,68.359,62.012
1532202942.813,38.574,-0.977,38.574,71.777,59.570
1532202942.817,42.480,2.930,31.738,77.148,32.715
1532202942.821,42.969,4.395,35.645,79.590,15.625
1532202942.825,41.016,5.859,54.199,77.637,-2.930
1532202942.829,46.875,-4.395,52.246,79.102,33.691
1532202942.833,58.594,-3.906,47.363,84.473,51.270
1532202942.836,64.941,10.254,46.875,85.449,19.531
1532202942.840,58.594,3.418,39.551,79.590,9.277
1532202942.844,56.641,1.953,42.480,75.684,29.785
1532202942.848,53.223,-0.977,44.434,74.219,51.270
1532202942.852,50.781,6.836,32.227,68.359,24.414
1532202942.856,49.316,18.066,31.738,58.105,-19.043
1532202942.860,51.270,0.977,34.180,62.012,-6.348
1532202942.864,57.129,5.371,30.762,70.312,52.246
1532202942.868,56.641,26.855,34.668,63.477,58.594
1532202942.872,53.223,27.344,43.457,63.965,26.855
1532202942.876,53.223,19.043,47.363,65.918,14.160
1532202942.879,49.316,7.812,38.086,63.965,37.109
1532202942.883,43.457,13.672,35.156,62.500,28.320
1532202942.887,48.340,20.996,42.480,63.965,15.137
1532202942.891,52.246,21.484,40.039,65.430,20.508
1532202942.895,54.688,22.949,40.527,66.406,24.902
1532202942.899,57.129,22.461,42.969,67.871,30.762
1532202942.903,56.641,24.902,35.645,66.895,31.738
1532202942.907,57.129,20.996,31.738,65.430,37.598
1532202942.911,58.594,21.973,31.250,69.336,17.578
1532202942.915,61.035,25.879,38.574,72.266,29.785
1532202942.918,62.988,24.414,33.691,68.359,53.223
1532202942.922,64.941,23.438,27.832,62.500,36.133
1532202942.926,53.223,27.344,38.086,61.035,37.109
1532202942.930,46.387,23.926,40.527,68.848,43.945
1532202942.934,50.293,20.996,39.062,66.406,48.828
1532202942.938,48.340,30.762,44.434,59.082,32.715
1532202942.942,49.805,26.367,41.504,54.199,8.789
1532202942.946,38.086,25.391,28.809,43.945,40.527
1532202942.950,35.156,31.738,23.926,42.480,51.758
1532202942.954,41.016,21.484,27.832,40.527,20.996
1532202942.958,38.574,19.043,39.062,38.574,20.020
1532202942.961,44.434,28.320,35.156,49.316,23.438
1532202942.965,47.363,26.855,24.902,50.781,44.922
1532202942.969,39.551,23.926,33.691,40.039,58.105
1532202942.973,39.062,23.438,35.156,35.645,27.832
1532202942.977,40.527,23.926,26.855,41.992,47.363
1532202942.981,41.992,29.297,22.461,44.922,52.734
1532202942.985,43.945,30.273,25.391,45.410,38.574
1532202942.989,41.016,31.250,35.156,43.945,17.090
1532202942.993,34.180,29.785,40.527,34.180,-12.207
1532202942.997,32.715,24.902,34.180,25.879,16.602
1532202943.001,40.039,28.320,27.344,32.227,57.617
1532202943.004,42.969,28.809,30.273,38.574,42.969
1532202943.008,42.969,26.855,35.156,43.457,51.270
1532202943.012,41.504,27.344,31.738,41.992,69.336
1532202943.016,45.410,28.809,29.297,41.504,78.613
1532202943.020,46.875,27.344,28.320,44.434,58.594
1532202943.024,45.410,23.438,29.785,40.527,37.598
1532202943.028,43.945,26.367,20.996,42.969,53.223
1532202943.032,38.086,31.738,20.020,40.039,50.781
1532202943.036,36.621,32.227,27.344,33.203,11.719
1532202943.040,41.016,20.996,23.438,39.062,9.766
1532202943.043,37.109,17.578,32.715,40.527,18.555
1532202943.047,24.902,29.785,36.133,39.551,41.504
1532202943.051,28.809,30.762,39.062,44.434,58.105
1532202943.055,30.273,27.344,44.434,42.480,45.410
1532202943.059,27.832,31.738,32.715,41.016,37.109
1532202943.063,28.320,30.273,24.902,39.062,50.781
1532202943.067,25.391,29.785,26.367,35.645,67.871
1532202943.071,32.227,38.086,32.715,37.109,42.969
1532202943.075,39.551,42.969,37.598,35.645,15.137
1532202943.079,36.621,35.156,25.879,37.109,28.320
1532202943.083,29.785,26.855,20.020,36.621,26.855
1532202943.086,30.762,34.668,24.902,30.762,46.387
1532202943.090,33.691,39.062,32.227,35.156,51.270
1532202943.094,44.922,28.809,38.086,43.945,1.465
1532202943.098,52.734,21.973,39.062,46.387,24.414
1532202943.102,28.809,31.738,31.738,29.785,57.617
1532202943.106,16.602,35.156,23.438,14.160,48.340
1532202943.110,27.832,41.504,21.484,20.020,48.340
1532202943.114,24.414,41.992,16.602,16.602,45.898
1532202943.118,10.742,35.645,12.207,4.883,54.688
1532202943.122,17.090,46.387,19.043,11.719,35.645
1532202943.126,17.090,52.246,16.602,9.766,22.949
1532202943.129,11.230,58.594,18.555,4.395,46.387
1532202943.133,19.043,55.664,32.227,9.766,29.785
1532202943.137,19.043,42.969,29.785,2.930,0.977
1532202943.141,21.973,43.945,18.555,2.441,1.953
1532202943.145,29.297,51.758,11.719,5.371,10.742
1532202943.149,25.391,46.875,12.695,8.301,40.039
1532202943.153,17.578,43.457,20.996,8.301,39.062
1532202943.157,26.855,49.316,25.391,8.789,1.953
1532202943.161,36.621,47.852,19.531,18.555,12.207
1532202943.165,32.715,35.645,7.324,19.043,33.691
1532202943.168,26.367,42.969,15.625,12.207,33.203
1532202943.172,32.715,43.457,26.367,17.090,-1.465
1532202943.176,32.227,39.062,28.809,23.438,-10.254
1532202943.180,29.297,44.922,41.016,26.855,27.832
1532202943.184,31.738,37.598,35.645,25.879,12.207
1532202943.188,30.762,38.086,24.902,24.414,-1.465
1532202943.192,28.320,36.133,23.926,25.879,-1.953
1532202943.196,33.691,34.180,22.461,30.273,18.066
1532202943.200,39.062,39.062,14.648,31.738,62.988
1532202943.204,33.691,37.598,16.602,28.809,51.758
1532202943.208,27.832,40.039,30.762,25.391,-0.488
1532202943.211,24.414,29.297,34.668,22.949,-0.488
1532202943.215,20.996,14.648,33.691,27.344,44.922
1532202943.219,21.973,32.227,31.250,26.367,47.852
1532202943.223,26.855,45.410,28.320,26.367,19.531
1532202943.227,29.785,34.668,24.902,31.250,16.113
1532202943.231,31.250,20.508,32.227,29.785,18.555
1532202943.235,33.203,27.832,31.738,17.090,9.277
1532202943.239,36.621,40.527,24.902,22.461,2.441
1532202943.243,31.250,37.109,30.273,34.668,27.344
1532202943.247,25.391,34.180,20.996,29.785,56.641
1532202943.250,20.020,29.297,20.996,23.926,41.016
1532202943.254,19.043,6.348,37.109,23.438,10.742
1532202943.258,24.414,11.230,27.832,29.297,-6.836
1532202943.262,20.508,40.527,20.996,26.367,20.020
1532202943.266,20.020,39.551,28.809,23.926,11.719
1532202943.270,22.461,31.250,24.902,35.156,-5.371
1532202943.274,24.902,36.621,22.461,29.785,-17.578
1532202943.278,26.367,32.227,22.949,26.367,-16.602
1532202943.282,28.320,24.414,31.250,37.109,52.734
1532202943.286,30.762,22.461,29.297,35.156,65.918
1532202943.290,30.762,29.785,24.414,31.738,28.809
1532202943.293,31.738,33.203,21.484,37.109,-4.395
1532202943.297,39.062,19.531,14.648,37.598,15.137
1532202943.301,41.016,31.250,22.461,35.156,30.762
1532202943.305,33.691,48.340,23.438,35.156,31.738
1532202943.309,30.762,38.086,17.578,27.832,15.625
1532202943.313,22.949,32.715,22.461,23.438,-0.977
1532202943.317,25.879,39.551,27.344,30.762,14.648
1532202943.321,29.297,31.250,27.344,32.227,6.348
1532202943.325,24.902,25.391,25.879,31.738,12.695
1532202943.329,27.832,30.273,25.879,34.180,49.316
1532202943.333,36.621,19.531,27.344,32.227,21.973
1532202943.336,34.668,19.531,18.066,24.902,11.719
1532202943.340,31.738,39.551,18.555,28.320,22.461
1532202943.344,34.180,46.875,25.391,36.133,52.246
1532202943.348,32.715,31.250,13.672,38.574,86.426
1532202943.352,36.133,21.484,12.695,39.551,49.805
1532202943.356,40.039,35.156,28.320,43.457,21.973
1532202943.360,36.621,37.109,34.180,47.363,19.531
1532202943.364,34.668,23.438,31.250,43.457,26.855
1532202943.368,30.762,19.043,30.762,39.551,51.270
1532202943.372,28.809,23.926,31.738,36.621,18.555
1532202943.375,39.551,26.855,35.156,33.691,-35.156
1532202943.379,36.621,29.297,25.391,33.203,17.578
1532202943.383,40.527,33.691,11.719,38.086,51.758
1532202943.387,44.434,31.738,23.438,51.758,36.133
1532202943.391,28.809,27.344,39.062,46.387,-11.719
1532202943.395,26.367,29.785,38.574,42.480,0.977
1532202943.399,29.297,27.832,35.645,51.270,39.551
1532202943.403,34.668,23.926,39.551,54.199,37.109
1532202943.407,41.504,22.949,41.016,54.199,22.461
1532202943.411,35.645,16.602,42.969,51.270,-0.977
1532202943.415,36.621,8.301,41.016,51.758,-13.184
1532202943.418,35.156,12.695,34.668,58.105,10.742
1532202943.422,36.133,15.137,46.387,62.012,24.414
1532202943.426,37.109,15.625,55.664,60.059,32.715
1532202943.430,27.832,16.113,50.293,55.176,29.785
1532202943.434,31.250,12.695,44.434,51.758,10.742
1532202943.438,33.691,5.859,36.133,48.340,21.973
1532202943.442,33.203,3.906,33.691,50.293,31.250
1532202943.446,38.574,9.277,38.086,53.223,15.625
1532202943.450,37.109,20.020,28.809,47.852,33.203
1532202943.454,30.273,25.879,20.996,40.039,18.066
1532202943.458,35.156,16.113,34.668,39.062,-16.602
1532202943.461,43.945,12.695,40.039,43.945,31.738
1532202943.465,38.574,13.672,32.715,41.504,82.031
1532202943.469,29.785,19.531,41.016,33.691,72.266
1532202943.473,41.504,27.344,48.340,32.715,26.367
1532202943.477,50.293,22.461,40.039,30.762,14.160
1532202943.481,44.434,22.461,26.367,31.738,45.898
1532202943.485,41.992,24.414,23.926,38.574,51.270
1532202943.489,43.945,24.902,32.715,39.551,44.434
1532202943.493,38.574,25.391,26.855,40.039,43.945
1532202943.497,33.203,24.414,24.414,44.922,42.480
1532202943.500,29.297,18.555,30.762,50.293,28.809
1532202943.504,28.809,18.555,33.203,48.828,21.973
1532202943.508,30.762,25.391,41.504,53.223,20.996
1532202943.512,35.156,24.902,45.410,53.711,7.324
1532202943.516,37.598,30.762,37.598,46.875,31.738
1532202943.520,32.715,36.621,30.762,45.898,27.832
1532202943.524,35.645,29.785,31.738,48.828,20.508
1532202943.528,43.457,16.602,27.344,51.270,48.340
1532202943.532,44.434,20.508,26.367,52.734,61.523
1532202943.536,43.945,31.250,37.598,51.758,42.480
1532202943.540,44.922,33.691,40.039,49.805,34.668
1532202943.543,47.852,31.250,36.621,51.270,38.086
1532202943.547,43.457,27.832,36.621,49.805,49.805
1532202943.551,40.039,26.367,29.785,42.480,28.809
1532202943.555,39.551,27.344,25.391,36.621,-19.531
1532202943.559,40.039,25.391,29.785,43.457,3.418
1532202943.563,35.645,28.320,35.156,49.805,42.969
1532202943.567,35.156,33.203,28.320,50.293,48.828
1532202943.571,37.109,23.926,16.113,47.363,16.602
1532202943.575,36.133,23.926,18.555,45.410,0.000
1532202943.579,40.527,35.645,36.621,44.922,17.090
1532202943.582,41.992,40.039,44.434,41.016,29.297
1532202943.586,40.527,36.621,34.180,39.062,26.855
1532202943.590,41.992,25.879,32.227,39.062,8.301
1532202943.594,45.410,20.996,28.809,42.969,45.898
1532202943.598,46.875,23.438,26.855,40.039,64.941
1532202943.602,45.898,29.297,28.809,40.039,62.988
1532202943.606,39.062,33.203,22.461,45.898,52.246
1532202943.610,37.598,26.855,21.973,44.922,35.645
1532202943.614,36.621,20.020,29.297,32.715,16.113
1532202943.618,36.133,36.133,19.043,33.691,7.324
1532202943.622,34.180,46.387,16.113,38.086,28.809
1532202943.625,33.691,34.668,35.645,34.668,25.391
1532202943.629,39.062,30.762,39.551,36.133,36.133
1532202943.633,38.086,23.926,26.855,37.109,49.805
1532202943.637,37.598,20.508,29.785,39.551,11.719
1532202943.641,43.945,28.320,26.367,39.551,12.695
1532202943.645,43.457,33.691,19.043,39.062,43.457
1532202943.649,40.527,25.391,30.762,37.109,53.223
1532202943.653,44.434,22.461,32.227,33.203,35.156
1532202943.657,43.457,36.133,20.020,33.203,5.371
1532202943.661,42.480,35.156,17.090,39.062,29.785
1532202943.665,44.922,33.691,23.926,40.039,44.434
1532202943.668,43.945,42.480,33.203,36.621,52.246
1532202943.672,43.457,34.180,38.574,30.762,38.086
1532202943.676,44.434,26.855,30.762,28.809,17.578
1532202943.680,44.922,32.715,35.645,30.273,25.391
1532202943.684,42.969,32.715,38.086,32.715,19.531
1532202943.688,42.480,34.180,26.855,34.180,3.418
1532202943.692,39.551,36.621,24.902,35.156,12.695
1532202943.696,37.598,32.715,21.973,25.391,6.348
1532202943.700,36.133,20.996,16.113,26.367,31.738
1532202943.704,33.203,22.949,21.484,32.715,49.316
1532202943.707,29.785,31.738,27.832,32.227,42.969
1532202943.711,27.344,32.227,29.785,35.156,43.457
1532202943.715,21.973,29.297,34.180,33.203,55.176
1532202943.719,22.949,28.809,34.668,28.320,66.406
1532202943.723,25.879,39.062,29.785,27.344,25.391
1532202943.727,27.832,41.992,31.250,27.832,1.953
1532202943.731,37.109,35.156,36.133,33.691,34.180
1532202943.735,38.086,33.203,32.227,37.109,37.109
1532202943.739,33.203,37.109,28.809,37.109,19.531
1532202943.743,29.297,40.039,25.391,31.250,3.906
1532202943.747,32.715,41.016,30.762,33.691,16.602
1532202943.750,24.414,39.062,33.203,31.738,43.457
1532202943.754,5.859,34.180,33.691,12.695,15.625
1532202943.758,0.000,36.133,39.062,1.465,20.508
1532202943.762,-16.113,35.156,41.016,-8.789,26.855
1532202943.766,-19.043,34.180,41.504,-9.766,26.367
1532202943.770,-18.066,37.109,42.480,-13.184,22.461
1532202943.774,-31.250,41.504,45.898,-28.320,3.418
1532202943.778,-47.363,45.410,45.410,-44.922,34.668
1532202943.782,-54.199,47.852,55.664,-53.223,36.133
1532202943.786,-53.711,49.805,60.059,-57.617,21.973
1532202943.790,-69.336,48.340,54.688,-72.754,7.812
1532202943.793,-76.660,37.598,65.918,-81.055,7.812
1532202943.797,-79.590,39.062,68.848,-84.961,55.664
1532202943.801,-89.844,53.711,64.453,-91.797,54.688
1532202943.805,-94.238,57.129,65.430,-103.027,32.227
1532202943.809,-103.516,59.082,62.500,-113.281,32.227
1532202943.813,-104.492,61.523,65.918,-109.863,17.090
1532202943.817,-95.215,58.594,75.684,-101.074,18.555
1532202943.821,-90.820,57.617,69.824,-95.215,25.391
1532202943.825,-93.750,56.152,52.734,-96.191,7.812
1532202943.829,-90.332,47.363,47.852,-93.750,12.207
1532202943.832,-71.777,41.016,50.293,-88.379,16.113
1532202943.836,-64.453,46.387,51.270,-79.590,-3.906
1532202943.840,-65.430,45.898,50.293,-62.012,11.230
1532202943.844,-62.012,41.016,45.410,-54.199,20.020
1532202943.848,-60.547,41.016,49.316,-48.340,37.109
1532202943.852,-39.062,35.156,45.898,-35.645,35.156
1532202943.856,-21.973,22.949,40.039,-17.090,19.043
1532202943.860,-16.602,19.531,30.762,-4.395,-0.977
1532202943.864,9.277,15.137,16.602,13.184,3.906
1532202943.868,18.066,8.301,24.414,21.973,15.625
1532202943.872,11.719,25.391,33.691,18.066,-5.371
1532202943.875,18.066,31.738,35.645,31.250,-10.254
1532202943.879,23.926,20.020,33.691,40.039,26.855
1532202943.883,30.762,16.602,28.809,44.434,59.570
1532202943.887,39.551,7.324,24.414,58.105,57.617
1532202943.891,29.785,4.395,18.555,54.199,3.418
1532202943.895,36.133,10.742,17.578,47.363,-15.625
1532202943.899,51.758,13.184,13.184,62.988,39.062
1532202943.903,52.734,13.672,19.531,72.266,28.809
1532202943.907,59.570,0.000,24.902,72.754,2.441
1532202943.911,61.035,-5.859,13.184,73.242,3.906
1532202943.915,62.500,8.789,9.277,72.754,21.973
1532202943.918,67.383,15.137,9.766,74.219,27.344
1532202943.922,64.941,14.648,7.324,76.172,13.184
1532202943.926,62.500,14.648,12.695,76.660,-1.953
1532202943.930,69.824,14.648,19.531,79.590,34.180
1532202943.934,70.801,11.719,15.137,77.637,24.414
1532202943.938,65.918,8.301,13.672,77.148,-31.738
1532202943.942,66.406,13.672,11.719,82.031,-8.789
1532202943.946,71.289,23.438,12.207,81.055,33.691
1532202943.950,71.289,15.625,15.625,80.078,28.320
1532202943.954,63.965,7.324,16.602,77.637,8.301
1532202943.957,64.941,14.160,15.137,79.590,9.277
1532202943.961,71.777,28.320,14.160,86.914,22.949
1532202943.965,74.707,27.344,8.301,81.055,51.758
1532202943.969,69.824,23.926,4.395,73.242,46.875
1532202943.973,65.918,29.297,14.160,67.871,-10.742
1532202943.977,69.336,28.809,6.836,61.035,6.836
1532202943.981,67.871,26.367,5.859,67.383,70.801
1532202943.985,66.406,21.973,20.020,67.383,39.062
1532202943.989,70.801,19.531,24.414,66.895,-5.371
1532202943.993,71.289,20.020,20.996,70.801,5.371
1532202943.997,67.871,22.949,13.184,67.383,33.203
1532202944.000,70.312,25.879,9.766,66.895,44.922
1532202944.004,68.359,24.414,16.113,69.336,26.855
1532202944.008,66.406,21.484,25.879,67.383,20.508
1532202944.012,66.406,24.902,24.414,68.848,32.715
1532202944.016,63.477,30.273,21.973,69.336,27.344
1532202944.020,63.477,35.156,20.508,64.941,20.996
1532202944.024,57.617,32.715,15.137,59.570,20.996
1532202944.028,55.664,26.367,15.625,60.547,30.273
1532202944.032,58.594,22.461,11.719,63.477,36.133
1532202944.036,59.570,23.438,12.207,56.152,44.922
1532202944.039,58.105,24.902,14.648,52.734,27.344
1532202944.043,58.105,27.344,17.578,53.223,12.207
1532202944.047,58.594,30.762,21.973,51.270,55.176
1532202944.051,59.082,34.180,23.926,51.758,46.387
1532202944.055,59.570,24.902,20.996,53.223,20.020
1532202944.059,47.363,18.555,17.578,49.805,24.902
1532202944.063,42.969,30.273,25.391,48.828,28.320
1532202944.067,56.641,32.227,23.438,53.711,39.551
1532202944.071,53.711,19.043,15.625,53.711,37.109
1532202944.075,43.457,18.555,21.973,46.387,1.953
1532202944.079,48.340,27.344,23.438,41.992,-3.418
1532202944.082,54.688,33.203,24.414,47.363,39.062
1532202944.086,45.410,35.156,26.367,45.410,36.133
1532202944.090,45.410,30.762,23.926,42.969,2.930
1532202944.094,49.316,22.949,29.297,48.340,0.977
1532202944.098,47.363,20.508,24.414,44.922,50.781
1532202944.102,48.340,28.320,26.855,41.016,41.504
1532202944.106,45.410,33.203,34.668,41.016,15.625
1532202944.110,40.527,30.273,23.438,44.434,16.113
1532202944.114,42.969,29.297,13.184,33.691,-14.648
1532202944.118,45.410,20.020,18.555,26.855,-3.418
1532202944.122,41.992,25.879,21.484,37.109,11.230
1532202944.125,38.086,41.504,12.207,41.016,5.859
1532202944.129,36.621,40.527,17.578,40.527,13.184
1532202944.133,42.480,40.039,21.484,43.457,41.992
1532202944.137,48.828,33.203,30.273,48.340,30.273
1532202944.141,44.434,25.391,33.691,46.875,3.418
1532202944.145,43.945,32.715,26.855,44.922,53.223
1532202944.149,46.875,36.133,33.691,42.480,76.172
1532202944.153,41.504,28.320,35.645,37.109,46.387
1532202944.157,37.598,32.227,33.203,37.598,10.742
1532202944.161,34.668,35.645,28.809,38.086,-1.953
1532202944.164,34.180,29.297,22.461,34.668,12.207
1532202944.168,39.062,31.250,18.555,40.527,23.438
1532202944.172,39.551,36.133,22.461,34.668,0.488
1532202944.176,38.086,39.551,24.414,29.297,-13.672
1532202944.180,35.156,41.016,28.809,36.133,5.859
1532202944.184,35.645,29.297,23.438,33.203,20.020
1532202944.188,36.133,18.066,17.090,30.762,20.996
1532202944.192,35.156,28.320,26.367,33.203,24.414
1532202944.196,39.062,38.086,28.809,37.598,36.133
1532202944.200,44.434,27.344,23.438,36.621,50.781
1532202944.204,45.410,27.832,18.555,33.691,34.180
1532202944.207,48.340,41.504,25.879,36.621,8.789
1532202944.211,54.199,34.668,26.367,33.691,8.301
1532202944.215,51.270,32.715,18.555,24.902,37.598
1532202944.219,48.828,49.316,19.043,26.367,35.645
1532202944.223,45.898,41.504,20.996,29.297,-10.742
1532202944.227,39.551,22.461,22.949,34.668,17.090
1532202944.231,34.668,26.855,21.484,40.527,40.039
1532202944.235,29.297,38.574,20.020,38.574,33.691
1532202944.239,27.344,39.551,13.184,40.527,31.738
1532202944.243,30.762,21.484,18.555,41.504,22.949
1532202944.247,31.250,15.137,33.203,38.574,26.367
1532202944.250,26.367,36.133,26.855,34.668,23.926
1532202944.254,29.785,39.062,25.879,29.297,5.371
1532202944.258,30.273,31.738,24.414,30.762,-7.812
1532202944.262,33.691,36.133,15.137,39.062,17.578
1532202944.266,39.062,42.480,15.137,41.992,46.387
1532202944.270,41.016,38.086,22.949,42.969,47.363
