timestamps,TP9,AF7,AF8,TP10,Right AUX
1532371365.584,1.465,79.102,34.668,21.484,-8.789
1532371365.588,1.465,77.148,38.574,23.438,36.621
1532371365.592,5.371,78.125,37.109,33.203,67.871
1532371365.596,5.859,78.613,37.598,32.715,26.367
1532371365.600,-4.395,75.195,40.039,27.344,-4.883
1532371365.604,-9.766,70.312,43.457,26.367,20.508
1532371365.608,-6.348,65.918,45.898,30.273,74.219
1532371365.612,-0.488,65.918,45.898,36.621,42.969
1532371365.616,-0.977,74.219,41.016,19.043,-44.434
1532371365.619,-10.742,82.031,34.180,-1.465,1.953
1532371365.623,0.000,86.426,35.156,6.348,76.660
1532371365.627,9.277,85.938,28.809,10.742,85.449
1532371365.631,0.488,83.496,22.949,8.301,29.297
1532371365.635,9.277,82.031,25.391,6.348,0.000
1532371365.639,16.113,85.449,19.043,7.324,62.988
1532371365.643,17.090,88.867,13.672,11.230,79.102
1532371365.647,12.695,82.520,19.043,12.695,37.598
1532371365.651,5.371,76.660,24.902,11.719,9.766
1532371365.655,3.418,72.266,27.832,12.207,23.926
1532371365.659,11.230,69.336,33.691,23.438,51.270
1532371365.662,20.020,74.219,30.762,27.832,31.738
1532371365.666,17.090,76.660,18.066,25.879,6.348
1532371365.670,8.789,72.266,21.973,24.414,18.066
1532371365.674,8.301,72.266,27.832,22.461,30.762
1532371365.678,10.254,75.684,21.484,17.090,-7.324
1532371365.682,13.672,78.125,14.648,16.602,-27.344
1532371365.686,17.090,78.613,13.184,20.020,7.812
1532371365.690,9.766,78.125,15.137,15.137,32.715
1532371365.694,2.930,74.707,18.066,14.648,37.109
1532371365.698,1.953,70.801,19.531,14.648,-25.879
1532371365.701,4.395,72.266,20.996,15.137,-32.227
1532371365.705,6.836,75.684,23.438,17.090,20.996
1532371365.709,7.812,75.195,20.020,16.113,38.086
1532371365.713,6.348,77.637,19.043,9.277,-14.648
1532371365.717,6.348,81.055,18.066,-2.441,-57.617
1532371365.721,18.066,82.031,14.648,8.789,11.230
1532371365.725,14.648,73.730,19.043,24.902,71.777
1532371365.729,3.418,62.500,27.832,20.508,46.875
1532371365.733,4.883,67.383,24.414,16.113,-11.230
1532371365.737,7.812,76.660,17.090,12.695,0.977
1532371365.741,8.789,78.125,20.020,11.230,58.594
1532371365.744,8.789,79.102,15.625,12.695,44.434
1532371365.748,-0.977,79.590,6.836,10.742,-7.324
1532371365.752,-4.883,80.566,4.883,12.695,30.273
1532371365.756,-0.488,75.195,13.672,14.648,48.828
1532371365.760,4.883,67.871,21.973,18.555,37.598
1532371365.764,2.441,74.707,14.160,7.324,0.488
1532371365.768,0.488,84.473,5.859,-4.395,-16.113
1532371365.772,14.648,86.426,3.418,5.371,18.066
1532371365.776,20.020,83.008,6.348,19.043,33.203
1532371365.780,7.812,79.590,18.066,15.625,-5.859
1532371365.783,6.348,75.684,21.484,7.324,-26.367
1532371365.787,11.719,72.266,14.160,12.207,10.742
1532371365.791,16.602,78.613,10.742,19.043,36.621
1532371365.795,25.391,75.195,14.648,19.531,-3.418
1532371365.799,16.602,69.824,21.973,17.090,-32.227
1532371365.803,4.395,71.777,26.855,15.625,20.996
1532371365.807,8.301,68.848,27.344,20.508,60.059
1532371365.811,11.719,66.895,26.855,23.438,23.438
1532371365.815,11.719,68.848,27.832,19.531,-20.996
1532371365.819,18.066,71.289,28.809,22.461,-4.395
1532371365.823,21.973,69.824,29.785,25.879,49.316
1532371365.826,27.344,67.871,31.738,23.926,56.152
1532371365.830,18.555,64.453,31.738,20.996,2.441
1532371365.834,6.348,63.477,31.250,18.066,-17.090
1532371365.838,16.602,66.895,33.203,21.484,15.137
1532371365.842,18.066,64.941,32.715,23.438,34.180
1532371365.846,13.672,63.477,32.227,25.391,-21.973
1532371365.850,15.137,62.500,33.691,26.855,-51.758
1532371365.854,10.254,62.012,36.621,23.926,-15.137
1532371365.858,7.812,62.012,39.551,27.832,12.695
1532371365.862,15.137,60.547,36.133,24.414,0.000
1532371365.865,24.902,65.430,30.762,23.438,-35.645
1532371365.869,28.809,69.824,29.297,29.297,-25.879
1532371365.873,23.926,67.871,34.668,25.879,-17.090
1532371365.877,14.160,69.824,40.527,19.043,-29.785
1532371365.881,17.090,69.824,40.527,15.625,-42.969
1532371365.885,15.137,71.777,36.621,12.207,-23.926
1532371365.889,13.672,77.148,28.809,8.301,10.742
1532371365.893,17.090,75.195,26.367,5.859,3.906
1532371365.897,8.301,65.918,33.203,5.859,-31.738
1532371365.901,1.465,62.988,38.086,9.277,-19.531
1532371365.905,17.090,72.754,31.250,7.324,27.344
1532371365.908,29.785,78.125,20.508,7.812,52.246
1532371365.912,39.551,73.730,20.508,16.113,-12.695
1532371365.916,37.598,65.430,36.621,18.555,-63.965
1532371365.920,26.367,58.594,43.945,24.902,-6.348
1532371365.924,34.180,54.688,39.551,37.109,35.156
1532371365.928,25.391,57.129,33.203,35.156,20.020
1532371365.932,18.066,59.570,25.879,28.809,-19.043
1532371365.936,20.996,62.012,23.926,29.297,-2.441
1532371365.940,20.996,63.477,23.438,31.250,38.086
1532371365.944,21.973,63.965,20.020,33.691,11.719
1532371365.947,25.879,68.359,18.555,35.156,-22.461
1532371365.951,36.133,69.336,17.578,32.715,-26.855
1532371365.955,31.250,69.336,20.996,35.156,17.578
1532371365.959,16.602,62.988,30.762,36.621,49.805
1532371365.963,14.160,57.617,36.621,35.156,-2.441
1532371365.967,19.531,60.059,31.738,30.273,-20.020
1532371365.971,16.602,63.477,24.902,24.414,11.719
1532371365.975,22.949,62.988,23.926,29.297,46.875
1532371365.979,25.879,60.547,25.391,30.762,28.320
1532371365.983,19.043,61.035,27.344,28.320,1.953
1532371365.986,26.367,58.594,29.785,31.738,25.391
1532371365.990,30.273,59.082,32.715,30.273,31.738
1532371365.994,29.785,60.547,31.250,29.297,9.277
1532371365.998,30.273,60.547,28.809,30.762,-20.020
1532371366.002,27.344,62.012,29.785,26.367,-10.254
1532371366.006,25.391,60.059,33.203,25.391,28.320
1532371366.010,27.832,57.617,33.203,31.250,19.531
1532371366.014,28.320,58.105,32.715,31.738,-36.621
1532371366.018,24.414,57.129,35.645,25.391,-31.738
1532371366.022,24.414,58.105,35.156,25.391,40.527
1532371366.026,19.531,58.594,37.109,25.391,48.828
1532371366.029,17.578,54.199,41.504,22.949,-1.465
1532371366.033,17.090,51.270,40.527,21.484,-32.715
1532371366.037,25.391,58.594,29.297,25.391,7.812
1532371366.041,32.715,61.523,26.367,26.855,61.523
1532371366.045,16.113,54.688,39.062,18.555,24.902
1532371366.049,18.555,55.176,39.551,21.484,-19.043
1532371366.053,18.066,53.711,41.504,23.438,-26.855
1532371366.057,9.277,50.781,48.828,17.578,0.000
1532371366.061,15.625,58.594,38.574,18.555,14.160
1532371366.065,13.184,62.012,33.691,15.137,-17.578
1532371366.068,2.441,57.617,40.527,7.812,14.160
1532371366.072,-3.418,54.688,45.898,6.836,63.477
1532371366.076,0.977,49.316,52.246,15.137,34.180
1532371366.080,14.648,49.805,46.387,26.855,-3.906
1532371366.084,8.789,59.570,36.621,14.160,8.789
1532371366.088,5.859,61.523,36.621,13.672,56.152
1532371366.092,16.602,58.594,35.645,20.020,49.805
1532371366.096,19.531,61.035,30.762,15.137,-0.977
1532371366.100,29.297,66.895,30.762,24.414,-13.672
1532371366.104,24.902,63.965,32.715,22.949,18.066
1532371366.108,7.324,60.059,35.156,11.230,45.898
1532371366.111,7.324,58.594,37.109,8.789,27.832
1532371366.115,7.812,57.129,36.621,9.766,-2.441
1532371366.119,7.324,54.688,39.062,11.719,34.668
1532371366.123,14.160,50.293,41.992,18.555,58.594
1532371366.127,25.391,48.340,40.527,30.273,27.832
1532371366.131,33.203,46.875,37.598,36.133,-25.391
1532371366.135,20.996,46.387,41.992,24.414,-37.109
1532371366.139,19.043,46.387,48.828,27.344,27.344
1532371366.143,35.156,43.457,48.828,44.434,48.828
1532371366.147,33.203,45.898,40.039,43.457,4.883
1532371366.150,26.367,49.805,34.668,33.691,2.930
1532371366.154,25.879,50.781,37.109,24.902,37.109
1532371366.158,21.484,51.270,38.574,24.414,90.820
1532371366.162,11.230,50.781,38.086,22.949,47.852
1532371366.166,10.742,49.316,38.086,22.461,-20.996
1532371366.170,13.672,47.363,39.551,26.855,11.230
1532371366.174,11.230,48.828,41.016,20.996,33.691
1532371366.178,8.789,49.805,39.551,16.602,19.043
1532371366.182,13.184,47.363,35.156,19.043,-2.930
1532371366.186,14.648,46.875,35.645,22.949,7.324
1532371366.190,11.719,48.340,36.133,26.855,44.922
1532371366.193,14.648,44.922,37.109,26.367,41.992
1532371366.197,18.555,44.434,35.645,29.297,1.953
1532371366.201,20.996,47.363,31.250,29.297,13.184
1532371366.205,21.484,46.875,37.109,33.203,46.387
1532371366.209,22.949,46.387,39.062,39.062,56.641
1532371366.213,25.391,48.340,33.203,38.086,-4.883
1532371366.217,22.949,47.852,34.668,33.691,-25.391
1532371366.221,13.672,48.340,37.109,27.832,33.691
1532371366.225,12.695,50.293,35.645,28.320,63.477
1532371366.229,17.090,47.363,32.715,27.344,38.086
1532371366.232,14.648,44.922,33.691,21.973,-11.230
1532371366.236,15.625,45.898,37.109,20.508,2.930
1532371366.240,17.578,47.852,35.645,25.879,69.336
1532371366.244,17.090,47.363,35.156,23.438,73.730
1532371366.248,11.719,47.363,32.227,12.207,17.578
1532371366.252,5.859,48.828,26.855,7.812,13.184
1532371366.256,16.602,49.805,26.367,12.207,50.293
1532371366.260,13.184,48.340,32.715,19.531,34.668
1532371366.264,5.371,42.480,42.480,23.926,-0.977
1532371366.268,1.953,40.039,41.992,24.414,36.621
1532371366.272,1.465,39.551,43.945,20.020,48.828
1532371366.275,7.812,45.898,42.480,19.043,14.160
1532371366.279,-0.977,53.711,35.645,14.648,7.812
1532371366.283,-10.254,49.805,37.598,9.766,13.672
1532371366.287,-17.090,46.875,39.551,9.277,48.340
1532371366.291,-19.043,44.434,41.016,10.742,50.293
1532371366.295,-2.441,41.992,43.457,23.438,16.602
1532371366.299,14.160,41.504,43.945,32.227,-0.488
1532371366.303,8.789,40.527,43.457,33.691,22.949
1532371366.307,8.789,38.086,44.434,33.691,69.336
1532371366.311,18.066,39.062,41.504,34.180,55.176
1532371366.314,28.809,44.922,36.133,26.855,-24.414
1532371366.318,28.809,45.410,34.180,25.879,-30.273
1532371366.322,20.508,43.945,34.180,31.738,61.035
1532371366.326,23.438,44.434,33.203,34.180,92.773
1532371366.330,21.484,39.551,36.621,36.621,11.230
1532371366.334,16.602,36.621,40.039,31.250,-18.555
1532371366.338,9.277,38.086,37.598,23.926,53.223
1532371366.342,16.602,38.574,35.645,29.785,81.543
1532371366.346,24.414,35.645,36.133,45.410,33.691
1532371366.350,26.855,35.156,38.086,48.828,-4.883
1532371366.354,28.809,39.551,38.574,43.457,11.230
1532371366.357,23.926,42.480,40.527,43.945,42.480
1532371366.361,21.973,41.016,40.527,42.480,13.672
1532371366.365,22.461,38.574,39.551,33.203,-17.578
1532371366.369,19.043,39.062,41.992,33.203,7.324
1532371366.373,16.602,42.480,43.457,38.574,32.715
1532371366.377,25.391,42.480,41.992,35.156,-0.488
1532371366.381,33.203,38.574,38.574,33.691,-36.621
1532371366.385,27.344,37.598,37.598,34.180,-4.395
1532371366.389,29.297,39.551,36.133,34.180,47.363
1532371366.393,42.969,43.457,35.645,32.715,60.547
1532371366.396,43.457,41.992,33.691,35.156,-1.465
1532371366.400,46.387,41.016,34.180,37.109,-27.344
1532371366.404,47.852,41.016,37.598,41.016,20.508
1532371366.408,36.133,40.527,37.109,41.016,57.129
1532371366.412,34.180,41.992,32.715,34.180,-9.277
1532371366.416,37.598,40.039,30.273,33.203,-49.805
1532371366.420,31.250,38.574,31.250,33.691,29.785
1532371366.424,25.391,39.551,28.809,36.133,42.480
1532371366.428,26.855,42.480,28.809,36.133,14.648
1532371366.432,30.762,44.922,31.738,32.227,-22.949
1532371366.435,30.273,43.945,28.320,29.297,-21.973
1532371366.439,36.133,41.992,26.855,33.691,40.039
1532371366.443,33.203,44.434,27.344,31.250,38.574
1532371366.447,21.973,46.387,28.320,26.855,-4.395
1532371366.451,23.438,45.410,29.785,23.438,-15.625
1532371366.455,17.090,47.852,30.762,18.066,16.602
1532371366.459,24.414,46.387,29.297,17.090,59.570
1532371366.463,25.879,44.434,32.227,19.531,17.090
1532371366.467,14.648,42.969,36.133,21.973,-1.465
1532371366.471,8.301,41.992,32.227,16.602,54.199
1532371366.475,2.930,43.945,31.738,11.230,88.867
1532371366.478,12.207,44.922,32.227,15.137,40.527
1532371366.482,20.508,45.898,33.203,22.949,-18.555
1532371366.486,24.414,40.039,40.527,33.203,19.043
1532371366.490,29.785,37.109,43.457,44.434,61.035
1532371366.494,36.133,46.875,35.645,36.621,27.344
1532371366.498,42.480,59.082,20.996,21.484,-35.645
1532371366.502,38.086,62.012,20.508,35.645,-2.441
1532371366.506,28.320,57.129,31.738,43.457,49.805
1532371366.510,18.555,52.246,38.574,34.180,52.246
1532371366.514,17.578,48.340,39.062,23.438,-1.465
1532371366.517,14.648,45.898,37.109,18.066,-17.090
1532371366.521,20.020,41.504,36.133,29.785,35.156
1532371366.525,39.062,38.086,36.621,49.805,45.410
1532371366.529,36.621,39.062,36.621,45.898,18.066
1532371366.533,29.785,41.016,33.691,31.250,-7.812
1532371366.537,31.738,41.016,35.645,37.109,2.441
1532371366.541,34.668,41.992,40.039,41.504,36.621
1532371366.545,40.039,43.457,35.156,38.574,13.184
1532371366.549,43.457,40.527,28.320,33.691,-4.395
1532371366.553,38.086,37.109,26.367,26.855,15.625
1532371366.557,31.250,36.133,28.809,31.250,19.043
1532371366.560,29.297,35.156,30.762,38.574,36.133
1532371366.564,29.785,34.180,29.785,43.945,8.301
1532371366.568,20.508,32.715,29.297,44.922,16.113
1532371366.572,7.324,34.668,31.738,40.039,74.219
1532371366.576,6.348,36.621,33.691,36.133,62.500
1532371366.580,8.789,34.668,30.273,40.527,-3.418
1532371366.584,7.812,34.180,30.273,39.062,-2.930
1532371366.588,6.348,38.574,32.227,33.203,54.199
1532371366.592,4.395,39.062,32.227,32.227,68.848
1532371366.596,0.488,39.551,33.203,26.367,4.883
1532371366.599,3.906,41.016,31.738,24.902,-19.531
1532371366.603,5.371,39.062,32.227,24.902,56.641
1532371366.607,-1.465,41.016,33.691,23.438,75.195
1532371366.611,-5.371,42.969,36.621,11.230,33.203
1532371366.615,-2.441,40.527,40.039,6.836,-31.250
1532371366.619,9.277,38.086,39.062,20.996,-20.020
1532371366.623,3.906,44.922,35.156,11.230,44.922
1532371366.627,-7.812,48.828,32.227,-3.906,76.172
1532371366.631,-13.672,44.434,36.133,-0.488,33.203
1532371366.635,-13.672,47.852,34.180,0.000,-8.301
1532371366.639,-6.348,56.152,29.297,1.953,39.551
1532371366.642,-0.488,57.129,29.785,5.371,65.430
1532371366.646,-6.836,52.246,29.785,1.465,9.766
1532371366.650,-6.836,49.805,30.273,5.859,-18.555
1532371366.654,-4.883,49.805,30.762,2.441,1.465
1532371366.658,-13.672,47.363,35.645,0.977,48.340
1532371366.662,-7.324,39.551,41.016,19.531,33.691
1532371366.666,10.254,38.574,42.480,25.879,-7.812
1532371366.670,14.160,47.852,35.156,20.996,24.902
1532371366.674,20.996,55.176,24.414,19.531,58.105
1532371366.678,33.691,55.176,21.484,28.320,47.363
1532371366.681,17.578,48.828,29.785,22.461,-19.531
1532371366.685,16.602,49.316,33.203,20.508,2.930
1532371366.689,25.879,52.734,32.715,34.668,71.777
1532371366.693,16.113,46.387,37.598,22.949,33.203
1532371366.697,21.484,42.480,41.504,14.160,-34.180
1532371366.701,33.203,49.805,29.785,19.531,-34.180
1532371366.705,36.133,57.129,24.902,17.090,29.297
1532371366.709,22.949,53.223,36.621,15.137,70.312
1532371366.713,8.789,49.805,41.992,13.184,-1.953
1532371366.717,11.719,49.316,41.016,12.695,-41.016
1532371366.721,14.648,47.363,39.551,13.184,18.066
1532371366.724,19.531,44.434,39.551,18.066,37.109
1532371366.728,25.391,43.457,40.039,30.273,3.418
1532371366.732,26.855,40.527,41.992,31.738,-25.391
1532371366.736,24.902,42.480,43.945,19.531,-16.602
1532371366.740,17.090,42.969,42.969,17.578,33.203
1532371366.744,20.996,37.109,42.480,26.367,41.992
1532371366.748,27.832,37.598,39.062,25.391,-0.488
1532371366.752,21.973,46.387,29.297,13.672,-5.371
1532371366.756,25.391,55.176,25.391,14.648,49.805
1532371366.760,22.461,53.223,28.809,18.555,72.266
1532371366.763,15.137,46.875,31.250,10.254,23.926
1532371366.767,25.879,47.852,30.273,19.043,15.625
1532371366.771,35.645,48.828,30.273,35.645,50.781
1532371366.775,30.273,45.898,36.133,33.691,58.105
1532371366.779,15.137,42.480,37.598,29.297,1.465
1532371366.783,7.812,42.480,34.668,29.297,-24.414
1532371366.787,10.254,42.480,36.133,28.320,34.668
1532371366.791,13.672,42.480,36.133,27.832,66.895
1532371366.795,5.371,40.527,33.691,16.113,10.742
1532371366.799,0.488,38.574,35.645,10.742,-39.551
1532371366.803,-0.977,40.039,34.180,13.184,21.973
1532371366.806,2.930,39.551,32.715,8.789,87.891
1532371366.810,3.418,39.551,33.691,7.324,68.359
1532371366.814,-0.977,43.457,30.273,7.812,-3.418
1532371366.818,-0.488,42.969,31.738,4.883,-13.184
1532371366.822,9.277,39.062,36.621,10.254,37.109
1532371366.826,7.324,41.504,36.133,18.555,59.570
1532371366.830,-0.977,41.016,38.574,19.531,9.277
1532371366.834,-0.977,36.133,45.410,20.020,-28.809
1532371366.838,4.883,36.621,47.363,22.461,13.184
1532371366.842,5.859,44.434,39.551,13.672,56.641
1532371366.845,-2.930,46.387,35.156,8.789,26.855
1532371366.849,-4.883,42.969,40.039,13.184,3.418
1532371366.853,-0.488,41.504,44.434,16.602,19.043
1532371366.857,6.836,40.527,43.457,19.043,50.781
1532371366.861,9.277,41.016,42.969,19.531,48.340
1532371366.865,8.301,37.598,44.434,25.879,4.883
1532371366.869,24.414,34.668,43.457,36.621,7.324
1532371366.873,28.809,41.504,39.062,32.715,36.133
1532371366.877,25.391,45.898,33.691,19.531,22.461
1532371366.881,19.531,42.969,34.668,20.020,-7.812
1532371366.885,13.672,37.109,40.039,25.879,-15.625
1532371366.888,25.879,37.598,38.086,30.273,19.043
1532371366.892,37.598,44.434,30.273,25.391,25.879
1532371366.896,24.414,45.410,25.879,12.695,-10.254
1532371366.900,14.160,39.062,28.320,18.555,-22.461
1532371366.904,19.531,42.480,31.738,24.902,25.391
1532371366.908,18.555,44.434,34.180,20.020,66.895
1532371366.912,19.531,41.016,32.227,29.785,4.395
1532371366.916,22.949,41.992,30.273,38.574,-17.578
1532371366.920,17.578,41.016,37.598,28.809,11.719
1532371366.924,5.371,39.551,41.504,15.625,27.832
1532371366.927,11.230,38.086,40.039,23.438,37.109
1532371366.931,15.137,36.621,40.039,32.227,-15.137
1532371366.935,7.812,38.574,36.133,24.414,-10.254
1532371366.939,11.230,41.016,35.645,16.602,41.016
1532371366.943,7.812,40.527,34.668,9.766,21.973
1532371366.947,5.371,39.551,35.645,20.508,-13.672
1532371366.951,18.066,40.527,39.551,37.109,11.230
1532371366.955,19.043,40.527,38.574,26.855,6.836
1532371366.959,5.859,40.039,37.598,24.902,9.277
1532371366.963,2.930,42.969,34.180,26.367,-16.602
1532371366.966,10.254,42.969,33.203,26.367,-41.504
1532371366.970,17.090,39.551,38.086,49.316,0.977
1532371366.974,14.648,39.551,41.992,58.594,0.000
1532371366.978,24.414,41.016,39.062,63.965,-22.949
1532371366.982,14.648,42.969,32.715,58.105,-43.457
1532371366.986,20.508,46.387,31.738,47.363,-17.578
1532371366.990,29.785,47.852,33.203,48.340,18.066
1532371366.994,-0.977,43.945,30.762,42.480,19.043
1532371366.998,-8.789,44.922,26.855,42.480,-20.508
1532371367.002,4.883,42.480,34.180,54.688,5.371
1532371367.006,0.488,35.156,42.480,56.152,48.340
1532371367.009,-1.953,35.645,41.504,63.477,49.805
1532371367.013,4.883,42.480,37.598,64.453,-10.254
1532371367.017,15.625,47.852,33.203,60.059,-31.738
1532371367.021,10.254,42.969,37.598,71.289,39.062
1532371367.025,8.789,42.969,40.039,54.199,34.668
1532371367.029,-1.465,43.457,39.551,35.645,0.000
1532371367.033,-2.930,39.551,42.480,72.266,-18.066
1532371367.037,14.648,39.551,42.480,95.215,14.648
1532371367.041,16.113,41.504,38.086,80.566,51.270
1532371367.045,20.996,41.016,34.180,83.984,35.156
1532371367.048,21.484,41.992,32.715,91.797,-20.508
1532371367.052,19.043,46.875,30.273,83.496,-34.180
1532371367.056,22.461,48.340,27.832,68.359,4.395
1532371367.060,23.438,51.270,20.508,66.406,26.855
1532371367.064,13.184,48.340,21.484,88.379,20.996
1532371367.068,6.348,41.016,33.203,117.188,20.996
1532371367.072,5.371,39.062,34.180,110.840,30.762
1532371367.076,13.672,46.387,23.438,90.820,28.320
1532371367.080,37.598,51.758,16.602,99.121,-26.367
1532371367.084,49.805,51.270,13.184,87.402,-45.898
1532371367.088,18.066,47.852,17.090,77.148,17.090
1532371367.091,-8.301,41.992,25.391,95.215,48.340
1532371367.095,-3.906,38.574,29.297,105.957,5.859
1532371367.099,22.461,41.992,25.391,100.586,-24.902
1532371367.103,31.738,40.039,26.855,99.609,-0.488
1532371367.107,19.043,36.621,29.785,112.793,40.039
1532371367.111,24.902,46.875,19.043,108.398,10.254
1532371367.115,8.301,45.410,18.555,110.840,-29.785
1532371367.119,-8.789,37.109,27.344,114.258,21.973
1532371367.123,7.324,39.551,30.762,108.398,70.801
1532371367.127,46.387,51.758,22.949,93.262,64.453
1532371367.130,55.664,60.059,16.113,83.496,-0.977
1532371367.134,28.320,52.734,24.902,118.164,-6.836
1532371367.138,19.043,45.898,33.203,140.625,72.266
1532371367.142,20.996,43.457,30.762,120.117,91.797
1532371367.146,37.109,47.852,21.973,99.121,13.672
1532371367.150,48.340,54.199,17.578,97.656,-16.113
1532371367.154,42.480,49.805,25.879,106.445,36.133
1532371367.158,26.855,48.340,31.250,102.051,79.102
1532371367.162,17.090,45.898,32.715,97.656,35.156
1532371367.166,25.391,39.551,34.180,98.633,26.855
1532371367.170,41.504,39.551,33.203,88.867,60.059
1532371367.173,50.293,46.387,32.227,70.801,25.879
1532371367.177,40.527,52.734,27.344,70.801,-11.230
1532371367.181,16.602,49.805,27.832,70.312,-16.113
1532371367.185,11.230,47.363,32.227,78.613,18.066
1532371367.189,29.297,51.270,29.297,95.215,63.477
1532371367.193,45.898,53.223,23.926,81.055,59.570
1532371367.197,52.246,54.688,16.113,45.898,3.906
1532371367.201,47.852,56.641,9.766,45.898,-10.254
1532371367.205,44.434,57.129,8.789,84.961,45.410
1532371367.209,33.691,49.805,9.277,91.309,88.867
1532371367.212,7.812,40.527,18.066,70.801,15.137
1532371367.216,5.371,38.574,25.879,70.801,-23.438
1532371367.220,23.926,38.574,23.438,90.820,53.223
1532371367.224,26.855,37.109,22.949,91.309,84.473
1532371367.228,23.438,34.180,27.344,88.867,43.945
1532371367.232,15.137,24.414,33.203,95.215,-5.371
1532371367.236,20.996,17.578,37.598,98.633,13.672
1532371367.240,44.434,26.367,29.785,96.680,57.129
1532371367.244,48.340,38.086,19.043,84.473,59.570
1532371367.248,45.410,40.039,19.043,89.355,4.883
1532371367.252,28.320,35.645,23.926,83.984,1.953
1532371367.255,7.324,33.203,28.320,69.824,31.250
1532371367.259,19.531,35.645,27.344,67.383,50.293
1532371367.263,38.086,35.156,23.926,69.824,25.391
1532371367.267,32.227,31.738,25.879,88.867,1.953
1532371367.271,30.273,35.645,27.832,84.473,72.266
1532371367.275,22.949,38.574,28.320,68.359,104.492
1532371367.279,24.902,37.109,28.809,72.266,16.602
1532371367.283,35.156,38.086,28.809,62.012,-1.465
1532371367.287,28.809,41.992,29.297,60.059,46.387
1532371367.291,17.578,41.016,31.250,67.871,41.992
1532371367.294,18.555,40.039,33.691,56.152,4.883
1532371367.298,10.254,43.945,35.156,55.664,-37.598
1532371367.302,1.953,43.457,35.156,67.383,25.391
1532371367.306,11.719,41.016,40.527,61.035,64.453
1532371367.310,15.137,41.992,40.527,43.457,20.020
1532371367.314,19.531,41.504,38.086,47.363,-12.207
1532371367.318,8.301,35.156,41.992,45.410,14.160
1532371367.322,7.324,37.109,41.504,45.898,80.566
1532371367.326,31.738,46.875,40.527,53.711,117.676
1532371367.330,14.160,48.828,41.504,33.691,60.547
1532371367.334,10.742,49.805,40.527,25.391,6.348
1532371367.337,9.277,48.340,43.457,29.297,45.898
1532371367.341,-14.160,37.598,49.316,33.203,65.918
1532371367.345,2.441,37.109,44.434,46.875,5.859
1532371367.349,24.414,39.062,43.457,47.852,-41.504
1532371367.353,15.137,35.645,46.387,35.645,-6.836
1532371367.357,-1.465,29.297,45.898,44.922,60.059
1532371367.361,3.418,23.926,49.805,55.176,42.480
1532371367.365,30.273,26.367,47.363,56.641,-30.273
1532371367.369,36.621,33.691,39.551,42.969,-18.555
1532371367.373,25.879,34.668,37.598,29.785,14.648
1532371367.376,28.809,33.203,34.180,37.109,8.301
1532371367.380,21.484,37.109,25.879,44.434,-7.324
1532371367.384,11.230,39.551,21.973,42.480,0.000
1532371367.388,7.812,37.598,27.344,31.738,30.273
1532371367.392,18.555,36.621,31.738,27.344,40.039
1532371367.396,29.785,39.062,25.879,29.785,12.207
1532371367.400,26.855,37.109,25.879,47.363,3.418
1532371367.404,21.484,34.180,33.691,61.523,27.832
1532371367.408,16.602,37.109,30.273,41.016,56.152
1532371367.412,-2.441,34.180,33.203,28.809,28.809
1532371367.415,0.977,34.668,38.086,29.785,-9.277
1532371367.419,4.883,36.621,36.133,29.297,17.090
1532371367.423,7.324,31.738,40.039,37.598,47.363
1532371367.427,17.090,31.738,42.480,42.969,61.035
1532371367.431,13.184,39.551,37.598,30.762,12.695
1532371367.435,18.555,43.457,34.668,27.832,-24.414
1532371367.439,21.973,46.387,32.715,33.203,39.062
1532371367.443,14.648,49.316,31.250,22.949,47.363
1532371367.447,9.766,48.828,34.180,21.973,-10.254
1532371367.451,15.137,49.805,33.203,30.273,1.953
1532371367.455,26.367,52.246,30.762,21.484,40.527
1532371367.458,19.043,50.293,34.180,21.484,49.316
1532371367.462,6.836,47.852,38.086,30.762,25.391
1532371367.466,1.953,48.828,37.109,25.391,10.742
1532371367.470,-0.488,46.875,38.574,17.090,42.480
1532371367.474,0.977,45.898,41.504,16.602,78.613
1532371367.478,6.348,47.852,43.945,20.996,34.180
1532371367.482,6.836,45.898,45.898,25.879,-23.438
1532371367.486,3.418,41.992,47.363,33.203,2.930
1532371367.490,-5.371,40.527,48.828,30.273,45.410
1532371367.494,-9.277,44.434,47.363,15.137,32.227
1532371367.497,-20.020,49.316,43.945,4.395,-11.230
1532371367.501,-18.555,46.387,46.875,5.859,10.254
1532371367.505,-2.930,45.898,53.711,16.602,52.246
1532371367.509,-9.277,51.270,49.805,15.625,49.316
1532371367.513,-31.738,53.223,39.062,-8.301,15.625
1532371367.517,-19.531,57.129,33.203,-15.137,11.230
1532371367.521,0.977,60.059,32.715,6.836,53.711
1532371367.525,-12.695,55.176,35.645,8.789,88.379
1532371367.529,-20.508,53.223,36.621,0.000,59.082
1532371367.533,-20.020,56.641,29.297,-4.395,-14.648
1532371367.537,-23.926,53.223,29.785,0.977,5.859
1532371367.540,-18.066,47.852,35.156,1.465,82.031
1532371367.544,-3.906,45.898,38.574,5.371,72.266
1532371367.548,14.648,41.016,44.434,29.297,12.207
1532371367.552,20.996,38.574,45.410,30.273,18.066
1532371367.556,9.766,46.387,36.621,18.066,71.777
1532371367.560,9.766,54.199,27.344,11.230,48.340
1532371367.564,9.277,51.270,26.855,2.930,-6.348
1532371367.568,19.531,44.922,32.715,11.719,-11.719
1532371367.572,24.902,42.480,37.598,15.625,27.832
1532371367.576,3.906,46.387,34.180,8.301,36.133
1532371367.579,0.488,46.875,30.273,11.230,1.465
1532371367.583,-1.465,44.922,30.762,4.883,-23.438
1532371367.587,-2.930,43.945,27.832,0.000,14.160
1532371367.591,3.906,45.410,23.438,3.906,64.941
1532371367.595,3.906,47.363,23.926,4.883,25.391
1532371367.599,-1.465,45.410,29.297,3.418,9.277
1532371367.603,-1.465,42.480,32.715,7.324,32.715
1532371367.607,-1.953,40.039,36.621,8.789,68.848
1532371367.611,-4.883,36.133,39.062,6.836,45.410
1532371367.615,9.766,33.691,39.551,21.484,-4.395
1532371367.619,23.926,37.109,36.133,30.762,2.930
1532371367.622,14.160,44.922,28.809,20.996,24.902
1532371367.626,4.883,45.898,28.320,14.160,55.664
1532371367.630,6.836,42.969,28.809,11.719,11.230
1532371367.634,12.695,48.340,24.414,-0.488,-18.555
1532371367.638,22.949,53.711,13.672,-1.465,56.152
1532371367.642,27.344,51.758,11.719,13.184,81.543
1532371367.646,11.719,44.922,17.578,3.906,27.832
1532371367.650,5.371,43.457,20.020,1.465,1.465
1532371367.654,19.531,42.969,20.996,14.648,48.340
1532371367.658,24.902,39.062,22.949,17.090,83.984
1532371367.661,25.391,37.598,26.367,19.531,54.199
1532371367.665,25.879,35.645,26.367,16.113,-6.348
1532371367.669,37.598,40.527,21.973,20.996,-10.742
1532371367.673,41.016,50.781,14.648,15.137,29.297
1532371367.677,42.969,49.805,13.184,6.348,36.133
1532371367.681,31.738,43.457,23.926,7.812,5.371
1532371367.685,14.160,45.410,27.832,-0.977,5.859
1532371367.689,12.695,45.410,29.785,-0.977,60.059
1532371367.693,16.113,33.203,36.621,10.254,44.922
1532371367.697,32.715,29.297,34.668,14.648,10.254
1532371367.701,32.227,41.016,27.832,10.254,-19.043
1532371367.704,20.020,46.387,25.391,-1.465,2.930
1532371367.708,13.672,46.387,25.391,-7.324,46.387
1532371367.712,23.438,48.828,23.926,-4.395,9.766
1532371367.716,25.879,54.688,20.508,-8.789,-19.531
1532371367.720,26.855,57.129,19.043,-3.906,36.133
1532371367.724,17.090,49.805,29.297,-0.977,74.707
1532371367.728,13.184,46.875,32.715,-6.348,44.922
1532371367.732,24.902,52.246,22.461,-7.324,-6.348
1532371367.736,20.020,50.293,22.461,-11.230,-5.371
1532371367.740,4.395,43.945,31.738,-9.766,64.941
1532371367.743,3.906,46.875,30.273,-3.418,77.637
1532371367.747,13.672,47.363,25.391,-1.465,-7.324
1532371367.751,21.973,43.457,25.391,0.488,-13.672
1532371367.755,17.090,42.480,27.344,1.465,78.613
1532371367.759,20.020,45.410,28.320,-2.441,63.477
1532371367.763,27.832,52.734,20.020,-5.371,5.371
1532371367.767,22.461,53.223,19.043,-3.906,-10.254
1532371367.771,19.531,48.828,27.832,3.906,17.578
1532371367.775,15.625,49.316,31.250,0.000,60.059
1532371367.779,18.555,54.199,26.855,-3.906,42.480
1532371367.783,23.926,56.152,22.949,-0.977,-6.836
1532371367.786,27.344,56.152,27.832,1.465,23.438
1532371367.790,29.297,53.711,29.785,6.836,43.457
1532371367.794,26.855,55.664,30.273,-1.953,13.184
1532371367.798,25.879,53.711,32.227,-3.418,-23.926
1532371367.802,23.926,47.852,32.715,3.418,-17.090
1532371367.806,22.461,47.852,34.668,1.953,31.250
1532371367.810,28.320,45.410,37.109,6.836,32.715
1532371367.814,21.973,40.527,41.016,0.977,-39.551
1532371367.818,15.625,37.109,39.551,-5.371,-24.414
1532371367.822,28.320,39.062,32.227,-1.465,51.758
1532371367.825,42.969,42.480,31.738,4.395,70.801
1532371367.829,30.273,37.598,35.645,-2.441,24.902
1532371367.833,23.926,34.180,36.133,-9.766,0.488
1532371367.837,48.828,30.762,40.039,7.812,41.992
1532371367.841,61.035,34.668,36.133,18.066,58.105
1532371367.845,53.711,42.969,24.414,5.371,39.062
1532371367.849,46.875,48.340,17.578,7.812,0.977
1532371367.853,41.992,48.340,19.531,15.625,3.906
1532371367.857,32.715,43.945,22.461,15.625,42.480
1532371367.861,35.645,44.922,21.973,19.043,27.832
1532371367.865,31.738,45.410,20.508,7.324,-17.090
1532371367.868,22.949,41.992,20.508,5.859,-2.930
1532371367.872,25.879,43.457,21.484,19.531,2.441
1532371367.876,25.879,47.363,23.438,15.625,19.043
1532371367.880,26.367,47.852,25.879,2.930,0.977
1532371367.884,28.809,46.875,26.855,6.348,-39.062
1532371367.888,34.668,44.434,29.297,17.090,36.133
1532371367.892,29.297,42.480,33.691,19.531,81.055
1532371367.896,17.578,41.016,35.645,11.719,-7.812
1532371367.900,38.574,36.621,37.109,20.020,-36.133
1532371367.904,106.445,32.227,40.527,37.598,40.039
1532371367.907,141.602,35.156,36.133,31.738,57.129
1532371367.911,138.184,42.969,28.320,10.742,2.441
1532371367.915,137.207,44.922,32.715,-2.441,-17.090
1532371367.919,140.625,42.969,36.133,-7.324,25.391
1532371367.923,139.648,49.805,26.855,-10.742,72.266
1532371367.927,142.578,54.688,18.066,-6.836,51.270
1532371367.931,147.949,48.340,22.461,0.000,3.906
1532371367.935,144.043,47.852,27.344,4.395,24.902
1532371367.939,137.695,47.852,30.273,9.277,72.266
1532371367.943,133.301,43.457,32.715,15.137,50.781
1532371367.946,124.512,43.945,31.250,13.184,-1.465
1532371367.950,128.906,43.945,28.809,18.555,-5.859
1532371367.954,142.578,40.527,31.738,29.297,9.277
1532371367.958,131.836,37.109,37.109,29.785,38.574
1532371367.962,106.934,36.621,34.668,20.020,32.227
1532371367.966,96.191,36.133,35.645,10.254,-16.113
1532371367.970,110.352,39.551,36.133,15.625,-2.930
1532371367.974,107.910,41.504,34.668,21.973,20.996
1532371367.978,84.961,39.062,37.109,12.695,24.414
1532371367.982,71.777,40.527,37.109,-2.441,-17.090
1532371367.986,66.895,38.574,37.109,3.418,-10.254
1532371367.989,77.637,37.598,34.668,22.461,50.781
1532371367.993,81.543,43.945,28.809,19.043,36.133
1532371367.997,62.988,47.363,23.438,-1.465,-14.160
1532371368.001,57.129,42.969,26.367,-4.395,-13.184
1532371368.005,68.359,42.969,29.297,11.230,18.555
1532371368.009,44.922,45.898,31.738,13.672,29.297
1532371368.013,40.039,43.457,35.156,7.324,-25.879
1532371368.017,54.199,46.387,31.738,16.113,-40.039
1532371368.021,47.852,47.852,28.320,20.508,31.250
1532371368.025,47.363,48.340,32.227,15.625,58.594
1532371368.028,31.738,45.410,36.133,14.648,2.930
1532371368.032,28.320,39.062,39.062,16.113,-48.828
1532371368.036,41.504,36.621,41.504,21.484,-0.488
1532371368.040,50.781,44.922,32.715,27.344,66.895
1532371368.044,46.875,54.199,21.484,25.879,52.246
1532371368.048,35.645,48.340,25.879,20.508,10.742
1532371368.052,15.625,47.852,25.879,5.859,4.395
1532371368.056,11.230,48.340,23.926,-1.953,48.828
1532371368.060,27.832,47.852,23.926,8.301,53.711
1532371368.064,40.527,57.129,15.625,15.137,-10.742
1532371368.068,35.645,57.129,20.996,9.277,-12.695
1532371368.071,23.438,53.711,28.320,4.883,31.738
1532371368.075,14.160,53.223,32.227,0.488,17.578
1532371368.079,9.277,48.828,36.133,2.930,-5.859
1532371368.083,6.348,45.898,37.598,2.930,2.930
1532371368.087,19.531,47.363,34.668,9.277,26.855
1532371368.091,32.227,50.293,33.203,20.508,36.621
1532371368.095,43.457,53.711,29.785,17.578,5.859
1532371368.099,45.898,58.105,25.879,14.160,-18.555
1532371368.103,25.879,56.641,26.855,13.184,13.184
1532371368.107,18.555,53.223,31.738,16.602,76.660
1532371368.110,19.531,53.711,30.762,21.484,50.293
1532371368.114,7.324,53.223,31.250,12.695,-20.996
1532371368.118,1.465,49.805,34.180,8.301,-3.418
1532371368.122,9.766,48.828,31.738,19.531,21.484
1532371368.126,16.113,49.316,32.227,29.297,43.945
1532371368.130,2.930,48.828,34.668,21.973,1.953
1532371368.134,-16.113,42.969,40.527,14.648,-22.949
1532371368.138,-1.465,38.574,45.898,31.738,47.852
1532371368.142,19.531,45.898,37.598,34.668,66.895
1532371368.146,19.531,61.035,22.949,16.602,5.859
1532371368.150,18.555,69.336,13.672,10.742,-16.113
1532371368.153,11.719,62.988,19.531,6.836,6.348
1532371368.157,-1.953,57.129,31.250,-1.953,34.180
1532371368.161,-2.930,56.641,30.762,1.953,41.992
1532371368.165,3.906,52.734,29.785,5.371,3.418
1532371368.169,15.137,53.223,27.832,12.695,18.555
1532371368.173,16.113,59.082,25.879,17.578,56.152
1532371368.177,8.789,59.570,26.367,3.906,62.988
1532371368.181,3.418,55.664,23.926,-1.465,-1.465
1532371368.185,10.742,54.199,20.020,11.719,-1.953
1532371368.189,16.113,55.664,23.438,20.996,91.309
1532371368.192,-0.488,52.734,32.227,4.395,94.238
1532371368.196,0.977,51.270,30.273,2.930,12.207
1532371368.200,10.254,49.805,27.344,16.602,3.418
1532371368.204,-1.953,42.480,30.762,10.742,52.734
1532371368.208,-5.371,36.621,37.598,10.254,89.844
1532371368.212,11.719,38.574,41.992,16.113,26.855
1532371368.216,11.719,45.898,34.668,14.648,-20.996
1532371368.220,1.953,51.270,28.320,10.254,33.203
1532371368.224,15.137,57.129,20.508,10.742,86.914
1532371368.228,21.484,60.059,15.625,17.578,64.453
1532371368.232,8.301,51.758,28.320,4.395,5.371
1532371368.235,6.836,50.293,34.180,-5.859,-13.672
1532371368.239,19.043,55.176,27.832,17.578,36.133
1532371368.243,24.414,50.781,28.809,20.508,54.688
1532371368.247,17.578,42.480,37.109,8.789,-5.371
1532371368.251,13.672,40.527,37.109,12.207,-31.250
1532371368.255,20.996,47.852,31.250,13.184,22.461
1532371368.259,18.066,52.246,28.320,16.113,59.082
1532371368.263,13.184,50.781,26.855,12.695,14.648
1532371368.267,19.043,50.781,23.438,10.742,-23.438
1532371368.271,26.855,51.758,22.949,24.902,25.879
1532371368.274,18.066,50.781,31.738,22.461,61.523
1532371368.278,-4.883,46.875,37.109,6.348,35.645
1532371368.282,0.977,39.062,41.016,11.719,-4.395
1532371368.286,23.926,37.109,42.480,26.855,29.785
1532371368.290,21.973,48.828,31.738,16.113,61.523
1532371368.294,20.020,54.199,22.461,4.395,33.691
1532371368.298,27.832,54.199,20.020,16.113,1.953
1532371368.302,12.207,47.852,29.297,21.484,3.906
1532371368.306,1.465,39.062,40.527,18.555,44.922
1532371368.310,16.113,37.598,42.480,29.785,64.941
1532371368.314,29.785,43.945,32.715,22.461,14.648
1532371368.317,31.738,60.059,17.578,16.602,-26.855
1532371368.321,23.438,55.664,25.391,26.367,39.551
1532371368.325,9.277,49.805,34.668,21.973,62.988
1532371368.329,3.906,47.363,33.203,20.996,1.953
1532371368.333,3.418,43.457,38.086,16.113,-42.969
1532371368.337,5.859,44.434,34.668,15.137,13.184
1532371368.341,18.555,46.387,30.762,30.762,83.496
1532371368.345,31.250,44.922,33.691,35.156,40.527
1532371368.349,20.508,39.062,36.133,28.320,1.465
1532371368.353,17.578,35.156,41.504,34.180,23.926
1532371368.356,37.598,34.668,42.969,44.922,86.426
1532371368.360,29.785,42.480,32.715,30.762,58.594
1532371368.364,17.090,49.316,25.391,13.184,-5.371
1532371368.368,12.207,47.852,26.855,12.695,26.855
1532371368.372,5.859,42.480,33.203,16.602,80.078
1532371368.376,15.137,40.039,34.668,25.879,71.289
1532371368.380,27.344,44.434,29.297,38.086,-4.883
1532371368.384,31.250,50.293,23.926,36.621,-14.648
1532371368.388,28.320,48.340,29.785,33.691,48.340
1532371368.392,29.785,47.363,32.715,32.227,46.387
1532371368.395,19.043,44.434,29.785,22.461,-20.996
1532371368.399,22.461,41.016,32.715,24.414,-50.781
1532371368.403,28.320,40.039,35.645,36.133,17.090
1532371368.407,26.367,38.574,38.574,46.387,75.195
1532371368.411,24.902,40.039,41.504,36.621,34.668
1532371368.415,23.438,41.016,43.457,21.484,-23.438
1532371368.419,30.762,39.551,41.016,22.461,2.930
1532371368.423,31.250,41.992,41.504,28.809,56.152
1532371368.427,33.203,41.016,47.852,37.109,48.828
1532371368.431,38.086,34.668,48.828,36.621,-11.230
1532371368.435,34.668,37.109,42.969,25.391,-43.945
1532371368.438,36.621,47.852,37.109,14.648,16.602
1532371368.442,43.457,56.641,27.344,11.230,64.453
1532371368.446,25.879,52.246,27.344,14.648,20.508
1532371368.450,22.949,50.781,30.762,10.254,-10.254
1532371368.454,35.156,56.152,31.738,5.859,0.977
1532371368.458,38.086,54.688,35.156,9.277,43.945
1532371368.462,41.992,52.246,37.109,14.160,33.203
1532371368.466,53.711,50.781,38.574,26.855,-3.418
1532371368.470,50.293,46.387,36.621,38.574,34.180
1532371368.474,32.227,42.480,40.527,35.645,31.250
1532371368.477,26.855,42.969,44.434,30.273,8.789
1532371368.481,23.438,41.016,43.457,29.297,-20.020
1532371368.485,16.602,36.621,43.945,31.250,-10.742
1532371368.489,24.902,32.227,47.363,44.922,34.180
1532371368.493,37.598,33.691,46.387,50.781,23.926
1532371368.497,35.156,43.945,36.133,36.133,-19.531
1532371368.501,33.691,50.293,31.738,24.414,0.488
1532371368.505,40.039,50.781,29.785,29.297,80.566
1532371368.509,40.039,50.781,33.203,31.738,56.152
1532371368.513,30.273,53.223,35.156,24.902,-6.348
1532371368.517,25.879,50.293,35.156,22.461,7.324
1532371368.520,28.809,47.852,38.086,24.414,34.668
1532371368.524,35.645,52.734,38.086,36.133,65.430
1532371368.528,35.156,49.316,44.922,37.598,44.922
1532371368.532,21.973,46.875,47.363,20.996,-24.414
1532371368.536,26.367,47.852,46.387,25.879,5.859
1532371368.540,47.852,46.875,45.410,42.480,70.801
1532371368.544,57.617,53.223,38.574,41.992,38.574
1532371368.548,49.805,55.176,37.109,27.832,-8.301
1532371368.552,42.480,50.781,41.504,28.809,-1.953
1532371368.556,35.645,51.758,41.992,35.156,37.598
1532371368.559,31.738,53.223,42.969,29.297,70.801
1532371368.563,35.156,52.734,46.387,27.832,28.320
1532371368.567,36.133,50.781,45.410,27.344,0.488
1532371368.571,41.016,47.852,47.363,31.738,40.039
1532371368.575,47.852,43.945,50.293,39.551,42.969
1532371368.579,47.363,47.852,45.410,39.062,7.812
1532371368.583,53.711,55.664,39.062,36.133,-18.066
1532371368.587,46.387,51.270,37.598,31.738,19.531
1532371368.591,28.320,47.852,40.039,19.043,37.109
1532371368.595,30.762,51.758,37.109,16.113,27.344
1532371368.599,35.156,48.828,36.133,20.020,9.766
1532371368.602,30.273,44.434,44.434,14.160,8.789
1532371368.606,25.879,46.875,45.898,14.160,59.082
1532371368.610,25.391,47.852,44.434,16.602,54.688
1532371368.614,34.668,48.828,41.992,20.020,-42.969
1532371368.618,50.293,47.363,37.598,24.902,-21.973
1532371368.622,38.086,43.457,40.039,23.926,54.199
1532371368.626,21.973,41.504,44.922,21.484,46.875
1532371368.630,27.832,42.969,40.527,23.438,16.113
1532371368.634,34.180,43.945,35.156,25.879,24.414
1532371368.638,25.391,43.457,39.551,23.926,43.457
1532371368.641,22.461,44.434,44.434,24.414,49.805
1532371368.645,32.715,43.945,41.504,25.391,17.578
1532371368.649,35.645,46.387,36.621,24.902,-22.949
1532371368.653,32.715,50.781,36.133,20.996,-4.395
1532371368.657,32.715,50.293,37.109,21.484,43.457
1532371368.661,31.738,46.387,36.133,26.367,45.898
1532371368.665,26.367,43.945,39.551,28.809,-15.625
1532371368.669,27.344,46.387,43.457,30.762,4.395
1532371368.673,31.738,49.805,42.969,31.250,62.012
1532371368.677,32.715,49.805,40.039,33.203,42.480
1532371368.681,29.785,47.363,42.480,35.156,-0.488
1532371368.684,33.203,46.387,45.898,33.203,22.949
1532371368.688,32.227,46.875,43.457,33.691,60.547
1532371368.692,25.391,41.992,44.922,41.504,48.340
1532371368.696,28.320,39.551,47.363,43.945,-19.043
1532371368.700,28.809,39.062,44.922,42.969,-21.484
1532371368.704,29.297,43.945,38.086,37.598,32.227
1532371368.708,32.715,49.316,36.621,27.832,52.246
1532371368.712,34.668,49.316,36.621,20.996,-1.465
1532371368.716,33.691,50.293,32.715,25.391,-35.645
1532371368.720,23.438,53.711,35.156,24.414,14.648
1532371368.723,18.066,55.176,36.133,16.602,45.410
1532371368.727,28.809,52.246,37.598,22.461,36.621
1532371368.731,31.738,48.828,41.992,29.785,-1.465
1532371368.735,24.902,48.340,43.457,24.414,0.000
1532371368.739,18.066,46.875,46.387,19.043,45.898
1532371368.743,19.531,41.992,47.852,20.020,30.273
1532371368.747,31.738,41.504,42.480,26.367,-26.367
1532371368.751,50.293,47.852,37.598,35.156,-26.855
1532371368.755,41.016,46.875,43.457,31.250,35.156
1532371368.759,15.625,41.992,48.828,26.367,91.309
1532371368.763,21.484,35.156,49.316,34.180,46.387
1532371368.766,35.645,31.250,48.340,42.969,10.254
1532371368.770,45.410,40.527,36.133,39.551,36.621
1532371368.774,42.480,49.316,30.762,28.809,51.270
1532371368.778,24.902,46.387,31.738,18.066,32.715
1532371368.782,25.391,44.434,28.809,17.090,-11.719
1532371368.786,36.133,46.387,25.879,24.414,16.602
1532371368.790,35.156,44.922,26.855,24.902,44.434
1532371368.794,24.414,46.387,32.227,11.719,14.160
1532371368.798,35.156,47.363,29.785,19.043,-16.602
1532371368.802,44.434,44.922,28.320,37.109,1.953
1532371368.805,30.762,44.434,34.668,29.785,39.551
1532371368.809,26.367,44.434,33.691,23.926,38.086
1532371368.813,26.855,40.039,32.227,26.367,1.953
1532371368.817,22.461,39.551,35.156,29.785,-4.395
1532371368.821,20.996,44.434,34.180,28.320,17.578
1532371368.825,29.785,44.434,33.691,27.344,38.086
1532371368.829,39.062,44.922,32.715,32.715,8.301
1532371368.833,40.039,49.316,32.715,29.297,-18.066
1532371368.837,34.180,54.688,33.691,22.461,7.324
1532371368.841,33.203,57.617,32.227,18.555,56.641
1532371368.844,29.785,53.223,34.180,16.602,42.480
1532371368.848,39.551,51.758,34.668,18.555,-25.391
1532371368.852,47.363,55.664,29.785,16.602,-39.062
1532371368.856,27.832,60.059,30.762,3.906,12.695
1532371368.860,20.508,61.523,30.273,-0.488,36.133
1532371368.864,25.879,56.641,29.297,7.812,-6.836
1532371368.868,25.391,52.734,35.156,15.137,11.230
1532371368.872,26.367,53.223,37.598,16.602,37.598
1532371368.876,37.109,57.617,39.062,20.508,36.133
1532371368.880,49.316,59.570,39.062,28.320,12.695
1532371368.884,41.992,51.270,39.062,35.156,-33.203
1532371368.887,32.227,44.922,40.039,29.785,-4.883
1532371368.891,39.062,43.945,40.527,18.066,24.902
1532371368.895,42.480,49.316,36.133,20.996,-10.254
1532371368.899,32.715,54.688,29.297,20.508,-6.836
1532371368.903,24.414,53.711,31.250,15.137,-0.977
1532371368.907,30.273,51.270,32.715,13.184,54.199
1532371368.911,45.898,52.246,31.250,20.996,26.855
1532371368.915,37.109,50.293,33.203,24.414,-43.457
1532371368.919,20.020,48.340,32.715,15.625,6.836
1532371368.923,24.902,50.781,33.203,14.160,67.871
1532371368.926,32.227,49.316,33.203,14.648,38.574
1532371368.930,33.203,44.434,33.203,8.789,-37.598
1532371368.934,39.062,45.410,31.250,11.719,-30.762
1532371368.938,52.734,52.246,26.367,20.020,41.016
1532371368.942,48.828,55.664,23.926,18.066,66.406
1532371368.946,35.645,54.199,26.367,15.625,11.719
1532371368.950,29.297,52.734,31.738,14.160,-43.457
1532371368.954,27.832,47.852,36.621,9.766,6.836
1532371368.958,33.691,42.969,35.645,25.391,67.383
1532371368.962,43.457,46.875,31.250,32.227,24.414
1532371368.966,39.551,52.734,25.879,20.508,-8.301
1532371368.969,34.668,57.617,20.996,15.625,13.184
1532371368.973,38.086,58.594,19.043,17.578,33.203
1532371368.977,33.691,55.176,20.508,16.113,14.160
1532371368.981,25.391,52.246,22.949,13.184,-34.668
1532371368.985,26.367,48.828,24.902,14.648,-22.949
1532371368.989,32.227,49.316,25.879,13.672,39.062
1532371368.993,36.621,52.246,24.902,15.625,15.137
1532371368.997,49.805,51.758,23.926,27.832,-33.691
1532371369.001,44.922,47.852,25.391,32.227,1.465
1532371369.005,29.785,45.898,29.785,20.508,52.246
1532371369.008,31.738,48.340,30.273,19.531,66.895
1532371369.012,49.316,50.781,25.879,26.855,12.207
1532371369.016,56.641,51.758,25.391,31.250,-2.930
1532371369.020,45.410,53.223,27.344,29.297,23.926
1532371369.024,42.969,52.734,29.785,30.762,38.574
1532371369.028,41.016,49.316,34.180,35.156,16.113
1532371369.032,35.645,45.410,33.203,32.715,-33.691
1532371369.036,39.551,44.922,29.785,31.738,-5.859
1532371369.040,48.828,49.805,27.832,35.156,46.875
1532371369.044,42.480,52.246,29.297,33.691,56.152
1532371369.048,31.738,51.270,33.203,27.832,20.508
1532371369.051,43.457,53.711,29.297,30.762,1.465
1532371369.055,50.781,51.758,26.855,33.691,45.898
1532371369.059,48.340,51.270,28.809,34.668,60.059
1532371369.063,58.594,52.246,26.855,40.039,19.043
1532371369.067,62.988,52.734,27.344,37.109,-16.602
1532371369.071,51.270,54.688,29.297,26.855,-2.930
1532371369.075,52.246,51.270,30.273,23.438,33.691
1532371369.079,54.199,47.852,31.738,30.273,22.461
1532371369.083,46.875,46.387,37.598,39.551,8.789
1532371369.087,41.016,42.969,40.039,44.434,41.992
1532371369.090,35.156,42.969,38.574,53.711,43.457
1532371369.094,34.180,39.062,39.551,53.711,-20.020
1532371369.098,33.691,36.621,38.574,45.898,-42.969
1532371369.102,29.785,45.410,27.832,40.527,19.531
1532371369.106,19.043,48.340,23.926,31.250,67.871
1532371369.110,4.883,44.922,29.297,22.949,65.430
1532371369.114,11.230,44.922,30.273,24.414,27.344
1532371369.118,29.297,43.457,27.832,35.156,26.367
1532371369.122,49.316,40.527,28.320,48.828,62.988
1532371369.126,61.035,41.016,27.832,48.828,64.941
1532371369.130,63.477,47.363,20.996,41.504,1.953
1532371369.133,58.594,49.805,21.484,40.039,-61.035
1532371369.137,44.434,49.805,24.414,36.621,0.488
1532371369.141,43.945,48.340,20.996,33.203,64.941
1532371369.145,41.992,41.016,22.461,38.086,31.250
1532371369.149,41.992,32.227,29.297,49.316,17.578
1532371369.153,57.129,35.156,27.832,54.688,48.340
1532371369.157,65.918,44.922,24.414,50.781,74.707
1532371369.161,50.293,49.805,21.484,41.992,55.176
1532371369.165,44.922,57.129,10.254,28.320,7.812
1532371369.169,51.758,63.477,2.441,30.762,30.273
1532371369.172,38.574,57.129,13.184,26.367,43.945
1532371369.176,32.715,54.688,18.555,19.531,23.926
1532371369.180,30.762,57.129,17.090,23.438,-1.953
1532371369.184,29.297,59.082,20.508,18.555,48.828
1532371369.188,38.086,61.523,20.508,20.996,92.285
1532371369.192,42.969,55.176,24.414,27.832,73.730
1532371369.196,48.340,53.711,23.438,35.645,38.086
1532371369.200,53.711,64.941,13.184,33.203,7.812
1532371369.204,44.922,70.312,10.742,26.367,21.973
1532371369.208,22.949,63.965,20.508,16.113,67.383
1532371369.212,9.766,58.594,23.926,8.789,27.344
1532371369.215,20.508,52.734,27.832,23.926,-40.039
1532371369.219,35.156,55.664,29.297,36.133,18.066
1532371369.223,33.691,63.965,20.020,23.926,64.453
1532371369.227,34.180,65.430,16.113,16.113,22.461
1532371369.231,33.203,66.895,19.043,15.137,-43.457
1532371369.235,34.668,68.848,16.113,10.254,-20.020
1532371369.239,47.363,77.637,5.859,14.648,42.480
1532371369.243,39.062,75.684,8.301,16.602,53.711
1532371369.247,21.484,68.359,17.090,4.395,27.832
1532371369.251,11.719,64.941,16.602,1.465,-6.348
1532371369.254,15.137,56.152,20.508,11.230,24.902
1532371369.258,35.156,55.664,23.926,22.461,32.227
1532371369.262,41.504,66.895,15.137,16.602,-31.250
1532371369.266,38.086,70.312,8.789,17.090,-41.504
1532371369.270,27.832,66.895,18.555,20.020,-13.184
1532371369.274,15.137,63.965,26.367,7.324,-0.977
1532371369.278,22.461,54.199,26.855,14.648,-7.812
1532371369.282,32.715,53.223,21.484,20.508,-7.324
1532371369.286,42.969,63.477,17.090,14.160,27.832
1532371369.290,43.457,68.359,16.113,13.184,46.387
1532371369.294,33.203,68.848,17.578,4.883,45.898
1532371369.297,36.133,68.359,15.625,4.883,3.906
1532371369.301,33.691,67.383,13.184,4.883,-0.977
1532371369.305,36.133,69.824,13.672,5.371,66.895
1532371369.309,45.410,76.660,8.301,7.812,80.078
1532371369.313,53.223,80.078,-0.977,10.254,-1.465
1532371369.317,50.293,72.266,1.465,18.555,-32.715
1532371369.321,30.273,62.500,12.695,17.090,50.781
1532371369.325,12.695,58.105,18.066,8.789,73.730
1532371369.329,14.160,54.199,18.555,12.695,21.484
1532371369.333,28.320,47.363,20.508,34.668,-21.484
1532371369.336,33.691,48.340,20.508,38.574,20.996
1532371369.340,29.785,57.129,16.602,22.461,83.008
1532371369.344,40.039,57.617,19.043,28.809,62.012
1532371369.348,48.828,57.129,21.484,32.715,-10.254
1532371369.352,37.109,61.523,18.066,22.949,7.812
1532371369.356,37.109,64.453,18.555,20.020,68.359
1532371369.360,34.668,68.848,15.137,11.719,48.828
1532371369.364,33.691,75.684,9.277,13.184,-11.230
1532371369.368,36.133,74.219,6.836,24.414,-8.301
1532371369.372,20.996,62.988,17.090,14.160,30.762
1532371369.375,11.230,59.570,23.438,12.207,39.062
1532371369.379,18.066,59.570,25.391,24.902,9.277
1532371369.383,23.926,56.152,32.715,26.855,-15.137
1532371369.387,28.320,61.035,25.391,21.484,40.039
1532371369.391,29.785,63.965,20.996,19.531,68.848
1532371369.395,19.531,58.105,27.832,25.879,27.344
1532371369.399,25.879,52.246,30.273,31.738,-0.488
1532371369.403,39.062,55.176,30.273,32.227,43.945
1532371369.407,29.297,62.500,25.879,25.391,93.262
1532371369.411,23.438,62.012,21.484,15.137,45.898
1532371369.415,28.320,60.547,18.555,10.254,-36.133
1532371369.418,36.621,62.012,14.160,18.066,-15.625
1532371369.422,26.367,61.035,13.672,21.484,46.875
1532371369.426,21.484,52.246,24.414,27.344,38.574
1532371369.430,35.156,48.828,31.738,32.715,-39.551
1532371369.434,28.809,56.641,25.391,15.137,-34.180
1532371369.438,15.137,62.500,18.066,-0.977,34.180
1532371369.442,24.902,64.941,10.254,-3.418,28.320
1532371369.446,40.527,64.453,7.324,13.184,-23.438
1532371369.450,28.809,56.641,20.996,20.508,-8.789
1532371369.454,19.531,55.176,28.809,13.184,12.207
1532371369.457,30.762,56.641,28.809,24.902,34.668
1532371369.461,41.504,45.898,35.645,42.969,33.203
1532371369.465,41.016,48.340,34.668,43.457,-16.113
1532371369.469,31.250,58.594,29.297,28.809,-3.906
1532371369.473,34.180,60.059,26.855,24.414,43.457
1532371369.477,35.156,63.477,21.973,22.461,29.297
1532371369.481,41.504,67.871,17.578,18.066,-41.992
1532371369.485,44.922,66.895,19.043,21.484,21.973
1532371369.489,24.414,55.664,30.762,22.949,79.102
1532371369.493,16.113,49.805,39.062,25.391,33.203
1532371369.497,33.203,52.734,36.621,38.574,6.836
1532371369.500,40.527,57.617,30.273,40.039,11.719
1532371369.504,41.992,62.500,29.297,31.250,52.734
1532371369.508,38.574,65.918,30.762,27.344,71.289
1532371369.512,38.574,71.289,30.762,20.996,0.000
1532371369.516,45.410,74.219,31.250,20.020,-42.480
1532371369.520,40.527,70.312,30.762,27.832,20.996
1532371369.524,45.898,63.477,38.574,33.203,60.547
1532371369.528,52.734,62.012,44.922,33.203,38.086
1532371369.532,50.293,68.359,40.039,30.762,-16.602
1532371369.536,51.270,72.754,39.551,42.480,0.488
1532371369.539,54.199,71.777,43.945,52.734,49.316
1532371369.543,59.082,69.824,46.387,50.293,24.414
1532371369.547,60.059,72.754,44.434,47.852,8.301
1532371369.551,54.688,79.102,42.969,41.504,17.090
1532371369.555,62.500,77.637,44.434,42.969,24.902
1532371369.559,66.406,82.031,40.039,41.992,22.949
1532371369.563,57.617,85.449,35.156,40.039,-15.137
1532371369.567,48.828,74.219,47.852,35.645,1.465
1532371369.571,35.645,68.359,58.594,26.367,22.461
1532371369.575,45.410,70.312,56.641,31.250,14.160
1532371369.579,52.734,72.266,53.223,40.039,-4.883
1532371369.582,52.246,74.707,47.852,39.062,-14.160
1532371369.586,58.105,75.195,48.828,42.969,26.367
1532371369.590,57.617,73.730,48.340,43.945,32.715
1532371369.594,47.363,72.266,48.340,39.062,10.742
1532371369.598,43.457,69.824,53.223,40.039,6.348
1532371369.602,45.410,69.336,52.246,45.410,20.020
1532371369.606,47.852,70.312,50.781,43.457,61.035
1532371369.610,59.570,69.336,47.363,39.551,54.688
1532371369.614,61.035,74.219,41.016,33.691,-16.113
1532371369.618,61.523,84.473,30.273,28.809,-22.949
1532371369.621,66.895,82.520,31.738,37.598,25.879
1532371369.625,59.082,73.730,46.875,43.457,41.504
1532371369.629,51.270,71.777,52.246,36.133,-12.207
1532371369.633,40.527,64.941,55.176,36.621,-27.832
1532371369.637,49.316,54.688,61.523,57.129,25.879
1532371369.641,61.523,62.012,56.641,61.035,48.340
1532371369.645,53.711,68.848,49.805,52.734,19.531
1532371369.649,52.246,66.406,48.828,46.875,7.812
1532371369.653,55.176,71.777,41.992,40.527,16.602
1532371369.657,54.688,73.242,42.969,48.828,51.758
1532371369.661,59.082,63.965,51.758,49.316,34.668
1532371369.664,56.152,58.105,53.223,39.062,-20.020
1532371369.668,50.293,61.523,48.828,44.922,5.371
1532371369.672,60.547,60.059,46.387,51.758,70.801
1532371369.676,62.012,49.316,50.781,43.457,46.387
1532371369.680,52.246,44.434,54.688,32.227,-54.688
1532371369.684,60.547,48.340,46.387,29.297,-33.203
1532371369.688,74.707,56.641,38.086,33.203,46.387
1532371369.692,82.031,58.594,38.086,46.387,45.898
1532371369.696,82.031,49.805,47.363,50.293,3.906
1532371369.700,64.453,44.922,52.246,41.016,0.000
1532371369.703,56.641,37.598,58.594,48.828,59.082
1532371369.707,67.871,33.203,61.523,69.824,75.684
1532371369.711,60.059,41.016,52.734,59.082,23.926
1532371369.715,52.734,43.945,49.805,46.875,-47.852
1532371369.719,54.199,45.410,49.805,56.641,2.930
1532371369.723,51.758,50.781,46.387,57.129,73.242
1532371369.727,50.293,52.246,45.410,55.176,48.828
1532371369.731,48.340,54.688,44.922,55.664,-13.672
1532371369.735,51.758,56.641,41.016,48.340,-20.020
1532371369.739,62.500,55.664,42.480,52.246,19.531
1532371369.743,70.312,50.781,46.875,62.500,6.836
1532371369.746,62.988,49.316,48.828,59.082,-20.508
1532371369.750,55.664,46.875,49.805,54.688,5.859
1532371369.754,59.570,43.945,50.293,54.199,63.477
1532371369.758,64.941,47.852,46.875,56.641,71.777
1532371369.762,63.965,46.387,50.293,60.547,35.645
1532371369.766,64.941,41.016,56.641,62.988,1.953
1532371369.770,67.383,38.574,53.223,62.988,24.902
1532371369.774,62.012,40.527,50.781,59.082,47.363
1532371369.778,53.711,41.504,50.781,45.410,13.184
1532371369.782,57.617,41.992,47.852,44.922,-6.836
1532371369.785,71.777,42.480,45.898,52.734,28.320
1532371369.789,78.125,42.480,44.922,47.363,59.570
1532371369.793,72.754,45.898,41.992,40.039,18.555
1532371369.797,62.500,50.293,37.598,32.227,-25.879
1532371369.801,62.500,54.688,29.785,36.621,-1.465
1532371369.805,70.801,55.176,32.227,55.664,66.895
1532371369.809,64.453,48.340,41.992,54.688,61.035
1532371369.813,55.176,42.480,43.457,42.480,-14.648
1532371369.817,54.688,39.551,42.480,41.504,2.441
1532371369.821,51.758,39.551,43.945,41.992,52.734
1532371369.824,58.105,37.109,44.434,51.270,78.613
1532371369.828,61.523,28.809,50.293,58.105,24.902
1532371369.832,53.223,22.949,55.664,51.270,-52.734
1532371369.836,57.129,21.973,59.570,57.129,1.953
1532371369.840,68.359,27.832,56.641,64.453,65.430
1532371369.844,70.312,34.180,46.387,58.594,36.621
1532371369.848,71.289,32.227,41.504,56.152,-9.277
1532371369.852,66.895,33.203,38.574,42.480,6.348
1532371369.856,68.359,36.133,41.504,44.434,64.453
1532371369.860,68.359,34.180,48.828,55.664,75.195
1532371369.864,49.805,29.785,50.293,44.434,4.395
1532371369.867,58.105,33.691,42.480,39.062,-15.625
1532371369.871,70.312,39.062,38.574,44.922,33.691
1532371369.875,69.336,38.574,44.434,41.504,35.645
1532371369.879,64.941,39.551,46.387,37.598,1.953
1532371369.883,57.617,36.133,49.316,39.062,-12.695
1532371369.887,56.641,35.156,54.199,41.016,44.922
1532371369.891,51.270,33.691,53.223,38.086,83.984
1532371369.895,44.922,28.809,57.617,44.922,13.184
1532371369.899,51.270,23.926,61.523,54.199,-22.949
1532371369.903,61.035,27.344,56.641,61.523,23.438
1532371369.906,68.359,40.039,49.316,58.105,33.203
1532371369.910,63.477,44.922,45.410,43.945,11.719
1532371369.914,62.012,40.527,44.434,41.504,-22.949
1532371369.918,61.523,34.668,49.805,45.898,-15.625
1532371369.922,58.105,32.227,51.758,54.688,62.500
1532371369.926,53.223,35.156,47.852,49.805,62.988
1532371369.930,51.270,37.598,47.363,41.016,-8.789
1532371369.934,60.547,36.133,46.875,40.527,-19.531
1532371369.938,61.035,34.180,49.316,43.457,43.457
1532371369.942,57.129,34.668,53.711,45.898,68.359
1532371369.946,67.871,35.645,50.781,47.363,-4.395
1532371369.949,75.195,38.574,44.922,53.223,-36.133
1532371369.953,60.547,35.645,49.316,55.664,16.113
1532371369.957,51.758,34.180,50.293,49.316,68.359
1532371369.961,41.016,34.668,47.363,36.621,14.160
1532371369.965,35.156,30.762,48.828,39.062,-20.508
1532371369.969,46.875,29.297,49.316,51.758,6.348
1532371369.973,53.711,33.203,47.852,52.734,8.301
1532371369.977,50.293,37.109,45.410,47.852,13.184
1532371369.981,51.270,33.691,44.922,43.457,4.883
1532371369.985,51.270,31.738,43.945,41.016,18.555
1532371369.988,41.504,32.715,45.410,40.527,55.176
1532371369.992,38.574,30.762,46.875,38.086,38.086
1532371369.996,53.711,29.297,44.434,47.363,-1.953
1532371370.000,63.965,32.227,42.480,56.641,20.508
1532371370.004,53.711,35.156,41.504,45.898,61.523
1532371370.008,52.734,37.109,40.527,37.109,52.734
1532371370.012,60.059,38.574,38.574,33.691,-4.883
1532371370.016,49.316,37.598,42.480,31.250,-45.898
1532371370.020,39.551,37.598,44.922,36.133,6.836
1532371370.024,41.992,40.039,42.969,38.574,49.316
1532371370.028,39.062,38.086,39.062,33.691,38.574
1532371370.031,49.316,38.086,37.598,34.668,8.789
1532371370.035,47.363,38.574,41.016,39.062,23.438
1532371370.039,38.574,40.039,41.992,38.086,60.547
1532371370.043,43.945,42.969,42.480,31.250,70.312
1532371370.047,40.039,43.457,38.574,22.461,25.879
1532371370.051,43.457,42.969,33.203,28.809,8.789
1532371370.055,52.246,45.410,38.086,42.480,49.805
1532371370.059,44.922,45.410,44.922,39.062,59.570
1532371370.063,35.645,41.504,45.898,31.250,30.762
1532371370.067,48.828,40.527,46.875,39.062,8.301
1532371370.070,53.711,42.969,47.852,40.527,29.785
1532371370.074,47.363,40.039,53.711,39.062,34.180
1532371370.078,50.293,36.133,58.594,42.480,15.137
1532371370.082,51.758,40.527,51.758,39.062,20.020
1532371370.086,51.758,48.828,42.480,37.598,44.434
1532371370.090,48.340,50.293,42.480,38.574,40.527
1532371370.094,34.180,46.875,47.852,30.762,9.277
1532371370.098,24.414,45.898,49.805,16.602,-19.043
1532371370.102,23.438,43.457,52.246,17.090,11.719
1532371370.106,41.504,38.086,56.152,42.480,69.336
1532371370.110,62.988,41.992,52.246,53.711,45.410
1532371370.113,68.848,49.805,40.527,41.504,-20.996
1532371370.117,66.406,50.781,35.645,39.062,-21.484
1532371370.121,60.547,45.898,43.457,44.922,38.086
1532371370.125,55.664,41.504,47.363,36.621,62.500
1532371370.129,59.082,43.457,42.480,32.715,-6.348
1532371370.133,61.523,42.480,44.434,41.992,-26.367
1532371370.137,54.688,37.598,49.316,48.340,53.711
1532371370.141,50.781,37.598,49.805,46.875,78.613
1532371370.145,53.223,37.109,46.387,41.016,24.414
1532371370.149,62.500,36.621,43.457,44.922,-19.531
1532371370.152,64.941,37.598,44.922,41.992,-32.227
1532371370.156,53.711,41.016,44.434,36.133,9.277
1532371370.160,48.828,41.016,45.410,39.551,26.367
1532371370.164,57.129,38.574,47.363,45.898,-15.625
1532371370.168,65.918,41.016,47.852,52.734,6.348
1532371370.172,66.406,41.504,45.410,50.293,44.922
1532371370.176,63.965,41.504,44.434,45.898,43.945
1532371370.180,60.059,42.969,48.340,41.992,3.906
1532371370.184,49.805,44.434,49.805,37.598,20.508
1532371370.188,58.105,46.387,53.711,38.574,43.457
1532371370.192,61.523,45.410,56.152,39.062,48.340
1532371370.195,46.875,44.434,55.664,36.621,-7.324
1532371370.199,44.434,41.504,53.223,35.156,-23.438
1532371370.203,38.574,39.551,51.758,30.762,47.363
1532371370.207,39.551,40.527,54.199,29.297,33.203
1532371370.211,47.363,39.551,55.664,32.715,-41.016
1532371370.215,47.363,39.551,54.199,31.738,-41.504
1532371370.219,42.480,41.504,54.199,29.785,24.902
1532371370.223,50.293,44.922,56.641,31.738,66.895
1532371370.227,52.734,45.410,58.594,31.738,26.367
1532371370.231,56.152,46.387,58.105,42.969,-16.602
1532371370.234,67.871,47.363,56.152,51.270,20.996
1532371370.238,62.500,45.410,58.594,50.781,72.754
1532371370.242,48.340,45.410,64.453,41.016,57.129
1532371370.246,42.969,46.875,67.383,38.086,-4.883
1532371370.250,45.410,45.410,66.895,44.922,-10.254
1532371370.254,42.480,43.457,70.312,41.016,20.996
1532371370.258,41.504,41.016,72.266,41.992,38.574
1532371370.262,54.688,45.410,65.430,44.434,-2.930
1532371370.266,58.105,52.246,61.523,37.598,-28.320
1532371370.270,38.574,54.199,61.523,20.020,20.508
1532371370.273,23.438,53.223,60.059,11.230,42.480
1532371370.277,27.832,49.316,60.547,23.438,12.695
1532371370.281,29.785,45.898,62.500,29.297,-26.367
1532371370.285,29.785,40.527,64.941,28.320,-10.254
1532371370.289,38.086,38.574,71.289,36.133,5.859
1532371370.293,51.758,44.922,68.848,35.645,-9.277
1532371370.297,54.688,51.270,55.664,34.668,-47.363
1532371370.301,52.246,50.781,47.852,36.133,-28.320
1532371370.305,50.781,45.410,55.176,29.785,51.758
1532371370.309,51.270,41.016,62.012,31.738,41.992
1532371370.313,56.152,46.875,54.199,30.762,-17.578
1532371370.316,71.289,47.363,50.293,36.133,-22.949
1532371370.320,74.707,46.387,55.664,39.551,6.836
1532371370.324,70.312,50.293,55.176,27.832,60.547
1532371370.328,77.637,48.828,52.246,25.391,38.086
1532371370.332,78.613,45.410,53.711,30.273,-18.555
1532371370.336,72.266,41.992,54.199,39.551,32.227
1532371370.340,65.918,40.527,50.781,48.340,72.754
1532371370.344,59.570,40.527,44.434,49.805,37.598
1532371370.348,59.570,39.551,42.480,49.805,-22.949
1532371370.352,59.570,39.551,48.828,47.852,-43.457
1532371370.355,56.152,37.598,52.734,53.223,7.324
1532371370.359,53.223,36.621,51.758,62.012,45.410
1532371370.363,59.570,38.574,52.246,57.617,-12.207
1532371370.367,66.895,40.039,54.688,57.129,-20.996
1532371370.371,59.570,40.527,53.223,60.059,27.344
1532371370.375,52.246,39.062,53.223,52.246,46.387
1532371370.379,52.734,40.527,52.734,47.363,-12.695
1532371370.383,52.734,41.504,50.781,46.875,-33.691
1532371370.387,52.734,44.434,52.734,43.457,29.785
1532371370.391,53.223,44.434,53.711,43.457,47.363
1532371370.395,56.641,39.551,54.199,44.922,-5.859
1532371370.398,59.082,40.039,53.223,34.180,-48.828
1532371370.402,54.199,44.922,49.805,30.273,6.348
1532371370.406,56.152,49.316,47.363,34.180,64.941
1532371370.410,61.035,51.270,47.363,30.762,29.785
1532371370.414,59.570,47.363,49.805,30.273,-11.719
1532371370.418,56.641,42.480,52.734,30.273,23.926
1532371370.422,63.477,48.340,46.875,26.367,65.918
1532371370.426,76.172,60.059,40.527,38.086,59.082
1532371370.430,63.477,59.082,42.480,32.715,-5.371
1532371370.434,42.480,53.223,45.898,9.277,-27.832
1532371370.437,27.344,50.293,50.293,3.906,23.438
1532371370.441,17.090,48.340,53.223,12.207,34.180
1532371370.445,29.785,39.551,60.059,27.344,-30.273
1532371370.449,58.594,37.598,62.500,42.969,-19.531
1532371370.453,66.406,49.316,54.199,36.621,23.438
1532371370.457,49.805,52.246,48.828,22.461,39.062
1532371370.461,36.621,45.898,51.758,21.484,4.883
1532371370.465,36.133,44.922,54.199,20.508,-28.809
1532371370.469,42.480,49.805,48.828,24.414,14.160
1532371370.473,53.711,57.129,43.945,34.180,45.410
1532371370.477,64.941,62.988,39.062,36.621,25.391
1532371370.480,49.805,60.547,41.504,28.809,-2.441
1532371370.484,29.297,55.664,44.434,20.996,7.324
1532371370.488,39.551,51.270,41.504,23.926,42.969
1532371370.492,55.664,47.363,47.363,29.297,20.996
1532371370.496,55.176,45.898,53.711,30.762,-20.020
1532371370.500,65.430,48.340,53.711,33.691,-5.859
1532371370.504,69.336,48.340,50.293,26.855,40.527
1532371370.508,59.570,49.316,50.781,26.367,62.988
1532371370.512,49.805,50.781,51.758,24.414,-0.488
1532371370.516,41.016,46.875,54.199,27.832,-23.438
1532371370.519,48.828,38.574,62.500,45.410,34.668
1532371370.523,62.988,39.551,65.918,47.852,55.664
1532371370.527,62.500,54.688,54.688,35.156,19.531
1532371370.531,54.688,62.012,44.434,22.461,-17.578
1532371370.535,43.945,65.430,41.016,19.043,17.578
1532371370.539,46.387,68.359,40.527,24.902,61.035
1532371370.543,41.016,62.012,45.898,21.973,24.902
1532371370.547,31.738,59.082,48.340,14.648,-20.996
1532371370.551,49.316,63.477,44.922,20.508,-18.066
1532371370.555,51.270,62.500,42.969,20.508,27.344
1532371370.559,38.086,57.617,47.363,13.184,47.363
1532371370.562,29.297,55.176,46.387,10.742,0.488
1532371370.566,35.156,56.152,44.922,18.555,-14.160
1532371370.570,43.945,57.129,51.758,26.367,23.926
1532371370.574,37.109,55.664,56.152,24.414,42.969
1532371370.578,21.484,49.805,58.594,19.043,13.184
1532371370.582,26.367,41.992,63.965,25.879,-11.230
1532371370.586,51.270,40.039,65.918,46.875,38.574
1532371370.590,53.223,49.805,56.152,41.504,51.758
1532371370.594,39.062,59.082,50.293,18.555,2.930
1532371370.598,36.133,63.477,48.828,13.672,-26.367
1532371370.601,46.875,69.824,41.504,15.625,22.949
1532371370.605,51.758,70.801,40.527,21.484,68.848
1532371370.609,39.062,64.941,47.363,18.066,41.992
1532371370.613,41.504,62.012,48.828,13.184,-15.625
1532371370.617,51.758,64.453,44.922,20.996,-5.371
1532371370.621,40.039,63.477,51.270,21.484,47.363
1532371370.625,29.297,57.129,57.129,16.602,65.430
1532371370.629,30.762,54.199,53.711,18.066,7.812
1532371370.633,36.621,54.688,53.223,19.531,-30.273
1532371370.637,39.062,50.293,59.082,21.973,29.785
1532371370.641,54.199,52.734,57.617,32.715,64.941
1532371370.644,57.129,59.082,51.758,29.297,9.766
1532371370.648,33.691,57.129,53.223,19.043,0.977
1532371370.652,24.414,55.176,57.129,15.625,40.527
1532371370.656,22.949,50.781,55.664,20.508,73.730
1532371370.660,34.180,43.945,59.570,34.180,45.898
1532371370.664,42.480,47.363,56.641,33.691,-12.695
1532371370.668,41.504,59.570,41.016,26.855,15.625
1532371370.672,49.316,61.523,33.691,30.762,22.461
1532371370.676,46.875,55.176,41.992,27.344,16.113
1532371370.680,27.344,51.758,49.316,18.555,-5.859
1532371370.683,20.996,47.363,49.805,12.207,0.000
1532371370.687,36.621,45.410,47.363,17.578,61.035
1532371370.691,53.711,47.852,45.410,30.273,42.480
1532371370.695,44.922,46.875,48.340,27.832,-0.488
1532371370.699,26.855,41.504,50.781,17.578,-14.648
1532371370.703,37.598,37.109,54.688,30.762,7.812
1532371370.707,62.012,44.434,48.828,44.434,61.035
1532371370.711,64.941,53.711,37.598,40.039,29.785
1532371370.715,57.617,53.711,37.598,33.203,-41.992
1532371370.719,46.875,50.781,42.480,24.902,-8.301
1532371370.723,45.898,52.734,46.387,23.926,66.406
1532371370.726,42.969,56.152,43.945,28.809,50.293
1532371370.730,41.016,55.176,39.551,24.414,1.953
1532371370.734,49.316,50.781,41.992,23.926,-16.602
1532371370.738,49.316,46.875,46.875,33.691,14.160
1532371370.742,50.781,46.875,49.316,34.668,33.203
1532371370.746,47.852,48.828,46.387,30.273,1.465
1532371370.750,43.945,50.293,41.504,29.297,-3.418
1532371370.754,51.758,48.828,43.945,31.738,54.688
1532371370.758,55.664,47.852,48.828,39.551,84.961
1532371370.762,53.223,49.316,45.410,41.992,25.391
1532371370.765,38.574,50.293,46.387,27.344,-4.395
1532371370.769,34.180,45.410,52.246,21.484,32.715
1532371370.773,50.293,43.457,54.688,33.203,46.387
1532371370.777,52.246,50.781,48.828,32.715,21.973
1532371370.781,51.758,57.617,39.062,27.832,2.441
1532371370.785,52.246,58.594,37.598,30.273,25.391
1532371370.789,40.039,54.688,43.457,25.879,73.242
1532371370.793,32.227,50.293,42.969,15.625,56.641
1532371370.797,33.203,52.734,41.992,9.277,-2.930
1532371370.801,34.668,51.758,47.852,15.625,-19.043
1532371370.804,45.410,47.363,49.805,28.320,16.113
1532371370.808,53.223,46.875,50.293,35.156,40.527
1532371370.812,47.363,51.758,49.316,20.020,-16.602
1532371370.816,45.410,59.082,40.039,9.766,-14.160
1532371370.820,50.293,60.059,36.133,23.438,36.133
1532371370.824,39.551,56.641,46.875,23.438,76.660
1532371370.828,30.762,53.711,53.223,25.879,64.453
1532371370.832,32.715,46.387,61.035,39.551,11.719
1532371370.836,45.410,48.828,60.547,48.340,42.480
1532371370.840,50.293,57.617,51.758,46.875,61.035
1532371370.844,53.223,61.523,47.363,40.527,14.160
1532371370.847,62.500,68.848,37.109,43.457,-8.301
1532371370.851,51.270,65.918,41.504,41.504,-7.324
1532371370.855,41.016,62.500,43.457,38.574,42.480
1532371370.859,41.504,60.059,44.434,39.551,49.805
1532371370.863,34.668,53.223,48.340,29.785,-5.859
1532371370.867,46.387,55.176,41.016,36.133,3.906
1532371370.871,55.664,55.176,45.898,38.574,43.457
1532371370.875,51.270,53.223,53.711,35.156,55.664
1532371370.879,57.617,51.758,52.246,43.945,27.832
1532371370.883,67.383,55.664,47.852,45.898,0.977
1532371370.886,66.406,58.105,49.805,49.316,24.414
1532371370.890,57.129,56.152,50.293,47.363,36.621
1532371370.894,47.852,54.199,45.898,41.504,10.742
1532371370.898,46.387,51.270,45.898,35.645,-25.879
1532371370.902,52.246,51.758,48.828,40.039,-3.418
1532371370.906,54.199,52.246,50.781,40.039,46.387
1532371370.910,54.688,54.688,48.340,30.762,27.832
1532371370.914,59.082,55.176,44.922,28.809,-36.133
1532371370.918,53.711,52.734,51.270,34.180,-19.531
1532371370.922,47.852,51.270,53.223,37.109,29.785
1532371370.926,42.969,48.340,51.270,38.086,44.434
1532371370.929,42.969,42.969,55.664,40.527,-18.555
1532371370.933,55.176,41.992,52.246,45.410,-32.715
1532371370.937,62.500,49.805,41.504,49.805,51.270
1532371370.941,55.176,56.152,43.457,40.039,58.105
1532371370.945,41.016,54.688,45.410,24.902,8.789
1532371370.949,34.180,46.387,41.504,20.996,-3.906
1532371370.953,35.156,45.410,50.781,21.484,-4.395
1532371370.957,37.598,48.828,53.711,21.973,44.434
1532371370.961,44.922,45.898,52.734,21.484,41.504
1532371370.965,66.406,42.969,52.734,28.320,-9.277
1532371370.968,93.262,43.945,47.363,44.922,0.000
1532371370.972,74.707,46.387,44.434,39.551,10.254
1532371370.976,28.320,45.410,47.852,19.043,22.461
1532371370.980,25.879,46.875,45.410,20.508,-0.488
1532371370.984,37.109,45.410,40.527,34.180,-7.324
1532371370.988,45.898,46.387,39.062,44.922,44.922
1532371370.992,40.527,46.875,44.434,45.898,31.250
1532371370.996,30.762,43.945,48.340,35.645,-43.457
1532371371.000,26.855,42.969,47.363,28.809,-15.137
1532371371.004,30.762,45.898,44.922,35.156,49.805
1532371371.008,49.316,48.828,46.387,45.898,56.152
1532371371.011,43.945,47.852,49.805,37.109,-8.301
1532371371.015,34.180,47.363,49.805,31.250,-32.715
1532371371.019,38.574,51.270,47.852,34.180,33.203
1532371371.023,41.992,54.688,48.828,33.691,62.500
1532371371.027,49.805,53.711,49.316,38.574,40.039
1532371371.031,55.664,48.340,47.852,42.480,-6.348
1532371371.035,47.852,44.922,54.199,42.480,9.277
1532371371.039,36.621,42.480,58.105,40.527,44.434
1532371371.043,37.598,34.668,61.523,43.945,27.832
1532371371.047,48.340,29.297,64.941,56.152,-5.371
1532371371.050,58.594,36.133,58.105,56.641,-10.254
1532371371.054,55.176,45.898,51.270,46.387,40.039
1532371371.058,39.551,43.945,55.176,33.691,47.363
1532371371.062,25.879,40.039,57.129,22.461,-2.441
1532371371.066,23.926,42.969,54.688,27.832,17.578
1532371371.070,40.039,42.969,54.688,35.156,43.945
1532371371.074,50.781,45.898,50.781,32.227,62.500
1532371371.078,44.922,50.293,47.852,26.367,34.668
1532371371.082,40.039,48.828,46.387,24.902,-15.625
1532371371.086,36.621,46.387,46.387,31.738,26.855
1532371371.090,40.527,43.457,52.246,31.738,33.203
1532371371.093,43.457,38.086,52.246,23.438,-22.461
1532371371.097,38.086,34.668,49.805,27.344,-20.996
1532371371.101,40.527,35.156,50.781,34.668,26.855
1532371371.105,52.246,37.109,52.246,43.945,57.617
1532371371.109,47.852,36.621,53.711,42.480,30.762
1532371371.113,36.133,32.715,56.641,33.691,-2.930
1532371371.117,37.109,32.715,51.270,32.227,24.902
1532371371.121,43.457,31.250,49.805,38.574,41.992
1532371371.125,50.293,33.691,53.711,43.457,35.156
1532371371.129,47.363,35.156,51.758,40.527,6.836
1532371371.132,43.457,32.715,50.781,36.133,-35.156
1532371371.136,49.316,34.668,48.828,31.738,17.578
1532371371.140,46.875,34.180,47.363,31.738,70.312
1532371371.144,49.805,32.715,47.363,36.133,22.949
1532371371.148,52.246,33.203,47.852,40.527,-10.254
1532371371.152,45.410,35.645,47.363,39.062,12.207
1532371371.156,48.340,37.109,47.852,31.250,37.109
1532371371.160,44.434,37.598,48.828,29.297,46.875
1532371371.164,32.715,37.598,47.363,27.832,13.672
1532371371.168,34.668,38.086,46.387,24.414,8.789
1532371371.172,41.016,41.992,47.852,28.320,43.457
1532371371.175,42.969,41.992,45.410,29.785,50.781
1532371371.179,37.109,37.598,47.363,27.344,-4.395
1532371371.183,31.250,33.691,57.129,29.297,-35.156
1532371371.187,52.246,34.180,55.176,38.086,4.395
1532371371.191,72.754,38.574,48.340,48.828,20.996
1532371371.195,56.152,40.039,49.805,36.133,-25.879
1532371371.199,37.109,41.992,48.340,22.949,-28.320
1532371371.203,46.875,44.922,48.340,32.715,40.039
1532371371.207,46.875,42.969,54.199,33.203,63.477
1532371371.211,36.621,39.062,57.129,26.367,19.043
1532371371.214,44.922,38.574,52.246,30.762,-20.508
1532371371.218,53.711,45.410,44.434,36.133,15.625
1532371371.222,47.363,46.875,47.363,32.715,60.547
1532371371.226,35.645,41.992,52.246,31.738,30.762
1532371371.230,39.551,40.039,50.293,37.109,-14.160
1532371371.234,53.223,44.434,44.922,37.598,1.953
1532371371.238,46.875,52.734,40.039,30.762,35.156
1532371371.242,34.180,52.734,41.992,20.996,41.016
1532371371.246,35.156,47.363,39.062,17.090,6.836
1532371371.250,42.969,50.781,35.645,20.020,-9.766
1532371371.253,45.898,51.270,40.039,25.391,23.438
1532371371.257,42.480,45.898,40.527,28.320,56.641
1532371371.261,48.828,49.805,36.133,38.086,21.484
1532371371.265,56.152,55.176,33.203,42.480,-18.066
1532371371.269,37.109,51.270,36.133,31.738,0.977
1532371371.273,23.438,47.852,39.062,16.113,40.527
1532371371.277,23.926,44.434,36.621,15.137,36.133
1532371371.281,34.668,43.457,38.086,23.438,-24.902
1532371371.285,38.574,42.480,39.062,22.949,2.441
1532371371.289,28.809,41.016,33.203,8.301,33.203
1532371371.293,23.438,41.992,29.297,3.906,4.883
1532371371.296,16.113,37.598,31.250,3.418,-1.953
1532371371.300,20.020,37.598,28.809,0.488,2.930
1532371371.304,18.555,42.480,24.414,0.488,69.824
1532371371.308,17.090,41.016,26.367,-0.977,75.195
1532371371.312,14.648,36.621,28.320,-3.418,-23.438
1532371371.316,12.695,33.691,24.902,-2.441,-25.391
1532371371.320,24.902,35.645,23.926,4.395,17.090
1532371371.324,21.484,34.668,27.832,6.836,58.105
1532371371.328,18.066,31.738,29.297,4.395,37.109
1532371371.332,28.320,32.227,27.832,2.441,-43.457
1532371371.335,34.180,31.250,24.414,-1.953,1.465
1532371371.339,40.527,36.133,20.020,-3.418,101.562
1532371371.343,36.621,37.598,20.020,-6.836,83.984
1532371371.347,23.438,31.250,21.973,-13.672,9.277
1532371371.351,10.742,27.344,25.879,-16.113,33.203
1532371371.355,20.996,22.949,27.832,-11.230,79.590
1532371371.359,42.480,26.367,24.414,-2.930,70.801
1532371371.363,37.109,32.715,20.020,-3.906,28.809
1532371371.367,21.973,31.738,20.508,-6.836,33.691
1532371371.371,27.832,30.762,27.832,0.977,39.551
1532371371.375,42.480,30.762,27.832,5.371,31.738
1532371371.378,44.922,40.527,9.277,5.859,30.273
1532371371.382,44.922,46.875,2.930,-1.465,6.348
1532371371.386,31.250,41.016,15.137,-11.719,22.949
1532371371.390,18.066,38.574,19.531,-11.230,72.754
1532371371.394,24.414,35.156,18.555,-0.977,29.785
1532371371.398,32.227,33.203,19.531,7.324,-34.668
1532371371.402,35.645,31.738,20.996,9.766,17.090
1532371371.406,28.809,28.809,19.531,10.254,65.918
1532371371.410,28.320,27.832,18.066,9.766,30.762
1532371371.414,33.203,27.344,18.066,8.789,-35.645
1532371371.417,35.645,27.832,18.066,8.301,-18.066
1532371371.421,34.180,27.344,21.484,8.789,41.992
1532371371.425,30.273,28.320,21.973,5.371,45.410
1532371371.429,34.180,29.785,17.090,-1.953,8.789
1532371371.433,36.133,32.227,16.602,-5.371,-47.363
1532371371.437,30.762,32.227,19.043,-2.441,-12.695
1532371371.441,24.902,32.715,17.578,-2.441,50.781
1532371371.445,24.902,33.203,14.648,-0.488,16.113
1532371371.449,31.738,32.715,13.672,1.953,-25.879
1532371371.453,41.504,36.133,15.625,1.953,22.949
1532371371.457,35.645,35.645,20.020,2.930,80.078
1532371371.460,21.484,27.832,28.809,4.883,31.738
1532371371.464,20.020,24.414,32.715,3.418,-9.277
1532371371.468,26.367,25.879,31.250,1.465,10.254
1532371371.472,26.367,27.832,30.762,2.930,33.203
1532371371.476,23.926,26.367,32.227,6.836,37.109
1532371371.480,31.250,19.043,31.738,12.207,3.418
1532371371.484,36.133,25.391,26.367,11.719,-16.113
1532371371.488,36.621,39.062,19.043,13.672,38.574
1532371371.492,24.902,34.668,23.926,12.207,50.293
1532371371.496,20.020,29.785,24.902,0.000,2.930
1532371371.499,33.691,29.785,25.879,5.859,15.137
1532371371.503,30.273,28.320,33.691,15.137,48.828
1532371371.507,27.344,23.926,33.691,20.996,55.664
1532371371.511,33.691,23.926,31.250,21.973,0.000
1532371371.515,25.391,25.879,31.738,7.812,-43.945
1532371371.519,28.320,24.414,26.855,10.254,0.488
1532371371.523,37.109,26.855,24.902,21.484,28.320
1532371371.527,26.855,26.367,26.855,10.254,10.742
1532371371.531,8.789,22.949,25.391,-5.859,-18.066
1532371371.535,3.906,22.461,26.855,-9.277,-3.906
1532371371.539,6.348,22.461,30.273,-9.277,49.805
1532371371.542,13.672,23.438,31.738,-6.348,42.969
1532371371.546,16.113,19.531,34.180,3.906,-20.508
1532371371.550,24.414,8.789,41.016,20.996,-31.250
1532371371.554,35.156,9.277,40.039,27.832,24.414
1532371371.558,26.855,19.043,30.762,11.719,45.898
1532371371.562,26.367,27.344,23.438,-0.488,-7.324
1532371371.566,22.949,29.297,20.020,-1.953,-25.879
1532371371.570,13.672,24.414,26.367,-4.883,30.762
1532371371.574,12.695,23.926,25.879,-5.859,38.086
1532371371.578,22.461,25.879,18.066,0.000,1.953
1532371371.581,33.203,24.902,18.555,13.672,-21.973
1532371371.585,33.691,26.367,20.508,16.602,1.465
1532371371.589,27.344,25.879,19.531,4.395,60.547
1532371371.593,26.367,20.996,21.484,3.418,67.871
1532371371.597,29.297,18.555,21.484,9.277,-5.859
1532371371.601,40.527,14.648,22.949,17.578,-26.855
1532371371.605,62.500,14.160,24.414,26.855,47.363
1532371371.609,68.848,20.996,16.602,19.043,71.289
1532371371.613,56.152,25.879,16.602,4.395,4.883
1532371371.617,45.410,21.973,24.414,3.906,6.836
1532371371.621,48.340,21.484,26.855,14.160,57.617
1532371371.624,46.875,25.391,24.902,20.996,70.312
1532371371.628,34.180,22.461,23.926,21.484,15.625
1532371371.632,23.438,21.484,29.785,19.043,-24.902
1532371371.636,24.414,24.414,28.809,18.066,26.855
1532371371.640,21.973,26.367,28.320,22.949,68.848
1532371371.644,12.207,29.297,29.785,26.367,23.438
1532371371.648,8.789,31.738,27.344,21.484,-25.391
1532371371.652,13.672,31.738,28.809,9.766,3.418
1532371371.656,12.207,29.297,34.180,10.254,37.109
1532371371.660,8.789,19.531,41.016,24.902,44.922
1532371371.663,24.902,17.090,43.945,31.250,9.766
1532371371.667,39.551,31.738,35.156,21.484,6.348
1532371371.671,42.480,42.480,25.391,9.766,36.621
1532371371.675,46.875,42.969,22.949,15.137,48.828
1532371371.679,32.715,39.062,25.391,3.906,8.789
1532371371.683,12.207,40.039,24.414,-12.207,-3.906
1532371371.687,17.090,39.551,23.926,-6.348,45.898
1532371371.691,31.250,32.227,25.879,5.859,65.918
1532371371.695,34.668,29.297,24.902,7.812,22.461
1532371371.699,28.320,30.762,24.414,0.000,-2.930
1532371371.703,29.785,32.227,26.855,4.883,41.504
1532371371.706,44.922,27.832,30.273,17.578,64.941
1532371371.710,45.898,22.461,31.250,24.902,24.902
1532371371.714,38.574,25.391,25.879,20.508,-26.855
1532371371.718,48.828,30.762,22.949,20.508,11.230
1532371371.722,45.410,34.180,21.973,25.391,53.711
1532371371.726,33.691,38.574,14.648,14.648,62.500
1532371371.730,42.480,42.969,10.254,8.301,-7.812
1532371371.734,45.410,39.551,10.254,19.043,-43.945
1532371371.738,36.133,34.180,17.090,14.160,26.367
1532371371.742,32.227,34.668,20.996,8.301,20.996
1532371371.745,41.992,32.227,22.461,22.461,-11.230
1532371371.749,39.551,28.809,27.344,22.461,-3.906
1532371371.753,31.250,30.762,26.855,9.277,-0.488
1532371371.757,38.086,36.621,25.391,12.207,54.688
1532371371.761,39.551,37.109,25.391,11.230,33.691
1532371371.765,40.039,34.180,24.902,3.906,-6.836
1532371371.769,42.480,34.668,22.949,9.766,46.387
1532371371.773,44.922,35.156,23.438,20.020,75.195
1532371371.777,47.852,34.668,25.391,19.043,48.340
1532371371.781,44.922,30.762,26.367,12.207,-0.977
1532371371.784,39.551,27.832,25.879,15.625,37.109
1532371371.788,38.086,27.832,30.762,24.902,65.430
1532371371.792,37.109,33.203,30.762,16.113,53.711
1532371371.796,42.969,44.434,20.020,6.836,16.602
1532371371.800,48.340,46.875,18.066,15.137,-22.949
1532371371.804,41.992,38.574,24.414,17.090,22.949
1532371371.808,28.320,34.180,27.832,13.672,47.363
1532371371.812,19.043,33.691,32.715,7.812,-37.598
1532371371.816,24.902,28.809,37.109,7.324,-39.062
1532371371.820,33.691,24.414,37.109,22.461,62.012
1532371371.824,41.504,27.832,37.598,32.227,93.262
1532371371.827,41.992,33.203,32.227,19.531,22.461
1532371371.831,37.109,38.086,24.414,5.371,-31.250
1532371371.835,43.457,40.527,19.043,10.254,25.879
1532371371.839,41.504,36.133,23.438,19.043,54.688
1532371371.843,23.438,31.250,29.785,6.836,9.766
1532371371.847,18.066,24.414,32.227,1.465,-32.715
1532371371.851,34.180,24.414,34.180,9.277,-21.973
1532371371.855,43.457,34.668,25.391,9.277,41.504
1532371371.859,42.969,37.109,16.602,9.766,48.340
1532371371.863,44.434,34.180,18.066,11.230,-9.277
1532371371.866,38.574,27.344,25.879,10.254,-4.395
1532371371.870,29.297,22.461,30.762,11.719,21.973
1532371371.874,35.156,27.344,27.832,19.043,49.805
1532371371.878,38.574,33.691,21.973,22.949,19.531
1532371371.882,44.434,35.156,20.508,24.414,-9.277
1532371371.886,41.992,29.297,28.320,22.461,24.414
1532371371.890,33.203,26.367,33.691,15.137,41.504
1532371371.894,31.250,26.855,32.227,10.254,-10.254
1532371371.898,24.902,26.855,32.227,7.812,-54.688
1532371371.902,24.902,26.367,33.203,7.324,-12.695
1532371371.906,29.785,26.367,36.621,14.160,52.734
1532371371.909,31.250,28.320,36.621,13.184,31.738
1532371371.913,35.156,29.785,33.691,6.348,-39.551
1532371371.917,39.062,29.785,33.203,9.277,-23.438
1532371371.921,34.180,29.297,35.156,11.719,17.578
1532371371.925,28.320,25.879,39.062,13.672,20.508
1532371371.929,27.344,22.949,39.551,14.160,-15.137
1532371371.933,32.715,29.785,34.668,8.789,-51.758
1532371371.937,42.969,42.480,27.344,8.301,-2.441
1532371371.941,41.992,41.992,28.809,10.742,38.086
1532371371.945,34.668,32.227,41.504,18.066,10.254
1532371371.948,33.203,31.250,43.945,27.832,-5.859
1532371371.952,34.180,38.574,34.180,26.367,37.109
1532371371.956,35.156,40.527,34.668,24.902,64.941
1532371371.960,35.645,34.668,42.969,21.973,23.926
1532371371.964,31.250,31.738,45.898,18.555,-7.812
1532371371.968,31.250,40.527,40.527,22.461,7.812
1532371371.972,31.250,48.340,35.156,18.066,60.059
1532371371.976,29.297,41.016,34.180,10.742,31.250
1532371371.980,28.809,40.527,30.762,6.836,-46.875
1532371371.984,29.297,42.969,30.762,12.207,-7.812
1532371371.988,27.832,38.574,33.203,15.137,60.547
1532371371.991,23.926,38.086,29.785,3.418,50.293
1532371371.995,27.832,41.016,24.414,0.000,8.301
1532371371.999,39.551,46.387,16.113,12.207,18.555
1532371372.003,55.176,51.758,10.254,30.273,72.266
1532371372.007,53.223,47.852,18.066,33.691,103.516
1532371372.011,38.086,40.039,26.367,19.531,19.531
1532371372.015,37.598,38.574,30.762,18.066,-28.320
1532371372.019,41.992,37.109,33.203,19.531,34.668
1532371372.023,48.340,35.156,30.273,24.414,55.176
1532371372.027,51.270,31.738,31.250,33.691,16.602
1532371372.030,49.316,27.832,34.668,33.203,-50.781
1532371372.034,49.316,32.715,33.691,20.020,-35.156
1532371372.038,39.062,35.645,29.785,16.113,52.246
1532371372.042,29.297,35.156,29.297,19.043,50.781
1532371372.046,34.180,36.133,33.203,25.879,6.836
1532371372.050,38.574,33.691,35.645,29.785,15.137
1532371372.054,36.621,35.156,37.598,28.320,68.359
1532371372.058,40.039,39.551,37.109,34.668,72.754
1532371372.062,43.945,39.551,34.668,34.180,21.484
1532371372.066,42.969,36.621,36.621,27.344,-1.465
1532371372.070,44.922,35.645,34.668,24.414,3.418
1532371372.073,54.199,35.645,33.691,22.461,16.602
1532371372.077,47.852,35.156,37.109,17.090,-1.465
1532371372.081,37.109,36.133,37.598,10.742,-21.484
1532371372.085,40.527,30.762,40.527,20.996,22.461
1532371372.089,46.387,24.902,44.434,28.809,44.922
1532371372.093,35.645,26.855,44.922,20.996,58.594
1532371372.097,24.414,31.738,42.969,14.160,39.551
1532371372.101,27.832,37.598,37.598,11.230,33.691
1532371372.105,37.598,48.340,29.297,15.137,72.266
1532371372.109,31.250,46.387,35.645,12.695,49.805
1532371372.112,5.859,35.156,42.480,-0.977,8.789
1532371372.116,4.395,29.785,43.945,5.371,-4.395
1532371372.120,20.020,23.438,50.781,26.855,20.996
1532371372.124,26.367,28.320,44.922,27.344,56.152
1532371372.128,27.832,39.062,34.668,16.113,16.602
1532371372.132,33.691,43.945,27.832,16.602,-32.227
1532371372.136,45.410,42.969,32.227,32.715,35.156
1532371372.140,32.227,41.016,40.527,27.344,68.359
1532371372.144,19.043,37.109,39.062,11.719,8.789
1532371372.148,37.109,28.320,41.016,24.414,-20.996
1532371372.152,43.945,34.668,37.109,28.320,17.090
1532371372.155,39.551,40.039,28.809,19.531,62.012
1532371372.159,43.945,38.086,25.391,15.137,58.594
1532371372.163,46.875,41.504,22.949,16.113,-22.949
1532371372.167,48.828,43.945,21.484,20.996,0.488
1532371372.171,48.828,46.387,19.531,17.578,46.387
1532371372.175,41.992,43.457,23.438,12.207,20.508
1532371372.179,33.203,39.062,29.297,7.812,-7.324
1532371372.183,24.902,37.598,35.645,5.371,-26.855
1532371372.187,32.227,35.156,38.574,9.766,35.645
1532371372.191,45.898,34.180,37.598,23.926,61.523
1532371372.194,48.828,38.574,35.156,27.344,18.066
1532371372.198,47.363,41.016,32.715,16.602,0.488
1532371372.202,38.574,42.480,33.691,11.719,46.875
1532371372.206,39.062,46.387,30.273,7.324,94.727
1532371372.210,45.410,46.875,28.809,11.230,27.832
1532371372.214,41.016,42.969,32.227,22.949,-37.109
1532371372.218,38.086,46.387,30.273,20.508,7.324
1532371372.222,34.668,53.711,22.461,10.254,55.176
1532371372.226,32.227,52.246,18.066,6.836,41.504
1532371372.230,22.949,45.410,25.879,1.465,-38.086
1532371372.233,22.949,37.109,37.598,5.371,-41.504
1532371372.237,43.457,36.133,40.527,17.578,47.852
1532371372.241,49.316,44.434,33.203,18.066,70.801
1532371372.245,34.668,48.828,23.926,5.371,28.809
1532371372.249,35.645,48.828,23.926,-0.488,-10.742
1532371372.253,49.316,49.316,24.414,8.301,18.555
1532371372.257,50.781,49.805,22.461,3.418,51.758
1532371372.261,52.734,48.828,21.973,0.488,20.020
1532371372.265,60.059,49.805,19.531,9.766,-1.953
1532371372.269,53.223,52.246,20.020,8.789,11.230
1532371372.273,46.875,46.875,21.973,13.672,29.297
1532371372.276,43.945,41.504,20.020,21.484,26.367
1532371372.280,37.598,46.875,12.695,14.160,-8.789
1532371372.284,35.645,47.852,4.883,6.348,25.391
1532371372.288,34.668,40.527,9.766,21.973,74.219
1532371372.292,29.297,32.715,22.949,28.320,30.762
1532371372.296,36.133,31.738,27.832,28.809,-23.438
1532371372.300,42.480,41.016,21.973,23.438,-21.973
1532371372.304,32.715,45.898,18.066,7.324,13.672
1532371372.308,38.574,43.945,15.625,8.301,17.090
1532371372.312,49.316,47.363,13.184,9.766,-22.461
1532371372.315,49.805,50.293,10.742,9.766,-35.645
1532371372.319,54.688,49.805,13.184,14.648,15.625
1532371372.323,49.316,46.875,20.508,6.348,67.871
1532371372.327,36.133,47.363,17.578,-5.371,10.254
1532371372.331,40.039,45.898,16.602,2.441,-62.012
1532371372.335,40.527,37.598,23.926,17.578,-18.555
1532371372.339,43.457,30.273,33.203,26.855,55.176
1532371372.343,41.016,33.203,37.109,19.043,55.664
1532371372.347,29.785,40.527,29.297,0.488,-0.488
1532371372.351,29.297,47.852,15.625,-12.207,-18.066
1532371372.355,51.270,54.688,6.348,7.812,25.879
1532371372.358,53.223,47.852,18.555,20.996,51.270
1532371372.362,17.090,37.109,34.180,3.906,6.348
1532371372.366,20.996,29.785,38.086,14.160,6.348
1532371372.370,42.969,30.762,38.574,22.461,31.738
1532371372.374,31.250,37.109,32.715,10.254,32.227
1532371372.378,23.926,38.574,26.855,1.465,9.277
1532371372.382,33.203,42.969,21.484,-0.488,7.324
1532371372.386,47.852,45.898,18.555,13.184,49.805
1532371372.390,45.898,40.527,23.438,29.297,79.102
1532371372.394,44.434,30.762,36.133,30.273,20.508
1532371372.397,44.922,27.832,38.574,20.996,-7.812
1532371372.401,36.133,36.621,29.785,11.230,63.477
1532371372.405,42.480,40.039,25.879,15.625,108.887
1532371372.409,53.223,36.133,28.809,36.621,77.148
1532371372.413,53.223,31.738,32.715,38.086,-29.785
1532371372.417,48.340,28.809,36.133,29.297,-16.113
1532371372.421,48.340,32.715,33.203,25.391,61.035
1532371372.425,54.199,40.039,26.855,23.926,69.336
1532371372.429,61.523,37.109,25.879,28.809,14.648
1532371372.433,48.828,25.879,34.668,30.762,-20.020
1532371372.437,43.945,23.438,40.039,35.156,29.297
1532371372.440,52.246,29.785,34.180,30.762,64.941
1532371372.444,55.176,37.109,30.762,20.996,22.949
1532371372.448,55.664,36.133,31.250,21.973,-17.090
1532371372.452,51.270,31.250,35.645,23.438,-17.578
1532371372.456,44.922,29.785,36.621,20.996,42.480
1532371372.460,45.898,30.762,35.645,16.602,32.715
1532371372.464,49.316,31.738,37.598,18.555,-19.531
1532371372.468,44.434,33.203,36.133,21.973,32.715
1532371372.472,36.133,29.785,40.039,23.438,56.152
1532371372.476,37.598,21.973,47.852,30.762,32.715
1532371372.479,41.016,18.066,53.223,36.133,1.953
1532371372.483,42.969,22.949,50.293,33.691,20.996
1532371372.487,42.480,30.273,43.457,23.926,71.289
1532371372.491,30.273,34.180,39.551,11.719,52.246
1532371372.495,29.785,33.203,40.527,13.672,-10.254
1532371372.499,31.738,34.668,37.109,17.578,-12.695
1532371372.503,30.762,37.109,34.180,12.207,53.711
1532371372.507,36.621,36.621,35.645,7.324,75.195
1532371372.511,43.457,35.645,34.180,18.066,7.324
1532371372.515,53.223,36.133,31.250,20.996,-12.207
1532371372.519,50.293,36.621,26.367,17.578,32.227
1532371372.522,40.039,32.227,32.227,26.367,25.879
1532371372.526,23.438,21.484,40.039,23.438,18.066
1532371372.530,12.695,19.043,41.016,13.672,-2.441
1532371372.534,20.996,21.484,40.039,14.648,-22.949
1532371372.538,21.973,18.555,40.039,21.973,26.367
1532371372.542,20.996,10.742,47.852,23.926,40.527
1532371372.546,31.250,10.742,53.223,30.762,7.324
1532371372.550,39.551,20.508,48.340,27.832,-17.090
1532371372.554,32.715,23.926,41.016,15.137,12.695
1532371372.558,32.227,24.414,35.156,18.555,69.336
1532371372.561,32.715,23.926,31.250,18.555,14.160
1532371372.565,33.691,26.855,29.297,14.648,-0.488
1532371372.569,38.086,29.297,31.250,16.602,29.785
1532371372.573,35.645,28.320,35.156,16.113,43.457
1532371372.577,36.621,27.344,34.668,17.578,15.625
1532371372.581,36.621,25.879,30.762,19.043,-11.719
1532371372.585,45.898,29.785,30.273,21.484,20.020
1532371372.589,55.176,34.180,34.668,23.926,25.879
1532371372.593,56.152,32.227,31.738,21.484,4.883
1532371372.597,42.969,26.855,27.344,19.531,-12.695
1532371372.601,22.949,19.043,37.109,19.043,-5.859
1532371372.604,20.020,15.625,43.457,21.973,35.645
1532371372.608,31.250,8.301,47.852,32.227,51.270
1532371372.612,42.480,7.324,49.805,40.527,-17.090
1532371372.616,41.016,19.531,42.480,30.273,-18.066
1532371372.620,38.086,26.855,37.109,12.695,55.664
1532371372.624,34.668,31.738,33.203,10.254,67.871
1532371372.628,30.762,32.715,31.250,15.137,-2.930
1532371372.632,39.551,28.320,36.133,17.578,-48.828
1532371372.636,40.527,25.879,40.039,21.484,-3.418
1532371372.640,27.344,24.414,41.016,20.508,53.711
1532371372.643,30.273,22.461,41.992,21.484,39.551
1532371372.647,36.621,20.508,43.945,25.879,-6.348
1532371372.651,41.992,20.508,42.480,27.344,-5.371
1532371372.655,55.176,24.414,39.062,36.621,44.434
1532371372.659,56.641,26.367,38.086,42.480,41.016
1532371372.663,57.129,22.461,45.410,40.527,-6.348
1532371372.667,48.340,21.973,50.781,36.621,-20.996
1532371372.671,34.668,30.273,48.340,28.809,14.160
1532371372.675,36.621,34.180,42.480,20.996,68.848
1532371372.679,31.250,32.227,30.273,14.648,10.254
1532371372.682,33.691,35.645,24.414,14.648,-8.301
1532371372.686,24.414,33.203,34.668,15.137,36.133
1532371372.690,12.207,28.320,40.039,9.277,23.438
1532371372.694,18.066,26.855,38.574,11.719,-32.227
1532371372.698,25.879,25.391,41.992,25.879,-21.973
1532371372.702,39.551,23.438,39.062,34.180,29.785
1532371372.706,37.109,20.020,42.969,29.785,51.758
1532371372.710,29.785,18.555,49.316,25.391,33.203
1532371372.714,34.668,13.672,48.340,31.738,-20.020
1532371372.718,36.133,7.324,52.246,36.621,-19.531
1532371372.722,45.898,8.301,55.176,38.574,34.180
1532371372.725,48.340,14.160,45.410,30.273,23.926
1532371372.729,43.945,19.531,36.621,24.414,-35.645
1532371372.733,43.945,22.461,35.156,27.344,-26.855
1532371372.737,41.016,22.949,39.062,27.344,56.641
1532371372.741,44.922,22.949,41.016,23.926,68.848
1532371372.745,51.758,25.879,36.621,26.367,22.461
1532371372.749,50.781,28.320,40.039,30.762,16.602
1532371372.753,42.480,24.902,41.992,26.367,9.766
1532371372.757,42.969,22.949,42.480,28.809,39.551
1532371372.761,42.969,21.973,48.340,28.320,42.480
1532371372.764,38.086,21.973,48.340,20.508,21.484
1532371372.768,37.109,20.508,46.875,20.996,60.547
1532371372.772,38.574,23.438,46.875,20.996,54.688
1532371372.776,35.156,22.949,43.945,14.160,11.230
1532371372.780,35.645,22.949,39.551,15.625,-22.461
1532371372.784,41.016,26.367,38.086,20.996,-9.277
1532371372.788,42.480,25.879,41.992,19.531,47.363
1532371372.792,36.621,23.438,44.434,7.324,18.066
1532371372.796,41.016,22.949,44.434,13.672,-23.926
1532371372.800,59.570,26.855,43.457,33.691,0.488
1532371372.804,56.152,30.762,42.480,30.762,27.344
1532371372.807,37.598,30.273,43.945,23.926,43.457
1532371372.811,29.297,26.855,45.898,15.137,16.602
1532371372.815,32.715,31.250,37.598,12.207,8.789
1532371372.819,36.621,36.133,32.715,19.531,49.805
1532371372.823,34.180,33.691,40.039,20.508,101.074
1532371372.827,41.504,33.203,40.039,20.508,54.688
1532371372.831,53.711,34.180,37.598,30.762,-15.137
1532371372.835,49.316,31.250,42.969,35.645,10.742
1532371372.839,41.504,30.273,45.898,34.668,86.426
1532371372.843,42.969,29.785,48.828,36.621,94.727
1532371372.846,47.363,27.832,52.246,36.133,19.043
1532371372.850,50.293,27.344,50.781,39.551,-13.672
1532371372.854,59.082,25.879,47.852,42.969,25.879
1532371372.858,68.848,31.738,47.852,43.945,51.270
1532371372.862,57.617,35.156,47.852,39.062,-27.344
1532371372.866,44.922,31.250,45.410,30.273,-22.461
1532371372.870,36.133,29.297,47.852,27.832,34.180
1532371372.874,28.809,28.809,53.223,25.391,26.855
1532371372.878,25.879,26.855,52.246,26.367,22.949
1532371372.882,24.414,24.414,52.246,27.344,6.348
1532371372.886,40.527,26.367,56.152,31.738,16.602
1532371372.889,44.434,29.785,55.664,40.039,37.109
1532371372.893,37.109,31.738,50.293,34.668,26.855
1532371372.897,37.109,33.691,45.898,27.832,0.000
1532371372.901,37.109,33.691,43.945,22.461,29.785
1532371372.905,41.504,35.156,40.527,16.602,57.617
1532371372.909,42.480,35.645,38.574,19.531,17.578
1532371372.913,40.527,32.227,43.457,21.484,-24.902
1532371372.917,41.992,30.762,42.480,13.184,5.371
1532371372.921,57.129,32.715,39.062,25.391,56.152
1532371372.925,68.848,33.203,40.527,47.363,41.016
1532371372.928,62.012,30.273,41.016,52.246,-13.672
1532371372.932,51.270,27.832,42.969,43.945,-46.387
1532371372.936,42.480,24.902,46.875,44.922,-8.789
1532371372.940,44.922,21.484,46.387,54.688,45.410
1532371372.944,51.270,17.090,45.410,62.012,24.414
1532371372.948,47.852,14.160,47.852,64.453,-22.949
1532371372.952,51.758,12.695,46.875,60.547,13.672
1532371372.956,60.547,18.555,42.480,51.758,72.266
1532371372.960,62.012,27.344,40.527,40.039,31.738
1532371372.964,51.758,28.320,37.598,34.180,-21.973
1532371372.968,47.363,27.832,38.574,33.691,-15.625
1532371372.971,45.898,26.855,44.434,31.250,-14.160
1532371372.975,46.875,25.879,43.945,33.691,12.207
1532371372.979,50.293,25.879,42.969,37.598,12.695
1532371372.983,42.969,25.391,42.480,33.691,-9.277
1532371372.987,41.016,25.391,39.062,32.227,14.648
1532371372.991,41.504,28.320,38.574,31.250,30.762
1532371372.995,45.410,28.809,36.621,27.344,0.488
1532371372.999,47.852,28.809,37.109,30.273,3.906
1532371373.003,48.828,32.227,39.551,35.156,17.578
1532371373.007,50.781,31.738,40.039,34.180,40.527
1532371373.010,38.574,28.320,38.574,28.320,20.020
1532371373.014,33.691,26.367,37.598,29.297,-8.301
1532371373.018,41.992,27.832,38.086,37.598,50.293
1532371373.022,44.922,24.414,40.039,42.969,79.590
1532371373.026,50.781,17.090,45.898,44.922,34.668
1532371373.030,48.828,21.484,44.922,30.762,-33.203
1532371373.034,55.176,35.156,35.156,29.297,-19.531
1532371373.038,49.805,40.039,30.273,32.715,56.152
1532371373.042,29.297,32.227,39.551,25.879,45.410
1532371373.046,32.227,27.832,41.992,23.438,-19.043
1532371373.050,42.969,32.227,36.133,29.785,-15.625
1532371373.053,46.875,37.109,35.645,31.250,17.090
1532371373.057,37.598,38.086,38.086,23.926,59.082
1532371373.061,27.344,35.645,44.922,16.113,29.785
1532371373.065,23.926,34.668,43.457,16.602,-13.184
1532371373.069,35.156,29.785,41.016,30.273,36.621
1532371373.073,40.039,25.879,45.898,34.180,41.992
1532371373.077,41.504,22.949,44.922,41.016,1.953
1532371373.081,49.805,23.926,38.574,42.969,-11.230
1532371373.085,49.805,24.902,30.273,36.133,-0.977
1532371373.089,42.969,22.949,33.203,29.297,20.508
1532371373.092,44.434,20.996,39.062,30.762,20.020
1532371373.096,57.129,21.484,35.645,42.480,-30.273
1532371373.100,59.082,25.391,28.809,40.039,-13.672
1532371373.104,58.105,26.367,28.809,39.062,62.012
1532371373.108,61.035,31.250,28.809,42.480,35.156
1532371373.112,60.547,34.180,25.879,37.598,-46.387
1532371373.116,62.500,28.809,27.832,42.969,-13.672
1532371373.120,55.176,29.785,32.715,46.387,51.270
1532371373.124,51.758,34.180,30.273,39.062,52.246
1532371373.128,56.641,31.738,27.344,31.250,-20.996
1532371373.132,62.012,29.297,32.227,30.762,-35.645
1532371373.135,52.246,29.297,31.250,33.203,42.480
1532371373.139,51.758,31.250,27.344,32.227,59.082
1532371373.143,56.641,31.738,28.809,35.645,36.133
1532371373.147,51.270,30.273,30.762,33.691,-10.254
1532371373.151,49.805,32.227,32.227,23.438,-5.859
1532371373.155,46.875,37.598,31.250,19.043,39.062
1532371373.159,45.898,38.574,28.320,23.926,17.578
1532371373.163,46.875,32.715,30.273,30.762,-37.598
1532371373.167,41.504,19.531,38.086,23.926,-12.695
1532371373.171,30.273,19.043,42.969,16.602,44.922
1532371373.174,24.902,19.531,44.922,27.344,60.547
1532371373.178,40.039,9.277,49.316,41.016,4.883
1532371373.182,52.734,11.719,44.922,41.016,-19.043
1532371373.186,47.363,26.367,32.715,28.809,31.250
1532371373.190,27.832,28.809,35.156,18.555,62.012
1532371373.194,20.508,22.949,43.945,16.113,24.902
1532371373.198,28.320,23.926,41.504,21.484,1.953
1532371373.202,31.250,27.344,38.574,23.926,22.949
1532371373.206,27.832,25.391,41.992,20.508,55.176
1532371373.210,28.809,23.926,48.340,20.996,22.461
1532371373.213,34.668,30.273,45.898,23.438,-34.668
1532371373.217,43.457,36.133,35.645,23.438,-22.949
1532371373.221,38.086,33.203,36.621,22.461,60.547
1532371373.225,21.973,31.250,44.434,18.066,84.473
1532371373.229,24.902,32.227,47.363,13.672,-17.090
1532371373.233,25.391,30.762,48.828,10.254,-12.207
1532371373.237,33.691,31.250,47.852,18.555,62.988
1532371373.241,38.086,30.762,47.852,23.438,39.551
1532371373.245,20.996,26.367,50.781,20.996,-17.578
1532371373.249,32.227,22.461,52.734,23.926,-24.414
1532371373.253,45.410,25.879,50.293,26.855,2.930
1532371373.256,32.715,31.250,48.340,32.227,43.457
1532371373.260,33.203,31.250,48.828,33.203,26.367
1532371373.264,41.016,33.203,43.457,29.785,-17.578
1532371373.268,41.016,37.109,39.062,22.949,11.719
1532371373.272,36.621,39.062,40.039,21.484,73.242
1532371373.276,31.250,39.062,44.434,19.531,60.059
1532371373.280,29.297,34.180,43.945,17.578,-6.836
1532371373.284,45.410,31.250,40.527,23.926,1.465
1532371373.288,56.641,36.133,37.109,32.715,56.641
1532371373.292,45.410,37.598,37.598,24.414,30.762
1532371373.295,30.762,35.156,38.086,9.766,-39.062
1532371373.299,21.973,31.738,39.551,8.301,-20.996
1532371373.303,24.414,30.762,48.340,11.230,44.434
1532371373.307,37.598,32.715,49.316,24.902,54.199
1532371373.311,38.086,30.762,48.340,29.297,14.648
1532371373.315,32.227,29.297,45.898,22.949,4.395
1532371373.319,37.598,26.855,46.387,24.902,39.062
1532371373.323,32.227,22.949,52.246,27.832,61.035
1532371373.327,35.156,20.996,55.176,33.203,4.395
1532371373.331,45.898,17.578,51.758,39.062,-41.016
1532371373.335,46.387,15.625,52.246,42.480,-20.020
1532371373.338,54.688,16.602,51.758,45.410,14.648
1532371373.342,54.688,23.926,41.016,30.762,27.344
1532371373.346,49.805,30.762,36.133,23.926,-10.742
1532371373.350,40.039,30.762,38.574,20.996,-44.434
1532371373.354,34.180,30.273,39.551,11.719,22.949
1532371373.358,43.457,28.809,41.016,24.902,39.062
1532371373.362,38.086,24.902,41.992,26.855,-25.879
1532371373.366,30.273,25.391,42.480,19.043,0.977
1532371373.370,40.039,26.855,40.039,24.902,41.016
1532371373.374,48.340,30.273,36.621,34.668,64.453
1532371373.377,48.340,33.203,39.062,36.133,-0.977
1532371373.381,48.828,28.809,41.504,33.691,-57.617
1532371373.385,48.340,24.902,46.387,31.250,22.461
1532371373.389,41.504,29.297,49.805,19.531,59.082
1532371373.393,37.598,29.297,48.828,13.184,12.207
1532371373.397,51.270,23.926,44.922,22.949,-16.113
1532371373.401,57.129,24.414,41.504,36.133,12.207
1532371373.405,55.176,22.461,43.457,35.645,51.758
1532371373.409,42.480,19.043,45.898,20.996,44.922
1532371373.413,30.273,18.555,43.457,17.578,-1.465
1532371373.417,39.551,24.414,37.598,24.902,2.930
1532371373.420,44.434,31.250,34.180,25.391,46.875
1532371373.424,36.621,30.273,38.574,20.508,75.684
1532371373.428,29.785,27.832,42.969,11.719,25.391
1532371373.432,26.855,24.414,46.387,6.348,-19.043
1532371373.436,29.785,22.949,43.945,15.137,30.762
1532371373.440,48.828,21.973,39.062,28.809,62.500
1532371373.444,66.406,22.949,37.109,45.410,28.809
1532371373.448,60.059,22.949,36.133,42.480,1.953
1532371373.452,41.992,24.414,37.598,29.297,30.762
1532371373.456,37.109,19.531,38.574,28.320,62.500
1532371373.459,43.457,17.090,40.527,31.738,56.641
1532371373.463,41.016,16.602,38.574,30.273,-5.371
1532371373.467,43.457,14.160,33.203,36.133,18.066
1532371373.471,53.711,14.648,34.668,43.945,90.332
1532371373.475,53.223,14.648,38.574,46.387,53.711
1532371373.479,49.316,19.531,37.598,40.039,11.719
1532371373.483,44.922,19.531,36.133,29.785,5.371
1532371373.487,44.434,17.578,38.086,34.180,49.316
1532371373.491,42.480,18.555,38.086,34.180,64.453
1532371373.495,40.527,18.066,35.156,28.809,-19.531
1532371373.499,41.992,20.020,37.109,32.715,4.883
1532371373.502,48.828,22.461,39.062,33.691,70.801
1532371373.506,49.805,20.996,37.598,34.668,84.961
1532371373.510,44.922,19.531,34.180,30.273,50.781
1532371373.514,45.898,20.996,33.203,27.832,-3.906
1532371373.518,40.039,22.461,34.668,23.926,9.277
1532371373.522,38.086,23.438,33.203,16.113,34.668
1532371373.526,41.016,25.391,31.738,18.555,43.457
1532371373.530,43.945,25.879,34.668,17.578,2.441
1532371373.534,44.434,23.926,36.621,22.949,0.000
1532371373.538,42.969,21.973,35.156,28.809,57.617
1532371373.541,43.457,22.461,34.180,27.344,54.199
1532371373.545,41.504,23.438,35.156,25.879,-12.695
1532371373.549,41.992,24.902,34.180,23.926,-17.578
1532371373.553,56.641,26.855,31.250,33.691,41.504
1532371373.557,60.547,26.367,33.203,38.574,70.312
1532371373.561,46.387,24.902,37.109,28.809,48.828
1532371373.565,42.480,23.438,40.527,22.949,29.297
1532371373.569,51.270,21.484,43.457,22.949,25.391
1532371373.573,71.777,22.949,43.457,31.738,29.785
1532371373.577,79.102,28.320,41.504,26.367,-0.977
1532371373.581,68.848,31.738,37.109,16.113,-28.809
1532371373.584,65.918,32.227,34.668,24.414,10.254
1532371373.588,53.711,31.250,38.574,23.438,58.594
1532371373.592,44.434,29.785,38.086,17.578,15.137
1532371373.596,44.434,29.297,38.086,22.461,-45.410
1532371373.600,39.062,27.832,39.062,34.180,-23.438
1532371373.604,38.574,28.809,36.621,39.551,34.668
1532371373.608,41.504,30.273,38.086,36.621,48.340
1532371373.612,45.410,30.762,40.527,36.133,-5.859
1532371373.616,34.668,27.832,40.039,32.227,-21.484
1532371373.620,23.926,24.902,40.527,30.273,35.645
1532371373.623,27.344,23.926,40.527,30.273,65.430
1532371373.627,31.738,27.344,39.551,27.344,40.039
1532371373.631,34.668,31.250,40.039,23.926,-16.113
1532371373.635,47.363,32.715,36.133,27.832,-7.812
1532371373.639,53.711,34.180,34.668,34.668,58.594
1532371373.643,41.016,32.227,37.598,28.809,43.945
1532371373.647,30.273,28.809,38.574,24.902,-5.371
1532371373.651,36.621,26.367,38.574,27.344,7.812
1532371373.655,43.457,26.367,42.480,31.250,46.387
1532371373.659,36.621,27.832,47.363,26.367,51.758
1532371373.662,37.598,26.367,46.387,25.879,9.277
1532371373.666,40.039,22.949,49.316,34.180,13.672
1532371373.670,34.668,20.996,51.758,27.344,18.555
1532371373.674,56.641,25.391,48.828,42.480,12.207
1532371373.678,77.148,28.809,40.039,54.688,12.207
1532371373.682,53.223,28.320,37.598,32.227,-1.953
1532371373.686,30.762,29.297,40.039,21.484,30.273
1532371373.690,39.062,27.832,40.527,27.832,48.340
1532371373.694,55.176,23.926,41.992,40.039,4.883
1532371373.698,52.734,17.090,43.457,41.992,-17.578
1532371373.702,44.922,8.789,47.852,41.504,19.043
1532371373.705,59.082,6.836,49.805,55.176,56.641
1532371373.709,69.336,10.254,42.969,53.223,5.859
1532371373.713,68.359,17.578,33.203,39.062,-30.762
1532371373.717,68.359,22.949,30.273,43.457,20.996
1532371373.721,65.430,24.414,30.273,48.340,55.664
1532371373.725,63.477,28.320,31.250,43.457,56.641
1532371373.729,52.734,29.297,30.273,37.598,9.277
1532371373.733,45.898,27.832,28.320,34.668,3.418
1532371373.737,50.781,23.926,32.715,40.039,39.551
1532371373.741,61.035,23.438,35.156,44.922,41.016
1532371373.744,65.430,25.879,33.691,43.945,15.137
1532371373.748,60.547,24.414,37.598,38.086,5.371
1532371373.752,57.617,26.855,40.527,32.715,30.762
1532371373.756,52.246,29.785,38.086,32.227,60.547
1532371373.760,50.293,32.227,35.645,28.320,28.320
1532371373.764,51.758,32.715,35.645,23.926,-8.789
1532371373.768,59.082,32.227,35.156,22.461,29.297
1532371373.772,57.617,34.668,31.738,19.043,15.137
1532371373.776,56.641,33.203,30.273,20.508,-10.254
1532371373.780,55.176,31.738,28.809,24.414,-18.066
1532371373.784,53.223,30.762,27.832,27.344,9.766
1532371373.787,55.664,32.715,27.832,29.297,36.133
1532371373.791,60.059,34.668,25.879,27.832,16.602
1532371373.795,66.895,32.227,26.367,35.156,-11.719
1532371373.799,62.500,33.203,26.367,42.969,-41.504
1532371373.803,61.523,32.715,24.902,41.992,11.719
1532371373.807,62.988,29.785,26.367,41.504,50.781
1532371373.811,69.824,32.715,23.926,38.086,-24.902
1532371373.815,70.312,34.180,24.902,32.227,-62.012
1532371373.819,62.500,34.668,26.855,37.598,14.648
1532371373.823,62.988,34.180,28.809,39.062,40.527
1532371373.826,59.570,31.738,30.762,34.668,13.184
1532371373.830,53.711,32.715,29.785,34.180,-3.418
1532371373.834,55.176,33.203,30.273,33.203,25.879
1532371373.838,54.688,33.691,33.203,36.621,83.984
1532371373.842,51.758,33.203,30.762,36.133,62.500
1532371373.846,48.828,30.762,30.762,31.738,15.137
1532371373.850,44.434,32.715,37.598,29.297,16.113
1532371373.854,41.992,35.645,38.574,24.902,53.223
1532371373.858,34.180,34.668,35.645,20.020,46.875
1532371373.862,38.086,35.156,34.668,16.602,-22.461
1532371373.866,45.410,35.156,34.180,16.113,-5.859
1532371373.869,41.992,34.668,35.645,19.043,16.602
1532371373.873,40.527,35.645,36.621,26.855,23.438
1532371373.877,48.828,36.133,33.691,37.598,0.000
1532371373.881,45.410,34.180,39.551,32.227,-21.973
1532371373.885,24.414,30.273,45.898,15.137,28.320
1532371373.889,24.414,27.344,47.363,15.625,34.668
1532371373.893,42.969,27.832,47.363,29.297,16.113
1532371373.897,55.664,33.203,41.016,39.062,-10.742
1532371373.901,48.828,35.156,37.598,32.715,5.371
1532371373.905,41.016,36.133,39.062,26.367,62.500
1532371373.908,40.039,37.109,37.598,24.902,50.293
1532371373.912,41.992,36.621,38.086,19.043,-11.719
1532371373.916,42.969,29.785,45.898,27.344,-2.930
1532371373.920,55.176,25.391,52.734,44.434,33.691
1532371373.924,67.871,37.109,43.945,46.875,60.547
1532371373.928,67.871,45.898,30.273,42.480,12.207
1532371373.932,57.617,41.992,32.227,34.180,-34.668
1532371373.936,50.293,40.039,36.133,29.297,20.020
1532371373.940,65.918,41.016,34.180,35.645,61.523
1532371373.944,58.594,35.156,38.086,40.527,19.043
1532371373.948,44.922,33.691,41.504,31.738,-25.391
1532371373.951,39.551,38.574,35.156,18.555,-22.949
1532371373.955,42.969,35.645,35.156,23.438,10.254
1532371373.959,48.340,32.227,37.598,25.879,18.066
1532371373.963,40.527,37.598,37.109,17.090,3.906
1532371373.967,46.387,47.363,32.227,17.090,20.508
1532371373.971,43.457,47.852,31.250,18.555,24.902
1532371373.975,41.992,37.109,39.062,20.508,1.953
1532371373.979,43.457,32.227,41.504,26.367,-29.785
1532371373.983,41.016,43.945,31.738,26.855,-8.789
1532371373.987,41.016,49.316,28.320,15.137,17.578
1532371373.990,40.039,47.363,32.715,2.441,10.254
1532371373.994,41.504,49.316,29.785,6.348,1.953
1532371373.998,48.340,52.734,23.926,18.066,-10.254
1532371374.002,46.387,49.316,28.320,22.949,30.273
1532371374.006,39.062,43.945,32.715,20.020,62.012
1532371374.010,34.668,42.480,30.273,12.695,15.625
1532371374.014,33.203,38.086,37.598,6.836,-17.578
1532371374.018,39.551,36.133,40.527,9.766,32.227
1532371374.022,44.922,41.504,31.738,16.113,66.406
1532371374.026,45.410,46.387,25.391,15.625,30.762
1532371374.030,45.410,38.086,30.273,13.672,-6.348
1532371374.033,35.156,27.832,37.109,12.695,-0.977
1532371374.037,31.250,35.156,34.180,14.160,36.133
1532371374.041,53.223,41.992,28.320,21.973,29.297
1532371374.045,62.500,37.598,29.297,31.738,-18.066
1532371374.049,46.387,35.156,31.250,20.996,-27.344
1532371374.053,36.621,31.738,33.691,15.625,-4.883
1532371374.057,47.363,22.461,42.480,34.668,55.664
1532371374.061,71.289,26.367,40.039,41.504,28.320
1532371374.065,83.984,40.039,22.461,29.785,-6.836
1532371374.069,67.383,40.039,21.973,30.273,12.695
1532371374.072,50.293,35.156,25.879,30.273,25.879
1532371374.076,44.434,29.297,28.809,21.973,39.551
1532371374.080,39.062,22.461,36.133,23.926,21.973
1532371374.084,52.246,24.902,37.109,40.039,29.297
1532371374.088,69.336,27.344,37.598,41.504,39.062
1532371374.092,68.359,26.367,35.645,32.715,6.348
1532371374.096,56.152,25.879,35.645,39.062,-15.137
1532371374.100,52.246,26.367,35.645,41.504,-1.953
1532371374.104,54.688,30.273,35.645,34.180,65.430
1532371374.108,58.594,30.273,36.133,29.785,86.426
1532371374.112,57.129,30.273,36.133,30.762,18.555
1532371374.115,56.152,32.227,35.156,30.273,2.441
1532371374.119,57.129,31.738,36.133,30.273,46.875
1532371374.123,52.734,31.738,38.086,29.297,78.613
1532371374.127,52.246,28.809,37.109,28.320,32.715
1532371374.131,52.246,27.344,34.668,24.414,-45.410
1532371374.135,47.363,30.762,32.227,27.344,-4.883
1532371374.139,49.316,32.227,35.645,26.855,68.359
1532371374.143,46.387,31.250,39.551,26.367,43.945
1532371374.147,39.062,28.809,37.598,25.391,-14.160
1532371374.151,41.992,29.297,37.109,18.555,-33.203
1532371374.154,44.922,33.203,34.180,19.043,13.184
1532371374.158,47.852,37.598,31.250,23.438,49.316
1532371374.162,41.992,32.715,38.086,22.461,-1.953
1532371374.166,34.180,25.391,44.922,27.832,-43.457
1532371374.170,48.828,24.414,46.875,34.668,-2.930
1532371374.174,59.570,34.180,40.527,33.203,23.926
1532371374.178,49.316,40.527,32.715,20.996,-26.367
1532371374.182,37.598,38.574,33.203,16.602,-11.230
1532371374.186,41.992,38.086,35.645,24.902,55.176
1532371374.190,42.480,36.133,38.086,18.555,44.434
1532371374.193,36.133,35.156,41.504,13.672,-9.277
1532371374.197,34.668,33.203,45.410,16.602,-44.434
1532371374.201,41.016,24.902,48.828,28.809,-8.301
1532371374.205,55.664,19.043,53.711,48.340,40.039
1532371374.209,62.500,23.926,49.316,39.551,-10.742
1532371374.213,54.199,34.180,40.039,20.020,-79.590
1532371374.217,47.852,41.992,34.668,8.301,-15.625
1532371374.221,54.688,44.922,31.250,15.137,56.152
1532371374.225,62.988,42.969,28.809,29.785,22.461
1532371374.229,59.570,35.156,32.227,21.973,-63.477
1532371374.233,50.781,30.273,33.691,2.930,-57.129
1532371374.236,52.246,34.180,29.785,8.789,7.324
1532371374.240,60.059,37.109,28.320,20.020,37.598
1532371374.244,64.941,36.133,26.855,20.020,4.395
1532371374.248,72.266,36.621,26.855,19.043,-34.668
1532371374.252,71.289,34.668,31.738,19.043,0.488
1532371374.256,65.918,29.297,36.133,27.832,54.688
1532371374.260,62.988,28.320,38.574,34.668,47.363
1532371374.264,48.340,27.344,40.039,35.645,-6.836
1532371374.268,43.945,24.902,40.039,46.875,-1.465
1532371374.272,55.176,23.438,39.062,51.758,23.438
1532371374.275,59.082,25.391,38.086,49.316,19.531
1532371374.279,51.270,27.344,37.598,44.922,-9.277
1532371374.283,52.734,28.320,36.133,40.527,1.465
1532371374.287,57.617,29.297,37.109,31.738,13.672
1532371374.291,53.223,27.832,40.039,29.785,6.836
1532371374.295,56.152,26.367,39.551,37.109,-22.949
1532371374.299,49.316,28.809,37.109,31.738,-14.160
1532371374.303,46.387,28.809,40.039,28.320,46.387
1532371374.307,48.340,29.785,40.039,26.855,29.297
1532371374.311,49.316,34.668,36.621,26.855,-2.930
1532371374.315,56.641,30.762,36.133,32.715,-11.719
1532371374.318,60.059,32.715,36.133,35.645,10.742
1532371374.322,64.453,38.574,31.738,36.621,22.949
1532371374.326,62.500,37.109,34.668,33.203,-2.441
1532371374.330,46.875,35.645,41.992,22.461,-34.180
1532371374.334,44.922,34.180,41.504,16.602,-20.996
1532371374.338,55.664,29.785,47.363,24.902,29.297
1532371374.342,53.223,24.414,49.805,26.367,33.691
1532371374.346,46.875,19.531,50.781,25.391,-25.391
1532371374.350,52.734,22.949,46.875,22.949,-46.387
1532371374.354,53.711,33.691,38.086,13.184,-10.742
1532371374.357,38.574,39.551,36.133,5.859,37.598
1532371374.361,31.738,39.062,33.691,6.348,15.137
1532371374.365,39.551,36.133,32.715,6.348,-11.230
1532371374.369,40.527,38.574,28.809,6.348,20.508
1532371374.373,46.387,42.480,24.414,12.695,43.457
1532371374.377,55.664,41.016,23.438,17.578,15.137
1532371374.381,62.012,41.504,22.949,26.367,-12.695
1532371374.385,64.453,39.062,27.344,40.527,15.625
1532371374.389,57.617,35.645,34.180,30.273,22.461
1532371374.393,44.434,30.273,37.109,19.531,36.133
1532371374.397,35.645,25.391,38.086,24.902,7.324
1532371374.400,39.062,21.484,43.457,30.273,-3.906
1532371374.404,55.664,16.602,49.316,39.062,46.387
1532371374.408,57.617,21.973,45.410,43.457,43.945
1532371374.412,55.664,26.855,37.109,35.156,-25.879
1532371374.416,61.523,28.320,35.156,31.738,-23.438
1532371374.420,46.387,35.156,33.691,19.043,32.715
1532371374.424,41.992,40.039,29.297,11.230,70.312
1532371374.428,47.363,41.992,26.367,14.160,3.418
1532371374.432,47.363,45.410,23.438,13.672,-40.527
1532371374.436,47.363,45.898,22.949,10.254,38.086
1532371374.439,49.805,43.457,25.391,5.859,93.262
1532371374.443,52.246,47.852,20.020,1.465,45.898
1532371374.447,56.152,54.199,11.719,4.883,-15.137
1532371374.451,49.805,48.828,17.090,4.883,-2.441
1532371374.455,37.109,39.062,31.738,5.859,53.223
1532371374.459,39.551,37.598,33.691,12.207,33.203
1532371374.463,47.852,41.016,27.832,15.625,-3.906
1532371374.467,53.223,45.410,25.391,11.230,12.695
1532371374.471,49.805,51.758,19.043,-2.930,13.184
1532371374.475,57.129,52.734,12.207,3.418,34.668
1532371374.479,65.918,50.781,10.742,23.438,15.625
1532371374.482,55.664,40.039,20.508,30.273,-2.441
1532371374.486,55.664,30.762,30.762,32.227,41.992
1532371374.490,55.176,37.598,22.461,22.461,56.641
1532371374.494,55.176,44.434,10.254,16.113,31.738
1532371374.498,68.848,42.969,11.719,28.809,10.742
1532371374.502,70.801,34.180,23.926,38.086,60.547
1532371374.506,62.500,27.344,31.738,32.715,79.102
1532371374.510,52.734,33.203,26.367,20.508,20.996
1532371374.514,55.664,41.016,20.508,20.508,-8.789
1532371374.518,67.383,41.016,22.461,30.762,23.926
1532371374.521,68.848,41.016,20.996,37.598,60.059
1532371374.525,60.547,41.016,18.555,37.109,56.641
1532371374.529,55.176,38.574,22.461,32.227,-35.645
1532371374.533,54.688,37.598,24.902,35.156,-42.969
1532371374.537,57.617,38.086,26.367,37.598,56.641
1532371374.541,59.082,36.621,30.273,31.738,78.125
1532371374.545,55.176,35.645,31.738,26.855,40.039
1532371374.549,46.875,36.621,31.250,24.902,6.348
1532371374.553,44.434,35.156,27.832,25.879,36.133
1532371374.557,47.852,34.668,29.297,22.949,44.434
1532371374.561,41.992,36.133,31.250,20.996,19.531
1532371374.564,43.945,38.086,28.320,23.926,-12.695
1532371374.568,54.688,38.574,32.715,30.762,5.859
1532371374.572,49.316,33.691,40.527,38.574,57.617
1532371374.576,43.945,27.832,43.457,42.480,46.875
1532371374.580,49.316,24.414,43.457,42.969,-18.555
1532371374.584,52.246,31.250,38.574,41.992,-2.441
1532371374.588,52.734,34.668,36.133,39.551,51.758
1532371374.592,47.852,31.250,41.992,26.855,19.043
1532371374.596,44.434,33.203,38.574,19.531,-1.465
1532371374.600,49.805,32.715,37.109,28.320,17.090
1532371374.603,43.457,30.273,43.457,32.227,44.922
1532371374.607,31.738,25.879,46.387,25.391,67.383
1532371374.611,34.180,21.484,48.828,22.949,-5.371
1532371374.615,42.969,24.414,41.504,27.832,-24.414
1532371374.619,44.434,31.250,35.645,26.855,37.109
1532371374.623,35.645,33.203,36.621,17.090,47.363
1532371374.627,43.945,38.086,32.227,13.672,10.254
1532371374.631,56.641,44.434,24.902,21.484,-17.578
1532371374.635,60.547,40.527,24.414,31.250,7.812
1532371374.639,49.805,36.133,37.598,27.344,26.367
1532371374.642,35.156,34.180,44.922,22.949,9.766
1532371374.646,35.156,28.809,48.340,23.926,-34.668
1532371374.650,41.992,23.926,51.758,23.438,-11.719
1532371374.654,46.875,28.320,46.387,24.414,33.203
1532371374.658,46.875,31.738,41.504,21.484,49.316
1532371374.662,42.969,29.297,39.062,17.090,26.367
1532371374.666,41.016,36.133,35.645,6.348,2.930
1532371374.670,46.387,41.016,30.273,5.859,12.207
1532371374.674,46.387,43.457,27.832,13.672,51.758
1532371374.678,42.480,40.527,30.762,15.137,21.973
1532371374.682,42.480,34.180,38.086,20.020,-19.043
1532371374.685,41.992,24.414,49.805,28.320,21.484
1532371374.689,42.969,23.438,53.711,30.762,44.434
1532371374.693,37.109,34.180,42.480,16.113,26.367
1532371374.697,35.645,33.203,37.598,10.742,-6.836
1532371374.701,40.039,35.645,35.645,13.672,7.812
1532371374.705,41.992,38.574,32.227,8.789,62.012
1532371374.709,47.852,34.180,30.273,6.348,28.320
1532371374.713,50.781,33.691,30.762,5.859,-16.602
1532371374.717,41.504,34.180,29.297,4.883,16.602
1532371374.721,39.062,33.691,26.855,5.859,50.293
1532371374.724,47.852,32.227,23.438,11.230,68.359
1532371374.728,50.293,34.668,18.066,9.766,2.930
1532371374.732,55.176,35.645,17.578,17.090,-62.500
1532371374.736,49.805,32.715,24.414,25.391,-15.137
1532371374.740,41.992,28.320,29.785,24.414,62.012
1532371374.744,47.363,28.320,29.785,26.855,14.160
1532371374.748,45.898,32.227,28.809,19.531,-31.250
1532371374.752,46.875,35.645,25.879,10.254,4.883
1532371374.756,45.898,32.715,29.297,23.926,49.805
1532371374.760,51.270,27.832,35.156,37.109,53.223
1532371374.764,51.270,30.762,32.227,32.227,18.555
1532371374.767,41.016,37.109,28.320,18.555,2.930
1532371374.771,41.016,41.992,24.902,6.836,37.109
