timestamps,TP9,AF7,AF8,TP10,Right AUX
1532373011.744,29.297,30.762,2.930,28.809,17.090
1532373011.748,34.668,31.250,3.418,28.320,48.828
1532373011.752,27.832,29.785,-0.488,31.250,45.898
1532373011.756,26.855,30.273,-5.371,34.180,16.602
1532373011.759,40.039,31.250,-2.930,46.875,17.090
1532373011.763,42.969,28.320,4.395,55.664,29.297
1532373011.767,30.273,28.320,10.742,45.898,20.020
1532373011.771,35.645,34.180,9.277,38.574,-13.184
1532373011.775,47.363,37.598,4.883,36.133,-44.922
1532373011.779,41.016,38.086,8.301,32.715,-14.648
1532373011.783,30.762,39.551,12.695,37.109,13.672
1532373011.787,22.949,36.621,17.090,38.574,-2.930
1532373011.791,12.695,32.227,18.066,32.227,0.977
1532373011.795,17.578,28.809,16.113,39.062,7.324
1532373011.799,30.273,24.902,20.020,52.734,28.320
1532373011.802,23.438,24.414,23.926,47.852,35.156
1532373011.806,16.113,21.973,25.879,39.551,9.277
1532373011.810,30.273,20.508,27.344,40.039,20.996
1532373011.814,28.320,28.320,20.996,39.551,53.711
1532373011.818,13.184,35.156,13.184,24.902,28.809
1532373011.822,21.973,41.504,9.277,20.020,2.441
1532373011.826,35.156,42.969,7.324,27.344,3.906
1532373011.830,23.926,37.598,9.766,27.832,28.809
1532373011.834,22.949,37.109,8.789,32.227,51.758
1532373011.838,27.344,35.156,7.324,28.809,28.809
1532373011.842,25.879,30.273,13.672,29.297,11.719
1532373011.845,29.297,27.344,17.578,36.621,32.715
1532373011.849,24.902,22.461,18.555,32.227,34.180
1532373011.853,26.367,18.066,20.508,38.086,-4.883
1532373011.857,40.039,16.602,21.973,54.199,-20.508
1532373011.861,51.270,19.043,17.578,59.082,-2.930
1532373011.865,44.434,23.438,15.625,58.594,22.461
1532373011.869,28.809,28.320,8.789,49.805,13.184
1532373011.873,32.715,31.250,4.395,36.621,-20.996
1532373011.877,48.340,33.691,4.883,43.457,-4.395
1532373011.881,51.270,33.691,4.883,45.898,33.691
1532373011.884,44.922,30.762,10.254,38.574,48.828
1532373011.888,45.898,32.227,11.719,38.574,36.133
1532373011.892,42.480,34.180,9.766,36.621,35.156
1532373011.896,42.969,35.645,9.277,33.691,53.223
1532373011.900,43.457,34.668,12.695,34.668,38.574
1532373011.904,32.227,32.227,13.672,32.227,12.695
1532373011.908,28.320,31.250,17.090,30.762,-2.441
1532373011.912,30.762,33.691,19.043,27.344,-8.301
1532373011.916,26.367,36.621,16.602,20.020,21.484
1532373011.920,22.949,36.621,15.137,15.625,66.406
1532373011.924,35.156,44.434,22.461,24.414,66.895
1532373011.927,54.688,52.734,37.109,42.969,46.875
1532373011.931,62.500,50.781,39.062,54.688,55.664
1532373011.935,60.059,47.363,32.715,59.082,45.898
1532373011.939,53.711,50.781,30.273,50.781,34.668
1532373011.943,40.527,57.129,27.832,37.598,56.152
1532373011.947,27.832,56.641,21.973,30.762,49.316
1532373011.951,26.855,57.617,20.020,27.832,40.527
1532373011.955,32.715,56.641,17.090,26.367,49.805
1532373011.959,31.250,57.129,12.207,26.367,29.297
1532373011.963,28.320,62.988,7.812,27.832,34.180
1532373011.967,34.180,56.152,11.230,31.738,50.293
1532373011.970,25.391,48.340,18.555,25.879,10.742
1532373011.974,18.555,44.434,20.508,20.996,-19.531
1532373011.978,30.762,38.086,22.461,35.156,14.160
1532373011.982,45.410,42.480,19.043,51.758,48.340
1532373011.986,37.598,45.898,16.113,48.340,36.133
1532373011.990,27.832,39.551,20.508,50.781,12.207
1532373011.994,26.367,30.762,26.367,67.871,15.137
1532373011.998,30.762,27.344,26.367,78.613,28.320
1532373012.002,41.016,36.621,22.949,78.613,66.895
1532373012.006,36.621,43.945,17.578,66.406,55.664
1532373012.009,35.156,47.363,12.207,63.965,-1.953
1532373012.013,26.855,45.898,17.090,58.594,-5.859
1532373012.017,17.090,37.109,24.902,54.199,33.203
1532373012.021,24.414,32.715,23.926,59.570,29.297
1532373012.025,25.879,28.809,28.320,60.547,6.348
1532373012.029,27.344,29.297,32.227,51.270,20.020
1532373012.033,37.598,37.598,20.508,44.922,70.312
1532373012.037,49.316,41.504,13.672,51.758,58.105
1532373012.041,48.828,32.227,28.809,46.875,20.020
1532373012.045,37.598,29.297,37.598,38.086,23.926
1532373012.049,33.203,27.832,36.621,44.922,27.832
1532373012.052,36.133,23.438,32.715,47.852,17.578
1532373012.056,35.645,27.832,22.949,45.410,38.574
1532373012.060,30.273,32.715,18.066,47.852,30.762
1532373012.064,21.973,31.250,18.555,48.340,46.387
1532373012.068,24.902,25.391,24.414,51.270,62.988
1532373012.072,40.039,22.461,26.367,58.105,41.504
1532373012.076,39.062,20.996,21.973,57.617,48.828
1532373012.080,32.715,22.461,18.555,54.688,59.082
1532373012.084,30.273,22.461,18.066,59.570,65.918
1532373012.088,42.480,22.461,16.602,61.523,34.668
1532373012.092,52.734,21.484,17.578,58.594,7.812
1532373012.095,41.016,21.484,20.508,50.781,15.625
1532373012.099,40.527,24.414,20.020,45.410,36.621
1532373012.103,42.480,24.414,20.996,48.340,33.203
1532373012.107,34.180,25.879,20.996,41.992,9.277
1532373012.111,31.250,28.320,21.973,29.785,-16.602
1532373012.115,36.133,28.809,25.391,33.203,18.555
1532373012.119,41.016,29.297,22.461,36.621,59.082
1532373012.123,41.504,29.785,20.508,38.574,34.668
1532373012.127,36.133,30.762,19.531,34.668,21.973
1532373012.131,31.738,31.738,20.508,27.344,44.922
1532373012.134,30.762,28.809,19.531,30.273,48.340
1532373012.138,37.598,27.344,18.555,35.156,3.906
1532373012.142,37.109,28.809,23.926,35.645,-8.789
1532373012.146,29.785,30.762,21.973,32.227,28.320
1532373012.150,37.598,32.227,23.926,28.320,32.227
1532373012.154,45.898,36.133,22.949,28.809,3.418
1532373012.158,37.109,30.762,20.996,35.645,22.949
1532373012.162,33.691,24.902,25.391,40.039,27.344
1532373012.166,45.410,31.250,21.484,45.410,27.832
1532373012.170,49.805,31.738,22.461,52.734,37.109
1532373012.174,37.109,31.738,32.227,40.527,39.551
1532373012.177,26.855,34.180,32.227,28.809,33.203
1532373012.181,23.438,33.691,30.273,35.156,57.617
1532373012.185,23.438,32.715,27.832,36.621,70.312
1532373012.189,28.809,30.762,30.273,32.715,21.484
1532373012.193,19.531,28.809,35.645,25.879,4.883
1532373012.197,28.809,26.855,38.574,27.832,16.602
1532373012.201,47.363,32.227,31.738,33.691,41.504
1532373012.205,44.922,35.156,26.855,32.715,56.641
1532373012.209,26.855,29.785,33.691,23.926,6.836
1532373012.213,16.113,27.344,41.016,20.020,-4.883
1532373012.216,27.832,23.438,44.434,34.180,45.410
1532373012.220,43.457,22.949,41.504,41.016,49.316
1532373012.224,40.527,31.250,33.203,23.926,32.715
1532373012.228,36.621,33.691,28.809,18.555,20.020
1532373012.232,36.133,30.762,32.715,20.020,24.414
1532373012.236,34.668,28.320,35.156,23.438,26.367
1532373012.240,40.039,26.855,32.227,31.250,5.859
1532373012.244,45.410,30.762,31.738,35.156,-3.418
1532373012.248,40.039,27.832,35.156,34.668,16.602
1532373012.252,37.598,21.484,33.203,25.391,0.000
1532373012.256,43.457,23.926,28.809,23.438,-17.578
1532373012.259,54.199,26.855,24.414,34.180,3.418
1532373012.263,63.965,25.879,25.391,45.410,-8.301
1532373012.267,50.781,26.367,31.738,47.852,-4.883
1532373012.271,40.527,28.320,33.691,42.969,0.000
1532373012.275,42.969,26.367,34.180,44.922,-8.789
1532373012.279,43.457,22.949,34.180,45.410,5.859
1532373012.283,47.363,26.855,32.227,48.828,17.090
1532373012.287,56.641,37.109,44.434,58.594,-6.348
1532373012.291,61.035,47.363,57.129,65.918,-24.414
1532373012.295,58.105,47.852,54.688,62.988,26.367
1532373012.299,63.965,42.480,50.781,57.617,47.363
1532373012.302,58.105,38.574,46.875,52.246,20.020
1532373012.306,35.645,37.598,43.457,43.457,11.230
1532373012.310,42.480,39.062,42.480,33.691,6.836
1532373012.314,52.246,38.574,39.062,29.297,-8.301
1532373012.318,36.133,33.691,35.645,31.738,-6.836
1532373012.322,24.902,33.691,32.715,28.320,-1.953
1532373012.326,21.484,33.691,35.156,30.762,-8.789
1532373012.330,28.320,29.785,39.551,34.180,8.301
1532373012.334,34.180,29.297,40.039,37.598,34.180
1532373012.338,37.598,29.297,40.039,42.969,12.695
1532373012.341,38.086,32.715,38.574,34.180,3.418
1532373012.345,27.832,39.551,34.668,20.508,15.625
1532373012.349,17.090,44.434,27.832,20.020,27.344
1532373012.353,21.484,42.969,29.785,19.531,-29.297
1532373012.357,27.832,44.922,28.320,11.719,-12.207
1532373012.361,35.645,52.734,20.508,12.207,37.109
1532373012.365,39.551,49.316,26.367,24.414,28.320
1532373012.369,21.484,41.992,35.645,21.484,24.902
1532373012.373,3.418,38.574,37.109,5.859,20.996
1532373012.377,10.742,35.156,36.133,9.766,35.156
1532373012.381,22.949,31.250,36.133,22.461,8.301
1532373012.384,27.344,29.785,32.227,27.832,4.395
1532373012.388,21.484,30.273,27.344,27.344,-7.324
1532373012.392,16.113,25.391,30.273,30.273,-10.742
1532373012.396,33.203,19.531,31.250,40.527,10.742
1532373012.400,38.574,21.484,29.297,42.969,3.906
1532373012.404,40.527,27.344,25.391,38.086,35.645
1532373012.408,44.434,29.297,23.438,33.203,23.926
1532373012.412,35.156,31.250,20.020,27.832,-2.441
1532373012.416,34.180,32.715,15.137,29.297,17.090
1532373012.420,34.180,31.250,18.066,33.203,22.949
1532373012.424,33.203,30.273,22.949,27.832,20.020
1532373012.427,28.320,27.344,23.438,27.344,29.785
1532373012.431,21.484,28.809,21.973,28.809,31.250
1532373012.435,24.902,33.691,20.996,27.832,21.973
1532373012.439,32.227,32.227,22.461,32.227,6.836
1532373012.443,25.879,29.785,20.996,29.785,2.441
1532373012.447,21.484,28.809,21.484,29.785,28.809
1532373012.451,24.414,27.832,24.414,35.645,54.199
1532373012.455,23.926,26.367,22.949,34.668,47.852
1532373012.459,27.344,25.879,19.043,34.180,20.508
1532373012.463,27.832,27.344,19.531,30.273,20.020
1532373012.466,31.250,31.250,21.973,30.762,48.340
1532373012.470,38.574,31.738,23.438,28.809,49.805
1532373012.474,29.785,25.879,26.855,19.531,9.277
1532373012.478,16.602,20.996,30.273,24.414,25.391
1532373012.482,18.555,19.531,32.227,28.320,66.406
1532373012.486,19.043,21.973,29.785,20.020,41.016
1532373012.490,23.926,23.438,26.855,18.555,0.000
1532373012.494,27.344,20.508,32.227,27.344,-8.789
1532373012.498,10.742,15.625,36.133,32.227,37.598
1532373012.502,16.113,12.207,34.180,38.086,42.480
1532373012.506,33.691,14.648,32.715,40.527,-0.977
1532373012.509,37.598,20.508,29.297,38.086,49.316
1532373012.513,40.039,22.461,24.902,39.551,89.355
1532373012.517,26.367,20.508,24.902,32.715,71.777
1532373012.521,22.461,17.090,23.438,22.949,71.777
1532373012.525,39.062,19.531,19.531,31.738,73.730
1532373012.529,37.109,23.438,15.137,31.738,63.477
1532373012.533,36.621,23.438,14.160,26.855,51.758
1532373012.537,39.062,22.949,18.555,42.480,67.871
1532373012.541,45.410,21.484,24.414,53.223,62.500
1532373012.545,52.246,20.508,25.391,56.152,70.801
1532373012.549,42.480,20.508,22.949,54.688,89.844
1532373012.552,43.457,23.438,20.020,54.199,72.266
1532373012.556,47.852,23.926,18.555,58.594,42.969
1532373012.560,51.270,25.391,20.996,60.547,48.828
1532373012.564,52.246,25.391,23.926,59.082,86.426
1532373012.568,54.199,20.508,22.949,55.176,51.270
1532373012.572,47.852,20.996,21.973,44.922,20.508
1532373012.576,41.504,23.438,22.461,41.016,34.668
1532373012.580,41.504,24.902,22.949,42.480,44.434
1532373012.584,37.598,24.902,23.438,43.457,80.566
1532373012.588,40.527,25.879,24.414,44.922,67.383
1532373012.591,41.504,24.902,25.391,35.156,28.809
1532373012.595,34.180,24.414,24.414,27.832,46.387
1532373012.599,33.691,27.832,24.902,28.320,92.285
1532373012.603,28.809,29.785,25.879,23.926,73.242
1532373012.607,29.297,30.273,26.367,21.484,43.457
1532373012.611,34.180,29.297,28.320,21.484,35.645
1532373012.615,30.273,28.320,27.832,18.066,74.707
1532373012.619,26.855,27.832,23.926,20.020,81.055
1532373012.623,28.320,28.809,25.879,20.020,38.574
1532373012.627,29.785,27.832,24.902,13.672,39.551
1532373012.631,32.227,30.762,24.902,15.625,55.664
1532373012.634,41.016,44.434,31.250,28.320,42.480
1532373012.638,57.617,52.734,37.109,45.898,29.297
1532373012.642,58.105,44.434,44.922,46.387,44.922
1532373012.646,50.781,41.992,42.480,38.574,68.359
1532373012.650,45.410,43.457,35.645,37.598,63.965
1532373012.654,28.320,39.062,38.574,31.738,41.016
1532373012.658,22.461,42.480,40.527,24.902,17.578
1532373012.662,31.738,41.504,40.039,20.996,33.691
1532373012.666,24.902,35.645,40.527,21.973,78.125
1532373012.670,22.461,38.086,39.062,24.902,43.945
1532373012.674,24.902,40.039,34.180,25.879,-4.883
1532373012.677,19.043,35.156,35.645,23.926,3.418
1532373012.681,17.578,30.273,43.945,25.391,31.738
1532373012.685,24.414,27.832,46.875,30.762,65.430
1532373012.689,35.156,30.273,40.527,31.250,49.805
1532373012.693,32.227,36.621,32.715,27.344,32.227
1532373012.697,21.973,33.203,30.273,22.949,46.387
1532373012.701,23.438,29.297,24.414,21.973,49.805
1532373012.705,32.715,31.250,18.066,28.320,28.809
1532373012.709,30.762,29.297,20.508,25.879,-6.836
1532373012.713,23.438,24.414,24.414,24.414,23.926
1532373012.716,32.715,22.461,26.367,35.156,78.125
1532373012.720,43.457,20.996,29.297,40.527,27.832
1532373012.724,46.387,22.461,28.320,46.387,-2.441
1532373012.728,57.617,28.809,20.508,50.293,45.410
1532373012.732,55.176,28.320,20.020,42.969,62.500
1532373012.736,43.945,24.902,20.996,31.738,53.223
1532373012.740,40.527,23.438,21.484,33.203,27.832
1532373012.744,41.504,23.438,22.949,43.945,30.273
1532373012.748,48.340,21.973,18.066,47.363,66.895
1532373012.752,46.387,19.531,18.555,41.016,41.016
1532373012.756,40.039,20.996,19.043,39.062,-7.812
1532373012.759,40.039,23.438,17.578,40.039,12.695
1532373012.763,37.109,23.926,15.137,41.016,27.832
1532373012.767,43.457,24.902,11.719,37.598,42.969
1532373012.771,47.363,27.344,9.766,33.203,31.738
1532373012.775,44.922,28.809,9.277,26.855,-2.930
1532373012.779,50.293,30.273,10.742,24.902,7.812
1532373012.783,57.129,29.297,11.230,29.785,20.996
1532373012.787,50.781,27.344,14.160,34.668,59.082
1532373012.791,40.527,24.414,13.184,36.133,27.344
1532373012.795,32.227,23.926,11.719,29.785,-7.324
1532373012.798,21.484,26.855,15.625,27.832,4.395
1532373012.802,23.926,25.391,14.648,30.762,18.066
1532373012.806,27.344,25.391,12.207,25.391,56.641
1532373012.810,26.367,26.855,13.672,25.879,35.156
1532373012.814,20.996,25.879,15.137,27.344,29.785
1532373012.818,18.066,26.367,10.742,19.531,58.594
1532373012.822,22.949,25.879,6.836,17.578,35.156
1532373012.826,34.180,26.855,9.277,21.973,40.527
1532373012.830,28.320,27.832,13.672,17.578,44.434
1532373012.834,25.879,24.902,12.207,16.602,20.508
1532373012.838,34.180,27.344,12.207,24.414,15.625
1532373012.841,31.250,30.762,16.113,20.996,18.066
1532373012.845,29.297,33.203,13.672,13.672,28.809
1532373012.849,32.715,34.668,11.230,9.277,15.625
1532373012.853,32.227,35.645,13.672,5.371,-16.113
1532373012.857,32.715,36.621,15.137,9.766,-12.695
1532373012.861,35.156,36.621,17.090,17.090,28.320
1532373012.865,38.086,37.109,16.113,20.020,85.449
1532373012.869,29.785,36.621,13.184,16.602,65.918
1532373012.873,28.809,35.156,15.137,15.625,24.902
1532373012.877,39.551,32.227,19.531,24.902,27.832
1532373012.881,34.668,27.344,26.367,28.320,36.133
1532373012.884,26.855,26.367,27.832,23.438,41.992
1532373012.888,33.691,29.785,26.367,21.484,22.461
1532373012.892,33.691,36.133,21.973,17.578,-9.277
1532373012.896,27.344,41.504,18.066,12.207,8.789
1532373012.900,26.855,39.062,16.113,7.812,55.664
1532373012.904,18.066,34.668,16.602,10.742,40.039
1532373012.908,25.879,33.203,19.043,24.414,5.371
1532373012.912,38.086,31.738,19.043,29.785,11.230
1532373012.916,30.762,29.785,19.531,33.203,34.668
1532373012.920,37.598,27.832,23.438,42.480,19.531
1532373012.923,38.086,24.414,28.320,47.852,-4.883
1532373012.927,43.945,23.438,27.344,54.688,0.977
1532373012.931,67.383,28.809,22.461,63.477,19.531
1532373012.935,50.293,29.785,24.414,51.758,25.879
1532373012.939,22.949,24.414,23.926,33.203,-8.301
1532373012.943,27.344,22.949,25.879,36.133,1.465
1532373012.947,42.480,21.484,28.320,45.898,30.762
1532373012.951,43.945,20.996,28.809,45.410,-6.836
1532373012.955,43.945,29.297,37.598,45.898,-29.785
1532373012.959,49.805,37.109,41.016,50.781,-12.207
1532373012.963,44.922,35.156,37.109,50.293,8.301
1532373012.966,40.039,32.715,35.156,44.434,37.109
1532373012.970,37.109,34.180,34.668,34.668,27.832
1532373012.974,42.480,36.133,33.203,34.180,-7.812
1532373012.978,44.434,36.133,31.738,37.598,27.832
1532373012.982,52.734,34.180,29.297,38.574,41.992
1532373012.986,51.270,31.738,27.344,35.645,20.996
1532373012.990,30.273,30.273,28.320,34.180,20.508
1532373012.994,36.133,27.832,31.250,31.738,-3.906
1532373012.998,36.621,23.438,30.273,26.367,28.809
1532373013.002,33.203,22.949,24.902,29.297,45.410
1532373013.006,44.922,30.762,23.926,36.133,23.926
1532373013.009,37.598,32.227,22.949,31.250,38.086
1532373013.013,35.156,31.738,22.461,28.809,38.086
1532373013.017,45.410,28.809,28.320,37.598,31.738
1532373013.021,48.340,26.367,28.809,39.062,13.672
1532373013.025,46.875,31.738,24.902,39.062,1.465
1532373013.029,57.617,33.203,26.855,47.852,-10.254
1532373013.033,62.500,36.133,22.461,41.992,-13.184
1532373013.037,53.711,43.945,12.207,30.762,-3.906
1532373013.041,52.734,41.504,15.625,36.133,20.996
1532373013.045,47.852,39.062,20.996,41.016,46.387
1532373013.048,35.156,41.992,18.066,34.180,43.945
1532373013.052,41.016,39.062,23.438,29.297,43.457
1532373013.056,45.410,37.109,26.367,35.645,27.344
1532373013.060,41.016,37.109,24.902,37.109,31.250
1532373013.064,40.527,36.133,25.391,37.598,46.387
1532373013.068,41.504,34.180,23.438,44.434,44.434
1532373013.072,33.691,28.809,28.809,40.039,29.785
1532373013.076,20.508,23.926,36.621,27.832,3.906
1532373013.080,26.855,24.414,34.668,31.250,8.301
1532373013.084,37.598,24.902,33.203,31.250,25.391
1532373013.088,37.598,29.297,30.762,20.996,8.301
1532373013.091,27.832,32.227,25.391,13.672,-28.809
1532373013.095,23.926,35.156,21.973,9.766,-12.695
1532373013.099,23.438,36.133,21.484,9.277,35.645
1532373013.103,20.996,36.133,17.090,4.883,43.945
1532373013.107,20.508,36.133,13.672,-1.465,15.137
1532373013.111,14.160,30.762,17.578,-2.441,-7.324
1532373013.115,13.672,28.320,18.066,2.441,36.133
1532373013.119,23.926,24.902,18.066,7.324,51.758
1532373013.123,25.879,21.973,17.578,16.113,16.602
1532373013.127,26.855,21.973,21.484,23.438,2.441
1532373013.131,28.320,19.043,23.438,26.367,19.531
1532373013.134,28.809,21.484,22.461,27.344,15.625
1532373013.138,26.855,22.461,23.926,24.902,28.809
1532373013.142,33.203,18.555,23.926,30.273,8.789
1532373013.146,42.480,20.508,24.902,34.668,0.977
1532373013.150,37.598,24.414,19.531,29.297,41.992
1532373013.154,27.344,24.414,17.578,22.949,43.945
1532373013.158,26.855,25.879,19.043,20.020,12.207
1532373013.162,29.297,25.879,22.949,23.926,17.090
1532373013.166,25.879,24.902,26.855,30.762,43.945
1532373013.170,23.438,26.855,23.926,38.086,39.551
1532373013.173,20.996,24.902,23.926,38.086,-1.953
1532373013.177,25.879,22.949,27.344,37.109,-14.160
1532373013.181,36.621,25.879,21.484,43.457,29.297
1532373013.185,43.945,35.645,14.160,48.340,36.621
1532373013.189,41.016,37.598,17.090,41.016,21.484
1532373013.193,24.414,33.203,22.461,28.809,13.184
1532373013.197,18.066,34.180,24.414,28.320,3.418
1532373013.201,30.273,34.668,20.996,38.086,28.809
1532373013.205,30.762,33.203,21.484,40.527,35.156
1532373013.209,21.973,29.785,27.832,33.203,8.789
1532373013.213,20.508,27.832,30.762,21.484,18.555
1532373013.216,22.461,25.391,30.273,20.996,58.594
1532373013.220,27.832,25.879,28.320,24.414,71.289
1532373013.224,24.902,27.344,27.832,15.625,34.180
1532373013.228,21.973,27.344,27.344,16.113,16.602
1532373013.232,34.180,30.762,25.391,20.020,34.180
1532373013.236,34.668,36.133,20.508,18.555,54.688
1532373013.240,26.855,40.039,18.066,23.926,32.227
1532373013.244,25.879,35.156,22.949,26.855,33.203
1532373013.248,23.438,35.645,28.809,25.391,48.828
1532373013.252,22.461,34.668,33.203,23.926,34.668
1532373013.255,23.438,28.809,28.809,23.438,17.090
1532373013.259,33.203,30.762,29.785,21.973,0.488
1532373013.263,31.738,32.715,33.691,19.043,22.461
1532373013.267,19.043,27.832,30.273,20.020,28.320
1532373013.271,18.066,25.391,31.738,21.484,-25.879
1532373013.275,25.391,25.879,36.133,26.367,-6.348
1532373013.279,36.133,30.273,32.715,27.832,40.527
1532373013.283,32.227,41.016,23.926,22.461,50.293
1532373013.287,20.996,41.992,22.461,24.902,32.227
1532373013.291,21.484,39.062,28.809,28.320,9.766
1532373013.295,33.691,38.086,33.203,34.668,19.043
1532373013.298,32.227,36.133,32.715,46.875,40.527
1532373013.302,29.297,35.156,34.180,49.805,40.527
1532373013.306,26.367,31.738,36.133,40.527,29.297
1532373013.310,17.578,26.855,37.109,32.227,24.902
1532373013.314,30.762,29.297,35.645,39.551,38.574
1532373013.318,43.457,35.156,30.762,43.945,61.035
1532373013.322,38.574,36.133,30.273,40.527,42.480
1532373013.326,32.715,33.691,30.273,35.156,10.254
1532373013.330,33.691,33.691,32.227,28.320,-10.254
1532373013.334,33.691,34.180,34.668,27.832,9.766
1532373013.338,36.133,34.668,33.691,40.039,29.785
1532373013.341,40.039,31.250,35.156,42.480,29.297
1532373013.345,46.387,28.809,36.621,38.574,4.883
1532373013.349,49.316,31.250,35.156,41.992,-0.488
1532373013.353,42.480,31.250,31.738,41.992,13.672
1532373013.357,42.480,35.645,36.133,44.434,9.766
1532373013.361,48.340,46.387,52.246,47.852,16.113
1532373013.365,63.477,59.082,63.477,60.547,27.832
1532373013.369,67.871,61.035,64.941,68.359,7.324
1532373013.373,57.129,54.199,61.035,66.895,-22.949
1532373013.377,57.129,48.340,59.082,67.871,4.883
1532373013.380,55.664,46.875,54.688,59.570,36.133
1532373013.384,44.922,45.898,49.805,51.758,38.574
1532373013.388,39.551,43.457,48.340,48.340,11.719
1532373013.392,42.969,40.039,48.828,44.922,-20.020
1532373013.396,44.434,36.133,47.363,42.969,13.184
1532373013.400,42.969,36.621,43.457,43.457,49.316
1532373013.404,35.156,38.574,42.480,41.504,15.137
1532373013.408,26.367,35.645,41.992,39.062,-7.812
1532373013.412,28.320,31.738,35.156,41.016,3.418
1532373013.416,32.227,26.855,36.621,44.922,22.461
1532373013.420,36.133,32.715,34.668,43.945,35.645
1532373013.423,40.039,38.086,28.809,42.480,31.250
1532373013.427,31.738,35.645,34.668,45.898,11.719
1532373013.431,25.879,37.109,36.133,39.062,5.859
1532373013.435,26.855,36.133,31.738,33.203,27.832
1532373013.439,28.809,33.691,37.109,40.039,12.695
1532373013.443,30.762,31.250,41.504,43.457,1.465
1532373013.447,32.227,31.250,38.086,46.875,20.020
1532373013.451,26.367,30.762,37.598,42.480,40.039
1532373013.455,21.973,31.738,38.086,31.250,22.461
1532373013.459,16.113,33.203,35.156,28.320,-4.395
1532373013.463,18.066,30.273,33.691,31.738,13.672
1532373013.466,25.879,28.809,35.645,44.434,19.043
1532373013.470,28.809,30.273,36.133,42.969,11.719
1532373013.474,31.250,31.738,34.668,43.945,-9.766
1532373013.478,26.367,33.203,32.715,52.734,1.953
1532373013.482,28.320,30.273,29.785,53.223,35.645
1532373013.486,30.273,27.344,29.297,49.805,24.902
1532373013.490,29.297,28.320,27.344,46.875,5.859
1532373013.494,29.297,29.785,24.414,45.898,1.465
1532373013.498,31.738,29.297,24.414,45.898,26.855
1532373013.502,32.715,25.879,28.320,44.922,37.598
1532373013.505,34.180,28.809,28.320,41.504,40.527
1532373013.509,41.504,34.668,24.902,37.109,14.160
1532373013.513,45.898,36.133,22.461,30.273,-23.438
1532373013.517,50.293,34.668,25.391,26.367,11.230
1532373013.521,52.246,33.203,25.879,29.297,27.344
1532373013.525,48.828,31.250,27.344,40.527,4.395
1532373013.529,44.922,30.762,28.809,52.734,5.371
1532373013.533,41.992,30.273,27.832,53.711,19.043
1532373013.537,33.203,29.785,29.297,49.316,24.414
1532373013.541,29.785,32.227,25.391,46.875,26.367
1532373013.545,29.785,33.691,23.926,47.852,15.625
1532373013.548,26.367,30.273,29.297,58.105,12.207
1532373013.552,30.273,25.391,38.574,59.570,-5.859
1532373013.556,27.832,27.344,36.621,45.898,-12.695
1532373013.560,24.414,35.645,29.785,40.039,2.441
1532373013.564,22.949,41.992,25.391,39.062,26.855
1532373013.568,24.414,41.992,24.414,39.551,39.062
1532373013.572,14.648,38.086,32.227,34.668,9.277
1532373013.576,5.859,37.109,35.645,25.879,0.977
1532373013.580,24.902,37.109,31.738,36.133,31.738
1532373013.584,28.320,36.133,30.762,49.316,56.152
1532373013.588,24.414,31.738,33.691,43.457,16.113
1532373013.591,38.086,28.809,33.203,33.203,-16.602
1532373013.595,46.387,32.227,25.391,33.203,-1.953
1532373013.599,38.574,38.086,16.602,27.344,31.738
1532373013.603,33.691,39.062,14.160,26.367,41.504
1532373013.607,30.273,34.668,19.531,30.273,7.812
1532373013.611,25.879,32.715,24.902,24.414,-39.551
1532373013.615,33.691,28.320,27.832,28.809,-14.648
1532373013.619,41.504,20.508,30.762,43.457,37.109
1532373013.623,49.805,27.832,25.879,50.293,25.879
1532373013.627,58.594,40.039,12.207,51.270,2.930
1532373013.630,58.594,35.645,15.137,46.875,8.301
1532373013.634,43.945,28.320,24.414,28.809,27.344
1532373013.638,38.574,31.738,16.602,20.508,8.301
1532373013.642,45.410,35.156,16.113,32.715,-13.672
1532373013.646,55.176,31.250,23.438,51.758,9.766
1532373013.650,58.105,29.297,23.926,48.828,27.832
1532373013.654,51.758,29.297,24.902,43.945,25.879
1532373013.658,50.781,29.785,27.344,52.246,15.137
1532373013.662,50.781,32.227,30.762,46.875,2.930
1532373013.666,53.711,34.180,32.715,46.387,24.902
1532373013.670,51.758,33.203,30.273,51.270,6.348
1532373013.673,50.781,30.273,32.227,44.434,-10.742
1532373013.677,49.316,29.785,34.180,41.016,21.484
1532373013.681,41.504,33.203,31.738,42.480,24.414
1532373013.685,42.969,33.691,30.273,41.016,29.297
1532373013.689,41.504,33.691,30.273,40.039,-0.488
1532373013.693,41.504,34.180,29.297,40.527,-14.648
1532373013.697,42.480,33.691,31.738,43.945,14.648
1532373013.701,41.992,34.668,33.203,46.875,20.508
1532373013.705,46.875,37.109,31.250,46.875,14.648
1532373013.709,45.898,36.621,29.297,41.504,6.836
1532373013.713,35.156,34.180,32.227,41.016,10.742
1532373013.716,32.227,34.180,34.180,40.527,34.668
1532373013.720,32.715,32.227,30.762,43.457,6.836
1532373013.724,42.969,30.273,32.227,59.570,3.418
1532373013.728,56.152,33.691,33.203,62.012,-3.906
1532373013.732,50.781,42.969,27.832,54.688,-15.625
1532373013.736,44.434,48.828,26.367,50.781,19.531
1532373013.740,42.480,49.805,29.785,44.922,-6.348
1532373013.744,35.156,48.340,33.203,45.898,-12.695
1532373013.748,34.180,43.945,37.109,53.223,16.113
1532373013.752,29.785,41.504,38.574,46.875,13.672
1532373013.755,28.809,41.504,34.668,46.875,17.578
1532373013.759,36.133,37.109,35.645,59.082,14.160
1532373013.763,41.016,35.156,38.574,59.570,31.250
1532373013.767,47.363,43.457,33.203,54.688,54.199
1532373013.771,50.293,53.711,29.297,48.828,11.719
1532373013.775,54.688,65.430,37.109,55.664,6.836
1532373013.779,62.012,66.406,45.410,65.918,32.227
1532373013.783,60.547,57.617,43.457,65.918,35.645
1532373013.787,64.941,61.523,27.344,64.453,43.457
1532373013.791,56.152,61.035,19.043,51.758,6.836
1532373013.795,45.898,50.781,27.832,41.016,-4.395
1532373013.798,53.711,46.387,27.832,48.828,29.785
1532373013.802,52.734,48.340,19.043,58.105,15.625
1532373013.806,52.734,51.270,16.602,57.129,11.719
1532373013.810,44.434,47.852,23.926,47.852,4.395
1532373013.814,43.457,44.922,22.949,38.086,12.695
1532373013.818,49.316,46.875,15.137,37.598,42.969
1532373013.822,53.711,44.434,14.648,46.387,41.992
1532373013.826,45.410,39.551,16.602,41.504,12.207
1532373013.830,37.598,36.133,16.602,29.297,0.488
1532373013.834,37.109,37.109,18.555,31.250,45.898
1532373013.837,40.527,37.109,20.020,39.551,32.715
1532373013.841,40.039,36.621,20.996,44.922,17.090
1532373013.845,34.180,38.086,19.531,44.434,20.996
1532373013.849,33.691,38.086,22.461,42.969,12.695
1532373013.853,38.574,38.086,23.926,42.969,25.879
1532373013.857,40.039,38.086,21.484,43.945,14.160
1532373013.861,41.016,37.598,20.508,42.969,16.113
1532373013.865,35.156,37.598,19.043,37.109,46.387
1532373013.869,36.621,37.109,21.484,36.133,22.949
1532373013.873,41.016,35.645,24.414,40.039,10.254
1532373013.877,33.691,37.109,20.996,34.668,32.715
1532373013.880,32.715,37.109,22.461,32.715,50.781
1532373013.884,37.109,34.180,24.902,44.434,67.871
1532373013.888,30.273,37.598,20.508,44.434,39.551
1532373013.892,9.766,36.621,23.438,32.715,-12.695
1532373013.896,13.184,26.855,28.320,35.645,18.066
1532373013.900,28.809,26.367,30.273,47.363,51.758
1532373013.904,26.367,33.691,23.926,42.969,28.320
1532373013.908,33.691,38.574,14.648,35.645,7.324
1532373013.912,32.227,40.527,16.602,34.668,6.836
1532373013.916,18.066,37.109,21.973,29.785,53.223
1532373013.920,16.602,33.203,20.996,28.809,46.875
1532373013.923,27.344,28.809,24.414,38.574,26.855
1532373013.927,34.180,26.367,28.320,45.410,44.922
1532373013.931,39.551,31.738,22.949,40.527,35.156
1532373013.935,32.715,35.156,15.137,31.738,41.016
1532373013.939,31.738,32.715,14.648,37.109,62.012
1532373013.943,37.109,29.785,17.090,49.316,33.203
1532373013.947,34.180,29.297,16.113,45.898,38.086
1532373013.951,33.203,31.738,12.207,39.551,64.941
1532373013.955,28.809,31.250,13.672,42.480,37.598
1532373013.959,34.180,28.809,16.113,49.805,22.461
1532373013.962,42.969,27.344,15.625,47.852,51.270
1532373013.966,39.551,28.320,15.625,45.410,63.965
1532373013.970,35.645,31.250,15.137,42.969,13.672
1532373013.974,29.297,28.809,15.137,37.598,-13.184
1532373013.978,29.297,27.832,13.672,40.039,15.625
1532373013.982,30.273,30.273,15.625,42.969,36.621
1532373013.986,25.391,29.297,18.555,44.434,30.762
1532373013.990,24.414,30.273,13.184,44.434,5.859
1532373013.994,24.902,30.762,14.648,44.434,14.160
1532373013.998,23.438,28.320,15.625,37.109,48.340
1532373014.002,24.902,27.832,16.113,36.133,49.316
1532373014.005,28.320,31.738,16.602,41.504,25.879
1532373014.009,30.762,35.156,10.742,39.062,29.297
1532373014.013,27.344,35.156,13.184,34.668,47.852
1532373014.017,24.902,30.762,20.508,33.691,42.480
1532373014.021,28.809,27.344,22.461,38.086,45.898
1532373014.025,46.387,31.738,19.531,45.898,35.156
1532373014.029,46.387,38.086,17.090,39.062,45.898
1532373014.033,26.367,39.551,17.578,20.996,73.242
1532373014.037,27.344,40.039,15.625,21.484,75.195
1532373014.041,34.668,40.527,15.137,31.250,30.273
1532373014.045,29.785,35.156,22.949,24.414,23.438
1532373014.048,19.531,31.250,21.973,15.625,54.199
1532373014.052,13.672,33.203,19.043,16.113,11.230
1532373014.056,19.043,28.809,26.367,22.949,-16.113
1532373014.060,25.879,21.973,26.855,28.809,8.301
1532373014.064,34.180,25.879,19.043,29.785,48.828
1532373014.068,44.922,36.133,12.207,24.414,68.359
1532373014.072,47.363,37.598,12.207,27.344,50.293
1532373014.076,37.109,35.645,16.602,37.109,30.273
1532373014.080,29.785,33.691,17.090,36.621,47.852
1532373014.084,25.391,31.250,16.602,33.203,77.148
1532373014.087,21.484,28.809,19.531,28.320,43.457
1532373014.091,28.809,23.926,23.438,29.785,11.230
1532373014.095,35.156,20.996,24.414,42.969,23.926
1532373014.099,41.016,26.855,20.508,49.805,53.223
1532373014.103,38.086,30.762,18.555,42.969,48.340
1532373014.107,38.574,26.367,24.902,45.410,39.062
1532373014.111,44.434,28.320,21.973,46.875,27.832
1532373014.115,48.828,41.016,13.672,50.781,31.738
1532373014.119,44.434,41.504,16.602,51.270,48.828
1532373014.123,41.016,36.133,21.973,46.875,27.344
1532373014.127,41.016,36.133,22.949,44.922,33.691
1532373014.130,44.434,42.480,30.273,51.758,42.969
1532373014.134,54.688,50.781,37.598,58.105,49.805
1532373014.138,55.664,48.828,37.598,54.199,35.156
1532373014.142,64.453,47.852,35.645,51.758,5.859
1532373014.146,57.617,50.293,32.715,50.781,19.531
1532373014.150,36.621,46.387,33.691,46.387,47.852
1532373014.154,33.203,40.527,33.691,44.434,36.133
1532373014.158,40.039,37.109,31.738,52.246,27.832
1532373014.162,38.086,34.668,34.668,57.129,46.875
1532373014.166,29.297,36.133,32.227,52.246,67.871
1532373014.170,33.203,35.156,30.762,51.758,53.223
1532373014.173,45.898,29.297,36.133,63.965,16.602
1532373014.177,54.688,31.250,34.668,66.895,14.160
1532373014.181,51.270,41.992,26.367,47.363,19.531
1532373014.185,42.969,44.434,23.438,43.457,56.152
1532373014.189,36.133,41.992,25.879,43.945,35.645
1532373014.193,28.320,42.480,29.297,32.715,-16.113
1532373014.197,22.461,41.504,31.738,26.855,13.184
1532373014.201,20.020,41.992,32.227,25.879,40.039
1532373014.205,32.715,41.504,30.273,33.691,25.391
1532373014.209,37.109,37.598,31.250,35.645,12.695
1532373014.212,21.973,38.086,34.668,30.273,4.395
1532373014.216,17.090,34.668,35.645,29.297,26.855
1532373014.220,27.344,28.809,36.621,35.645,28.809
1532373014.224,40.039,34.180,29.297,39.551,34.668
1532373014.228,37.598,37.598,21.484,35.156,10.254
1532373014.232,37.109,35.156,21.973,30.762,6.836
1532373014.236,44.922,36.133,18.066,27.344,53.711
1532373014.240,40.039,36.621,16.113,27.832,44.922
1532373014.244,41.016,36.621,16.113,27.344,51.758
1532373014.248,47.852,39.062,15.137,20.996,52.246
1532373014.252,56.152,41.504,15.137,15.137,41.992
1532373014.255,45.410,41.016,19.043,14.648,57.617
1532373014.259,39.551,38.086,23.438,22.461,55.176
1532373014.263,48.340,34.668,24.902,37.109,56.152
1532373014.267,45.898,33.203,23.926,52.246,50.781
1532373014.271,31.738,33.203,24.902,48.828,14.160
1532373014.275,20.020,33.203,32.227,38.574,-0.488
1532373014.279,16.602,32.715,34.668,40.527,-1.953
1532373014.283,21.484,29.785,32.227,49.316,18.066
1532373014.287,26.367,30.273,32.227,53.223,34.668
1532373014.291,15.625,33.691,30.762,43.945,-3.906
1532373014.295,12.695,33.691,29.785,34.668,-10.254
1532373014.298,29.785,33.691,28.809,32.227,29.785
1532373014.302,34.180,36.621,27.832,37.109,58.105
1532373014.306,24.414,34.180,30.762,43.457,50.781
1532373014.310,28.320,33.203,34.668,36.621,2.441
1532373014.314,37.598,36.133,35.645,30.762,4.395
1532373014.318,34.180,41.504,23.926,32.227,67.383
1532373014.322,35.156,43.457,23.438,36.133,84.473
1532373014.326,40.527,39.551,32.227,39.551,45.898
1532373014.330,41.504,41.016,31.250,38.574,-0.488
1532373014.334,33.203,39.551,32.227,32.227,34.180
1532373014.337,19.043,32.715,33.691,19.531,52.734
1532373014.341,27.832,27.832,37.109,26.367,12.207
1532373014.345,51.758,32.227,36.133,42.480,22.949
1532373014.349,56.152,44.922,28.320,31.738,38.086
1532373014.353,40.039,43.945,30.762,8.789,27.832
1532373014.357,34.668,36.133,36.133,6.348,39.062
1532373014.361,41.016,36.621,36.621,18.555,42.480
1532373014.365,39.062,39.062,35.645,21.484,54.199
1532373014.369,30.762,35.645,40.039,14.648,66.406
1532373014.373,32.715,33.691,41.992,13.672,53.711
1532373014.377,41.992,39.551,37.109,20.508,22.949
1532373014.380,41.016,43.457,31.250,16.602,12.207
1532373014.384,43.457,41.992,34.668,11.719,24.414
1532373014.388,42.969,42.969,40.527,11.719,20.996
1532373014.392,39.062,42.480,41.504,12.695,-8.789
1532373014.396,45.898,37.109,44.434,20.508,19.043
1532373014.400,41.016,34.668,45.898,27.832,62.012
1532373014.404,35.645,35.645,43.945,34.180,76.660
1532373014.408,34.668,34.668,41.992,32.715,81.543
1532373014.412,36.621,33.691,42.969,31.738,27.832
1532373014.416,38.086,33.691,43.457,38.086,42.969
1532373014.419,39.551,35.156,40.039,39.551,70.801
1532373014.423,53.223,38.086,38.574,40.527,36.133
1532373014.427,50.293,38.086,45.898,38.574,12.207
1532373014.431,33.691,36.133,50.781,35.156,11.230
1532373014.435,45.898,37.598,53.711,43.945,68.848
1532373014.439,65.430,47.363,63.965,62.500,58.594
1532373014.443,67.871,58.105,62.500,65.430,17.578
1532373014.447,68.359,59.570,59.082,60.547,69.824
1532373014.451,70.312,55.664,60.547,58.105,54.688
1532373014.455,58.594,51.270,57.129,58.594,24.414
1532373014.459,50.293,49.805,55.664,65.430,46.875
1532373014.462,53.223,51.270,53.711,61.523,43.945
1532373014.466,57.129,51.758,53.223,62.500,45.898
1532373014.470,57.129,53.711,51.270,66.895,64.453
1532373014.474,53.711,50.293,49.805,60.547,64.453
1532373014.478,46.875,44.434,51.758,62.012,52.246
1532373014.482,61.035,42.969,56.641,75.195,76.660
1532373014.486,64.453,43.457,58.105,78.125,65.430
1532373014.490,52.246,49.805,51.270,68.359,35.645
1532373014.494,56.152,49.316,52.246,64.941,39.062
1532373014.498,58.594,45.410,54.688,71.289,84.473
1532373014.502,51.758,44.922,54.688,74.219,93.750
1532373014.505,56.152,40.039,55.176,72.266,51.758
1532373014.509,62.012,41.992,49.805,69.336,34.180
1532373014.513,57.129,55.176,37.109,64.453,54.199
1532373014.517,54.688,55.664,34.180,65.430,87.891
1532373014.521,44.434,47.852,41.992,57.129,75.195
1532373014.525,46.387,45.410,44.434,54.688,41.504
1532373014.529,53.711,43.457,42.969,63.477,38.086
1532373014.533,43.945,45.898,44.922,51.758,49.805
1532373014.537,37.598,48.828,42.480,43.945,67.871
1532373014.541,43.945,45.898,43.945,53.223,66.895
1532373014.544,54.199,41.016,46.387,68.359,57.129
1532373014.548,57.129,38.574,45.410,76.660,67.871
1532373014.552,54.688,37.598,50.293,74.219,69.336
1532373014.556,53.223,37.598,50.781,79.102,50.781
1532373014.560,45.898,38.086,47.363,83.008,56.152
1532373014.564,43.457,40.039,44.922,77.148,63.477
1532373014.568,43.945,41.504,43.945,68.848,72.754
1532373014.572,45.410,45.898,39.062,61.523,78.613
1532373014.576,60.059,48.828,36.133,65.430,68.848
1532373014.580,56.641,45.410,39.551,70.801,83.496
1532373014.584,31.250,43.945,41.016,63.477,102.539
1532373014.587,27.344,43.457,42.969,61.035,85.449
1532373014.591,42.480,41.504,42.969,64.453,38.574
1532373014.595,54.688,40.039,40.527,71.289,57.129
1532373014.599,59.570,40.527,38.574,80.078,97.656
1532373014.603,59.570,41.992,37.109,77.637,93.750
1532373014.607,60.547,40.527,41.016,70.312,65.918
1532373014.611,58.594,40.039,41.016,69.824,60.547
1532373014.615,50.781,41.992,37.109,66.406,71.777
1532373014.619,47.852,42.969,35.156,65.918,76.660
1532373014.623,50.293,41.504,34.180,66.406,50.293
1532373014.627,52.246,40.527,33.691,62.500,11.230
1532373014.630,51.758,39.062,36.621,62.500,36.621
1532373014.634,48.340,38.574,39.062,61.523,28.809
1532373014.638,55.176,41.016,38.574,66.895,27.832
1532373014.642,53.711,41.992,38.086,67.871,53.223
1532373014.646,53.223,41.504,40.527,65.918,48.340
1532373014.650,58.594,40.039,40.527,67.383,65.430
1532373014.654,51.270,37.598,41.016,66.895,53.223
1532373014.658,42.480,38.086,40.039,73.242,24.414
1532373014.662,44.922,38.574,35.645,70.312,8.789
1532373014.666,46.387,41.992,36.621,60.059,35.645
1532373014.669,43.457,47.852,38.086,51.758,21.484
1532373014.673,37.598,49.316,34.180,47.363,-34.180
1532373014.677,37.109,42.969,37.109,49.316,-15.137
1532373014.681,55.176,37.598,39.551,65.918,25.391
1532373014.685,55.176,40.527,34.180,68.848,46.387
1532373014.689,41.992,45.898,29.785,46.387,5.371
1532373014.693,38.574,50.781,28.809,38.574,-21.973
1532373014.697,30.273,48.340,28.809,43.457,36.621
1532373014.701,32.715,43.945,30.762,43.457,50.781
1532373014.705,43.457,48.340,30.273,42.969,29.297
1532373014.709,39.062,52.734,23.926,40.039,3.418
1532373014.712,35.645,49.805,22.949,50.293,0.000
1532373014.716,27.832,41.992,28.320,50.293,36.133
1532373014.720,26.367,40.039,31.250,43.457,17.578
1532373014.724,37.598,41.504,31.250,48.828,4.395
1532373014.728,38.086,38.574,34.180,56.641,0.488
1532373014.732,45.410,33.203,37.109,59.570,17.090
1532373014.736,63.965,39.062,28.809,60.059,49.316
1532373014.740,66.895,50.293,19.531,55.176,28.320
1532373014.744,54.688,47.852,23.438,49.805,16.113
1532373014.748,54.199,43.945,22.949,50.781,40.039
1532373014.752,46.875,42.480,28.320,46.875,39.551
1532373014.755,40.039,41.992,33.691,47.852,19.043
1532373014.759,59.082,40.527,32.227,56.152,30.762
1532373014.763,62.988,36.621,31.738,57.129,42.969
1532373014.767,52.246,35.156,30.273,51.758,33.691
1532373014.771,47.363,40.527,28.809,38.086,-8.301
1532373014.775,37.109,45.410,28.809,25.391,16.602
1532373014.779,35.645,42.969,26.367,28.320,43.945
1532373014.783,42.969,39.062,23.438,33.691,44.434
1532373014.787,40.527,38.574,30.762,36.621,37.109
1532373014.791,47.363,45.410,45.898,45.898,12.207
1532373014.794,50.781,51.270,51.758,47.852,21.973
1532373014.798,46.387,50.293,47.852,38.086,54.199
1532373014.802,44.922,46.387,45.410,38.574,55.664
1532373014.806,58.594,44.922,42.969,44.922,22.949
1532373014.810,61.523,47.363,41.016,38.086,-13.184
1532373014.814,37.598,47.852,43.457,23.926,-13.184
1532373014.818,44.922,43.945,43.457,32.715,36.133
1532373014.822,58.594,39.062,41.992,40.527,38.086
1532373014.826,39.062,39.062,44.922,20.508,0.000
1532373014.830,32.715,41.992,42.969,13.672,27.344
1532373014.834,41.016,42.480,39.551,20.508,67.871
1532373014.837,37.598,40.527,41.504,20.020,41.016
1532373014.841,28.809,40.039,38.574,18.066,3.418
1532373014.845,39.551,46.875,34.180,22.461,5.859
1532373014.849,39.551,43.945,36.621,28.809,34.668
1532373014.853,19.043,40.527,37.598,23.926,36.621
1532373014.857,18.555,41.992,35.645,21.484,9.277
1532373014.861,22.949,37.109,37.598,31.250,-0.977
1532373014.865,36.621,37.109,41.504,43.457,29.785
1532373014.869,43.457,41.504,40.527,43.945,23.926
1532373014.873,41.016,46.875,36.133,33.203,-40.039
1532373014.876,41.504,50.781,29.785,25.391,-15.137
1532373014.880,50.293,56.152,25.391,33.203,43.457
1532373014.884,43.945,51.270,30.273,33.691,47.852
1532373014.888,33.203,46.875,35.156,29.297,7.812
1532373014.892,21.484,50.293,35.156,26.855,-12.695
1532373014.896,18.066,49.316,39.062,30.762,26.855
1532373014.900,29.785,48.828,41.504,40.039,28.809
1532373014.904,21.973,45.898,42.969,36.621,11.230
1532373014.908,15.137,42.480,40.527,30.273,-10.742
1532373014.912,8.789,39.551,37.109,32.715,1.465
1532373014.916,12.207,37.109,42.480,37.598,42.480
1532373014.919,29.785,32.715,48.828,54.688,47.363
1532373014.923,41.992,32.227,45.410,62.012,39.062
1532373014.927,36.621,38.574,40.039,41.016,35.645
1532373014.931,26.855,41.504,39.062,25.879,48.828
1532373014.935,37.109,44.922,33.203,28.320,71.777
1532373014.939,46.875,51.758,27.832,31.738,31.250
1532373014.943,38.086,52.246,29.785,32.227,8.301
1532373014.947,29.785,48.828,33.203,36.133,41.504
1532373014.951,26.855,48.340,38.086,32.227,40.039
1532373014.955,41.992,44.434,40.527,32.715,-0.488
1532373014.959,61.035,46.387,33.691,42.480,-6.348
1532373014.962,59.570,52.734,27.832,42.969,24.902
1532373014.966,54.688,53.223,23.438,33.691,49.805
1532373014.970,50.781,55.664,21.484,23.438,11.230
1532373014.974,46.875,56.152,27.344,33.203,-4.883
1532373014.978,48.828,53.223,31.250,46.875,3.418
1532373014.982,34.668,48.828,36.133,51.270,28.809
1532373014.986,20.508,44.434,41.016,54.199,30.762
1532373014.990,22.949,42.480,42.480,51.270,-8.301
1532373014.994,26.855,38.574,44.922,50.293,14.160
1532373014.998,24.414,38.086,43.457,54.199,27.832
1532373015.001,35.156,39.551,41.992,55.176,8.301
1532373015.005,27.832,37.109,43.457,48.828,10.254
1532373015.009,18.066,37.598,39.551,42.969,-2.441
1532373015.013,26.855,38.574,37.598,49.316,-24.414
1532373015.017,29.297,36.133,39.551,47.852,30.273
1532373015.021,29.297,36.133,39.551,47.363,20.996
1532373015.025,30.273,39.551,34.180,52.734,-20.020
1532373015.029,39.062,37.598,32.715,53.711,12.695
1532373015.033,46.387,34.180,34.180,61.523,53.223
1532373015.037,45.410,40.039,31.250,53.711,50.293
1532373015.041,38.574,46.387,25.879,40.527,10.742
1532373015.044,46.875,48.828,20.508,44.922,8.301
1532373015.048,55.664,50.293,22.949,50.293,23.438
1532373015.052,53.711,47.363,26.367,59.570,37.598
1532373015.056,53.711,48.828,24.902,66.406,24.414
1532373015.060,38.086,44.434,29.297,55.664,5.371
1532373015.064,35.156,40.527,32.715,54.688,48.828
1532373015.068,48.340,39.551,37.109,61.523,54.199
1532373015.072,44.434,39.062,38.086,58.105,-12.695
1532373015.076,41.504,38.086,35.645,65.430,-23.926
1532373015.080,47.852,37.598,36.621,76.172,6.836
1532373015.084,47.363,36.621,37.109,77.148,27.344
1532373015.087,43.945,34.180,40.039,77.148,30.762
1532373015.091,53.223,34.668,43.457,66.895,-18.066
1532373015.095,64.941,46.387,44.434,62.500,-5.371
1532373015.099,73.242,63.477,44.922,76.660,40.039
1532373015.103,70.801,66.406,43.945,76.660,20.020
1532373015.107,55.176,57.617,47.363,71.777,-1.953
1532373015.111,60.059,53.223,45.410,74.707,8.789
1532373015.115,67.383,57.617,39.062,78.613,32.227
1532373015.119,50.781,55.176,39.551,70.312,28.809
1532373015.123,46.875,48.828,38.086,63.477,4.395
1532373015.126,43.945,42.969,35.645,64.941,-2.441
1532373015.130,34.668,37.109,37.109,62.500,14.160
1532373015.134,50.293,30.273,42.480,72.266,42.969
1532373015.138,68.848,34.668,36.621,73.730,11.230
1532373015.142,67.383,44.434,22.461,62.500,-19.043
1532373015.146,52.734,45.898,20.996,58.594,-8.301
1532373015.150,42.969,41.016,27.832,52.734,-18.066
1532373015.154,46.387,39.551,27.832,56.152,-20.020
1532373015.158,60.547,41.016,24.902,64.941,-0.977
1532373015.162,61.523,38.574,27.832,67.383,11.719
1532373015.166,57.129,36.621,30.762,59.570,24.414
1532373015.169,53.223,37.598,29.785,54.199,26.367
1532373015.173,44.434,37.109,30.762,59.570,7.812
1532373015.177,47.363,37.598,32.227,60.547,10.742
1532373015.181,52.734,39.062,32.227,57.617,34.668
1532373015.185,51.758,39.062,32.227,58.105,36.133
1532373015.189,53.223,41.016,29.297,55.664,9.766
1532373015.193,54.688,40.527,29.785,55.176,4.395
1532373015.197,55.664,38.574,34.180,59.570,35.645
1532373015.201,50.781,37.109,33.203,60.547,50.781
1532373015.205,42.480,35.645,31.738,58.105,15.137
1532373015.209,48.340,37.109,33.691,55.176,-2.930
1532373015.212,51.758,39.062,33.203,53.711,42.969
1532373015.216,47.852,39.062,30.762,56.152,84.961
1532373015.220,46.387,38.086,32.715,53.223,69.824
1532373015.224,41.992,40.039,28.320,48.340,56.152
1532373015.228,46.387,41.016,25.879,45.410,50.781
1532373015.232,46.875,34.668,30.762,53.223,33.691
1532373015.236,35.645,26.855,30.273,73.242,31.250
1532373015.240,44.922,32.715,25.391,65.918,23.438
1532373015.244,44.434,46.387,12.207,42.480,26.855
1532373015.248,40.527,49.316,5.859,51.270,35.156
1532373015.251,30.762,45.898,16.113,49.316,18.555
1532373015.255,17.090,43.945,20.020,36.621,4.395
1532373015.259,20.020,41.016,18.555,47.852,16.602
1532373015.263,25.391,37.109,21.484,59.082,44.434
1532373015.267,18.555,32.227,27.344,53.223,77.637
1532373015.271,24.902,26.855,35.645,60.059,59.082
1532373015.275,42.969,30.273,33.203,75.195,10.254
1532373015.279,40.527,40.039,21.484,60.547,7.812
1532373015.283,37.598,48.340,15.625,41.016,16.602
1532373015.287,36.133,55.176,9.277,39.551,21.973
1532373015.291,34.180,53.711,7.324,42.969,18.066
1532373015.294,39.062,47.852,12.695,44.434,35.156
1532373015.298,36.133,43.945,13.672,45.410,49.805
1532373015.302,22.949,43.945,13.672,40.527,34.180
1532373015.306,16.113,40.527,18.066,42.480,35.156
1532373015.310,23.438,36.621,22.949,57.129,-4.883
1532373015.314,29.297,37.598,26.367,60.059,-14.648
1532373015.318,25.391,42.480,21.973,53.711,30.273
1532373015.322,28.809,44.922,11.719,45.898,21.484
1532373015.326,27.832,46.387,7.812,40.039,11.719
1532373015.330,20.020,46.875,11.230,42.969,11.230
1532373015.334,24.902,40.039,17.578,46.875,27.344
1532373015.337,26.855,41.016,21.484,49.805,28.809
1532373015.341,31.738,47.363,15.625,58.594,10.742
1532373015.345,32.227,47.852,9.277,59.570,3.906
1532373015.349,26.367,46.387,13.184,50.293,3.418
1532373015.353,31.738,42.480,16.602,49.316,13.184
1532373015.357,34.668,42.480,16.113,51.758,20.996
1532373015.361,40.527,45.898,16.113,50.781,20.996
1532373015.365,41.504,48.828,13.672,43.457,54.199
1532373015.369,44.434,50.293,10.254,44.922,63.965
1532373015.373,49.805,47.363,12.695,48.340,28.809
1532373015.376,39.551,43.945,18.066,39.062,-12.695
1532373015.380,28.809,42.480,24.902,37.109,23.926
1532373015.384,35.156,39.551,28.809,47.852,51.758
1532373015.388,50.293,37.598,31.738,62.012,10.254
1532373015.392,49.805,40.039,27.344,59.570,-7.324
1532373015.396,40.039,44.922,17.090,50.293,15.137
1532373015.400,43.945,48.340,14.160,47.852,40.527
1532373015.404,35.156,46.875,16.113,44.434,41.992
1532373015.408,26.855,43.457,17.090,43.457,-0.488
1532373015.412,30.762,44.434,19.043,39.551,8.789
1532373015.416,39.062,43.945,17.090,41.504,26.367
1532373015.419,35.156,44.434,17.090,48.340,28.809
1532373015.423,40.527,43.945,24.414,42.969,32.227
1532373015.427,33.691,41.504,23.926,34.668,-2.930
1532373015.431,23.438,41.504,22.461,39.551,-13.672
1532373015.435,34.668,41.016,19.043,53.223,19.043
1532373015.439,31.250,35.645,21.973,55.176,41.016
1532373015.443,22.461,31.738,30.762,50.293,13.672
1532373015.447,20.508,28.320,32.715,51.758,28.809
1532373015.451,33.691,29.785,29.785,58.105,37.109
1532373015.455,45.410,36.133,22.949,62.012,12.695
1532373015.458,36.621,41.016,25.879,59.082,4.883
1532373015.462,36.133,47.363,43.945,64.453,30.762
1532373015.466,58.594,53.223,57.129,88.867,56.152
1532373015.470,77.148,62.012,53.223,97.168,28.320
1532373015.474,73.730,64.941,38.086,85.449,3.418
1532373015.478,50.781,58.105,36.133,74.219,47.363
1532373015.482,51.270,52.734,40.039,71.777,60.547
1532373015.486,59.082,51.758,36.621,74.219,27.344
1532373015.490,59.082,50.293,31.738,72.754,18.555
1532373015.494,53.711,46.387,32.227,71.777,-5.371
1532373015.498,51.270,43.457,30.273,72.266,13.184
1532373015.501,58.105,45.410,23.438,70.801,26.855
1532373015.505,58.594,47.852,18.066,62.500,5.371
1532373015.509,52.246,44.922,17.578,54.199,-20.508
1532373015.513,50.293,40.039,17.090,51.270,-13.672
1532373015.517,49.805,38.086,15.137,55.176,16.602
1532373015.521,49.805,36.621,16.602,61.523,19.531
1532373015.525,57.129,36.621,14.160,68.359,35.156
1532373015.529,57.617,36.133,12.695,71.777,33.691
1532373015.533,56.641,37.109,19.043,62.500,-2.930
1532373015.537,60.059,36.621,21.484,62.500,-14.160
1532373015.541,52.734,37.109,19.043,65.918,-7.324
1532373015.544,47.852,37.109,18.066,63.477,-8.789
1532373015.548,50.781,34.668,18.066,65.918,1.465
1532373015.552,48.828,35.645,19.531,62.988,20.996
1532373015.556,41.992,36.621,20.020,56.152,11.230
1532373015.560,41.504,35.645,20.020,59.082,-11.230
1532373015.564,48.340,38.574,21.973,56.152,23.926
1532373015.568,42.480,40.039,25.879,52.734,62.988
1532373015.572,41.504,38.086,26.367,61.035,26.855
1532373015.576,40.527,38.086,30.273,61.523,1.465
1532373015.580,36.133,38.574,34.180,57.129,12.207
1532373015.583,28.320,36.133,31.250,56.152,41.504
1532373015.587,28.320,30.273,33.203,57.617,30.762
1532373015.591,40.039,33.691,30.762,60.547,-20.020
1532373015.595,46.387,48.340,17.090,52.734,25.879
1532373015.599,41.992,51.758,12.695,46.387,83.008
1532373015.603,39.062,45.898,17.578,49.316,62.500
1532373015.607,37.598,45.410,29.297,48.340,19.531
1532373015.611,22.461,44.434,36.133,38.574,16.602
1532373015.615,17.578,40.039,35.645,40.527,29.785
1532373015.619,20.508,40.039,35.156,43.945,64.941
1532373015.623,19.531,34.668,41.016,42.480,62.012
1532373015.626,24.902,32.227,41.016,36.621,45.898
1532373015.630,39.551,38.086,33.691,39.551,72.266
1532373015.634,42.969,43.945,31.250,46.875,55.664
1532373015.638,25.879,40.039,36.133,45.410,31.738
1532373015.642,16.602,31.738,44.922,48.340,27.832
1532373015.646,34.668,32.227,42.480,53.223,49.805
1532373015.650,36.621,40.039,30.762,44.434,66.406
1532373015.654,29.297,43.945,28.809,39.551,34.668
1532373015.658,34.668,42.969,33.203,44.434,18.066
1532373015.662,37.598,41.504,34.668,48.340,38.574
1532373015.666,43.457,42.969,34.668,46.875,63.477
1532373015.669,42.969,42.969,36.133,40.039,40.527
1532373015.673,30.762,42.969,38.086,30.273,1.953
1532373015.677,34.668,41.016,36.621,37.598,32.715
1532373015.681,46.875,37.109,34.668,45.898,61.035
1532373015.685,45.410,34.668,38.086,39.062,75.684
1532373015.689,46.387,33.203,40.039,41.992,41.504
1532373015.693,62.012,33.691,36.133,60.059,24.414
1532373015.697,57.617,36.133,37.598,74.707,51.270
1532373015.701,33.691,34.180,41.504,68.848,44.922
1532373015.705,17.578,30.762,43.945,61.035,34.180
1532373015.708,25.391,28.809,47.363,65.430,12.207
1532373015.712,39.551,30.762,42.480,65.918,12.695
1532373015.716,41.504,36.133,33.203,60.059,46.387
1532373015.720,40.527,38.574,30.762,59.082,61.035
1532373015.724,33.691,37.598,32.227,52.734,42.480
1532373015.728,27.344,36.133,36.133,41.504,22.461
1532373015.732,28.320,36.621,39.062,41.504,18.555
1532373015.736,30.273,37.598,33.203,44.434,37.598
1532373015.740,34.180,37.109,28.809,45.898,27.344
1532373015.744,41.504,39.062,34.668,49.805,13.184
1532373015.748,32.715,41.992,39.062,44.922,15.137
1532373015.751,26.367,38.086,41.992,43.945,19.531
1532373015.755,32.715,34.668,46.387,49.805,-7.812
1532373015.759,32.227,35.156,49.805,50.781,-27.832
1532373015.763,26.855,32.715,51.270,44.434,9.277
1532373015.767,30.762,32.227,53.223,39.551,21.484
1532373015.771,42.480,31.738,50.781,42.969,-29.297
1532373015.775,34.668,36.133,47.363,43.945,-42.969
1532373015.779,15.625,38.574,47.363,35.645,-0.488
1532373015.783,14.648,33.691,51.270,35.156,28.320
1532373015.787,17.090,28.320,57.129,41.992,35.156
1532373015.791,16.113,28.809,57.129,39.551,4.395
1532373015.794,28.809,33.203,50.781,45.898,-5.859
1532373015.798,38.574,33.691,47.852,49.805,-8.789
1532373015.802,14.648,34.668,51.758,37.598,-0.977
1532373015.806,4.395,34.180,50.781,34.180,-6.348
1532373015.810,9.277,32.227,47.852,46.875,-46.387
1532373015.814,13.184,29.785,52.734,57.617,-23.926
1532373015.818,25.391,30.273,51.758,52.246,26.367
1532373015.822,33.203,38.086,40.527,46.387,10.742
1532373015.826,32.227,39.551,38.574,42.480,-0.488
1532373015.830,18.066,38.086,41.016,39.062,19.531
1532373015.833,13.672,40.039,36.621,43.945,25.879
1532373015.837,20.508,39.551,37.109,51.270,26.855
1532373015.841,17.578,36.133,37.109,49.316,33.691
1532373015.845,11.719,33.691,37.109,46.875,19.043
1532373015.849,10.254,31.738,41.016,40.527,23.926
1532373015.853,20.020,30.273,40.527,34.180,-11.719
1532373015.857,26.367,29.785,42.480,41.992,-23.926
1532373015.861,28.809,31.738,41.504,52.246,27.832
1532373015.865,34.668,31.250,39.062,56.641,23.438
1532373015.869,28.320,28.809,40.039,52.734,10.742
1532373015.873,19.043,28.809,41.016,52.246,2.930
1532373015.876,18.066,30.273,38.574,53.711,3.418
1532373015.880,22.949,33.203,33.691,44.922,18.066
1532373015.884,31.738,34.668,32.715,50.781,16.113
1532373015.888,38.086,38.574,31.250,54.199,-2.441
1532373015.892,42.969,43.457,24.902,39.062,-21.484
1532373015.896,43.945,46.387,19.043,42.480,-7.812
1532373015.900,36.621,43.457,27.344,47.363,42.480
1532373015.904,31.738,41.016,37.109,39.551,49.805
1532373015.908,26.855,44.434,33.691,30.273,4.395
1532373015.912,31.250,44.434,29.297,31.738,-27.344
1532373015.916,41.504,42.969,28.320,42.969,8.789
1532373015.919,33.203,41.016,31.738,41.016,39.062
1532373015.923,28.809,40.527,36.133,29.785,-5.371
1532373015.927,32.227,39.551,35.156,28.809,-6.836
1532373015.931,35.156,39.062,31.738,32.715,31.250
1532373015.935,47.852,39.062,31.738,39.551,49.316
1532373015.939,41.016,39.062,34.180,41.016,15.625
1532373015.943,23.926,35.645,39.062,35.645,-14.648
1532373015.947,30.762,29.785,43.945,36.621,33.691
1532373015.951,39.062,36.133,39.062,42.969,81.055
1532373015.955,39.551,44.922,29.297,38.574,48.340
1532373015.958,43.457,42.969,27.832,37.598,22.461
1532373015.962,46.387,44.434,24.902,39.062,55.176
1532373015.966,48.828,49.805,18.555,30.762,79.590
1532373015.970,54.199,50.293,19.531,32.715,29.785
1532373015.974,40.039,44.434,21.484,38.086,0.977
1532373015.978,33.203,41.016,25.391,40.527,26.367
1532373015.982,32.227,42.480,32.227,36.621,43.457
1532373015.986,32.227,41.016,34.180,40.527,53.711
1532373015.990,36.621,41.504,35.156,43.945,17.090
1532373015.994,49.805,47.363,45.898,52.246,-7.812
1532373015.998,83.008,52.734,64.941,83.008,45.898
1532373016.001,103.027,66.895,70.312,93.750,76.660
1532373016.005,89.844,80.566,67.383,82.031,36.133
1532373016.009,74.219,83.496,73.730,83.984,17.578
1532373016.013,72.754,90.332,76.660,82.520,54.688
1532373016.017,70.801,87.891,69.824,73.730,71.777
1532373016.021,68.359,79.590,61.035,83.008,40.527
1532373016.025,67.383,75.684,52.246,77.637,18.555
1532373016.029,62.500,73.242,49.805,56.152,23.438
1532373016.033,50.781,74.219,43.945,45.898,51.758
1532373016.037,40.527,73.242,33.203,42.480,49.805
1532373016.040,45.410,70.312,28.809,50.293,30.762
1532373016.044,42.969,66.406,27.344,46.387,44.922
1532373016.048,41.504,61.035,31.250,47.363,48.828
1532373016.052,50.781,57.617,30.762,49.316,43.945
1532373016.056,53.223,59.082,25.391,43.945,20.508
1532373016.060,48.340,60.547,22.949,38.574,18.555
1532373016.064,58.594,62.500,20.020,37.598,54.688
1532373016.068,62.012,59.082,17.578,41.504,68.848
1532373016.072,44.434,51.270,22.461,36.621,53.711
1532373016.076,40.527,46.875,22.949,35.156,20.996
1532373016.080,43.457,47.363,17.578,34.180,31.738
1532373016.083,40.527,49.805,18.555,31.738,65.918
1532373016.087,39.062,45.898,20.508,35.156,57.617
1532373016.091,38.086,40.527,25.879,35.156,10.742
1532373016.095,40.039,35.645,30.273,41.504,4.883
1532373016.099,38.574,37.598,25.391,41.016,65.430
1532373016.103,37.109,40.527,19.531,34.668,89.844
1532373016.107,41.504,40.039,15.625,36.133,42.480
1532373016.111,37.109,46.387,11.719,31.738,6.348
1532373016.115,41.992,48.828,8.301,38.574,62.500
1532373016.119,41.992,40.039,13.184,49.316,99.121
1532373016.123,30.762,34.180,23.926,40.527,33.691
1532373016.126,32.227,36.133,19.531,32.715,6.348
1532373016.130,31.250,40.039,9.277,26.855,28.809
1532373016.134,35.645,40.039,13.672,28.809,48.828
1532373016.138,39.551,33.691,20.508,38.574,45.410
1532373016.142,41.016,33.691,19.531,43.945,35.645
1532373016.146,40.039,37.109,17.090,43.945,55.176
1532373016.150,34.180,32.227,19.531,33.203,77.148
1532373016.154,34.668,31.738,22.949,29.297,53.711
1532373016.158,48.340,34.668,21.484,43.945,30.273
1532373016.162,57.129,32.715,23.926,56.152,38.086
1532373016.165,48.828,30.762,27.344,53.223,26.367
1532373016.169,48.340,32.715,23.926,41.992,13.184
1532373016.173,44.434,37.109,18.066,35.645,-19.531
1532373016.177,36.621,39.062,19.043,36.621,15.625
1532373016.181,34.180,39.062,16.602,32.715,55.176
1532373016.185,36.133,39.062,16.602,29.297,29.297
1532373016.189,37.598,35.156,24.902,35.645,19.043
1532373016.193,37.109,33.691,23.926,39.551,48.340
1532373016.197,37.109,37.109,16.113,29.785,55.664
1532373016.201,31.738,40.527,9.277,31.738,47.363
1532373016.205,29.297,37.598,11.719,32.227,17.578
1532373016.208,27.344,29.785,17.578,31.250,-7.324
1532373016.212,28.809,26.855,21.973,41.016,-3.418
1532373016.216,30.273,26.367,25.391,44.922,6.348
1532373016.220,21.484,26.367,21.973,40.039,16.602
1532373016.224,26.855,25.879,20.020,49.316,0.977
1532373016.228,37.598,22.949,24.414,64.941,-5.371
1532373016.232,40.527,21.973,28.320,62.988,21.973
1532373016.236,33.691,22.461,28.809,53.223,28.809
1532373016.240,36.133,25.391,29.785,50.293,-28.809
1532373016.244,44.434,26.855,28.809,55.664,-17.090
1532373016.248,49.316,25.879,30.273,64.453,19.043
1532373016.251,49.316,27.832,27.832,61.035,22.461
1532373016.255,42.969,29.297,25.879,52.734,15.625
1532373016.259,46.875,30.762,28.809,44.434,-2.930
1532373016.263,44.434,30.762,27.344,39.551,-11.719
1532373016.267,35.645,29.785,28.320,44.922,-0.977
1532373016.271,40.039,31.250,31.738,47.852,-42.480
1532373016.275,40.527,29.297,29.785,52.734,-58.105
1532373016.279,39.551,27.832,30.273,58.594,-22.461
1532373016.283,39.551,29.785,32.715,58.105,16.602
1532373016.287,35.645,28.320,34.668,51.270,31.250
1532373016.290,30.273,30.273,32.715,44.922,-41.016
1532373016.294,41.992,36.133,26.855,41.016,-54.199
1532373016.298,49.316,37.109,25.391,39.551,18.066
1532373016.302,41.992,28.809,32.227,41.504,12.695
1532373016.306,33.203,27.832,35.156,43.945,-46.387
1532373016.310,23.438,33.203,32.227,32.715,-32.715
1532373016.314,22.461,33.203,31.738,33.691,-22.461
1532373016.318,28.320,33.203,34.180,45.410,-8.301
1532373016.322,36.621,33.203,34.180,42.969,-32.227
1532373016.326,40.039,33.203,32.227,40.039,-42.480
1532373016.330,30.273,36.621,31.250,43.945,-10.254
1532373016.333,30.273,35.156,34.668,46.387,2.930
1532373016.337,36.133,31.250,35.645,43.945,-18.555
1532373016.341,43.945,32.227,32.715,48.340,-37.598
1532373016.345,44.434,38.574,27.832,51.758,-7.812
1532373016.349,38.086,38.574,26.367,39.062,-9.277
1532373016.353,39.551,36.133,30.273,30.762,-32.715
1532373016.357,30.762,33.203,29.297,34.668,-35.645
1532373016.361,28.320,29.297,29.297,38.086,-33.691
1532373016.365,34.668,26.367,32.227,42.480,-9.277
1532373016.369,38.574,20.996,33.691,49.805,-7.324
1532373016.373,46.387,22.949,32.715,48.828,-44.922
1532373016.376,44.434,28.809,25.879,38.086,-20.996
1532373016.380,39.062,29.297,24.414,42.969,16.113
1532373016.384,35.156,30.273,27.832,39.062,39.551
1532373016.388,39.551,33.203,28.809,30.762,-11.230
1532373016.392,51.270,35.156,26.855,35.645,-29.297
1532373016.396,62.012,35.645,24.902,43.945,3.906
1532373016.400,60.547,35.156,24.902,44.434,8.301
1532373016.404,51.270,34.180,24.414,37.109,1.953
1532373016.408,50.293,37.109,26.855,39.551,-15.625
1532373016.412,42.969,38.086,25.391,38.574,1.465
1532373016.415,42.969,41.992,31.738,44.434,13.672
1532373016.419,41.016,46.875,42.480,55.664,26.367
1532373016.423,37.109,45.898,42.480,58.105,10.254
1532373016.427,36.133,43.945,42.969,56.152,6.836
1532373016.431,28.809,42.969,44.922,47.852,19.531
1532373016.435,25.391,41.504,41.016,45.410,25.391
1532373016.439,29.785,41.504,35.645,42.480,7.324
1532373016.443,28.809,43.945,33.203,35.645,-9.277
1532373016.447,26.367,41.992,35.156,38.086,27.832
1532373016.451,36.621,39.551,35.156,46.387,61.035
1532373016.455,34.180,41.016,28.320,52.734,33.691
1532373016.458,19.531,39.551,33.691,51.270,-0.977
1532373016.462,14.648,36.133,40.527,41.504,24.414
1532373016.466,9.277,33.203,41.016,41.016,58.105
1532373016.470,11.230,28.320,41.992,47.363,24.414
1532373016.474,22.949,30.273,40.039,45.410,20.508
1532373016.478,29.785,39.062,34.180,43.945,29.785
1532373016.482,26.367,40.527,29.785,37.109,43.945
1532373016.486,12.207,38.086,29.785,27.344,74.219
1532373016.490,26.855,38.574,27.344,30.762,18.066
1532373016.494,40.039,41.016,25.879,33.691,-20.020
1532373016.497,24.414,38.574,30.273,29.785,22.461
1532373016.501,20.020,35.156,30.273,25.391,45.410
1532373016.505,22.461,37.109,25.879,27.344,46.875
1532373016.509,18.066,38.574,31.250,36.621,19.531
1532373016.513,31.250,36.621,30.273,42.969,5.859
1532373016.517,29.297,34.668,25.879,39.062,51.270
1532373016.521,21.973,34.180,27.832,36.133,42.480
1532373016.525,32.715,33.691,28.809,42.969,43.945
1532373016.529,29.297,29.297,31.738,47.852,17.090
1532373016.533,22.461,23.438,35.156,47.852,45.410
1532373016.537,28.320,21.484,31.738,53.711,96.680
1532373016.540,37.598,21.973,24.902,53.711,51.270
1532373016.544,45.898,27.832,19.043,51.758,15.137
1532373016.548,40.527,29.297,19.043,49.316,36.133
1532373016.552,29.297,27.832,18.555,46.387,59.082
1532373016.556,39.062,32.227,14.648,52.734,55.176
1532373016.560,48.828,30.762,17.090,62.012,41.016
1532373016.564,42.969,30.273,16.602,57.129,42.969
1532373016.568,37.598,32.715,10.742,47.852,53.223
1532373016.572,36.621,31.250,16.113,49.805,18.066
1532373016.576,32.715,29.297,18.066,52.246,-0.488
1532373016.580,36.621,28.809,16.602,52.734,39.551
1532373016.583,37.109,29.785,18.555,48.828,85.938
1532373016.587,37.109,28.809,18.066,49.805,43.945
1532373016.591,41.992,30.762,18.555,54.688,0.977
1532373016.595,37.109,33.691,15.137,48.828,-9.277
1532373016.599,30.762,32.715,11.230,36.621,40.039
1532373016.603,30.762,33.691,10.742,35.156,47.363
1532373016.607,32.715,31.738,11.230,38.574,20.996
1532373016.611,29.785,28.809,10.742,40.039,42.480
1532373016.615,24.902,29.785,13.184,46.387,47.363
1532373016.619,39.062,25.391,22.949,62.012,62.988
1532373016.622,55.176,32.715,17.578,59.082,24.414
1532373016.626,54.688,46.387,1.953,51.270,-3.418
1532373016.630,51.270,48.828,-0.488,51.758,51.758
1532373016.634,42.969,46.875,6.836,40.039,72.754
1532373016.638,29.297,45.410,11.230,40.039,31.250
1532373016.642,19.043,44.434,12.207,41.016,12.695
1532373016.646,24.414,39.551,16.113,40.039,40.039
1532373016.650,41.992,34.180,17.578,48.828,55.664
1532373016.654,33.203,36.621,20.996,42.969,21.973
1532373016.658,21.973,42.480,15.625,30.762,14.648
1532373016.662,30.762,43.457,9.766,28.320,37.109
1532373016.665,27.344,39.062,18.066,30.762,85.938
1532373016.669,17.090,35.645,24.414,21.973,82.520
1532373016.673,22.461,31.738,23.926,29.297,14.160
1532373016.677,35.645,37.109,17.578,42.969,8.301
1532373016.681,37.598,47.363,10.254,31.250,47.852
1532373016.685,27.832,46.875,12.207,18.066,50.781
1532373016.689,22.949,40.527,16.113,21.973,19.043
1532373016.693,25.879,37.598,16.113,42.480,10.742
1532373016.697,35.156,35.645,16.602,46.387,51.758
1532373016.701,30.273,34.668,17.578,37.109,79.590
1532373016.705,31.250,36.621,16.113,44.434,27.832
1532373016.708,38.574,35.156,8.301,44.922,27.344
1532373016.712,32.227,34.668,5.859,36.621,52.734
1532373016.716,33.203,36.133,10.742,35.156,58.594
1532373016.720,32.715,33.691,10.254,34.180,36.133
1532373016.724,29.297,29.785,11.230,36.133,-10.254
1532373016.728,47.363,26.855,15.137,47.852,16.113
1532373016.732,53.223,28.809,18.066,54.688,20.020
1532373016.736,42.969,31.250,17.090,51.270,-10.254
1532373016.740,40.039,27.344,12.695,46.875,-7.812
1532373016.744,43.457,31.738,15.625,47.363,7.812
1532373016.747,57.617,43.945,31.250,62.500,33.203
1532373016.751,59.570,46.387,34.180,58.594,54.688
1532373016.755,56.152,44.434,26.855,49.316,20.508
1532373016.759,52.246,42.480,26.855,54.199,9.277
1532373016.763,41.016,39.062,27.344,48.340,19.531
1532373016.767,31.738,39.062,22.949,36.133,34.668
1532373016.771,24.902,40.527,18.555,27.344,34.668
1532373016.775,23.926,39.062,16.602,23.926,-3.418
1532373016.779,31.250,39.062,18.066,23.926,4.395
1532373016.783,25.879,38.574,20.996,26.367,56.152
1532373016.787,20.020,33.691,20.020,25.391,98.633
1532373016.790,35.156,32.715,18.555,31.250,14.160
1532373016.794,54.199,41.504,18.066,44.922,-32.715
1532373016.798,59.082,48.340,15.137,50.293,46.875
1532373016.802,39.062,39.062,21.973,36.621,77.148
1532373016.806,25.391,28.320,26.855,23.438,36.621
1532373016.810,36.621,28.809,22.949,27.832,28.320
1532373016.814,38.574,38.574,17.578,29.785,41.016
1532373016.818,34.180,41.992,15.137,29.785,48.340
1532373016.822,34.668,41.504,15.625,22.949,43.457
1532373016.826,28.320,47.852,15.137,15.137,42.969
1532373016.830,33.203,55.176,8.301,20.996,47.363
1532373016.833,36.621,55.664,4.883,24.902,27.832
1532373016.837,29.297,51.758,12.695,29.297,29.785
1532373016.841,28.320,51.270,18.066,25.391,27.344
1532373016.845,28.809,46.875,18.555,20.020,51.758
1532373016.849,27.344,45.898,18.066,25.391,92.773
1532373016.853,33.203,44.922,23.926,26.855,52.246
1532373016.857,29.297,41.016,25.879,30.273,23.926
1532373016.861,11.719,37.598,24.902,32.715,43.457
1532373016.865,15.137,35.645,26.367,33.203,53.223
1532373016.869,23.926,35.645,28.809,36.133,56.152
1532373016.872,18.555,33.203,30.762,37.598,34.180
1532373016.876,15.137,28.320,31.250,39.062,14.648
1532373016.880,19.043,30.273,32.227,41.016,33.691
1532373016.884,22.461,34.180,26.855,41.992,76.172
1532373016.888,23.926,36.133,22.949,37.109,54.199
1532373016.892,20.996,40.039,23.438,32.227,-10.254
1532373016.896,36.621,38.086,23.438,40.039,-4.883
1532373016.900,39.062,40.527,20.508,35.156,36.621
1532373016.904,28.809,47.363,17.578,23.438,47.363
1532373016.908,34.668,42.480,20.996,32.715,9.766
1532373016.912,30.273,38.086,25.879,35.156,22.461
1532373016.915,20.020,39.551,28.809,26.855,69.336
1532373016.919,23.438,37.109,27.344,29.297,37.598
1532373016.923,30.762,38.574,20.996,30.273,-5.371
1532373016.927,34.668,41.016,22.949,32.227,10.742
1532373016.931,30.273,40.039,25.879,40.039,38.574
1532373016.935,24.902,41.016,23.926,35.156,62.012
1532373016.939,25.879,39.062,22.461,28.809,16.602
1532373016.943,21.973,34.668,24.414,31.738,-22.461
1532373016.947,22.949,35.645,26.367,39.551,32.715
1532373016.951,28.809,39.551,23.926,42.480,53.711
1532373016.955,26.855,39.551,24.902,36.133,28.809
1532373016.958,19.043,35.645,25.879,29.785,14.648
1532373016.962,19.043,34.668,26.367,36.133,23.926
1532373016.966,28.320,36.133,26.855,46.387,50.293
1532373016.970,35.156,36.621,25.391,46.387,36.133
1532373016.974,37.598,37.109,24.414,43.945,19.531
1532373016.978,30.273,39.551,21.973,41.016,37.598
1532373016.982,19.531,39.551,22.461,35.156,49.316
1532373016.986,20.996,32.715,25.879,40.527,63.965
1532373016.990,33.691,29.785,24.414,47.363,19.043
1532373016.994,38.086,35.156,20.508,47.363,4.395
1532373016.997,38.086,40.039,17.578,40.039,51.270
1532373017.001,37.109,45.410,9.277,41.992,69.336
1532373017.005,22.461,41.992,10.742,40.039,52.246
1532373017.009,31.250,36.133,21.484,27.832,24.902
1532373017.013,42.480,41.992,18.066,31.250,13.184
1532373017.017,37.598,44.922,8.301,42.969,34.668
1532373017.021,36.133,41.016,11.719,37.109,28.320
1532373017.025,27.344,41.016,16.602,26.855,6.348
1532373017.029,21.973,38.574,20.508,26.855,6.348
1532373017.033,20.508,37.598,21.973,21.484,27.344
1532373017.037,30.273,39.062,17.578,23.926,43.457
1532373017.040,32.227,35.156,22.949,37.109,8.789
1532373017.044,24.414,32.715,29.297,31.738,14.160
1532373017.048,27.344,32.227,31.250,32.227,35.156
1532373017.052,26.367,30.762,36.133,41.992,17.578
1532373017.056,35.156,21.973,41.016,45.410,15.625
1532373017.060,55.176,30.273,43.945,50.781,27.832
1532373017.064,68.848,51.758,41.992,58.105,58.594
1532373017.068,62.988,57.617,42.969,51.270,68.848
1532373017.072,44.922,49.805,46.875,41.504,4.883
1532373017.076,45.410,43.945,46.387,39.062,-18.555
1532373017.079,53.711,44.434,42.480,44.922,30.762
1532373017.083,41.992,44.922,40.527,45.410,69.824
1532373017.087,32.715,40.039,42.480,39.551,33.691
1532373017.091,42.480,39.551,42.480,46.875,0.000
1532373017.095,42.969,40.039,40.527,48.340,11.719
1532373017.099,39.062,37.109,41.504,36.133,34.668
1532373017.103,45.410,33.691,43.457,38.086,44.434
1532373017.107,44.922,32.227,41.992,44.434,19.043
1532373017.111,39.062,30.273,41.992,39.551,1.953
1532373017.115,41.016,27.344,46.875,38.086,15.137
1532373017.119,50.781,23.926,49.316,47.852,34.180
1532373017.122,57.129,25.879,43.945,50.781,32.227
1532373017.126,54.688,33.691,37.109,40.039,30.273
1532373017.130,51.270,35.645,36.621,23.926,29.297
1532373017.134,54.199,35.645,39.062,21.973,59.570
1532373017.138,58.105,35.645,36.133,21.484,29.297
1532373017.142,57.617,35.156,37.109,18.066,15.137
1532373017.146,48.828,33.691,41.016,25.879,30.273
1532373017.150,37.598,32.715,39.551,30.273,30.273
1532373017.154,34.180,30.762,37.598,37.109,21.484
1532373017.158,30.273,29.785,41.504,35.156,7.812
1532373017.162,23.438,30.762,44.434,25.391,27.344
1532373017.165,21.484,31.250,41.504,30.273,62.988
1532373017.169,19.531,30.762,41.016,33.691,33.203
1532373017.173,14.160,32.715,40.527,24.414,-7.812
1532373017.177,10.254,28.320,41.016,26.367,24.414
1532373017.181,25.879,25.391,43.457,41.504,34.180
1532373017.185,43.457,32.715,36.621,47.363,57.617
1532373017.189,43.457,35.645,30.273,46.387,35.645
1532373017.193,26.367,34.180,34.180,41.016,15.625
1532373017.197,15.625,35.645,36.621,33.691,45.898
1532373017.201,20.508,33.203,40.039,39.062,54.688
1532373017.204,24.902,30.762,41.016,46.875,42.480
1532373017.208,31.738,32.715,39.551,40.527,21.484
1532373017.212,41.504,30.273,42.480,41.504,17.090
1532373017.216,44.922,27.344,40.039,45.410,33.203
1532373017.220,41.504,29.297,36.133,41.992,50.781
1532373017.224,33.691,30.273,35.645,32.715,44.434
1532373017.228,31.738,31.250,35.645,23.926,2.441
1532373017.232,32.715,32.227,36.133,26.855,13.672
1532373017.236,39.062,28.809,36.133,31.738,64.941
1532373017.240,34.180,25.879,38.086,26.855,33.203
1532373017.244,29.785,28.320,42.480,22.461,18.066
1532373017.247,38.086,31.250,41.504,20.508,41.504
1532373017.251,46.875,32.227,39.551,14.648,17.578
1532373017.255,41.992,31.738,41.016,18.555,13.184
1532373017.259,36.133,29.297,39.062,22.949,28.320
1532373017.263,31.738,28.809,35.645,16.113,28.809
1532373017.267,30.762,27.832,34.668,11.230,49.316
1532373017.271,34.180,27.832,33.203,13.672,44.434
1532373017.275,29.785,28.809,34.180,12.695,-2.441
1532373017.279,46.387,25.391,36.133,17.090,16.113
1532373017.283,47.363,26.855,36.621,21.484,64.941
1532373017.287,18.555,29.297,38.086,18.066,37.598
1532373017.290,21.484,28.809,36.133,17.090,7.812
1532373017.294,30.762,30.762,35.156,21.973,30.273
1532373017.298,28.809,33.203,37.598,28.809,64.941
1532373017.302,27.344,31.738,36.621,29.785,66.406
1532373017.306,26.367,31.250,34.668,26.367,47.852
1532373017.310,27.344,33.203,34.180,24.902,24.414
1532373017.314,35.156,35.645,32.227,27.344,36.621
1532373017.318,33.691,36.133,34.180,34.668,57.617
1532373017.322,23.926,36.621,36.133,38.574,17.578
1532373017.326,32.715,38.086,34.180,42.969,11.719
1532373017.329,37.109,37.109,33.203,46.387,38.086
1532373017.333,38.086,39.551,37.109,47.852,46.387
1532373017.337,49.316,40.527,41.504,51.758,18.066
1532373017.341,53.711,40.527,42.969,52.734,18.066
1532373017.345,41.504,38.086,45.898,47.852,39.062
1532373017.349,38.574,36.621,45.898,44.922,31.250
1532373017.353,34.180,43.945,41.504,35.645,-0.488
1532373017.357,33.691,51.270,32.715,33.203,-13.184
1532373017.361,55.176,58.594,36.621,48.828,-10.742
1532373017.365,50.781,59.082,54.199,55.176,3.906
1532373017.369,39.551,59.082,54.688,53.223,30.273
1532373017.372,44.434,57.617,45.410,61.523,30.273
1532373017.376,48.828,53.711,45.410,67.871,9.277
1532373017.380,49.316,50.293,50.293,58.594,32.715
1532373017.384,43.945,47.363,50.293,49.316,64.453
1532373017.388,36.621,43.457,48.828,54.688,14.160
1532373017.392,32.227,40.039,47.363,56.152,-17.090
1532373017.396,36.621,36.621,45.898,56.641,21.484
1532373017.400,38.574,36.133,47.363,62.012,58.594
1532373017.404,37.109,34.668,43.457,63.477,23.438
1532373017.408,29.297,36.133,37.598,51.758,-6.348
1532373017.412,23.438,39.062,40.527,37.598,20.508
1532373017.415,21.484,38.086,47.363,42.969,41.992
1532373017.419,25.391,33.203,47.363,54.688,34.180
1532373017.423,43.945,31.738,43.457,64.453,16.113
1532373017.427,47.852,40.527,38.086,61.523,17.578
1532373017.431,42.480,45.410,32.715,50.781,20.996
1532373017.435,36.133,44.434,36.133,55.176,27.344
1532373017.439,35.156,41.992,40.039,59.570,15.625
1532373017.443,26.855,38.086,39.062,49.805,-7.812
1532373017.447,21.484,34.180,40.039,41.992,25.879
1532373017.451,28.320,32.715,36.133,42.969,39.551
1532373017.454,25.879,34.180,32.227,37.598,21.973
1532373017.458,25.391,29.785,35.156,38.574,19.531
1532373017.462,20.508,26.855,40.039,41.016,21.484
1532373017.466,17.090,26.855,41.992,42.969,49.316
1532373017.470,32.227,26.367,41.016,46.387,28.809
1532373017.474,45.898,30.273,36.133,50.293,6.836
1532373017.478,40.039,32.227,35.645,44.434,-5.371
1532373017.482,28.809,29.785,33.203,40.039,4.883
1532373017.486,28.320,31.250,30.273,49.316,33.691
1532373017.490,28.809,30.762,34.180,53.223,15.137
1532373017.494,32.715,28.809,36.621,54.199,-2.930
1532373017.497,39.062,29.785,35.645,54.688,22.949
1532373017.501,46.387,31.738,33.691,53.223,52.734
1532373017.505,42.969,30.762,34.180,51.758,23.438
1532373017.509,48.828,31.738,32.227,52.246,-20.020
1532373017.513,50.293,30.273,28.809,53.711,0.000
1532373017.517,45.410,29.785,29.785,55.664,51.270
1532373017.521,51.270,32.227,32.715,59.570,30.762
1532373017.525,49.316,32.715,32.227,59.082,0.000
1532373017.529,42.969,35.156,30.273,53.711,27.344
1532373017.533,43.457,35.156,30.762,52.734,47.852
1532373017.537,41.992,30.273,31.250,59.570,58.105
1532373017.540,33.691,26.855,30.273,58.594,30.762
1532373017.544,37.598,28.320,29.297,53.711,6.836
1532373017.548,40.527,28.320,30.762,54.688,3.418
1532373017.552,32.227,26.367,31.738,51.758,0.488
1532373017.556,36.133,28.809,29.297,53.223,-2.441
1532373017.560,38.086,29.297,25.391,60.059,27.344
1532373017.564,41.992,29.297,23.438,60.547,46.875
1532373017.568,41.992,31.738,23.926,59.082,43.945
1532373017.572,48.828,32.227,22.461,62.500,30.273
1532373017.576,56.152,32.227,18.066,62.988,-14.160
1532373017.579,46.387,30.273,16.602,61.523,20.996
1532373017.583,41.016,27.832,21.484,61.035,63.965
1532373017.587,39.551,27.344,20.020,53.711,43.945
1532373017.591,41.992,29.297,16.602,53.223,19.043
1532373017.595,42.480,29.785,19.043,53.711,44.922
1532373017.599,41.504,29.297,20.020,50.781,96.680
1532373017.603,41.504,31.250,19.531,52.246,75.195
1532373017.607,36.133,31.250,15.137,49.316,31.250
1532373017.611,41.992,32.227,12.207,47.852,-0.488
1532373017.615,40.527,30.762,11.719,49.316,25.879
1532373017.619,39.062,27.832,12.695,53.223,93.262
1532373017.622,42.969,25.879,12.207,54.688,53.223
1532373017.626,35.645,28.809,10.254,50.781,12.695
1532373017.630,37.109,29.297,9.766,47.363,-12.695
1532373017.634,34.668,24.902,11.230,48.340,26.367
1532373017.638,34.668,22.461,10.254,50.781,79.590
1532373017.642,46.875,21.484,10.254,54.688,34.180
1532373017.646,48.340,23.438,11.230,58.105,46.387
1532373017.650,51.758,20.996,10.254,53.223,74.707
1532373017.654,62.988,21.484,15.625,59.570,60.059
1532373017.658,70.312,34.668,22.461,71.289,21.484
1532373017.661,66.406,38.574,22.461,71.289,23.438
1532373017.665,61.523,31.250,23.926,69.336,43.945
1532373017.669,65.430,27.344,21.973,68.848,20.508
1532373017.673,64.941,26.855,15.625,63.965,10.254
1532373017.677,65.918,25.391,14.648,65.918,31.738
1532373017.681,68.359,23.926,13.672,66.406,55.176
1532373017.685,62.988,20.996,13.184,67.871,58.594
1532373017.689,61.035,20.996,15.625,68.359,21.973
1532373017.693,62.500,25.391,12.695,63.965,14.648
1532373017.697,62.012,26.367,14.160,66.895,45.410
1532373017.701,62.500,24.902,14.160,64.453,50.781
1532373017.704,55.176,26.855,9.766,55.176,43.457
1532373017.708,53.711,27.344,9.277,54.688,10.742
1532373017.712,56.641,27.344,10.254,54.688,-18.555
1532373017.716,53.223,28.809,11.230,53.223,19.043
1532373017.720,53.223,28.809,11.230,54.688,37.109
1532373017.724,53.223,29.785,12.695,60.547,3.418
1532373017.728,52.246,29.297,16.113,57.617,2.930
1532373017.732,51.758,27.832,16.602,55.664,39.551
1532373017.736,46.387,27.344,15.137,58.594,48.340
1532373017.740,51.270,28.320,17.090,58.594,42.969
1532373017.744,53.711,28.809,20.020,57.617,38.086
1532373017.747,46.387,28.320,20.508,55.664,48.340
1532373017.751,48.828,28.320,20.020,55.664,58.594
1532373017.755,54.688,28.320,15.625,57.129,31.250
1532373017.759,57.129,27.832,12.207,55.664,19.531
1532373017.763,59.082,29.297,14.648,56.152,27.832
1532373017.767,54.688,29.785,14.160,54.688,34.668
1532373017.771,42.969,29.297,13.184,49.805,33.691
1532373017.775,37.598,28.809,17.578,48.828,26.855
1532373017.779,44.434,29.785,17.578,42.969,15.625
1532373017.783,47.852,32.227,16.602,38.086,28.809
1532373017.786,40.039,33.203,20.020,44.434,40.527
1532373017.790,38.086,35.645,19.043,47.363,11.230
1532373017.794,43.945,35.156,20.020,43.945,10.254
1532373017.798,45.898,33.691,20.996,48.828,43.945
1532373017.802,41.504,33.203,22.461,53.223,56.152
1532373017.806,41.016,34.180,23.438,56.152,25.879
1532373017.810,47.852,33.691,26.855,58.105,-2.441
1532373017.814,45.898,31.250,27.832,48.828,28.320
1532373017.818,44.434,29.297,27.832,51.758,54.199
1532373017.822,47.852,32.227,25.391,53.223,48.340
1532373017.826,45.410,37.109,21.484,46.387,45.410
1532373017.829,52.246,38.086,18.555,41.992,21.973
1532373017.833,57.129,36.621,18.555,40.527,9.766
1532373017.837,48.828,30.273,22.461,39.551,33.203
1532373017.841,58.594,26.855,21.484,43.945,22.461
1532373017.845,66.406,27.832,22.461,57.129,27.344
1532373017.849,74.219,29.785,18.066,72.754,69.824
1532373017.853,73.242,28.809,15.625,78.613,55.176
1532373017.857,54.688,21.973,20.996,72.266,21.973
1532373017.861,45.410,13.184,24.902,76.660,19.043
1532373017.865,51.758,9.277,28.320,87.402,62.988
1532373017.869,67.871,11.719,24.414,92.285,71.777
1532373017.872,67.383,13.184,18.555,85.938,42.480
1532373017.876,65.430,12.207,15.625,81.055,33.203
1532373017.880,70.312,16.113,10.254,87.891,33.691
1532373017.884,67.383,20.020,8.301,88.867,55.176
1532373017.888,77.148,17.578,14.160,88.379,33.691
1532373017.892,84.473,18.066,18.066,96.191,13.672
1532373017.896,81.055,18.555,17.090,95.215,31.738
1532373017.900,88.379,18.555,14.160,88.867,59.082
1532373017.904,87.891,21.484,13.184,84.961,58.594
1532373017.908,82.031,23.438,16.113,84.961,29.785
1532373017.911,90.820,24.414,18.066,85.938,7.324
1532373017.915,84.961,21.973,19.043,82.520,6.348
1532373017.919,74.219,20.020,18.066,87.891,22.461
1532373017.923,78.613,20.996,16.602,86.426,33.203
1532373017.927,73.730,20.996,14.160,74.707,51.270
1532373017.931,68.848,21.973,10.742,72.266,71.777
1532373017.935,72.266,25.391,12.695,73.242,55.176
1532373017.939,74.707,26.367,14.160,74.707,17.090
1532373017.943,79.590,26.367,13.184,80.078,3.418
1532373017.947,79.102,27.344,12.207,82.031,40.039
1532373017.951,80.566,29.297,12.207,83.496,35.645
1532373017.954,89.844,30.762,15.625,83.984,18.555
1532373017.958,95.703,39.062,26.367,89.355,29.297
1532373017.962,102.051,48.340,35.156,96.191,41.016
1532373017.966,96.191,45.898,33.203,93.750,86.426
1532373017.970,85.938,42.480,29.785,86.426,54.688
1532373017.974,85.938,43.457,29.297,83.008,13.184
1532373017.978,94.238,42.969,29.785,86.426,48.828
1532373017.982,89.355,41.504,25.391,80.566,101.074
1532373017.986,71.289,41.016,23.926,75.684,93.262
1532373017.990,70.312,37.598,26.367,81.055,30.273
1532373017.994,77.637,35.645,26.855,82.031,36.621
1532373017.997,78.125,36.621,26.367,81.055,54.688
1532373018.001,74.219,35.645,26.855,76.660,70.312
1532373018.005,71.289,34.180,26.855,66.406,66.406
1532373018.009,67.871,35.156,27.344,62.988,10.742
1532373018.013,64.453,37.109,25.879,58.594,19.531
1532373018.017,55.664,36.621,22.949,48.828,72.754
1532373018.021,49.805,37.109,23.438,49.316,55.176
1532373018.025,51.270,37.598,26.367,51.270,11.719
1532373018.029,50.781,37.109,28.809,47.363,25.391
1532373018.033,46.387,38.574,29.785,49.805,68.359
1532373018.036,46.875,36.133,28.320,51.758,32.227
1532373018.040,52.734,32.227,26.855,48.828,15.625
1532373018.044,50.293,29.785,26.855,52.246,58.105
1532373018.048,52.246,29.785,26.367,56.152,64.453
1532373018.052,51.758,32.715,25.879,45.410,60.059
1532373018.056,48.340,32.715,23.438,48.340,25.879
1532373018.060,45.898,28.809,23.438,55.176,12.695
1532373018.064,40.039,27.344,25.879,50.781,39.062
1532373018.068,48.828,28.809,26.367,51.758,50.781
1532373018.072,51.758,28.320,23.926,46.387,26.367
1532373018.076,43.945,25.879,22.461,45.410,28.320
1532373018.079,43.945,26.367,21.484,46.387,32.715
1532373018.083,46.387,25.879,20.508,45.898,53.223
1532373018.087,41.504,25.391,26.367,49.805,76.660
1532373018.091,34.668,23.926,27.832,48.828,16.602
1532373018.095,36.621,26.367,22.949,47.363,14.160
1532373018.099,37.109,28.320,23.926,41.992,91.309
1532373018.103,42.480,26.367,24.902,42.480,78.613
1532373018.107,42.480,26.367,22.461,47.363,21.484
1532373018.111,32.715,27.832,25.391,45.410,5.859
1532373018.115,31.738,28.809,26.855,46.875,29.297
1532373018.118,34.180,27.832,24.414,49.316,81.543
1532373018.122,37.109,26.855,26.855,45.410,76.172
1532373018.126,38.574,29.297,27.832,43.945,47.363
1532373018.130,35.156,27.832,27.344,42.969,33.203
1532373018.134,31.738,26.367,22.461,39.551,57.617
1532373018.138,37.598,28.809,19.043,40.039,23.438
1532373018.142,44.922,27.832,24.414,42.480,14.160
1532373018.146,52.734,28.320,27.344,45.898,53.223
1532373018.150,68.359,34.668,24.902,48.340,52.734
1532373018.154,58.105,34.180,23.926,46.875,23.438
1532373018.158,51.758,32.227,23.926,50.781,-6.348
1532373018.161,56.641,32.227,23.926,53.711,14.160
1532373018.165,47.852,31.250,25.391,50.781,43.945
1532373018.169,46.387,32.227,28.320,47.852,44.922
1532373018.173,49.805,31.738,31.738,52.734,13.184
1532373018.177,44.922,31.250,32.715,52.734,20.020
1532373018.181,37.109,32.715,32.715,48.828,58.594
1532373018.185,47.363,34.180,30.762,48.340,73.242
1532373018.189,51.758,31.250,31.738,45.898,39.551
1532373018.193,43.457,30.762,32.715,43.457,-4.883
1532373018.197,40.039,34.668,29.785,51.758,26.367
1532373018.201,44.922,35.156,28.809,61.035,59.570
1532373018.204,47.852,34.180,24.414,62.012,29.785
1532373018.208,49.316,32.715,25.391,61.035,7.812
1532373018.212,49.805,34.180,31.738,56.641,32.227
1532373018.216,52.734,35.645,31.250,55.176,74.219
1532373018.220,51.758,34.180,32.715,54.688,69.824
1532373018.224,46.875,35.645,34.668,58.594,40.527
1532373018.228,46.875,35.645,36.621,59.570,47.852
1532373018.232,49.316,34.668,38.574,56.152,44.434
1532373018.236,56.152,37.109,36.621,55.664,57.617
1532373018.240,61.523,40.527,35.645,55.664,44.922
1532373018.243,58.594,39.062,36.621,50.293,25.391
1532373018.247,58.594,37.598,36.133,48.340,52.734
1532373018.251,52.734,42.480,33.691,47.363,60.059
1532373018.255,44.434,41.992,31.738,41.016,19.531
1532373018.259,46.387,38.086,32.227,35.156,10.742
1532373018.263,41.504,41.016,32.715,35.156,42.480
1532373018.267,40.527,41.504,33.203,39.062,89.844
1532373018.271,45.410,41.504,31.738,37.598,64.453
1532373018.275,49.805,42.480,33.691,40.527,25.879
1532373018.279,45.410,39.551,37.109,41.992,42.969
1532373018.283,41.504,39.062,31.738,43.945,82.520
1532373018.286,39.551,37.109,28.320,46.875,91.309
1532373018.290,37.109,36.133,31.738,42.480,31.250
1532373018.294,38.086,36.133,31.738,37.109,21.973
1532373018.298,48.828,37.109,30.762,41.992,84.473
1532373018.302,51.758,40.527,31.738,43.457,92.773
1532373018.306,39.062,41.504,28.320,39.551,56.641
1532373018.310,42.969,41.504,26.855,40.527,24.902
1532373018.314,57.617,40.039,33.691,44.434,34.668
1532373018.318,60.547,38.086,34.668,46.387,73.242
1532373018.322,52.734,37.598,34.180,50.293,31.738
1532373018.326,48.340,39.062,34.180,54.688,3.906
1532373018.329,44.922,41.016,34.668,52.246,20.996
1532373018.333,46.387,41.504,31.250,46.387,19.531
1532373018.337,52.246,39.062,28.320,48.340,15.137
1532373018.341,45.410,37.109,31.250,53.711,10.254
1532373018.345,31.738,37.598,34.180,54.688,20.020
1532373018.349,30.273,38.574,37.109,51.758,47.363
1532373018.353,38.086,40.527,34.668,54.688,28.320
1532373018.357,38.086,39.062,34.180,50.781,16.602
1532373018.361,35.156,38.086,38.574,43.945,31.738
1532373018.365,31.250,36.621,38.086,39.062,39.551
1532373018.368,30.762,39.062,37.598,39.551,54.688
1532373018.372,32.227,37.598,40.527,39.062,17.090
1532373018.376,17.090,34.180,47.363,29.297,5.371
1532373018.380,25.391,44.434,55.664,40.039,35.645
1532373018.384,51.270,53.711,66.895,61.523,69.824
1532373018.388,65.918,66.406,79.590,74.707,54.199
1532373018.392,71.289,68.848,83.984,77.637,-22.949
1532373018.396,70.312,64.941,72.266,72.266,-6.836
1532373018.400,71.777,62.012,61.523,68.848,59.082
1532373018.404,69.336,51.758,62.988,71.289,40.527
1532373018.408,61.035,48.828,59.570,69.824,-7.324
1532373018.411,57.617,48.340,55.664,65.430,-6.836
1532373018.415,57.129,45.410,55.176,67.383,45.410
1532373018.419,53.711,45.410,50.781,62.012,59.570
1532373018.423,47.852,43.457,45.898,54.199,16.113
1532373018.427,40.039,38.574,42.969,54.688,2.441
1532373018.431,40.039,38.086,39.062,47.363,18.555
1532373018.435,42.969,36.621,36.621,38.574,37.598
1532373018.439,41.992,36.133,37.598,38.086,31.738
1532373018.443,38.086,34.668,37.109,29.297,22.949
1532373018.447,32.227,32.227,32.715,23.926,39.062
1532373018.451,32.227,31.250,31.250,27.832,71.289
1532373018.454,33.203,30.762,34.180,29.785,71.289
1532373018.458,35.645,30.762,34.180,33.203,28.809
1532373018.462,35.645,29.297,31.738,32.715,21.973
1532373018.466,32.227,28.809,30.762,28.320,47.363
1532373018.470,31.738,30.273,30.273,27.832,49.316
1532373018.474,28.320,29.785,30.273,23.926,27.344
1532373018.478,28.320,26.855,30.762,18.555,13.184
1532373018.482,34.180,23.926,31.250,22.949,18.066
1532373018.486,43.457,25.879,30.273,31.738,62.500
1532373018.490,39.062,26.367,30.273,26.367,34.180
1532373018.493,28.809,25.879,29.785,20.508,-13.672
1532373018.497,33.691,27.832,24.414,22.461,13.672
1532373018.501,34.180,24.414,22.461,19.531,36.133
1532373018.505,29.297,23.438,22.461,20.996,40.527
1532373018.509,33.203,25.879,21.973,22.949,4.883
1532373018.513,32.715,25.879,23.926,18.555,-5.859
1532373018.517,33.691,25.879,24.414,22.461,32.715
1532373018.521,33.203,24.414,24.902,31.250,30.273
1532373018.525,29.785,22.949,24.414,26.367,40.527
1532373018.529,21.973,21.484,20.996,20.996,38.086
1532373018.533,17.090,19.531,19.043,14.160,8.301
1532373018.536,20.996,20.508,20.508,17.090,21.484
1532373018.540,23.438,23.438,20.020,22.461,34.668
1532373018.544,26.367,26.855,17.578,18.066,35.156
1532373018.548,36.133,27.344,17.578,19.531,21.484
1532373018.552,46.387,27.832,19.531,26.367,34.180
1532373018.556,44.922,29.785,20.020,27.344,25.879
1532373018.560,45.410,28.320,23.926,26.367,-8.301
1532373018.564,44.922,26.367,27.344,31.250,37.109
1532373018.568,42.480,25.391,23.926,34.180,86.426
1532373018.572,37.598,24.414,24.414,34.668,49.805
1532373018.576,37.109,23.926,24.414,34.668,3.418
1532373018.579,33.203,23.926,25.391,41.016,18.066
1532373018.583,20.020,22.949,21.973,41.504,68.359
1532373018.587,18.066,25.391,16.113,37.598,56.152
1532373018.591,23.438,25.391,18.555,37.109,-29.785
1532373018.595,26.367,23.438,20.508,40.527,-20.996
1532373018.599,27.832,26.367,20.996,39.551,32.715
1532373018.603,28.320,27.832,23.438,30.762,19.531
1532373018.607,30.273,29.785,25.391,24.414,-1.953
1532373018.611,33.203,30.762,22.949,21.973,-19.043
1532373018.615,32.715,26.855,20.508,23.926,0.488
1532373018.618,32.227,30.762,16.602,20.020,38.086
1532373018.622,29.297,32.715,16.602,16.113,25.391
1532373018.626,26.367,28.809,21.973,29.785,11.230
1532373018.630,30.762,29.785,21.973,34.180,11.230
1532373018.634,33.203,32.227,21.484,29.785,35.156
1532373018.638,35.156,34.180,22.461,28.320,11.230
1532373018.642,40.039,32.227,20.996,30.273,-11.719
1532373018.646,44.922,31.738,23.926,39.062,24.902
1532373018.650,48.828,32.715,25.879,39.551,38.574
1532373018.654,42.480,33.691,24.902,35.645,48.340
1532373018.658,38.574,33.203,24.414,34.180,-6.836
1532373018.661,38.574,30.762,23.926,29.297,-25.391
1532373018.665,33.691,31.738,22.461,29.297,40.039
1532373018.669,35.156,29.785,20.996,29.785,33.691
1532373018.673,38.574,27.344,21.484,27.344,-22.949
1532373018.677,41.016,28.809,20.020,34.668,-5.371
1532373018.681,39.551,31.738,20.020,45.898,57.617
1532373018.685,45.410,33.203,21.484,47.852,102.539
1532373018.689,46.387,30.273,20.020,36.621,55.176
1532373018.693,40.527,29.297,17.578,30.762,3.906
1532373018.697,44.922,30.762,20.020,36.133,33.691
1532373018.700,44.434,28.809,22.949,36.133,43.457
1532373018.704,39.551,26.367,21.973,30.273,24.902
1532373018.708,46.387,29.297,23.438,34.180,5.859
1532373018.712,48.828,29.785,20.508,40.039,-36.621
1532373018.716,41.992,29.297,20.996,45.410,1.953
1532373018.720,36.133,29.785,22.949,47.363,67.383
1532373018.724,35.645,27.344,22.461,47.852,45.410
1532373018.728,41.992,30.762,24.414,47.852,29.785
1532373018.732,42.969,34.180,24.902,43.945,30.273
1532373018.736,41.504,29.785,23.926,43.945,46.875
1532373018.740,42.480,27.832,25.879,48.828,33.203
1532373018.743,41.992,29.297,26.367,53.223,3.418
1532373018.747,38.574,29.785,23.438,48.828,10.742
1532373018.751,42.480,31.738,25.391,41.504,37.598
1532373018.755,47.852,29.785,23.438,41.504,22.949
1532373018.759,38.574,27.832,18.555,43.457,14.160
1532373018.763,31.738,29.297,18.066,38.086,39.062
1532373018.767,37.109,32.227,21.484,35.156,49.805
1532373018.771,44.922,36.133,21.484,38.086,30.762
1532373018.775,45.410,36.133,20.508,37.109,9.277
1532373018.779,40.527,37.109,18.555,37.109,-2.441
1532373018.783,43.457,36.133,18.066,40.527,33.203
1532373018.786,44.922,35.645,18.555,40.527,38.574
1532373018.790,48.340,38.574,17.090,38.574,-9.766
1532373018.794,60.059,48.340,27.344,51.758,-6.348
1532373018.798,56.152,51.270,37.109,63.965,21.973
1532373018.802,52.246,49.316,32.715,60.059,39.062
1532373018.806,48.828,47.363,25.391,54.199,40.527
1532373018.810,42.969,42.969,22.949,45.898,18.066
1532373018.814,53.223,41.504,22.949,46.875,2.441
1532373018.818,56.152,42.480,21.484,55.176,34.180
1532373018.822,52.734,41.992,20.508,54.199,21.484
1532373018.825,55.664,38.574,21.973,53.711,-2.441
1532373018.829,49.316,37.109,21.484,50.781,8.301
1532373018.833,42.480,39.062,18.066,38.086,22.461
1532373018.837,36.621,37.109,12.207,36.133,14.648
1532373018.841,28.320,31.738,14.648,38.574,-0.488
1532373018.845,34.180,31.738,17.090,40.039,20.996
1532373018.849,38.574,31.250,12.695,47.363,33.203
1532373018.853,37.109,28.809,13.184,49.805,23.438
1532373018.857,37.598,29.785,11.719,45.410,8.301
1532373018.861,41.504,31.250,11.719,45.898,17.578
1532373018.865,39.062,30.762,11.719,44.922,42.480
1532373018.868,40.039,32.715,11.719,43.945,51.270
1532373018.872,38.574,31.250,11.230,41.992,27.832
1532373018.876,33.691,28.809,9.766,43.457,19.043
1532373018.880,38.086,28.320,9.766,45.410,52.246
1532373018.884,37.598,27.344,12.695,41.992,60.059
1532373018.888,33.691,26.367,11.230,35.156,26.367
1532373018.892,32.227,29.297,7.812,25.391,-15.625
1532373018.896,37.109,30.273,8.789,29.785,30.762
1532373018.900,43.945,30.273,8.301,42.480,62.012
1532373018.904,39.551,29.785,7.324,44.922,19.531
1532373018.908,36.621,21.973,10.742,46.387,14.648
1532373018.911,45.898,19.531,13.184,50.781,20.508
1532373018.915,50.293,26.367,9.277,45.898,24.902
1532373018.919,32.227,28.320,7.324,41.504,39.551
1532373018.923,34.180,23.438,6.348,46.387,28.320
1532373018.927,49.805,22.949,8.301,51.270,30.273
1532373018.931,50.781,24.414,7.324,55.664,46.875
1532373018.935,53.711,22.949,4.395,59.570,38.086
1532373018.939,60.547,24.414,4.883,60.547,29.785
1532373018.943,60.059,27.344,4.395,63.477,18.066
1532373018.947,55.664,27.344,3.906,58.594,0.000
1532373018.950,56.152,24.902,5.371,52.246,15.625
1532373018.954,49.805,25.879,5.371,50.293,15.137
1532373018.958,45.898,26.855,4.395,46.387,14.160
1532373018.962,49.805,27.344,2.930,46.875,23.926
1532373018.966,45.410,26.367,0.488,42.969,80.078
1532373018.970,44.922,23.438,0.000,41.016,61.035
1532373018.974,47.363,22.461,4.395,40.527,-11.230
1532373018.978,40.527,22.461,2.930,39.551,11.719
1532373018.982,38.574,25.391,2.441,44.434,36.133
1532373018.986,45.898,27.832,4.395,49.805,50.293
1532373018.990,48.340,28.320,3.906,48.828,-5.859
1532373018.993,49.316,29.297,4.395,41.016,-18.066
1532373018.997,50.781,29.785,1.465,38.086,38.086
1532373019.001,43.457,27.832,1.953,40.527,49.805
1532373019.005,42.969,26.855,4.395,41.504,41.992
1532373019.009,45.898,28.320,4.883,34.180,47.852
1532373019.013,50.293,30.762,8.301,31.250,52.246
1532373019.017,50.293,29.297,9.766,36.133,63.965
1532373019.021,49.805,28.809,9.277,39.551,49.316
1532373019.025,45.898,29.785,7.324,39.551,7.812
1532373019.029,35.156,26.855,3.906,35.156,4.883
1532373019.033,35.156,26.367,4.883,37.598,39.062
1532373019.036,37.598,25.879,4.395,39.551,63.477
1532373019.040,41.504,26.855,1.465,40.039,33.691
1532373019.044,49.316,31.250,3.418,41.992,38.574
1532373019.048,44.434,30.762,8.301,41.992,47.363
1532373019.052,37.598,26.855,7.812,42.480,37.598
1532373019.056,34.668,26.367,9.277,43.457,41.504
1532373019.060,40.527,27.344,10.742,41.992,27.344
1532373019.064,41.504,24.902,10.254,39.551,42.480
1532373019.068,37.109,22.949,9.766,40.039,83.496
1532373019.072,40.527,24.414,8.789,43.457,48.340
1532373019.075,38.086,24.902,9.277,42.480,8.789
1532373019.079,37.598,24.902,7.812,32.227,9.766
1532373019.083,36.621,27.344,5.859,31.250,55.664
1532373019.087,32.715,27.832,5.859,35.156,58.105
1532373019.091,37.109,27.832,8.789,34.180,-3.418
1532373019.095,33.203,28.320,8.789,30.762,-2.441
1532373019.099,30.762,24.414,6.348,35.645,26.855
1532373019.103,40.527,26.855,7.812,37.109,29.785
1532373019.107,45.898,30.273,9.766,37.598,1.465
1532373019.111,47.852,30.273,12.695,42.969,0.000
1532373019.115,58.594,28.809,15.625,38.086,26.855
1532373019.118,46.875,27.832,14.648,28.320,51.758
1532373019.122,35.156,28.320,13.184,25.879,31.738
1532373019.126,39.551,27.832,16.602,32.715,13.672
1532373019.130,34.180,30.273,18.066,28.320,14.160
1532373019.134,36.621,33.691,16.602,23.438,5.859
1532373019.138,39.551,35.156,16.602,25.879,15.625
1532373019.142,33.691,32.227,11.230,23.926,18.555
1532373019.146,34.180,37.598,14.648,30.273,24.414
1532373019.150,52.734,48.828,27.344,42.480,43.457
1532373019.154,63.477,49.805,31.250,47.363,54.688
1532373019.158,58.105,46.387,30.762,46.875,19.043
1532373019.161,56.152,42.969,31.250,43.457,16.602
1532373019.165,48.828,39.551,32.227,40.527,62.988
1532373019.169,38.086,38.086,30.762,35.645,52.734
1532373019.173,32.715,36.621,28.809,34.180,6.348
1532373019.177,34.180,36.621,27.832,33.691,23.438
1532373019.181,31.250,37.109,28.320,26.855,63.477
1532373019.185,24.902,37.109,24.902,31.250,70.312
1532373019.189,24.902,35.645,23.926,35.156,20.020
1532373019.193,23.926,33.203,24.902,30.762,-10.742
1532373019.197,23.438,31.738,23.926,37.109,28.809
1532373019.200,24.414,32.227,25.391,41.504,53.223
1532373019.204,31.250,33.203,24.414,40.527,49.805
1532373019.208,38.086,37.109,24.902,40.527,4.883
1532373019.212,34.180,34.180,27.344,39.551,9.277
1532373019.216,31.738,30.762,29.785,51.758,51.270
1532373019.220,34.180,31.250,32.715,63.965,43.457
1532373019.224,36.133,30.762,32.715,47.852,5.859
1532373019.228,32.715,32.715,30.273,29.785,-3.418
1532373019.232,27.344,30.273,30.762,23.926,13.184
1532373019.236,23.926,27.832,30.762,26.855,23.926
1532373019.240,20.508,29.297,27.344,33.691,16.602
1532373019.243,22.461,31.738,25.879,34.668,31.250
1532373019.247,25.879,32.715,26.855,28.809,42.480
1532373019.251,22.461,32.715,27.832,26.367,48.828
1532373019.255,28.809,34.668,27.344,38.086,53.223
1532373019.259,34.180,34.668,27.344,43.457,20.020
1532373019.263,27.832,36.621,28.320,39.062,20.508
1532373019.267,31.250,39.551,29.297,35.645,65.918
1532373019.271,35.156,38.086,31.738,30.273,30.762
1532373019.275,41.016,38.574,34.668,20.996,0.488
1532373019.279,43.945,41.504,36.621,15.625,13.184
1532373019.282,41.504,38.574,37.109,20.996,38.086
1532373019.286,37.598,32.227,39.062,29.297,43.945
1532373019.290,23.926,34.180,41.016,35.156,16.602
1532373019.294,20.020,36.621,44.922,38.086,11.230
1532373019.298,15.137,35.156,47.363,36.621,36.621
1532373019.302,5.371,32.715,46.387,36.621,72.266
1532373019.306,16.602,26.367,52.246,49.805,65.918
1532373019.310,40.039,30.273,49.805,67.383,36.133
1532373019.314,27.832,40.527,36.133,51.270,39.551
1532373019.318,12.695,45.410,31.738,25.391,45.410
1532373019.322,13.672,48.828,28.320,21.484,28.320
1532373019.325,8.301,49.316,28.809,20.020,-2.930
1532373019.329,8.789,48.828,30.762,18.066,5.371
1532373019.333,8.301,45.898,29.785,19.531,16.602
1532373019.337,5.859,45.898,27.832,26.855,24.902
1532373019.341,7.812,46.875,26.855,24.902,21.973
1532373019.345,10.742,45.410,26.855,18.555,6.348
1532373019.349,10.742,45.410,25.879,21.484,30.273
1532373019.353,14.160,44.922,22.461,20.996,39.551
1532373019.357,18.555,45.898,18.555,16.113,16.113
1532373019.361,26.367,44.922,18.555,17.578,10.254
1532373019.365,32.715,44.434,17.578,25.879,3.418
1532373019.368,38.086,43.945,17.578,30.762,8.789
1532373019.372,41.016,41.016,21.973,35.156,22.461
1532373019.376,42.969,41.504,20.020,41.504,34.668
1532373019.380,46.387,41.992,17.090,48.828,22.461
1532373019.384,47.363,40.527,22.949,53.223,50.781
1532373019.388,41.504,41.016,22.949,51.758,77.148
1532373019.392,41.992,41.016,20.996,46.875,48.340
1532373019.396,45.898,38.574,21.973,43.945,47.852
1532373019.400,41.992,37.109,21.484,46.387,50.293
1532373019.404,34.180,35.645,23.926,49.805,46.875
1532373019.407,32.715,36.133,25.879,47.363,41.504
1532373019.411,31.250,34.180,27.344,35.645,28.809
1532373019.415,25.879,33.203,29.297,32.715,12.695
1532373019.419,27.344,35.156,26.855,37.598,33.691
1532373019.423,35.645,36.133,26.367,41.016,51.270
1532373019.427,35.156,37.109,27.344,46.387,5.859
1532373019.431,30.273,36.621,30.273,47.852,15.137
1532373019.435,32.715,32.715,31.250,47.363,52.246
1532373019.439,36.133,36.133,34.180,48.340,40.527
1532373019.443,41.992,43.945,43.945,52.246,33.203
1532373019.447,53.223,47.363,48.828,60.547,45.410
1532373019.450,55.176,45.410,47.852,59.082,59.082
1532373019.454,47.852,43.457,42.969,56.641,50.293
1532373019.458,56.152,45.898,40.039,58.105,0.000
1532373019.462,57.617,42.480,39.062,59.570,-6.836
1532373019.466,52.246,41.504,36.133,57.129,55.176
1532373019.470,54.688,42.480,36.621,48.828,58.105
1532373019.474,51.758,38.086,36.621,41.016,33.203
1532373019.478,43.945,34.668,32.715,35.645,56.641
1532373019.482,38.574,34.180,32.227,34.180,61.523
1532373019.486,46.387,34.180,36.133,39.551,53.711
1532373019.490,51.758,34.668,37.598,35.156,8.301
1532373019.493,41.992,35.156,34.180,29.785,-17.578
1532373019.497,44.434,33.203,32.227,37.598,2.441
1532373019.501,45.410,34.668,32.715,38.574,32.227
1532373019.505,42.480,35.645,32.227,42.480,15.625
1532373019.509,52.246,35.645,32.715,42.480,-23.926
1532373019.513,48.828,38.086,34.180,41.992,-13.184
1532373019.517,40.527,33.691,33.691,45.898,16.602
1532373019.521,41.992,31.738,32.715,42.480,18.555
1532373019.525,40.039,34.668,30.762,36.621,19.043
1532373019.529,38.086,34.668,26.855,32.227,21.973
1532373019.532,40.039,33.203,27.832,34.668,13.672
1532373019.536,40.527,30.762,30.762,33.691,27.344
1532373019.540,41.992,29.785,25.879,29.297,36.621
1532373019.544,48.340,33.203,23.438,34.180,32.715
1532373019.548,42.480,34.180,27.832,35.645,35.645
1532373019.552,32.715,30.762,30.273,28.320,25.391
1532373019.556,32.227,28.320,28.809,23.438,32.227
1532373019.560,36.133,29.297,28.320,25.391,28.320
1532373019.564,31.738,27.344,28.809,22.949,37.109
1532373019.568,29.297,24.902,28.320,21.484,29.785
1532373019.572,29.785,25.879,27.344,20.020,45.410
1532373019.575,28.809,28.320,25.879,20.996,52.246
1532373019.579,31.738,32.227,24.902,21.973,32.227
1532373019.583,33.691,34.180,25.879,23.926,70.312
1532373019.587,32.227,33.691,27.344,22.949,78.125
1532373019.591,35.156,34.668,25.879,21.973,63.965
1532373019.595,36.133,36.621,23.926,24.902,38.086
1532373019.599,36.621,34.180,24.414,22.949,25.391
1532373019.603,41.016,33.203,26.367,27.832,40.527
1532373019.607,38.574,34.668,26.367,33.691,62.012
1532373019.611,35.645,32.715,26.855,31.250,49.316
1532373019.615,35.156,31.738,28.809,28.809,8.789
1532373019.618,28.809,32.715,30.273,24.902,48.828
1532373019.622,26.367,35.156,29.297,27.344,85.938
1532373019.626,29.785,35.645,26.855,28.320,49.316
1532373019.630,35.645,37.598,33.203,23.438,48.340
1532373019.634,38.086,38.086,33.691,20.996,80.566
1532373019.638,38.086,34.668,30.273,22.461,24.902
1532373019.642,32.227,34.180,29.297,17.090,16.602
1532373019.646,29.785,33.691,29.297,19.531,31.250
1532373019.650,34.668,33.203,31.250,21.484,4.395
1532373019.654,35.156,32.715,32.227,19.043,14.160
1532373019.657,34.668,33.203,31.738,19.531,19.531
1532373019.661,37.109,36.133,32.715,19.531,13.184
1532373019.665,41.504,35.645,31.250,22.461,43.945
1532373019.669,39.551,32.715,27.344,19.531,41.992
1532373019.673,32.715,30.273,29.785,12.695,8.789
1532373019.677,34.668,31.250,27.832,16.602,25.879
1532373019.681,36.621,33.203,25.879,23.438,33.691
1532373019.685,40.527,33.203,26.855,21.973,38.574
1532373019.689,43.945,36.621,26.367,22.461,26.855
1532373019.693,40.039,35.156,28.809,20.020,-20.020
1532373019.697,31.250,33.203,27.832,16.602,-17.578
1532373019.700,28.320,32.227,25.879,19.043,1.953
1532373019.704,30.273,30.273,26.367,20.020,9.277
1532373019.708,28.809,30.762,23.926,18.555,20.996
1532373019.712,29.785,30.273,24.902,21.484,-3.906
1532373019.716,30.762,28.320,27.832,27.344,19.043
1532373019.720,28.320,26.367,26.367,23.926,52.734
1532373019.724,38.574,27.344,26.367,25.879,35.156
1532373019.728,45.898,29.297,28.809,38.086,41.016
1532373019.732,35.645,31.250,27.832,33.203,12.207
1532373019.736,40.527,31.738,24.902,26.367,10.742
1532373019.739,43.457,30.273,24.902,35.645,33.203
1532373019.743,39.551,28.809,28.320,39.062,14.160
1532373019.747,42.480,30.762,25.391,37.598,17.090
1532373019.751,54.199,39.062,29.785,46.875,44.922
1532373019.755,59.570,47.852,41.504,56.641,41.016
1532373019.759,55.664,46.875,38.574,53.711,18.066
1532373019.763,62.012,45.898,36.133,47.852,-14.160
1532373019.767,56.641,44.434,38.086,43.457,34.668
1532373019.771,44.922,41.016,34.668,36.133,69.824
1532373019.775,42.480,41.016,32.715,38.574,36.133
1532373019.779,41.016,40.039,33.203,41.504,0.488
1532373019.782,41.992,37.109,30.762,37.109,19.043
1532373019.786,37.598,34.180,25.391,34.668,62.988
1532373019.790,39.062,33.203,25.391,37.109,41.016
1532373019.794,47.852,31.738,27.832,40.527,17.578
1532373019.798,43.457,32.227,29.785,42.480,20.508
1532373019.802,41.504,32.227,31.738,44.922,45.898
1532373019.806,46.387,31.250,30.273,40.527,45.410
1532373019.810,41.016,29.785,32.227,31.250,1.953
1532373019.814,39.551,32.715,32.227,28.320,-23.438
1532373019.818,38.086,32.227,32.715,32.227,11.719
1532373019.822,35.645,29.297,31.250,29.297,41.992
1532373019.825,33.691,28.320,27.344,23.926,29.785
1532373019.829,38.574,26.855,28.320,29.785,-1.465
1532373019.833,44.434,30.762,30.273,35.156,17.090
1532373019.837,50.781,34.668,30.273,36.133,29.297
1532373019.841,48.828,33.203,26.367,36.133,5.859
1532373019.845,45.898,33.203,27.344,38.574,8.301
1532373019.849,45.898,33.691,28.320,38.086,6.348
1532373019.853,41.016,33.203,26.855,33.691,11.230
1532373019.857,42.480,33.203,29.297,36.621,31.250
1532373019.861,44.434,34.180,27.832,35.156,20.020
1532373019.864,44.922,32.715,26.367,30.273,23.438
1532373019.868,42.480,33.203,30.273,33.691,30.762
1532373019.872,41.504,35.645,29.297,41.992,48.340
1532373019.876,46.875,33.203,27.344,42.969,30.762
1532373019.880,44.434,31.738,25.391,39.551,11.719
1532373019.884,38.086,33.691,25.391,40.039,56.641
1532373019.888,35.156,32.227,27.832,37.109,44.922
1532373019.892,38.086,30.762,32.227,37.598,-4.395
1532373019.896,35.645,32.227,32.227,36.621,6.348
1532373019.900,32.227,32.227,27.344,35.645,35.645
1532373019.904,34.668,29.785,27.832,34.668,51.758
1532373019.907,38.086,31.738,29.785,34.180,25.879
1532373019.911,39.551,34.668,28.320,31.738,8.301
1532373019.915,39.551,33.203,28.809,37.109,52.246
1532373019.919,48.340,32.227,29.785,37.109,38.086
1532373019.923,45.898,32.227,31.250,33.691,21.973
1532373019.927,36.621,30.762,33.203,33.203,34.668
1532373019.931,35.645,32.715,32.227,25.879,0.000
1532373019.935,37.598,36.133,31.738,25.879,11.230
1532373019.939,34.180,33.691,33.203,31.738,60.059
1532373019.943,29.297,32.227,30.762,30.273,47.363
1532373019.947,30.273,32.715,29.785,27.344,14.648
1532373019.950,31.250,34.668,30.273,19.531,26.855
1532373019.954,33.691,37.109,31.738,18.066,44.922
1532373019.958,39.551,35.645,31.250,22.949,27.344
1532373019.962,35.156,36.133,34.180,21.973,26.367
1532373019.966,26.855,36.133,38.086,23.438,53.223
1532373019.970,30.762,36.621,38.574,22.461,55.176
1532373019.974,30.273,39.062,38.574,18.066,20.020
1532373019.978,22.949,41.504,36.621,23.438,15.137
1532373019.982,21.484,43.457,36.133,29.785,50.781
1532373019.986,19.531,42.480,38.574,25.391,68.359
1532373019.989,22.949,39.551,38.086,23.438,55.664
1532373019.993,17.090,38.574,34.180,19.043,31.250
1532373019.997,11.719,40.039,34.180,15.137,29.785
1532373020.001,17.090,39.062,35.645,21.484,48.828
1532373020.005,23.438,34.668,35.645,21.484,36.621
1532373020.009,34.668,35.645,35.156,22.461,13.672
1532373020.013,43.457,37.598,32.227,19.531,-2.930
1532373020.017,49.805,38.086,29.785,20.508,9.277
1532373020.021,52.246,40.039,28.320,26.855,31.250
1532373020.025,46.387,40.527,27.832,29.297,12.207
1532373020.029,35.156,37.109,30.762,32.715,-16.113
1532373020.032,31.738,35.156,32.715,35.156,-8.301
1532373020.036,31.738,34.668,32.227,30.762,34.180
1532373020.040,20.020,31.250,31.738,24.414,49.316
1532373020.044,13.184,31.738,28.809,24.414,41.992
1532373020.048,15.137,34.180,28.809,23.438,45.410
1532373020.052,13.184,33.203,28.320,19.043,40.527
1532373020.056,14.160,33.203,25.879,19.531,31.738
1532373020.060,22.461,43.457,34.668,23.438,31.250
1532373020.064,33.691,53.223,47.363,29.297,27.344
1532373020.068,30.273,51.758,48.340,32.715,63.477
1532373020.072,22.461,51.270,44.434,23.926,41.992
1532373020.075,22.949,45.898,45.898,23.438,8.789
1532373020.079,35.645,42.969,44.922,32.715,35.645
1532373020.083,29.297,47.852,37.598,25.391,67.871
1532373020.087,14.160,44.922,36.621,22.949,50.293
1532373020.091,20.020,41.992,36.133,31.250,9.766
1532373020.095,28.320,41.016,36.621,35.645,29.297
1532373020.099,37.109,40.039,40.527,41.016,65.918
1532373020.103,39.062,39.551,40.527,42.480,66.406
1532373020.107,37.109,37.109,33.203,46.875,20.508
1532373020.111,48.828,38.086,32.227,51.758,-20.020
1532373020.114,56.152,37.598,32.715,57.129,3.418
1532373020.118,57.129,37.109,27.832,63.965,57.617
1532373020.122,56.641,35.645,24.414,59.570,55.664
1532373020.126,53.223,32.715,25.391,52.734,24.414
1532373020.130,58.105,39.062,23.926,54.199,31.250
1532373020.134,57.617,41.504,20.020,49.316,68.848
1532373020.138,48.828,36.621,19.531,43.457,63.965
1532373020.142,49.316,35.645,18.555,40.039,41.016
1532373020.146,55.664,35.156,16.602,41.504,53.711
1532373020.150,50.781,34.668,16.602,44.434,43.457
1532373020.154,49.805,34.180,17.090,47.363,5.859
1532373020.157,57.617,33.691,17.578,55.664,8.789
1532373020.161,64.941,34.180,18.066,57.129,13.184
1532373020.165,64.453,31.738,18.555,58.105,0.977
1532373020.169,56.152,33.203,19.043,55.176,17.578
1532373020.173,59.082,37.598,13.672,50.781,11.719
1532373020.177,62.500,35.645,14.160,56.641,3.418
1532373020.181,64.453,35.645,19.531,63.477,25.879
1532373020.185,65.430,39.551,20.020,63.477,55.664
1532373020.189,62.988,39.551,19.531,59.082,21.484
1532373020.193,64.941,36.621,18.555,58.105,-10.254
1532373020.197,59.570,35.645,15.625,59.570,18.555
1532373020.200,57.617,33.691,16.113,57.129,50.293
1532373020.204,59.570,32.227,17.090,55.176,54.688
1532373020.208,54.688,31.738,16.113,53.711,29.297
1532373020.212,52.734,29.785,17.578,47.363,-0.488
1532373020.216,50.781,29.297,16.113,47.363,38.086
1532373020.220,50.293,28.320,16.113,48.828,49.805
1532373020.224,53.711,29.785,14.648,47.363,23.926
1532373020.228,50.293,32.227,11.230,50.293,22.949
1532373020.232,53.223,32.227,12.695,49.805,28.809
1532373020.236,57.129,31.250,13.184,49.805,48.340
1532373020.239,56.641,30.762,15.137,55.664,47.852
1532373020.243,60.547,31.250,15.137,53.711,27.344
1532373020.247,62.500,31.250,16.602,56.641,22.949
1532373020.251,65.918,38.086,24.414,65.430,19.531
1532373020.255,71.777,48.340,31.250,66.895,23.438
1532373020.259,81.055,57.129,39.062,74.219,43.457
1532373020.263,94.238,59.082,49.316,79.102,26.855
1532373020.267,92.773,65.430,57.129,81.055,32.715
1532373020.271,91.309,76.172,60.059,81.543,41.016
1532373020.275,98.145,80.566,62.012,80.078,3.906
1532373020.279,97.168,80.566,64.453,83.984,3.906
1532373020.282,94.238,79.590,62.012,83.984,37.598
1532373020.286,90.820,73.730,56.641,78.613,43.945
1532373020.290,85.938,68.359,56.641,71.289,29.785
1532373020.294,90.820,71.777,57.129,77.637,10.742
1532373020.298,87.402,69.336,54.688,83.496,18.066
1532373020.302,79.102,63.965,51.270,71.777,8.301
1532373020.306,75.684,63.477,47.852,65.430,31.738
1532373020.310,67.871,62.012,45.410,62.012,36.621
1532373020.314,66.406,58.594,42.969,53.711,-7.812
1532373020.318,69.824,57.617,36.621,59.082,25.879
1532373020.321,69.824,56.152,32.715,60.547,51.270
1532373020.325,66.406,52.246,34.668,59.082,14.648
1532373020.329,62.500,51.758,35.156,61.523,-8.789
1532373020.333,56.152,51.758,34.180,51.270,35.645
1532373020.337,57.617,49.805,31.738,48.340,34.668
1532373020.341,59.082,49.316,28.320,49.805,9.766
1532373020.345,54.688,49.316,24.902,47.852,2.930
1532373020.349,54.688,47.852,25.391,45.898,2.930
1532373020.353,52.734,47.363,26.367,41.504,30.762
1532373020.357,54.199,43.945,20.996,36.133,46.875
1532373020.361,52.734,40.527,17.578,35.645,10.254
1532373020.364,50.781,39.551,19.531,37.598,14.648
1532373020.368,44.434,40.527,16.602,29.785,45.898
1532373020.372,41.016,39.551,15.137,20.020,-15.137
1532373020.376,54.688,40.527,20.996,23.926,-15.137
1532373020.380,59.570,38.574,20.020,28.320,45.898
1532373020.384,53.223,33.203,17.090,25.879,82.031
1532373020.388,51.270,33.691,17.578,26.855,42.480
1532373020.392,51.758,34.668,18.555,22.949,-1.465
1532373020.396,51.270,36.133,16.602,27.344,28.320
1532373020.400,50.781,36.133,14.160,37.598,47.363
1532373020.404,48.340,33.691,14.160,37.598,72.754
1532373020.407,43.457,33.203,15.625,33.691,37.598
1532373020.411,43.457,33.691,16.113,40.527,-28.809
1532373020.415,47.363,33.691,16.113,41.504,22.461
1532373020.419,45.898,33.691,19.531,39.062,67.871
1532373020.423,41.016,33.691,19.043,37.598,31.738
1532373020.427,45.898,36.133,22.949,38.086,20.020
1532373020.431,52.734,46.875,34.668,43.457,33.691
1532373020.435,61.035,57.129,45.410,49.805,37.598
1532373020.439,67.871,56.641,43.457,48.828,45.410
1532373020.443,60.059,50.781,38.574,42.969,39.551
1532373020.446,51.270,47.363,36.133,46.875,33.691
1532373020.450,50.293,43.945,32.227,40.039,34.180
1532373020.454,48.828,43.945,30.762,40.527,32.227
1532373020.458,49.805,43.457,27.832,43.457,39.551
1532373020.462,50.293,41.504,24.414,38.086,-2.930
1532373020.466,51.758,40.527,21.484,43.457,6.836
1532373020.470,51.270,37.598,19.531,42.480,34.668
1532373020.474,45.410,36.133,20.996,38.086,4.883
1532373020.478,37.598,35.645,19.531,43.457,34.668
1532373020.482,40.527,34.180,18.066,45.898,46.875
1532373020.486,35.156,31.738,17.578,35.156,39.062
1532373020.489,25.391,28.320,16.113,26.855,27.832
1532373020.493,28.320,27.832,17.578,29.785,-2.930
1532373020.497,32.715,32.715,19.043,33.203,17.090
1532373020.501,37.598,36.621,17.090,34.668,33.691
1532373020.505,39.062,35.156,16.113,36.133,45.410
1532373020.509,38.574,32.715,16.602,32.715,29.297
1532373020.513,42.969,34.668,13.184,33.691,17.090
1532373020.517,48.340,36.133,11.719,34.668,62.500
1532373020.521,45.410,34.668,11.230,34.180,50.293
1532373020.525,40.527,30.762,12.695,32.715,-0.488
1532373020.529,38.086,30.762,18.066,28.809,22.461
1532373020.532,36.621,33.691,18.066,30.762,34.668
1532373020.536,35.645,33.203,16.113,33.691,48.340
1532373020.540,33.203,31.250,15.625,31.738,70.801
1532373020.544,28.320,33.203,17.090,28.809,23.438
1532373020.548,23.438,31.250,18.066,25.391,6.836
1532373020.552,26.855,30.762,17.578,24.902,49.805
1532373020.556,29.785,33.691,14.648,24.902,42.969
1532373020.560,32.715,32.227,13.672,23.926,7.324
1532373020.564,37.598,30.762,14.648,26.367,31.738
1532373020.568,40.527,30.273,14.648,31.738,35.645
1532373020.571,35.156,30.273,18.555,28.320,-6.348
1532373020.575,28.320,29.785,18.555,27.832,-13.672
1532373020.579,28.320,30.762,18.066,34.180,-12.695
1532373020.583,27.832,29.297,19.043,29.785,17.090
1532373020.587,29.297,27.832,20.020,28.320,30.762
1532373020.591,28.809,27.344,18.066,30.273,6.348
1532373020.595,29.297,28.320,17.090,30.762,4.395
1532373020.599,31.738,31.250,17.578,31.738,14.160
1532373020.603,32.715,29.297,18.555,36.133,25.879
1532373020.607,34.180,28.809,19.531,37.598,31.250
1532373020.611,36.133,29.297,19.043,33.691,-8.301
1532373020.614,40.527,30.273,19.043,41.016,-17.578
1532373020.618,38.574,29.297,20.996,40.527,42.480
1532373020.622,35.645,29.785,18.066,39.062,41.992
1532373020.626,34.180,33.203,15.625,39.551,19.043
1532373020.630,37.109,33.203,22.461,39.551,2.930
1532373020.634,42.480,34.180,25.391,37.598,35.156
1532373020.638,42.480,34.668,22.949,35.645,43.945
1532373020.642,41.016,30.273,20.996,41.504,19.531
1532373020.646,37.109,26.855,21.484,40.527,24.902
1532373020.650,37.109,27.344,20.020,37.598,46.875
1532373020.654,39.551,27.832,20.020,38.086,65.430
1532373020.657,38.086,29.297,19.043,36.133,33.691
1532373020.661,37.598,30.273,16.602,30.273,10.742
1532373020.665,38.086,28.320,19.043,33.691,32.227
1532373020.669,35.156,26.367,22.949,32.227,52.734
1532373020.673,42.969,29.785,22.461,31.250,25.879
1532373020.677,45.410,30.273,21.973,38.086,-1.953
1532373020.681,40.527,28.320,20.996,37.109,6.836
1532373020.685,38.574,27.344,19.043,35.645,45.898
1532373020.689,42.480,28.320,18.555,41.504,39.062
1532373020.693,32.227,29.785,15.137,30.273,-3.418
1532373020.696,25.391,29.785,14.648,25.879,18.555
1532373020.700,41.504,29.785,15.625,35.645,60.059
1532373020.704,44.434,31.738,17.090,40.039,26.855
1532373020.708,42.969,32.227,19.531,41.992,6.348
1532373020.712,42.480,29.297,21.973,35.645,6.348
1532373020.716,37.109,29.297,23.438,36.621,8.301
1532373020.720,35.156,27.344,19.531,38.086,38.086
1532373020.724,36.621,29.297,18.555,36.621,29.297
1532373020.728,38.086,29.297,20.508,36.133,2.930
1532373020.732,44.434,29.297,19.531,33.203,15.625
1532373020.736,45.410,32.715,18.555,32.715,40.039
1532373020.739,48.340,34.668,18.555,26.367,35.156
1532373020.743,52.246,36.133,18.555,19.531,20.508
1532373020.747,55.176,37.109,19.043,19.043,19.531
1532373020.751,51.270,37.598,18.066,20.508,47.852
1532373020.755,48.340,36.621,20.996,33.203,52.246
1532373020.759,52.734,35.645,22.461,39.062,35.156
1532373020.763,47.363,32.715,20.508,35.645,39.062
1532373020.767,37.598,32.227,26.855,40.527,45.898
1532373020.771,37.598,31.250,32.227,45.898,27.832
1532373020.775,38.086,31.738,29.297,43.457,-7.324
1532373020.778,38.086,33.203,28.320,44.922,5.859
1532373020.782,43.945,31.738,33.203,50.781,48.340
1532373020.786,46.387,32.715,32.227,49.316,63.965
1532373020.790,42.480,32.715,29.785,46.387,42.969
1532373020.794,53.223,31.250,31.250,46.875,32.715
1532373020.798,55.664,31.250,31.250,44.434,57.617
1532373020.802,36.621,31.250,27.832,36.621,83.008
1532373020.806,31.738,33.203,26.855,32.227,56.152
1532373020.810,38.574,34.180,26.855,33.203,35.645
1532373020.814,42.480,37.598,26.367,33.691,53.223
1532373020.818,41.504,37.598,29.297,34.180,64.453
1532373020.821,41.992,34.180,28.809,34.668,55.664
1532373020.825,39.551,32.715,29.297,32.715,37.109
1532373020.829,39.551,32.227,33.691,34.668,23.926
1532373020.833,39.551,33.691,31.250,32.227,52.734
1532373020.837,38.574,33.691,30.273,30.762,62.012
1532373020.841,34.668,31.738,29.297,34.668,26.367
1532373020.845,31.250,29.297,28.320,39.551,11.230
1532373020.849,36.621,32.715,30.273,38.086,20.996
1532373020.853,42.480,34.668,28.809,29.297,28.809
1532373020.857,41.016,34.180,28.809,32.715,6.348
1532373020.861,34.180,33.691,30.273,33.691,-3.906
1532373020.864,33.203,34.668,28.809,29.785,35.645
1532373020.868,35.645,36.621,27.344,32.227,48.828
1532373020.872,39.062,36.133,29.297,36.621,30.273
1532373020.876,43.457,34.180,31.738,42.480,20.020
1532373020.880,45.898,35.156,32.227,41.992,23.438
1532373020.884,44.434,36.133,30.762,37.109,56.152
1532373020.888,41.992,34.668,29.785,37.109,60.547
1532373020.892,45.898,35.645,29.297,44.434,35.645
1532373020.896,49.805,35.645,28.809,49.316,31.250
1532373020.900,53.711,36.621,29.785,49.805,32.715
1532373020.903,56.641,37.598,28.320,50.781,69.336
1532373020.907,50.781,39.551,25.391,46.875,36.621
1532373020.911,51.758,40.527,23.438,42.480,-9.277
1532373020.915,51.758,36.621,22.461,40.527,14.160
1532373020.919,47.852,34.180,20.996,40.039,40.039
1532373020.923,47.363,34.180,19.043,38.574,41.992
1532373020.927,53.223,39.062,23.438,43.457,35.156
1532373020.931,59.082,51.758,36.133,57.129,36.621
1532373020.935,77.148,61.035,47.363,66.406,47.852
1532373020.939,88.867,68.848,57.129,72.266,59.082
1532373020.943,82.031,75.684,60.547,80.078,27.344
