timestamps,TP9,AF7,AF8,TP10,Right AUX
1532372173.126,22.949,37.109,44.922,42.969,17.578
1532372173.130,28.320,34.668,43.945,42.480,-18.555
1532372173.134,41.016,27.344,51.758,54.199,29.297
1532372173.138,55.176,33.203,44.922,56.152,69.336
1532372173.141,55.664,44.922,31.250,49.805,30.273
1532372173.145,43.457,40.527,37.109,47.363,19.043
1532372173.149,31.250,36.133,42.969,34.180,31.250
1532372173.153,26.367,39.062,37.598,27.832,54.199
1532372173.157,25.879,38.574,40.039,32.227,45.410
1532372173.161,24.414,36.621,41.504,36.621,29.297
1532372173.165,25.879,37.598,40.039,27.832,38.086
1532372173.169,28.320,39.551,41.504,25.879,50.293
1532372173.173,26.367,37.109,40.039,33.691,46.387
1532372173.177,26.367,36.621,41.992,35.645,0.000
1532372173.180,35.156,37.109,44.434,37.109,-2.930
1532372173.184,36.133,36.621,44.922,39.062,38.574
1532372173.188,31.738,38.086,42.480,39.551,54.199
1532372173.192,34.180,38.574,41.504,38.574,14.160
1532372173.196,34.180,38.574,40.039,39.551,-5.859
1532372173.200,25.879,35.645,43.945,40.527,31.250
1532372173.204,35.156,29.297,53.711,49.316,68.848
1532372173.208,55.664,31.250,51.270,57.617,22.949
1532372173.212,51.270,42.480,35.645,37.598,-16.602
1532372173.216,36.133,46.875,27.344,14.160,32.715
1532372173.220,49.316,52.734,24.414,25.879,85.938
1532372173.223,55.176,53.223,20.508,42.480,59.082
1532372173.227,41.504,46.387,24.414,42.480,-6.348
1532372173.231,34.180,43.457,30.273,33.691,11.719
1532372173.235,33.203,38.574,32.715,26.855,49.805
1532372173.239,37.598,35.645,35.156,38.574,45.410
1532372173.243,33.203,29.785,41.992,49.316,6.836
1532372173.247,31.250,26.855,43.945,50.781,7.812
1532372173.251,46.875,33.691,33.691,44.434,40.039
1532372173.255,53.711,36.133,30.273,43.457,43.945
1532372173.259,39.551,33.691,38.086,50.293,25.391
1532372173.262,29.297,32.715,41.504,55.176,15.137
1532372173.266,27.832,29.785,44.434,53.711,39.551
1532372173.270,44.922,27.344,45.410,56.641,64.453
1532372173.274,62.500,27.344,40.527,61.035,34.668
1532372173.278,48.828,30.762,36.133,59.570,-1.953
1532372173.282,37.598,31.250,38.574,54.688,7.812
1532372173.286,37.598,27.344,44.922,56.152,35.156
1532372173.290,41.016,27.344,46.387,53.711,17.578
1532372173.294,44.434,32.227,41.504,46.875,-25.391
1532372173.298,40.527,32.715,44.434,46.387,-7.812
1532372173.302,36.621,31.250,46.875,46.387,51.758
1532372173.305,36.621,33.203,39.551,49.805,64.941
1532372173.309,35.156,31.250,38.574,45.410,0.000
1532372173.313,39.062,31.250,41.992,40.527,-15.137
1532372173.317,47.363,33.203,41.992,41.504,23.926
1532372173.321,41.504,31.738,38.086,37.109,50.293
1532372173.325,30.273,32.227,37.109,36.621,29.785
1532372173.329,27.832,32.227,37.109,37.109,-6.348
1532372173.333,30.762,31.738,36.621,35.156,4.395
1532372173.337,36.133,32.715,37.598,37.109,62.500
1532372173.341,39.062,35.156,36.621,27.832,56.641
1532372173.345,38.086,36.133,38.086,29.297,6.836
1532372173.348,27.832,36.133,39.062,39.062,9.766
1532372173.352,25.879,38.574,35.645,30.273,61.523
1532372173.356,24.902,40.039,37.598,20.996,59.570
1532372173.360,32.227,37.109,40.527,29.785,3.906
1532372173.364,51.270,33.203,44.922,44.922,22.461
1532372173.368,50.293,39.551,42.969,39.551,49.316
1532372173.372,40.527,49.316,34.668,30.762,37.598
1532372173.376,21.973,48.340,38.574,23.438,13.184
1532372173.380,12.695,44.922,45.410,15.137,-17.090
1532372173.384,17.090,42.969,45.410,18.555,12.695
1532372173.387,10.742,41.504,43.457,23.438,47.363
1532372173.391,12.207,37.109,47.363,26.367,-3.906
1532372173.395,18.555,34.180,53.223,24.414,-47.852
1532372173.399,17.090,37.109,47.852,28.320,6.348
1532372173.403,14.160,41.016,42.969,30.273,75.684
1532372173.407,8.789,44.434,40.527,19.043,51.758
1532372173.411,3.906,42.480,39.062,18.066,-19.531
1532372173.415,10.254,39.551,37.109,18.066,11.230
1532372173.419,17.578,43.457,30.273,18.066,62.500
1532372173.423,12.695,40.527,31.738,24.902,40.527
1532372173.427,-1.953,34.180,36.133,15.137,20.508
1532372173.430,8.789,37.109,35.156,8.301,-8.789
1532372173.434,21.973,40.527,32.227,19.531,38.574
1532372173.438,26.855,41.016,31.738,30.273,73.730
1532372173.442,27.344,41.016,33.691,30.273,3.418
1532372173.446,15.625,41.992,38.086,25.391,-6.348
1532372173.450,9.277,38.574,42.969,23.926,41.992
1532372173.454,12.207,34.668,42.480,28.320,43.457
1532372173.458,4.883,32.227,41.992,28.320,-1.953
1532372173.462,7.324,27.344,42.969,32.715,5.859
1532372173.466,21.973,25.879,41.504,45.898,47.363
1532372173.470,30.762,30.273,37.109,47.852,84.473
1532372173.473,25.391,34.668,32.715,38.574,62.500
1532372173.477,8.789,31.250,35.645,30.762,-3.906
1532372173.481,-1.953,26.855,43.457,28.809,0.000
1532372173.485,5.859,22.461,47.363,38.574,56.152
1532372173.489,30.273,23.438,42.480,45.898,39.062
1532372173.493,28.320,29.785,36.133,34.180,-49.316
1532372173.497,13.184,28.809,36.133,23.438,-22.949
1532372173.501,23.438,28.809,37.109,29.785,23.926
1532372173.505,40.039,34.180,29.297,34.180,41.992
1532372173.509,41.504,39.551,21.484,23.926,39.062
1532372173.512,31.250,38.574,23.926,18.066,29.297
1532372173.516,31.250,37.598,24.902,15.137,39.062
1532372173.520,31.738,35.156,24.414,18.555,47.363
1532372173.524,26.855,32.227,27.832,20.020,13.672
1532372173.528,27.344,29.297,31.738,25.879,-30.273
1532372173.532,26.855,26.367,33.203,30.273,-9.766
1532372173.536,21.484,24.414,36.621,37.109,40.039
1532372173.540,24.414,22.949,39.551,40.527,33.203
1532372173.544,29.297,28.320,37.598,40.527,-32.227
1532372173.548,20.020,31.250,36.621,39.062,-31.250
1532372173.552,12.207,30.762,35.156,24.414,21.973
1532372173.555,8.301,28.320,32.715,24.902,24.902
1532372173.559,15.137,25.879,33.203,34.180,-15.625
1532372173.563,13.184,25.391,34.668,30.273,-14.160
1532372173.567,2.930,24.414,35.156,20.996,27.832
1532372173.571,9.766,26.367,34.180,19.043,56.641
1532372173.575,15.137,26.855,31.250,23.438,10.742
1532372173.579,6.836,25.391,29.297,24.414,-20.020
1532372173.583,4.395,26.855,33.691,23.926,38.086
1532372173.587,9.277,28.809,34.668,23.926,82.031
1532372173.591,25.391,32.715,26.855,23.926,42.969
1532372173.594,34.668,34.180,28.809,30.273,8.789
1532372173.598,20.508,35.645,38.574,31.250,31.738
1532372173.602,17.578,34.180,41.016,32.227,67.383
1532372173.606,29.785,30.273,42.480,37.598,43.945
1532372173.610,29.297,30.273,43.945,32.227,2.930
1532372173.614,34.180,35.156,39.551,32.715,11.230
1532372173.618,13.672,41.504,37.109,22.461,38.574
1532372173.622,-11.230,39.062,43.457,6.836,50.293
1532372173.626,12.695,34.180,46.387,14.648,4.883
1532372173.630,27.344,38.086,38.574,25.391,-19.531
1532372173.634,24.414,41.992,35.156,24.902,22.461
1532372173.637,27.344,40.527,34.668,21.484,73.242
1532372173.641,29.297,46.875,29.297,16.113,23.438
1532372173.645,37.109,50.293,24.902,22.461,-0.488
1532372173.649,36.133,43.945,26.855,34.668,50.781
1532372173.653,36.621,42.969,33.203,30.762,86.426
1532372173.657,43.457,47.363,32.227,32.715,42.969
1532372173.661,53.223,47.363,28.320,44.922,-8.789
1532372173.665,54.199,43.945,31.738,47.363,28.320
1532372173.669,30.273,42.969,37.598,39.062,53.223
1532372173.673,20.996,41.016,40.039,28.809,50.781
1532372173.677,35.156,41.504,36.621,34.668,24.414
1532372173.680,44.434,44.434,37.109,47.363,6.348
1532372173.684,48.340,42.969,37.109,37.109,42.480
1532372173.688,37.109,39.062,36.133,26.855,39.551
1532372173.692,29.297,37.598,35.156,25.391,-22.949
1532372173.696,32.715,39.062,31.250,24.902,-27.344
1532372173.700,28.320,39.551,28.809,28.809,36.133
1532372173.704,22.949,37.109,30.762,34.668,58.594
1532372173.708,17.578,33.203,36.621,32.715,2.930
1532372173.712,28.809,29.785,42.480,36.133,-6.836
1532372173.716,40.039,33.691,36.621,46.875,41.016
1532372173.719,36.621,39.062,33.203,46.875,71.289
1532372173.723,41.992,41.504,29.785,45.898,50.781
1532372173.727,40.527,45.898,26.855,37.109,-5.859
1532372173.731,27.344,44.922,31.738,24.902,-5.371
1532372173.735,24.902,40.039,32.715,20.996,48.340
1532372173.739,28.320,39.551,30.762,25.391,61.035
1532372173.743,35.156,47.363,27.344,23.926,15.625
1532372173.747,35.645,54.688,21.484,20.508,-2.441
1532372173.751,28.809,56.152,20.508,13.672,41.992
1532372173.755,24.414,51.758,22.461,15.625,17.090
1532372173.759,19.531,45.898,20.508,18.066,-17.090
1532372173.762,27.344,46.875,20.020,20.996,-7.324
1532372173.766,35.645,51.270,18.066,27.832,21.484
1532372173.770,28.320,50.781,18.555,18.555,30.762
1532372173.774,19.531,47.363,20.996,16.602,3.418
1532372173.778,26.367,47.852,16.602,21.484,3.906
1532372173.782,21.484,45.410,17.578,22.461,47.363
1532372173.786,16.602,41.504,24.902,26.855,78.613
1532372173.790,22.949,42.480,24.902,25.391,48.340
1532372173.794,24.414,42.969,22.461,26.367,14.648
1532372173.798,22.949,39.551,27.344,33.203,4.395
1532372173.801,14.160,33.203,32.227,26.367,43.945
1532372173.805,5.859,30.762,33.691,26.367,50.293
1532372173.809,16.113,32.227,33.203,25.879,-0.977
1532372173.813,20.508,37.109,25.391,17.090,-13.184
1532372173.817,25.391,41.992,17.578,20.996,20.996
1532372173.821,20.996,37.109,22.949,22.949,80.566
1532372173.825,2.441,33.203,28.320,15.625,43.457
1532372173.829,8.789,35.156,26.855,13.184,-20.508
1532372173.833,24.414,35.645,27.344,34.668,18.066
1532372173.837,18.555,31.738,29.297,41.504,62.500
1532372173.841,9.766,28.320,37.109,32.715,41.016
1532372173.844,18.066,30.273,38.086,39.062,-0.977
1532372173.848,27.344,32.227,32.715,38.086,-0.977
1532372173.852,35.645,31.738,34.668,33.691,20.020
1532372173.856,29.297,32.715,29.297,28.320,43.945
1532372173.860,17.578,36.621,19.043,14.648,20.508
1532372173.864,18.066,39.551,14.160,16.113,18.066
1532372173.868,19.043,37.598,20.996,21.484,55.176
1532372173.872,22.949,33.691,22.949,21.484,72.754
1532372173.876,35.645,33.203,18.066,31.738,34.668
1532372173.880,29.785,32.227,23.438,40.527,17.578
1532372173.884,18.555,31.738,29.785,39.062,55.176
1532372173.887,20.996,28.809,28.809,36.133,69.336
1532372173.891,32.227,27.832,20.996,32.715,22.461
1532372173.895,33.203,30.762,18.555,35.156,-6.836
1532372173.899,29.785,31.738,20.996,39.551,31.738
1532372173.903,26.367,30.273,23.926,38.574,91.309
1532372173.907,15.625,25.879,30.273,31.250,75.684
1532372173.911,20.508,22.461,32.227,24.414,19.531
1532372173.915,28.320,21.484,33.691,32.227,20.020
1532372173.919,29.297,21.484,33.203,43.945,61.035
1532372173.923,29.785,23.438,28.809,43.457,57.617
1532372173.926,21.484,25.879,28.809,32.715,-27.344
1532372173.930,26.367,28.809,26.855,29.297,-36.621
1532372173.934,31.738,29.785,28.320,36.133,49.316
1532372173.938,24.414,30.762,27.344,38.086,74.707
1532372173.942,23.438,31.738,24.902,31.250,20.020
1532372173.946,24.902,28.809,27.832,26.855,16.602
1532372173.950,28.320,27.832,25.391,26.855,28.320
1532372173.954,24.902,28.320,22.461,31.250,45.898
1532372173.958,28.809,28.320,22.949,35.645,36.133
1532372173.962,34.668,29.297,26.367,41.504,15.625
1532372173.966,21.484,30.273,30.762,41.504,48.340
1532372173.969,23.438,26.367,35.156,36.621,64.453
1532372173.973,28.809,20.996,39.551,41.504,40.039
1532372173.977,37.598,20.508,40.039,54.199,9.766
1532372173.981,43.945,20.508,35.645,56.641,0.000
1532372173.985,30.273,19.043,33.203,40.039,52.246
1532372173.989,25.391,20.020,34.668,35.156,54.199
1532372173.993,36.133,27.344,27.832,40.527,-3.418
1532372173.997,39.062,31.250,20.508,34.668,16.602
1532372174.001,25.879,26.855,27.832,20.508,53.223
1532372174.005,20.996,27.832,28.809,24.902,77.148
1532372174.009,29.297,27.344,23.926,34.668,22.949
1532372174.012,28.320,27.344,22.949,34.180,-26.367
1532372174.016,27.832,28.809,20.996,38.086,0.977
1532372174.020,22.949,27.344,18.555,31.738,64.453
1532372174.024,16.113,25.879,23.438,27.344,34.180
1532372174.028,19.043,25.879,25.879,29.297,-19.531
1532372174.032,20.508,28.809,23.926,29.297,27.832
1532372174.036,21.973,27.832,20.508,30.762,62.500
1532372174.040,26.855,24.414,20.020,32.715,52.246
1532372174.044,33.203,24.414,25.391,30.762,-7.812
1532372174.048,29.297,28.320,25.879,28.809,-14.648
1532372174.051,21.973,30.273,22.949,24.902,27.832
1532372174.055,24.414,29.297,23.438,23.926,60.547
1532372174.059,22.949,29.297,25.879,20.996,61.035
1532372174.063,17.578,28.809,24.902,21.484,17.578
1532372174.067,22.949,26.855,24.414,25.391,6.836
1532372174.071,21.484,24.414,25.391,21.973,18.066
1532372174.075,15.625,25.391,24.902,21.484,9.277
1532372174.079,15.137,30.273,25.879,20.996,-12.207
1532372174.083,16.113,33.691,22.461,19.043,-5.371
1532372174.087,27.344,33.203,20.020,20.996,14.648
1532372174.091,27.832,32.715,24.414,23.438,-21.973
1532372174.094,24.414,35.645,25.879,27.832,-43.457
1532372174.098,23.438,33.203,29.297,28.320,-5.371
1532372174.102,17.578,26.855,38.574,29.785,58.594
1532372174.106,33.203,26.367,36.133,36.133,55.176
1532372174.110,40.039,32.227,26.855,32.715,-7.812
1532372174.114,28.809,36.621,29.785,23.926,-14.160
1532372174.118,15.137,34.668,35.156,20.020,53.223
1532372174.122,13.184,24.414,41.016,30.762,62.500
1532372174.126,25.391,22.461,40.527,39.062,15.137
1532372174.130,32.715,34.180,27.832,26.855,5.859
1532372174.133,31.738,39.551,24.414,27.344,24.902
1532372174.137,20.508,32.715,32.227,26.367,62.012
1532372174.141,26.855,27.832,35.645,25.391,49.805
1532372174.145,35.645,26.367,29.297,41.016,18.555
1532372174.149,31.738,30.762,25.879,37.598,5.859
1532372174.153,30.762,29.785,29.785,29.297,31.250
1532372174.157,25.391,24.414,31.250,40.039,39.062
1532372174.161,21.484,28.809,21.973,35.156,19.043
1532372174.165,23.438,31.738,16.113,30.273,55.176
1532372174.169,31.738,37.598,18.066,32.715,73.242
1532372174.173,42.969,41.504,11.719,31.738,55.176
1532372174.176,39.551,34.668,16.113,27.832,6.348
1532372174.180,21.973,33.691,20.996,17.578,1.953
1532372174.184,15.625,34.668,19.043,16.602,30.273
1532372174.188,27.344,32.227,22.461,22.461,41.016
1532372174.192,23.926,27.832,22.461,20.508,3.418
1532372174.196,14.160,27.344,20.020,20.508,8.789
1532372174.200,22.461,27.344,18.555,23.926,50.293
1532372174.204,23.926,23.438,17.090,23.438,58.594
1532372174.208,17.578,25.879,13.672,27.344,25.879
1532372174.212,21.973,28.809,14.648,31.738,-5.371
1532372174.216,32.227,26.855,19.531,34.180,5.859
1532372174.219,22.949,23.926,24.414,27.832,32.227
1532372174.223,22.461,25.879,22.949,15.137,19.531
1532372174.227,38.086,28.320,24.902,19.043,-20.996
1532372174.231,36.133,29.297,27.832,25.879,-26.367
1532372174.235,35.156,29.785,22.949,22.949,31.250
1532372174.239,39.551,32.227,21.973,15.625,58.594
1532372174.243,33.691,33.203,22.461,20.508,22.461
1532372174.247,25.391,29.785,24.902,28.320,8.301
1532372174.251,13.184,29.297,28.320,31.738,20.508
1532372174.255,13.184,29.785,26.855,31.250,73.242
1532372174.258,19.531,27.344,23.926,37.109,53.223
1532372174.262,13.672,25.391,30.762,47.852,26.855
1532372174.266,13.672,24.414,40.039,47.852,65.918
1532372174.270,23.926,25.391,38.574,48.340,70.801
1532372174.274,27.832,30.762,34.668,41.504,22.461
1532372174.278,22.461,38.086,27.344,29.297,19.043
1532372174.282,20.020,42.969,22.949,21.973,42.969
1532372174.286,11.230,41.016,26.367,22.461,67.383
1532372174.290,9.766,37.598,31.738,25.391,43.945
1532372174.294,12.695,37.598,33.691,24.414,8.301
1532372174.298,14.648,33.691,34.668,26.367,33.691
1532372174.301,25.879,34.180,31.738,29.785,70.801
1532372174.305,36.621,43.945,25.391,24.414,80.566
1532372174.309,40.039,48.340,25.879,24.902,4.395
1532372174.313,30.273,42.969,31.250,31.738,-1.465
1532372174.317,16.113,39.551,37.598,22.461,41.504
1532372174.321,7.324,41.992,39.551,11.230,66.406
1532372174.325,12.207,39.062,37.598,17.090,45.898
1532372174.329,20.996,36.133,38.574,25.391,0.488
1532372174.333,21.484,31.250,42.969,26.855,17.090
1532372174.337,32.227,25.879,46.387,35.645,65.918
1532372174.341,34.668,31.250,41.504,36.621,68.359
1532372174.344,32.227,36.621,31.250,31.738,16.602
1532372174.348,42.480,35.645,30.273,29.297,-8.301
1532372174.352,37.598,31.738,34.668,37.598,39.551
1532372174.356,29.785,26.367,39.062,46.875,61.035
1532372174.360,33.203,26.855,37.598,44.434,21.484
1532372174.364,44.922,33.203,32.227,39.062,-0.977
1532372174.368,46.875,36.133,26.855,35.156,32.715
1532372174.372,43.457,34.180,32.715,41.504,38.086
1532372174.376,36.621,33.203,35.645,41.992,9.766
1532372174.380,30.762,33.203,32.715,39.062,19.043
1532372174.383,39.062,34.668,32.227,41.504,47.363
1532372174.387,45.410,33.203,34.668,43.457,70.801
1532372174.391,37.598,30.762,32.715,33.691,58.594
1532372174.395,30.762,31.250,27.344,25.879,51.758
1532372174.399,36.133,32.715,27.344,34.668,33.691
1532372174.403,41.016,33.203,25.391,40.039,68.359
1532372174.407,43.457,31.738,21.973,37.109,76.172
1532372174.411,41.016,31.738,23.926,35.156,12.695
1532372174.415,28.809,30.273,26.855,34.668,8.789
1532372174.419,21.484,28.320,24.902,32.227,59.570
1532372174.423,24.902,29.785,22.461,33.203,89.355
1532372174.426,23.926,31.250,24.414,38.574,34.668
1532372174.430,27.832,25.879,27.832,31.250,-28.320
1532372174.434,31.250,19.531,32.227,35.645,40.039
1532372174.438,34.180,23.926,28.320,44.922,76.660
1532372174.442,42.480,36.621,13.672,38.086,37.109
1532372174.446,38.574,39.062,9.766,32.715,38.086
1532372174.450,22.461,32.227,16.602,25.879,42.969
1532372174.454,17.090,28.320,19.531,25.391,59.082
1532372174.458,26.367,23.926,24.414,27.832,33.691
1532372174.462,28.320,25.879,22.949,33.203,7.324
1532372174.465,27.344,30.273,16.602,35.156,29.297
1532372174.469,29.297,29.297,17.090,37.598,32.227
1532372174.473,27.344,25.879,16.113,29.297,34.180
1532372174.477,26.855,26.367,14.648,27.832,9.766
1532372174.481,30.762,29.297,17.578,26.367,-8.789
1532372174.485,16.602,28.320,19.043,21.484,50.781
1532372174.489,7.324,27.832,21.973,20.996,62.988
1532372174.493,11.230,31.738,23.926,23.438,7.324
1532372174.497,11.719,32.227,25.391,31.250,-28.320
1532372174.501,17.090,31.250,26.855,29.785,39.062
1532372174.505,19.043,32.227,28.320,30.762,88.867
1532372174.508,19.043,30.762,27.832,32.227,25.879
1532372174.512,14.648,29.297,25.879,23.926,-17.090
1532372174.516,11.230,32.227,26.367,25.391,14.648
1532372174.520,13.184,33.203,30.273,30.273,48.828
1532372174.524,12.207,29.297,32.227,34.180,41.504
1532372174.528,23.926,28.320,30.762,31.738,-8.789
1532372174.532,22.949,30.762,29.785,33.203,-12.207
1532372174.536,14.648,32.715,32.715,40.039,54.688
1532372174.540,21.973,33.203,31.250,31.738,38.574
1532372174.544,25.879,34.668,29.297,28.809,-17.090
1532372174.548,23.438,35.156,31.250,28.809,-12.207
1532372174.551,25.879,31.250,31.250,31.738,29.785
1532372174.555,37.109,30.273,31.250,49.316,55.664
1532372174.559,38.086,36.621,29.297,47.852,26.367
1532372174.563,26.367,39.062,28.809,36.621,16.602
1532372174.567,14.648,36.133,30.273,34.180,29.297
1532372174.571,17.090,33.203,33.203,35.156,43.945
1532372174.575,29.297,36.621,30.762,32.227,23.926
1532372174.579,26.855,43.457,28.809,25.879,-0.488
1532372174.583,21.973,43.457,30.273,34.180,31.738
1532372174.587,24.414,39.062,31.738,36.621,48.828
1532372174.590,21.973,38.086,36.133,28.809,42.480
1532372174.594,25.879,42.969,30.762,24.902,-3.418
1532372174.598,37.109,45.898,19.531,27.344,1.953
1532372174.602,37.598,43.945,18.066,29.785,67.383
1532372174.606,24.902,39.551,22.949,25.879,81.543
1532372174.610,22.949,34.180,25.879,20.996,14.160
1532372174.614,34.668,27.832,26.855,28.809,-4.395
1532372174.618,40.527,22.461,27.344,41.504,30.273
1532372174.622,41.016,30.273,20.508,41.992,43.457
1532372174.626,37.109,32.715,18.066,40.039,-3.906
1532372174.630,24.902,23.926,27.344,36.133,-16.113
1532372174.633,29.785,21.484,29.785,34.668,23.926
1532372174.637,45.898,18.555,34.180,54.199,73.242
1532372174.641,46.875,19.531,32.227,55.176,56.152
1532372174.645,48.340,27.832,20.508,37.598,-20.996
1532372174.649,49.805,32.227,15.137,40.039,-18.555
1532372174.653,41.992,31.250,14.648,36.621,39.062
1532372174.657,32.715,28.320,10.742,28.320,60.059
1532372174.661,27.832,27.344,6.836,30.762,7.812
1532372174.665,26.855,29.297,5.371,32.715,4.883
1532372174.669,24.902,30.762,1.953,32.715,48.340
1532372174.672,24.902,32.227,-4.883,27.344,24.902
1532372174.676,29.785,31.738,-4.395,25.391,-10.742
1532372174.680,28.320,34.180,-3.418,27.832,-13.184
1532372174.684,26.367,36.133,-5.859,25.879,39.062
1532372174.688,23.926,32.715,-6.836,20.508,62.988
1532372174.692,23.926,34.180,-6.836,19.531,4.883
1532372174.696,26.367,33.691,-4.883,24.902,-18.066
1532372174.700,31.738,31.250,-7.812,24.902,16.113
1532372174.704,34.180,34.668,-15.137,21.973,49.805
1532372174.708,33.203,34.668,-12.695,22.949,30.762
1532372174.712,35.645,34.180,-7.324,22.461,-18.555
1532372174.715,40.527,33.691,-6.836,26.367,16.113
1532372174.719,38.574,28.320,-2.930,39.062,76.172
1532372174.723,28.320,24.902,0.488,40.527,96.191
1532372174.727,33.203,28.320,-6.836,27.832,36.133
1532372174.731,29.297,32.715,-14.160,24.902,-17.578
1532372174.735,19.043,27.344,-8.301,29.785,35.156
1532372174.739,38.086,19.531,0.977,41.992,39.062
1532372174.743,53.711,26.367,-4.883,44.922,11.719
1532372174.747,43.457,34.180,-15.625,31.738,14.648
1532372174.751,28.809,30.273,-11.719,23.926,33.203
1532372174.755,29.297,26.855,-5.371,27.344,91.797
1532372174.758,36.133,29.785,-4.883,36.621,49.316
1532372174.762,36.133,32.715,-2.441,36.133,-21.973
1532372174.766,37.109,30.273,-1.953,37.109,0.977
1532372174.770,34.668,31.250,-0.977,35.156,31.738
1532372174.774,31.738,31.738,0.977,28.320,9.766
1532372174.778,32.227,29.297,-1.953,37.109,0.977
1532372174.782,34.180,29.297,0.488,41.992,30.273
1532372174.786,32.715,29.297,4.395,39.062,49.316
1532372174.790,40.039,31.738,2.441,37.109,38.086
1532372174.794,39.551,29.785,2.930,36.621,-15.137
1532372174.797,36.133,26.855,6.348,37.109,13.184
1532372174.801,45.898,26.855,4.883,41.504,92.773
1532372174.805,42.480,28.320,1.465,43.945,90.332
1532372174.809,34.668,27.832,2.930,44.434,32.227
1532372174.813,39.062,23.438,4.883,42.969,3.418
1532372174.817,40.527,24.414,4.883,41.504,3.418
1532372174.821,36.133,27.832,3.418,40.527,52.734
1532372174.825,41.016,28.320,2.441,46.387,62.012
1532372174.829,45.898,27.832,3.418,50.781,13.184
1532372174.833,37.598,27.344,7.324,43.457,25.879
1532372174.837,41.504,28.320,5.371,41.016,76.660
1532372174.840,48.828,27.832,5.371,43.457,67.871
1532372174.844,42.480,25.391,11.230,47.363,29.297
1532372174.848,32.227,29.297,10.254,34.180,25.391
1532372174.852,34.180,33.203,10.742,25.879,63.965
1532372174.856,34.180,28.809,12.695,28.320,83.008
1532372174.860,26.367,28.809,12.695,28.809,33.203
1532372174.864,30.273,31.738,11.719,31.738,34.668
1532372174.868,30.762,32.227,9.766,27.832,60.547
1532372174.872,21.973,29.297,10.742,30.273,56.641
1532372174.876,22.949,25.879,12.695,27.344,20.996
1532372174.880,26.367,26.855,16.113,27.832,-1.953
1532372174.883,28.320,30.273,16.602,29.297,41.992
1532372174.887,28.809,28.809,16.602,29.785,65.430
1532372174.891,24.902,29.297,16.113,25.879,-4.883
1532372174.895,19.043,30.762,16.113,21.973,-17.578
1532372174.899,19.043,29.785,16.602,27.344,34.668
1532372174.903,31.250,32.227,16.602,29.297,78.125
1532372174.907,41.016,30.762,17.090,33.691,58.105
1532372174.911,41.016,27.832,15.625,28.320,-8.301
1532372174.915,31.738,30.762,15.137,30.273,19.531
1532372174.919,31.738,27.832,15.137,34.668,62.988
1532372174.922,40.527,24.902,13.184,37.109,70.312
1532372174.926,37.109,26.367,12.695,41.504,38.086
1532372174.930,39.551,27.344,12.695,36.621,-13.184
1532372174.934,43.945,25.879,14.648,38.574,24.902
1532372174.938,52.734,25.391,17.090,42.969,69.336
1532372174.942,52.734,26.855,18.066,44.922,41.504
1532372174.946,52.246,25.879,16.602,42.969,17.578
1532372174.950,59.082,27.344,14.648,36.621,11.230
1532372174.954,63.477,28.320,14.160,30.762,58.105
1532372174.958,63.477,30.273,8.301,32.227,51.270
1532372174.962,71.777,31.738,7.812,40.527,-6.836
1532372174.965,70.801,29.785,15.137,50.781,31.738
1532372174.969,51.758,30.273,18.555,55.664,77.637
1532372174.973,57.129,31.250,20.508,59.570,31.738
1532372174.977,54.199,31.738,23.438,60.059,-17.578
1532372174.981,39.551,30.273,22.949,56.152,-12.207
1532372174.985,43.945,31.738,20.020,55.176,41.992
1532372174.989,46.387,34.668,21.973,51.758,55.664
1532372174.993,39.551,37.598,24.902,47.363,-10.254
1532372174.997,38.086,38.574,24.902,47.852,16.113
1532372175.001,44.922,35.645,24.902,48.340,48.340
1532372175.004,53.223,34.180,24.414,46.387,45.898
1532372175.008,53.223,36.621,25.879,48.340,10.254
1532372175.012,50.293,37.598,25.391,51.270,-9.766
1532372175.016,57.617,36.621,22.461,51.270,21.973
1532372175.020,65.430,39.551,20.020,48.340,40.039
1532372175.024,54.199,39.062,21.973,48.340,23.926
1532372175.028,50.293,39.551,23.438,46.875,-2.441
1532372175.032,53.711,41.504,22.949,44.434,-13.672
1532372175.036,52.734,39.551,25.879,50.293,25.391
1532372175.040,51.270,37.598,26.367,53.223,40.039
1532372175.044,53.711,38.086,25.391,53.223,30.273
1532372175.047,46.387,37.109,23.926,49.805,28.320
1532372175.051,49.805,37.598,24.414,50.781,39.551
1532372175.055,54.688,37.109,25.879,50.293,62.500
1532372175.059,52.246,35.645,26.367,45.410,31.250
1532372175.063,51.270,38.086,23.926,45.410,25.391
1532372175.067,40.039,38.086,23.926,45.410,39.551
1532372175.071,37.598,37.109,27.832,37.109,52.734
1532372175.075,35.156,37.598,28.809,31.738,51.758
1532372175.079,33.691,40.527,28.320,31.250,9.766
1532372175.083,21.484,41.504,29.785,27.344,15.625
1532372175.087,13.184,39.062,27.344,24.902,65.430
1532372175.090,18.555,37.109,27.344,19.531,56.152
1532372175.094,24.902,40.039,26.855,15.625,4.883
1532372175.098,30.273,43.457,25.879,15.137,12.207
1532372175.102,12.695,36.621,37.598,16.113,78.613
1532372175.106,7.324,27.832,45.410,17.090,72.754
1532372175.110,40.039,35.645,34.180,26.855,16.113
1532372175.114,53.711,47.363,27.832,32.715,20.996
1532372175.118,29.297,45.898,31.738,19.531,25.879
1532372175.122,18.555,45.898,33.691,18.555,50.781
1532372175.126,25.391,42.480,37.109,26.855,31.250
1532372175.129,24.902,38.086,41.016,29.297,-23.438
1532372175.133,34.668,37.598,40.039,33.203,-18.066
1532372175.137,41.504,33.203,39.062,34.668,34.180
1532372175.141,37.598,32.715,35.156,33.203,34.668
1532372175.145,35.645,37.109,29.297,34.668,-18.066
1532372175.149,34.180,39.551,27.832,32.715,0.977
1532372175.153,39.551,37.598,30.762,27.832,64.941
1532372175.157,35.645,34.668,31.250,32.715,37.598
1532372175.161,34.180,29.297,28.809,39.062,-22.949
1532372175.165,43.457,30.273,28.320,34.180,-3.418
1532372175.169,43.945,34.180,28.320,34.668,7.324
1532372175.172,51.270,29.785,27.832,26.855,-2.441
1532372175.176,52.734,28.320,23.926,26.855,15.625
1532372175.180,31.250,29.785,23.438,34.668,0.000
1532372175.184,32.227,27.832,26.855,39.062,20.996
1532372175.188,44.434,27.344,27.832,39.551,49.316
1532372175.192,41.504,25.879,30.762,37.598,20.020
1532372175.196,39.551,25.391,30.273,38.086,18.066
1532372175.200,47.852,24.902,30.273,41.504,73.730
1532372175.204,45.898,24.414,30.762,39.551,107.422
1532372175.208,31.738,27.344,28.809,34.180,25.391
1532372175.212,30.273,29.297,28.809,35.156,-28.320
1532372175.215,34.668,30.273,25.391,34.668,16.602
1532372175.219,33.691,30.762,23.438,30.273,50.293
1532372175.223,36.621,27.832,23.926,32.227,64.453
1532372175.227,32.715,26.367,24.902,36.621,12.207
1532372175.231,27.344,25.879,22.949,33.691,-11.719
1532372175.235,31.250,26.367,21.973,32.227,32.715
1532372175.239,37.109,24.902,24.414,34.668,63.965
1532372175.243,38.574,21.484,27.344,34.180,36.133
1532372175.247,26.855,20.996,23.926,39.551,-32.715
1532372175.251,34.668,20.508,20.996,42.969,1.465
1532372175.254,44.922,18.066,23.926,46.387,56.641
1532372175.258,43.457,19.043,20.508,47.363,24.902
1532372175.262,49.805,21.484,17.578,46.875,-14.160
1532372175.266,50.293,21.973,17.578,53.711,14.160
1532372175.270,49.316,21.973,17.578,55.176,20.996
1532372175.274,41.992,19.043,17.090,49.316,-16.113
1532372175.278,34.668,19.531,15.137,44.922,-9.766
1532372175.282,39.551,22.461,12.207,41.504,34.668
1532372175.286,44.434,21.973,14.160,38.574,84.473
1532372175.290,35.645,19.043,12.695,38.086,54.688
1532372175.294,26.855,16.113,14.160,41.016,7.324
1532372175.297,32.227,18.555,20.020,40.039,11.230
1532372175.301,31.250,19.531,23.438,38.086,47.363
1532372175.305,29.297,19.531,27.344,38.574,66.895
1532372175.309,30.762,22.949,28.809,33.691,-12.695
1532372175.313,25.391,21.973,27.832,22.949,-37.598
1532372175.317,23.438,20.996,26.367,23.926,23.926
1532372175.321,25.391,21.484,27.832,31.250,81.055
1532372175.325,28.809,21.484,28.809,26.855,68.848
1532372175.329,29.785,22.949,29.297,25.879,-14.160
1532372175.333,41.504,23.926,31.738,31.250,-10.742
1532372175.336,46.875,21.484,33.203,32.715,32.227
1532372175.340,31.250,20.996,33.203,30.273,25.879
1532372175.344,28.809,22.461,34.668,31.738,5.371
1532372175.348,34.180,20.508,30.273,34.668,-10.742
1532372175.352,41.504,18.555,30.273,38.574,43.457
1532372175.356,42.480,17.090,33.203,38.574,62.012
1532372175.360,49.316,19.043,32.227,37.109,-4.883
1532372175.364,53.711,19.531,31.738,43.945,-10.254
1532372175.368,45.898,20.508,33.203,45.410,21.484
1532372175.372,39.062,20.508,33.691,45.410,58.105
1532372175.376,42.969,19.043,34.180,43.457,25.391
1532372175.379,46.875,19.043,35.645,43.457,2.930
1532372175.383,39.062,20.996,37.109,47.852,47.363
1532372175.387,40.039,22.949,36.133,45.410,55.176
1532372175.391,42.480,22.461,36.133,42.969,30.762
1532372175.395,43.457,24.902,38.574,46.875,3.906
1532372175.399,41.992,25.879,39.062,47.852,16.602
1532372175.403,39.551,24.414,41.992,40.039,33.203
1532372175.407,40.527,24.902,43.945,43.945,11.230
1532372175.411,41.504,25.391,42.480,48.828,-28.809
1532372175.415,48.340,23.926,43.945,51.758,-19.531
1532372175.419,47.852,22.461,42.969,48.340,62.500
1532372175.422,51.270,23.926,40.527,49.316,84.961
1532372175.426,50.293,24.902,40.039,55.176,30.273
1532372175.430,40.527,23.926,41.016,50.781,14.160
1532372175.434,41.016,27.344,36.621,45.410,41.504
1532372175.438,49.805,30.273,32.715,44.434,56.152
1532372175.442,43.457,26.367,34.668,41.016,21.973
1532372175.446,38.574,25.391,36.133,45.410,4.395
1532372175.450,44.922,28.809,36.621,44.922,23.438
1532372175.454,38.086,29.785,33.691,32.227,53.223
1532372175.458,34.668,27.832,33.691,38.574,22.461
1532372175.461,41.992,25.391,35.156,46.387,-14.160
1532372175.465,42.969,26.367,34.180,41.016,24.902
1532372175.469,43.457,28.320,36.133,38.086,47.852
1532372175.473,52.246,28.809,35.645,40.527,52.734
1532372175.477,43.945,28.320,38.086,42.969,13.184
1532372175.481,32.227,29.297,41.992,44.434,-3.418
1532372175.485,28.320,29.785,40.039,41.992,29.785
1532372175.489,31.738,30.273,39.551,33.203,31.250
1532372175.493,32.227,31.250,38.574,29.297,-7.812
1532372175.497,31.250,31.250,40.527,26.367,-10.742
1532372175.501,28.320,33.691,42.480,20.508,25.879
1532372175.504,17.578,35.156,40.039,21.973,71.289
1532372175.508,16.602,33.691,41.504,14.648,26.855
1532372175.512,12.695,32.715,42.969,7.324,-28.320
1532372175.516,11.719,30.273,41.504,14.160,14.648
1532372175.520,10.254,30.273,41.504,14.648,73.730
1532372175.524,8.789,32.227,40.039,14.648,49.316
1532372175.528,22.461,31.250,38.574,19.043,-19.531
1532372175.532,25.879,31.250,38.574,19.531,3.418
1532372175.536,22.949,33.691,35.156,18.066,58.105
1532372175.540,24.414,30.273,39.062,30.762,68.359
1532372175.543,28.809,22.461,47.363,43.457,29.785
1532372175.547,36.133,23.438,44.922,45.410,0.488
1532372175.551,38.574,28.809,38.574,39.062,5.859
1532372175.555,34.668,31.738,35.156,31.250,34.668
1532372175.559,21.973,28.809,36.621,26.367,11.230
1532372175.563,22.461,24.414,35.156,25.879,-9.766
1532372175.567,29.297,22.949,36.621,34.668,6.836
1532372175.571,28.809,21.973,43.945,45.410,43.945
1532372175.575,33.691,25.879,39.551,51.270,55.176
1532372175.579,49.316,29.297,32.227,55.664,21.973
1532372175.583,47.363,30.762,35.156,50.781,35.156
1532372175.586,37.598,31.738,37.598,47.852,64.941
1532372175.590,37.598,31.250,34.668,42.480,43.457
1532372175.594,40.039,30.273,34.668,34.180,16.113
1532372175.598,43.945,28.809,36.133,36.133,29.785
1532372175.602,34.180,30.273,37.109,35.645,66.895
1532372175.606,30.273,33.203,37.109,28.809,67.871
1532372175.610,25.879,33.203,36.133,26.367,1.953
1532372175.614,23.926,29.297,36.621,28.809,14.648
1532372175.618,29.297,32.227,35.645,37.598,49.805
1532372175.622,32.227,32.227,35.156,45.898,70.312
1532372175.626,42.480,27.832,37.598,51.758,50.293
1532372175.629,48.340,29.297,37.598,54.688,8.789
1532372175.633,41.992,28.320,36.621,50.781,59.082
1532372175.637,39.062,30.762,31.250,49.316,102.051
1532372175.641,54.688,34.668,28.809,49.316,39.551
1532372175.645,54.688,34.180,30.273,54.688,-3.906
1532372175.649,42.969,32.227,31.738,50.781,3.418
1532372175.653,46.387,30.273,31.250,43.457,41.992
1532372175.657,45.898,28.320,28.809,51.270,70.312
1532372175.661,50.293,28.320,27.832,55.176,16.602
1532372175.665,51.270,26.855,27.832,53.711,6.836
1532372175.668,56.641,27.344,28.320,56.641,31.738
1532372175.672,61.523,28.320,26.367,54.199,42.969
1532372175.676,57.617,29.297,25.391,51.758,6.836
1532372175.680,62.012,28.809,26.855,47.852,0.488
1532372175.684,63.477,30.762,26.855,43.945,49.316
1532372175.688,61.035,32.227,25.879,35.645,63.965
1532372175.692,63.477,30.762,25.879,35.645,18.555
1532372175.696,58.105,30.762,25.391,43.945,-1.465
1532372175.700,44.434,30.762,24.902,46.387,28.320
1532372175.704,42.480,31.738,26.855,56.641,62.500
1532372175.708,41.016,31.738,30.762,55.664,31.738
1532372175.711,42.969,33.203,34.180,53.711,-10.742
1532372175.715,41.504,34.668,35.156,57.617,23.926
1532372175.719,35.156,32.715,34.668,56.641,77.637
1532372175.723,39.062,32.715,31.738,56.641,63.965
1532372175.727,39.551,32.227,31.738,49.805,-2.930
1532372175.731,41.504,31.738,30.762,46.875,-32.715
1532372175.735,46.875,34.668,28.320,50.293,16.113
1532372175.739,45.898,34.180,28.320,51.758,70.801
1532372175.743,44.434,31.738,30.273,50.293,28.809
1532372175.747,41.504,30.273,29.785,47.852,0.977
1532372175.751,39.551,27.832,27.344,52.246,29.297
1532372175.754,40.527,24.902,31.250,51.758,81.543
1532372175.758,40.039,22.949,31.738,55.176,44.922
1532372175.762,45.410,25.391,30.273,59.082,-3.906
1532372175.766,49.805,28.809,26.855,53.711,36.133
1532372175.770,42.480,29.785,21.973,50.781,60.547
1532372175.774,34.668,30.762,20.996,51.758,39.062
1532372175.778,39.551,30.273,21.973,49.805,-13.184
1532372175.782,44.922,31.250,25.879,52.246,-3.906
1532372175.786,48.340,29.297,27.832,56.152,53.711
1532372175.790,40.527,27.344,23.438,47.852,47.363
1532372175.793,30.762,29.297,17.578,39.551,-12.207
1532372175.797,34.180,29.297,20.508,39.062,-24.902
1532372175.801,35.156,26.367,22.461,42.480,32.227
1532372175.805,29.297,26.855,23.438,49.805,61.035
1532372175.809,27.344,29.297,25.879,46.387,3.906
1532372175.813,30.273,27.832,24.414,40.527,-45.410
1532372175.817,33.691,27.832,25.391,41.016,-5.859
1532372175.821,41.992,28.809,27.344,42.480,52.246
1532372175.825,37.109,27.832,25.879,42.480,47.363
1532372175.829,31.250,27.832,23.438,40.527,-4.395
1532372175.833,36.133,25.879,22.949,41.992,2.441
1532372175.836,41.504,25.879,23.926,41.992,35.156
1532372175.840,42.480,29.785,22.461,36.621,27.832
1532372175.844,38.086,30.273,22.949,34.180,15.137
1532372175.848,37.109,29.297,21.973,41.016,-9.766
1532372175.852,33.691,31.250,21.484,37.598,22.461
1532372175.856,36.621,29.297,21.484,30.273,61.523
1532372175.860,44.434,25.879,23.438,40.527,13.672
1532372175.864,35.645,26.855,26.367,41.016,11.719
1532372175.868,32.227,29.297,25.391,35.156,18.555
1532372175.872,34.180,27.832,24.902,30.273,30.762
1532372175.875,27.344,23.438,24.414,30.762,10.742
1532372175.879,33.691,25.391,23.926,38.086,-26.855
1532372175.883,30.273,27.344,23.438,33.691,24.414
1532372175.887,28.320,26.855,24.414,27.344,49.316
1532372175.891,35.156,28.809,25.879,34.180,15.137
1532372175.895,35.645,26.367,24.902,36.621,-15.625
1532372175.899,35.156,25.391,25.879,35.645,22.949
1532372175.903,33.691,24.902,24.902,35.645,75.684
1532372175.907,25.879,22.461,22.949,32.227,19.043
1532372175.911,21.973,23.926,23.926,22.461,-48.340
1532372175.915,22.949,26.855,21.973,20.020,-29.785
1532372175.918,20.508,25.391,20.508,34.668,29.297
1532372175.922,25.879,24.902,21.973,34.180,67.383
1532372175.926,34.668,28.809,20.996,28.809,18.555
1532372175.930,28.809,28.320,24.902,32.715,-12.695
1532372175.934,21.973,29.297,25.879,35.645,29.297
1532372175.938,26.367,30.762,26.855,33.691,52.246
1532372175.942,26.855,28.809,26.855,34.668,26.855
1532372175.946,24.902,28.809,25.391,32.715,-2.441
1532372175.950,25.879,32.227,25.391,31.250,24.414
1532372175.954,22.461,30.762,25.391,41.504,73.242
1532372175.958,19.531,30.762,25.391,40.527,41.016
1532372175.961,22.461,33.203,22.949,37.598,-31.738
1532372175.965,29.297,32.227,26.367,42.480,-10.254
1532372175.969,28.809,33.691,30.762,38.086,43.457
1532372175.973,18.066,31.250,31.250,29.785,44.922
1532372175.977,15.137,30.762,26.855,33.691,20.020
1532372175.981,15.137,31.738,24.414,33.203,-1.953
1532372175.985,18.066,30.273,26.855,32.227,39.551
1532372175.989,23.926,31.250,26.367,38.086,79.102
1532372175.993,33.203,33.203,27.344,44.434,31.738
1532372175.997,33.203,33.691,24.902,38.086,20.996
1532372176.000,37.109,34.180,21.973,33.691,53.711
1532372176.004,38.086,33.203,24.902,44.434,72.266
1532372176.008,25.391,29.297,25.879,41.504,52.246
1532372176.012,28.809,30.762,26.855,38.574,13.672
1532372176.016,32.715,30.273,28.320,46.387,48.828
1532372176.020,30.273,31.250,24.902,46.875,111.816
1532372176.024,30.273,33.691,23.926,43.945,80.566
1532372176.028,33.691,33.691,26.855,41.016,9.766
1532372176.032,39.551,36.133,28.809,39.551,-9.277
1532372176.036,38.574,35.156,30.273,38.086,51.758
1532372176.040,38.574,34.180,28.809,38.086,80.566
1532372176.043,39.062,33.691,27.344,44.434,26.855
1532372176.047,35.645,33.203,27.344,40.039,-0.977
1532372176.051,38.086,37.109,23.438,37.109,37.598
1532372176.055,37.598,36.621,21.484,38.574,74.707
1532372176.059,40.039,34.180,21.973,44.434,26.855
1532372176.063,50.293,36.133,23.926,58.594,7.324
1532372176.067,52.734,37.598,27.832,57.129,19.043
1532372176.071,48.340,38.086,28.809,48.828,41.016
1532372176.075,49.805,37.598,28.320,53.711,37.598
1532372176.079,54.199,36.621,26.367,51.758,9.277
1532372176.082,46.387,35.156,25.391,48.340,12.695
1532372176.086,37.598,36.133,25.391,49.316,54.199
1532372176.090,47.852,38.574,24.902,46.875,70.801
1532372176.094,49.316,40.039,25.879,48.828,52.734
1532372176.098,34.668,39.551,24.414,46.387,50.293
1532372176.102,35.156,40.039,25.879,45.898,84.961
1532372176.106,41.016,40.527,27.344,41.504,76.172
1532372176.110,38.574,37.109,24.902,37.109,1.465
1532372176.114,45.410,34.668,25.879,48.340,-12.695
1532372176.118,48.828,33.691,25.879,50.293,25.391
1532372176.122,26.855,34.180,24.902,38.086,69.336
1532372176.125,26.367,37.598,26.855,40.039,25.391
1532372176.129,41.504,37.598,28.320,46.387,-5.859
1532372176.133,42.480,35.645,30.273,46.875,35.156
1532372176.137,38.574,37.598,30.762,42.969,73.730
1532372176.141,35.645,38.574,29.785,38.574,35.156
1532372176.145,42.480,35.645,27.832,44.922,-32.227
1532372176.149,44.434,35.156,29.297,51.758,-22.461
1532372176.153,40.527,35.156,30.762,48.828,20.508
1532372176.157,41.992,33.691,27.832,53.711,54.688
1532372176.161,46.387,35.645,29.785,57.129,20.996
1532372176.165,46.387,38.574,28.809,50.781,25.391
1532372176.168,51.758,37.598,28.809,51.758,65.918
1532372176.172,50.293,36.133,31.250,52.734,61.035
1532372176.176,40.039,37.598,32.227,48.828,21.973
1532372176.180,44.434,40.039,34.668,50.293,-4.395
1532372176.184,45.898,43.457,36.133,55.664,37.598
1532372176.188,39.062,42.480,36.621,53.223,86.914
1532372176.192,46.387,40.039,35.645,49.805,14.160
1532372176.196,50.781,40.527,32.715,47.363,-41.504
1532372176.200,41.504,37.598,34.180,47.363,28.320
1532372176.204,29.785,36.621,38.086,45.898,105.469
1532372176.207,27.832,38.574,38.086,38.086,60.059
1532372176.211,28.320,38.574,39.062,33.203,-26.367
1532372176.215,22.949,38.574,41.992,31.250,-12.207
1532372176.219,13.184,39.551,41.504,29.297,63.965
1532372176.223,19.043,40.039,37.109,33.203,56.641
1532372176.227,27.832,40.039,38.086,36.621,13.672
1532372176.231,23.926,41.504,40.039,34.668,15.137
1532372176.235,23.438,40.527,37.109,38.086,51.270
1532372176.239,23.926,39.551,35.156,39.551,59.570
1532372176.243,27.832,38.086,37.109,41.992,7.812
1532372176.247,29.297,36.621,37.598,41.016,12.695
1532372176.250,31.250,36.621,37.598,33.203,15.625
1532372176.254,35.645,36.133,40.039,36.621,46.875
1532372176.258,36.133,36.621,37.598,42.480,66.895
1532372176.262,36.133,36.621,34.180,44.434,11.230
1532372176.266,44.434,37.109,35.156,48.340,38.086
1532372176.270,46.387,38.086,33.691,47.852,58.594
1532372176.274,33.203,33.691,32.227,44.434,26.367
1532372176.278,32.227,31.738,34.668,38.086,22.461
1532372176.282,34.668,33.203,33.203,44.434,31.738
1532372176.286,33.203,34.180,33.691,51.758,62.988
1532372176.290,30.762,31.738,33.203,41.016,45.898
1532372176.293,23.926,30.762,30.273,36.621,-20.996
1532372176.297,20.996,33.203,31.250,40.039,-9.277
1532372176.301,24.902,35.156,33.203,39.551,44.434
1532372176.305,26.855,34.668,32.227,38.574,67.871
1532372176.309,29.785,34.180,32.715,37.598,31.250
1532372176.313,29.785,37.109,32.227,37.109,13.184
1532372176.317,23.438,38.574,33.203,36.621,49.805
1532372176.321,26.367,34.180,36.621,41.016,95.215
1532372176.325,25.879,30.762,35.156,42.969,78.613
1532372176.329,35.645,32.227,35.645,40.039,19.043
1532372176.332,38.574,35.156,36.133,44.434,21.973
1532372176.336,29.297,36.621,36.621,48.828,41.992
1532372176.340,32.715,36.133,36.621,46.387,35.645
1532372176.344,31.250,35.645,35.645,46.387,23.926
1532372176.348,28.320,35.156,32.715,46.387,15.625
1532372176.352,34.180,34.180,32.227,41.504,47.852
1532372176.356,35.156,33.203,33.691,44.922,85.449
1532372176.360,26.367,33.203,30.273,43.457,28.809
1532372176.364,31.250,32.715,29.297,45.898,10.254
1532372176.368,38.086,32.715,32.227,45.898,43.945
1532372176.372,30.273,29.785,28.809,36.621,59.570
1532372176.375,29.297,28.320,24.414,32.715,40.527
1532372176.379,41.992,30.273,25.391,41.504,13.672
1532372176.383,50.781,32.715,25.879,48.828,53.711
1532372176.387,55.664,32.715,25.879,44.434,90.332
1532372176.391,51.758,33.203,23.438,30.762,20.020
1532372176.395,52.246,33.691,20.996,27.344,-44.434
1532372176.399,60.547,32.715,21.484,42.969,8.789
1532372176.403,53.223,31.738,21.484,47.363,77.637
1532372176.407,37.598,30.273,22.949,38.574,66.406
1532372176.411,26.855,30.273,25.391,40.527,8.301
1532372176.414,18.555,32.227,26.367,40.527,10.254
1532372176.418,13.672,32.715,26.855,40.039,44.434
1532372176.422,10.742,33.203,26.855,41.992,68.359
1532372176.426,5.859,35.156,29.297,36.133,22.461
1532372176.430,2.930,36.133,30.762,26.855,-30.762
1532372176.434,-2.441,36.621,32.715,23.438,15.137
1532372176.438,-1.465,38.574,36.133,21.973,83.984
1532372176.442,-1.953,40.527,34.180,10.742,62.500
1532372176.446,-12.207,41.016,32.715,3.906,21.484
1532372176.450,-18.066,41.504,36.133,4.395,44.922
1532372176.454,-16.113,42.969,35.156,-1.465,82.031
1532372176.457,-20.508,42.480,37.109,-8.789,50.781
1532372176.461,-19.531,41.504,39.062,-8.301,1.953
1532372176.465,-9.277,42.969,35.645,-7.324,20.996
1532372176.469,-15.137,41.504,35.156,-9.277,65.918
1532372176.473,-22.461,38.086,39.062,-12.207,61.035
1532372176.477,-23.926,34.180,42.969,-4.883,9.277
1532372176.481,-17.090,33.691,44.922,-1.465,-4.883
1532372176.485,-9.766,35.645,45.898,-0.977,67.871
1532372176.489,-11.719,34.668,47.363,1.465,81.543
1532372176.493,-9.277,32.715,48.828,-3.906,17.578
1532372176.497,-12.207,32.227,47.363,-5.859,16.113
1532372176.500,-20.020,30.273,47.852,-1.465,51.270
1532372176.504,-9.766,28.809,49.316,4.883,97.168
1532372176.508,-2.441,30.273,49.316,12.695,63.477
1532372176.512,-2.441,29.785,48.828,19.531,10.254
1532372176.516,7.324,26.367,46.875,27.832,25.391
1532372176.520,20.996,25.879,48.828,38.574,53.711
1532372176.524,25.879,26.855,46.387,41.504,62.500
1532372176.528,20.508,24.414,41.016,36.621,-0.488
1532372176.532,20.996,24.902,37.598,39.062,1.953
1532372176.536,26.367,25.391,36.621,48.340,82.031
1532372176.539,28.320,23.926,36.621,48.828,90.332
1532372176.543,33.203,21.973,35.645,54.199,23.926
1532372176.547,41.992,19.043,34.668,56.152,-15.137
1532372176.551,43.945,21.484,28.809,47.363,-4.395
1532372176.555,41.504,23.926,25.879,50.293,30.273
1532372176.559,44.434,22.461,22.461,52.246,59.082
1532372176.563,44.922,23.438,21.973,50.293,49.316
1532372176.567,54.199,22.949,23.438,56.152,30.273
1532372176.571,58.105,22.461,23.438,57.129,48.340
1532372176.575,54.199,24.414,26.367,56.152,43.945
1532372176.579,53.711,24.902,25.391,55.664,-4.395
1532372176.582,51.270,22.949,22.949,53.711,14.648
1532372176.586,52.246,21.973,22.461,51.758,67.383
1532372176.590,45.898,23.926,21.484,49.805,40.527
1532372176.594,44.922,28.809,20.508,48.340,-16.113
1532372176.598,51.758,30.273,20.996,47.363,-4.395
1532372176.602,51.270,27.344,24.414,50.781,56.641
1532372176.606,50.293,26.367,23.926,54.688,70.801
1532372176.610,52.734,26.855,21.484,52.734,-12.207
1532372176.614,53.711,27.344,21.973,51.758,-47.852
1532372176.618,46.875,24.902,21.973,53.711,7.324
1532372176.622,38.086,26.367,19.531,44.922,52.246
1532372176.625,41.016,28.809,18.555,45.410,24.414
1532372176.629,46.387,29.297,22.461,50.293,-22.949
1532372176.633,42.969,30.273,23.926,42.480,-10.742
1532372176.637,51.758,34.180,24.414,48.828,53.223
1532372176.641,54.199,33.691,24.902,53.223,66.895
1532372176.645,47.852,33.691,23.438,46.875,20.020
1532372176.649,49.316,35.156,24.414,48.828,0.488
1532372176.653,58.594,33.691,26.855,51.758,51.758
1532372176.657,49.805,34.180,27.832,51.270,69.824
1532372176.661,41.016,36.133,27.832,52.734,14.160
1532372176.664,46.875,34.668,25.879,48.340,5.859
1532372176.668,41.504,33.691,24.902,42.480,35.156
1532372176.672,36.621,34.668,24.414,41.504,42.480
1532372176.676,41.016,36.621,26.855,48.828,22.461
1532372176.680,39.551,36.133,27.832,54.199,9.277
1532372176.684,35.645,33.691,25.391,49.316,43.457
1532372176.688,37.109,37.109,24.902,44.922,63.965
1532372176.692,37.109,36.133,25.879,47.852,23.926
1532372176.696,39.551,34.668,29.785,45.898,-3.418
1532372176.700,40.527,36.621,32.715,45.898,24.902
1532372176.704,35.156,35.645,34.668,54.199,62.500
1532372176.707,32.227,36.133,31.250,51.758,35.156
1532372176.711,37.598,36.621,29.785,48.828,1.953
1532372176.715,35.156,36.133,34.180,49.316,20.508
1532372176.719,30.273,38.086,33.203,49.805,41.992
1532372176.723,40.039,38.086,33.203,56.152,55.664
1532372176.727,33.691,36.133,33.203,56.152,-0.977
1532372176.731,29.785,36.621,31.738,48.340,-43.457
1532372176.735,30.762,38.086,31.738,45.898,27.832
1532372176.739,36.133,38.086,29.785,48.828,72.266
1532372176.743,41.016,34.668,28.809,43.945,23.438
1532372176.746,40.527,35.156,28.320,44.434,-13.184
1532372176.750,42.480,39.062,29.297,54.199,2.441
1532372176.754,37.598,38.574,29.297,49.805,55.664
1532372176.758,39.551,38.086,26.855,44.922,50.781
1532372176.762,41.992,39.551,25.391,48.340,20.996
1532372176.766,41.992,40.527,28.320,49.805,23.438
1532372176.770,39.062,41.016,29.785,45.410,12.695
1532372176.774,44.434,40.039,27.832,47.363,1.465
1532372176.778,51.758,38.574,27.344,52.246,-26.855
1532372176.782,53.711,36.133,27.344,56.152,-17.090
1532372176.786,50.781,39.062,28.320,62.988,47.852
1532372176.789,62.012,42.969,31.738,61.035,49.316
1532372176.793,61.523,44.434,31.250,57.617,-0.488
1532372176.797,50.293,46.875,26.855,55.664,-1.953
1532372176.801,47.363,44.922,29.785,45.410,35.645
1532372176.805,43.457,41.504,33.203,42.969,48.340
1532372176.809,39.062,41.504,32.227,44.922,-8.789
1532372176.813,35.645,41.504,33.203,38.086,-49.805
1532372176.817,38.574,42.480,37.598,36.133,30.762
1532372176.821,33.691,46.387,38.574,34.180,76.172
1532372176.825,33.203,47.852,40.527,35.156,35.156
1532372176.829,34.668,46.875,40.039,36.133,4.883
1532372176.832,32.715,47.363,37.109,32.227,7.812
1532372176.836,32.227,49.805,37.598,28.320,57.129
1532372176.840,26.367,52.734,39.551,25.391,64.941
1532372176.844,34.180,50.781,41.016,34.668,22.949
1532372176.848,41.504,47.852,37.598,35.156,10.742
1532372176.852,28.809,45.410,36.133,31.250,27.344
1532372176.856,27.832,44.434,37.598,37.598,58.594
1532372176.860,30.762,42.969,34.668,37.109,32.227
1532372176.864,33.203,42.969,33.203,37.109,11.230
1532372176.868,27.832,42.480,29.785,39.062,6.836
1532372176.871,32.715,44.434,20.508,37.598,27.344
1532372176.875,43.457,47.363,12.207,43.945,0.488
1532372176.879,48.340,47.363,9.277,46.387,-12.207
1532372176.883,47.363,45.410,3.418,43.457,23.438
1532372176.887,47.852,45.898,-1.953,42.480,46.875
1532372176.891,44.434,45.410,-2.441,44.434,51.758
1532372176.895,38.574,45.898,-3.906,47.363,3.418
1532372176.899,36.133,46.875,-6.836,46.387,5.371
1532372176.903,36.621,43.945,-7.324,45.410,61.035
1532372176.907,39.551,44.434,-6.836,41.504,53.223
1532372176.911,36.133,45.410,-7.324,45.410,-25.391
1532372176.914,41.504,46.875,-5.859,44.922,-22.949
1532372176.918,39.062,45.898,-5.859,44.922,57.617
1532372176.922,28.320,42.969,-4.395,49.805,81.543
1532372176.926,34.668,44.434,-2.930,52.246,27.344
1532372176.930,38.086,46.875,-0.488,48.340,20.508
1532372176.934,33.691,47.363,1.465,42.969,86.914
1532372176.938,39.062,45.410,0.977,41.992,115.723
1532372176.942,33.203,46.387,1.953,35.156,50.293
1532372176.946,20.508,45.410,3.906,33.203,11.230
1532372176.950,22.949,43.945,3.906,29.785,6.348
1532372176.953,28.809,44.922,1.953,31.250,60.059
1532372176.957,34.668,43.945,2.441,40.039,77.637
1532372176.961,40.527,41.992,2.441,41.992,17.090
1532372176.965,42.969,42.480,1.953,41.504,1.953
1532372176.969,41.016,41.992,1.465,47.363,33.691
1532372176.973,39.062,40.039,0.488,46.387,68.848
1532372176.977,41.016,38.574,-0.488,39.551,27.344
1532372176.981,34.180,37.109,-2.441,34.668,18.555
1532372176.985,22.461,36.621,-5.859,33.691,51.758
1532372176.989,25.879,37.598,-2.930,37.109,73.730
1532372176.993,29.785,38.574,0.977,40.527,51.270
1532372176.996,40.039,38.574,0.000,41.016,23.438
1532372177.000,40.527,35.156,0.000,43.457,57.617
1532372177.004,40.039,35.645,1.465,50.293,82.520
1532372177.008,47.363,39.062,0.977,49.805,28.809
1532372177.012,40.527,38.086,-3.418,45.898,-13.184
1532372177.016,38.086,38.574,-0.488,49.805,20.508
1532372177.020,39.551,38.574,3.418,51.270,63.477
1532372177.024,35.156,37.598,1.953,49.805,53.223
1532372177.028,30.273,36.133,1.953,48.828,-26.855
1532372177.032,26.367,34.668,2.930,39.062,-22.461
1532372177.036,21.973,36.621,4.883,37.598,72.754
1532372177.039,23.926,35.156,6.836,37.109,108.887
1532372177.043,25.391,35.645,6.348,38.574,27.832
1532372177.047,22.461,36.133,4.395,34.668,-1.953
1532372177.051,23.438,34.180,5.371,30.762,19.043
1532372177.055,30.273,35.156,6.836,35.156,50.781
1532372177.059,43.945,35.156,4.395,39.062,28.809
1532372177.063,36.621,36.133,3.418,43.457,-23.926
1532372177.067,27.832,36.621,6.836,44.922,13.184
1532372177.071,32.227,35.645,8.789,44.922,82.031
1532372177.075,36.621,36.133,8.789,44.434,49.805
1532372177.078,37.598,34.668,9.766,42.480,-7.324
1532372177.082,38.574,32.227,7.812,42.969,7.812
1532372177.086,38.574,34.180,4.883,44.922,40.527
1532372177.090,30.762,36.621,5.859,31.738,13.184
1532372177.094,32.227,37.109,4.883,29.785,-36.621
1532372177.098,44.434,36.621,4.883,35.645,-9.766
1532372177.102,45.898,37.109,4.883,33.691,37.598
1532372177.106,41.992,35.645,3.906,39.551,40.039
1532372177.110,46.875,35.156,1.465,37.109,15.137
1532372177.114,58.105,37.109,-0.488,30.762,5.371
1532372177.118,57.617,39.062,1.465,28.809,33.691
1532372177.121,54.688,40.039,2.930,32.715,64.453
1532372177.125,56.152,39.551,0.977,43.457,28.809
1532372177.129,43.457,40.039,-1.953,48.828,-15.137
1532372177.133,31.250,36.621,0.488,49.316,19.043
1532372177.137,30.762,35.156,3.418,45.410,62.012
1532372177.141,29.297,36.621,4.883,45.898,38.086
1532372177.145,25.391,40.039,9.277,50.293,0.488
1532372177.149,18.066,43.457,7.812,38.574,-7.324
1532372177.153,13.184,43.945,6.348,29.785,45.410
1532372177.157,10.742,41.992,5.859,34.668,104.492
1532372177.161,21.973,42.969,4.883,31.250,37.598
1532372177.164,22.461,40.527,3.906,25.879,-4.395
1532372177.168,8.301,35.645,5.371,25.879,-7.812
1532372177.172,21.973,31.738,12.695,40.039,30.762
1532372177.176,34.668,41.016,6.348,38.086,38.086
1532372177.180,23.926,53.711,-8.789,20.020,4.395
1532372177.184,18.066,50.781,-9.277,27.832,38.574
1532372177.188,28.320,48.340,-9.277,35.645,52.734
1532372177.192,34.180,51.270,-12.207,36.621,24.902
1532372177.196,27.832,51.758,-13.184,36.621,6.836
1532372177.200,32.227,50.781,-13.672,32.715,16.602
1532372177.203,38.086,51.758,-16.113,32.715,49.316
1532372177.207,40.039,51.758,-17.090,34.180,38.574
1532372177.211,44.922,49.316,-19.043,36.133,-19.531
1532372177.215,46.387,47.852,-22.949,36.133,8.789
1532372177.219,49.805,50.293,-17.090,47.363,58.594
1532372177.223,51.758,50.293,-11.719,59.082,65.918
1532372177.227,52.734,47.852,-12.207,54.199,12.207
1532372177.231,55.176,44.434,-11.719,50.781,-29.785
1532372177.235,49.805,44.922,-10.742,56.152,23.438
1532372177.239,54.688,44.434,-9.766,51.270,86.426
1532372177.243,50.781,42.969,-9.277,48.340,37.109
1532372177.246,42.480,46.875,-7.812,53.223,0.488
1532372177.250,50.293,49.316,-6.348,47.852,31.250
1532372177.254,52.734,48.340,-5.371,52.734,83.008
1532372177.258,53.711,47.363,-4.395,56.641,58.105
1532372177.262,53.711,46.875,-4.395,51.270,-8.789
1532372177.266,52.734,45.898,-7.324,43.945,12.207
1532372177.270,49.805,43.945,-5.371,39.551,43.457
1532372177.274,48.828,42.480,-1.465,48.340,64.941
1532372177.278,42.969,43.945,-1.465,48.340,-2.930
1532372177.282,41.504,44.434,-2.441,41.504,-41.504
1532372177.285,41.504,43.945,-0.488,41.992,43.457
1532372177.289,42.480,47.852,-1.465,40.527,80.566
1532372177.293,40.527,46.387,-2.441,38.574,32.227
1532372177.297,33.691,40.527,-1.465,40.527,1.465
1532372177.301,35.645,38.086,0.000,44.434,46.875
1532372177.305,39.062,40.039,0.977,41.504,100.586
1532372177.309,41.016,41.504,0.977,33.691,54.199
1532372177.313,44.922,38.574,3.906,39.551,16.602
1532372177.317,57.129,38.086,3.906,41.016,28.320
1532372177.321,46.875,40.527,0.977,33.203,64.453
1532372177.325,38.086,40.527,2.441,32.227,62.988
1532372177.328,38.086,39.551,5.371,35.645,-4.883
1532372177.332,30.273,40.039,4.883,32.715,-6.348
1532372177.336,35.156,39.062,2.930,39.551,58.594
1532372177.340,44.434,36.621,4.395,47.852,67.383
1532372177.344,41.992,36.621,2.930,44.922,23.926
1532372177.348,34.180,37.598,2.441,40.039,9.766
1532372177.352,42.969,38.574,7.812,43.457,47.852
1532372177.356,43.457,38.086,8.301,48.340,72.266
1532372177.360,41.016,37.109,6.836,48.340,31.250
1532372177.364,36.133,38.086,6.836,44.922,-3.906
1532372177.368,29.297,39.551,9.766,38.086,41.016
1532372177.371,28.809,39.062,10.742,32.715,75.195
1532372177.375,32.227,41.504,8.789,41.504,52.734
1532372177.379,32.715,44.922,8.301,44.922,12.207
1532372177.383,38.086,45.410,13.184,49.316,20.508
1532372177.387,43.457,42.969,15.625,49.316,63.965
1532372177.391,37.109,39.551,13.672,42.969,76.172
1532372177.395,26.855,40.039,13.672,45.410,53.223
1532372177.399,31.738,39.062,16.602,44.434,26.367
1532372177.403,34.668,37.598,18.555,42.969,66.895
1532372177.407,36.621,39.551,17.578,44.922,86.426
1532372177.410,40.039,37.598,15.137,42.969,20.508
1532372177.414,36.133,35.645,15.625,43.457,-15.625
1532372177.418,33.203,40.039,17.090,43.945,47.852
1532372177.422,28.809,40.527,19.043,43.945,94.727
1532372177.426,37.109,41.016,18.066,39.551,25.879
1532372177.430,40.039,38.574,17.090,38.086,-43.457
1532372177.434,29.297,35.156,20.508,41.992,7.324
1532372177.438,28.320,36.621,20.996,44.922,68.359
1532372177.442,39.062,37.109,20.020,46.875,53.711
1532372177.446,33.203,34.668,22.461,44.922,5.371
1532372177.450,28.809,34.668,20.020,40.527,19.043
1532372177.453,27.344,38.086,12.695,39.062,67.871
1532372177.457,26.367,38.574,13.184,39.062,45.898
1532372177.461,31.250,38.086,12.207,31.250,-5.859
1532372177.465,27.344,38.574,11.719,34.180,15.625
1532372177.469,34.180,37.598,14.648,41.992,62.012
1532372177.473,37.598,35.645,16.113,42.969,58.105
1532372177.477,42.969,35.645,17.090,49.805,20.996
1532372177.481,43.945,34.180,16.113,44.922,10.254
1532372177.485,37.109,34.180,12.207,45.410,38.574
1532372177.489,39.062,35.156,14.648,45.898,59.570
1532372177.493,41.504,34.668,17.090,41.016,30.762
1532372177.496,38.574,34.668,15.137,41.504,-12.695
1532372177.500,40.527,35.156,17.578,40.527,0.977
1532372177.504,47.363,35.156,18.555,43.457,47.852
1532372177.508,38.574,34.668,14.160,40.039,20.996
1532372177.512,34.180,34.668,15.625,29.785,-32.227
1532372177.516,42.480,36.621,18.066,34.668,-16.113
1532372177.520,45.898,36.621,20.508,45.410,37.109
1532372177.524,33.691,31.250,22.949,45.898,48.828
1532372177.528,33.203,31.738,21.484,47.852,-17.578
1532372177.532,36.133,36.133,20.508,51.270,-20.996
1532372177.535,24.902,35.156,20.020,49.316,45.410
1532372177.539,25.879,34.668,21.973,45.410,84.961
1532372177.543,32.227,35.645,20.996,35.156,34.180
1532372177.547,33.691,36.133,21.484,37.109,-9.277
1532372177.551,24.414,37.109,24.414,40.527,16.602
1532372177.555,31.738,35.645,23.438,37.109,40.039
1532372177.559,38.574,35.645,23.926,39.062,7.812
1532372177.563,37.109,37.109,25.391,39.551,-8.301
1532372177.567,36.621,35.156,27.832,38.086,51.758
1532372177.571,22.949,35.645,31.250,34.668,70.801
1532372177.575,23.926,35.645,33.203,38.086,28.809
1532372177.578,31.738,32.227,34.668,44.434,0.000
1532372177.582,25.391,32.227,34.668,45.410,13.184
1532372177.586,22.949,30.762,33.691,41.504,80.078
1532372177.590,27.832,28.809,33.203,31.738,86.914
1532372177.594,31.738,30.273,31.250,30.762,23.438
1532372177.598,33.691,33.203,27.832,39.551,29.785
1532372177.602,38.086,32.227,29.785,41.016,76.172
1532372177.606,41.992,30.762,29.785,37.109,72.754
1532372177.610,40.527,31.250,33.203,34.180,8.789
1532372177.614,33.691,30.762,37.109,35.156,-9.277
1532372177.617,26.367,28.320,32.227,33.691,25.391
1532372177.621,21.973,30.762,31.250,29.297,67.383
1532372177.625,29.297,32.227,32.715,29.297,22.949
1532372177.629,30.273,29.785,30.273,26.855,-24.902
1532372177.633,21.973,30.762,30.762,26.367,45.410
1532372177.637,24.414,34.180,30.762,25.391,107.910
1532372177.641,27.832,32.227,29.785,22.949,46.875
1532372177.645,20.996,31.738,30.762,24.414,-18.555
1532372177.649,17.578,30.762,28.809,22.949,-12.695
1532372177.653,18.555,26.367,28.809,21.973,9.277
1532372177.657,18.555,25.391,31.250,26.367,45.898
1532372177.660,24.414,27.832,28.809,28.320,35.645
1532372177.664,29.785,28.809,28.809,38.574,-7.324
1532372177.668,31.738,28.320,30.762,40.527,54.199
1532372177.672,32.715,24.902,29.785,35.156,90.332
1532372177.676,17.578,24.414,29.297,33.691,21.484
1532372177.680,17.090,25.391,29.297,33.691,-3.906
1532372177.684,27.344,24.414,27.832,30.273,19.043
1532372177.688,27.344,27.344,27.344,22.461,64.453
1532372177.692,24.902,28.809,27.344,18.555,26.367
1532372177.696,19.043,28.320,26.855,14.160,-9.766
1532372177.700,17.578,27.832,25.391,15.137,23.438
1532372177.703,19.043,26.367,23.926,13.672,74.219
1532372177.707,10.254,25.391,24.414,9.277,49.805
1532372177.711,13.184,26.367,25.879,13.672,-17.090
1532372177.715,18.066,26.855,25.391,21.973,-5.859
1532372177.719,11.719,23.926,25.391,19.043,29.297
1532372177.723,13.672,23.438,25.879,19.043,54.199
1532372177.727,16.113,24.902,25.391,22.461,10.742
1532372177.731,13.672,24.902,25.391,23.926,-11.230
1532372177.735,13.184,26.367,27.344,19.043,57.617
1532372177.739,13.184,28.320,29.785,19.531,69.824
1532372177.742,18.066,28.809,25.879,29.785,39.551
1532372177.746,22.949,31.738,27.832,29.785,25.879
1532372177.750,20.020,33.203,31.250,18.066,4.395
1532372177.754,12.207,30.762,28.809,6.836,22.461
1532372177.758,13.184,27.832,26.855,10.254,56.152
1532372177.762,15.625,27.832,27.344,14.648,13.672
1532372177.766,19.531,27.832,29.297,16.113,10.742
1532372177.770,19.043,29.297,30.273,24.902,62.500
1532372177.774,19.531,30.273,29.785,25.391,46.875
1532372177.778,28.809,29.297,28.320,22.461,13.672
1532372177.782,21.484,29.297,26.367,22.461,26.367
1532372177.785,15.137,26.367,27.344,22.949,51.758
1532372177.789,19.043,24.414,31.250,24.902,46.387
1532372177.793,20.508,25.391,32.227,23.438,3.906
1532372177.797,24.902,27.344,31.250,22.461,4.883
1532372177.801,28.809,27.344,29.297,30.273,39.551
1532372177.805,15.625,27.344,27.832,26.367,81.543
1532372177.809,14.160,27.832,27.344,19.531,22.949
1532372177.813,26.367,29.785,26.367,20.020,-29.785
1532372177.817,21.973,31.250,27.344,19.043,26.855
1532372177.821,17.090,32.715,29.785,19.531,71.777
1532372177.824,20.020,32.715,32.715,20.020,51.758
1532372177.828,31.738,32.715,32.715,14.648,5.859
1532372177.832,39.551,34.668,32.715,15.137,5.371
1532372177.836,28.320,36.133,31.250,11.230,34.668
1532372177.840,26.855,36.133,27.832,5.371,41.016
1532372177.844,44.434,37.109,25.391,13.672,11.230
1532372177.848,47.363,39.551,25.391,18.066,-25.879
1532372177.852,40.039,39.062,24.902,18.066,-23.438
1532372177.856,40.039,36.133,22.461,28.320,39.062
1532372177.860,30.762,33.203,22.461,26.855,3.906
1532372177.864,19.531,30.762,20.996,21.973,-18.066
1532372177.867,20.508,31.738,21.973,33.691,12.695
1532372177.871,18.066,30.273,23.438,31.250,36.133
1532372177.875,12.695,29.297,25.391,27.832,16.602
1532372177.879,9.766,31.738,24.902,32.227,-29.785
1532372177.883,13.672,32.715,20.508,34.668,10.742
1532372177.887,14.160,32.227,17.090,26.855,65.430
1532372177.891,15.625,30.273,15.625,17.090,57.617
1532372177.895,23.438,29.297,17.578,26.367,12.207
1532372177.899,28.809,30.762,20.020,31.250,4.883
1532372177.903,31.250,29.785,19.531,27.344,51.758
1532372177.907,28.320,27.832,19.531,35.156,61.035
1532372177.910,27.832,26.367,21.484,35.645,17.578
1532372177.914,29.297,28.809,22.949,32.227,10.742
1532372177.918,25.879,29.297,21.484,38.574,50.781
1532372177.922,25.391,28.809,20.996,36.133,57.617
1532372177.926,30.273,31.250,20.996,30.762,16.113
1532372177.930,25.879,29.785,20.996,29.785,2.441
1532372177.934,21.973,30.273,20.020,23.438,28.809
1532372177.938,25.391,33.203,19.043,22.949,69.824
1532372177.942,23.926,33.691,20.020,24.902,38.574
1532372177.946,15.137,32.715,20.020,20.020,21.973
1532372177.949,9.277,33.203,20.996,18.066,16.113
1532372177.953,20.020,35.645,22.461,26.367,35.645
1532372177.957,23.926,36.621,20.508,26.367,47.852
1532372177.961,14.160,35.645,19.043,23.438,-23.438
1532372177.965,20.020,32.227,20.996,26.855,4.883
1532372177.969,19.531,33.203,20.508,22.461,59.082
1532372177.973,20.508,35.156,21.973,27.344,42.969
1532372177.977,28.809,33.203,24.414,28.320,7.324
1532372177.981,26.367,32.715,24.902,23.438,6.836
1532372177.985,30.762,29.785,21.973,29.297,48.828
1532372177.989,31.250,28.809,21.484,26.855,67.871
1532372177.992,21.484,32.715,22.949,18.555,18.555
1532372177.996,26.367,30.273,23.926,29.785,-2.441
1532372178.000,23.438,27.832,23.926,28.809,41.016
1532372178.004,20.996,32.227,21.484,20.996,75.195
1532372178.008,30.762,32.715,19.531,20.508,21.484
1532372178.012,36.133,30.762,18.066,20.996,-25.391
1532372178.016,33.691,30.762,19.043,25.391,30.762
1532372178.020,25.391,31.250,18.555,24.902,83.008
1532372178.024,25.879,31.250,21.973,29.785,46.875
1532372178.028,34.180,31.738,26.855,31.250,-37.598
1532372178.032,30.273,31.738,29.297,20.996,-40.527
1532372178.035,20.020,29.785,26.855,18.555,50.781
1532372178.039,15.137,30.762,21.484,14.648,59.082
1532372178.043,18.066,33.691,20.996,17.090,-6.348
1532372178.047,20.020,34.668,22.949,22.461,-25.391
1532372178.051,23.926,33.691,25.879,18.066,13.184
1532372178.055,19.043,32.715,24.902,19.531,61.523
1532372178.059,7.812,31.250,23.438,15.137,43.945
1532372178.063,15.625,32.227,22.949,14.160,17.578
1532372178.067,17.090,32.227,24.414,20.996,30.762
1532372178.071,16.113,30.762,26.855,20.508,40.527
1532372178.074,18.066,29.297,23.438,17.578,47.852
1532372178.078,13.184,27.832,23.926,21.973,37.109
1532372178.082,13.672,28.320,24.414,17.090,28.809
1532372178.086,14.160,27.344,20.996,13.184,51.270
1532372178.090,13.184,24.414,19.043,13.672,69.824
1532372178.094,19.043,25.391,21.973,20.020,2.441
1532372178.098,21.973,28.809,22.949,23.926,-26.855
1532372178.102,23.926,29.297,21.973,26.855,38.086
1532372178.106,22.461,27.344,21.973,25.879,73.242
1532372178.110,21.973,26.367,23.438,19.043,11.719
1532372178.114,22.461,28.809,22.461,23.926,-24.414
1532372178.117,16.602,28.809,18.555,15.625,27.832
1532372178.121,21.973,24.902,20.996,15.625,76.660
1532372178.125,22.949,26.855,21.973,30.273,58.105
1532372178.129,17.578,29.297,20.996,21.973,7.324
1532372178.133,22.949,26.855,20.508,20.020,8.301
1532372178.137,21.973,23.438,16.602,23.926,58.105
1532372178.141,8.789,23.438,17.090,19.531,63.965
1532372178.145,6.836,23.926,19.043,18.066,4.395
1532372178.149,14.160,24.902,19.531,20.020,-9.277
1532372178.153,14.160,26.855,19.043,24.414,59.570
1532372178.156,12.695,26.367,19.043,23.926,78.125
1532372178.160,13.672,23.926,20.508,24.414,19.043
1532372178.164,16.602,21.484,20.020,27.832,-1.465
1532372178.168,18.555,20.996,20.508,22.949,8.789
1532372178.172,21.973,23.438,21.484,22.949,32.715
1532372178.176,30.273,26.367,20.020,30.273,32.227
1532372178.180,23.926,25.391,17.578,26.367,4.883
1532372178.184,13.672,23.926,18.066,19.043,23.926
1532372178.188,10.742,23.926,19.531,21.973,60.547
1532372178.192,8.301,22.949,20.996,20.508,34.668
1532372178.196,15.137,22.949,23.926,22.949,-12.207
1532372178.199,19.531,23.438,21.484,26.855,2.930
1532372178.203,10.254,23.438,18.555,26.855,49.316
1532372178.207,11.230,24.902,18.066,28.809,50.293
1532372178.211,26.367,26.855,15.625,26.367,3.418
1532372178.215,31.250,26.855,17.578,31.738,1.953
1532372178.219,27.832,26.367,20.508,38.086,46.875
1532372178.223,30.273,26.855,19.043,31.738,64.941
1532372178.227,25.879,28.320,17.090,29.785,-0.488
1532372178.231,17.090,27.344,18.066,27.832,-28.809
1532372178.235,21.484,27.832,18.066,19.043,42.969
1532372178.239,21.973,28.320,13.672,20.020,67.383
1532372178.242,21.973,24.902,17.578,29.785,37.598
1532372178.246,27.832,23.438,19.531,23.926,22.461
1532372178.250,20.020,24.902,18.066,20.996,33.691
1532372178.254,13.672,27.344,19.531,30.273,85.449
1532372178.258,18.066,27.832,18.066,22.949,71.777
1532372178.262,21.484,27.832,17.090,22.461,0.000
1532372178.266,23.926,29.297,21.973,26.855,-2.441
1532372178.270,25.391,30.762,25.391,20.508,6.836
1532372178.274,20.508,30.762,23.438,16.113,14.160
1532372178.278,20.020,29.297,21.973,21.973,20.508
1532372178.281,20.508,29.785,21.973,25.391,24.902
1532372178.285,28.320,31.738,21.973,26.855,72.754
1532372178.289,22.949,32.715,21.484,28.809,70.801
1532372178.293,13.672,28.809,22.461,27.832,18.555
1532372178.297,18.555,28.320,22.461,25.879,8.301
1532372178.301,24.414,30.273,22.461,24.414,58.105
1532372178.305,20.020,30.273,22.949,31.738,76.660
1532372178.309,8.301,29.297,25.879,30.273,18.066
1532372178.313,20.020,28.320,25.879,20.020,-15.137
1532372178.317,20.508,29.297,23.438,18.066,48.828
1532372178.321,10.254,30.273,22.461,20.508,100.586
1532372178.324,19.043,27.344,20.996,23.438,45.410
1532372178.328,11.719,24.414,19.531,20.020,-6.348
1532372178.332,10.742,27.344,21.484,21.973,7.324
1532372178.336,20.020,30.273,23.438,34.180,61.523
1532372178.340,20.508,29.297,24.414,36.133,78.125
1532372178.344,20.020,28.320,22.461,24.414,10.254
1532372178.348,20.508,29.297,20.508,18.555,-27.832
1532372178.352,23.926,29.297,21.484,22.461,32.715
1532372178.356,25.391,27.832,18.555,20.508,71.289
1532372178.360,24.902,26.367,16.113,14.160,38.086
1532372178.363,27.832,27.832,18.555,26.855,16.602
1532372178.367,26.367,29.297,21.973,24.902,41.016
1532372178.371,22.949,29.785,21.973,18.555,71.777
1532372178.375,20.508,30.273,18.555,21.484,44.434
1532372178.379,21.973,29.297,20.020,20.996,12.207
1532372178.383,33.691,31.250,26.367,26.367,3.906
1532372178.387,32.715,32.227,23.926,25.879,36.133
1532372178.391,34.668,33.691,21.973,25.879,19.043
1532372178.395,32.715,36.133,25.879,23.926,-33.691
1532372178.399,18.555,33.691,24.902,22.461,4.883
1532372178.403,19.531,32.227,22.949,22.461,43.945
1532372178.406,28.809,33.203,28.320,26.367,39.062
1532372178.410,35.156,34.668,33.203,30.762,-12.695
1532372178.414,30.762,34.668,33.691,33.203,-25.879
1532372178.418,26.367,34.668,34.180,36.133,39.551
1532372178.422,28.809,33.203,33.691,35.156,80.566
1532372178.426,33.203,33.203,34.668,39.062,40.527
1532372178.430,35.645,36.133,36.621,32.715,-18.555
1532372178.434,37.109,34.668,34.668,30.762,33.203
1532372178.438,39.062,33.203,32.715,41.016,84.961
1532372178.442,33.691,34.668,31.250,35.645,31.738
1532372178.446,33.203,35.645,27.832,32.715,-9.766
1532372178.449,40.527,36.133,26.855,39.062,20.996
1532372178.453,29.785,33.691,24.414,37.598,63.477
1532372178.457,20.020,30.762,22.461,32.227,75.195
1532372178.461,26.855,30.762,21.973,35.156,18.066
1532372178.465,31.250,34.180,20.020,46.387,22.949
1532372178.469,31.250,33.203,19.531,41.016,52.734
1532372178.473,28.809,32.227,20.508,31.250,28.320
1532372178.477,35.156,36.133,20.996,41.504,2.441
1532372178.481,33.691,38.086,21.973,48.828,14.648
1532372178.485,35.645,38.086,23.926,43.945,39.062
1532372178.488,38.574,37.109,20.508,36.133,61.035
1532372178.492,32.227,35.645,20.996,39.062,51.270
1532372178.496,27.832,35.645,21.484,37.598,18.555
1532372178.500,26.367,34.668,18.555,32.715,26.367
1532372178.504,23.926,32.715,20.508,35.645,71.777
1532372178.508,20.996,32.227,19.531,30.762,37.598
1532372178.512,25.391,34.180,17.578,30.762,-19.043
1532372178.516,38.574,35.645,16.602,40.039,23.926
1532372178.520,48.340,36.621,16.602,41.992,69.336
1532372178.524,33.691,35.156,22.461,37.598,72.754
1532372178.528,25.879,33.203,25.391,35.645,22.461
1532372178.531,34.668,33.691,25.879,38.574,11.230
1532372178.535,29.785,33.203,26.855,38.086,51.270
1532372178.539,29.297,31.738,25.391,35.645,76.660
1532372178.543,35.156,30.762,24.414,35.156,41.016
1532372178.547,33.691,31.738,24.902,28.320,-11.230
1532372178.551,35.156,34.180,27.832,26.367,18.555
1532372178.555,41.504,35.645,30.762,36.133,80.566
1532372178.559,40.039,34.180,31.250,39.062,14.160
1532372178.563,33.691,32.227,27.344,35.156,-49.316
1532372178.567,37.109,31.738,29.785,34.668,14.160
1532372178.571,43.457,34.668,32.715,32.227,89.355
1532372178.574,49.805,36.133,30.273,35.645,71.777
1532372178.578,53.711,34.668,29.785,35.645,29.785
1532372178.582,53.711,35.645,28.320,27.344,41.016
1532372178.586,49.316,37.109,26.855,27.832,74.219
1532372178.590,51.270,37.598,31.250,29.297,70.312
1532372178.594,47.852,36.133,31.250,33.203,9.277
1532372178.598,36.133,35.156,30.762,40.039,19.531
1532372178.602,29.785,32.715,27.832,37.598,70.801
1532372178.606,26.367,29.785,30.273,38.574,88.867
1532372178.610,28.320,32.715,32.715,46.387,51.270
1532372178.613,25.879,33.691,31.250,47.363,10.742
1532372178.617,21.484,33.203,35.156,45.410,24.902
1532372178.621,27.832,36.133,31.250,44.922,42.480
1532372178.625,35.156,34.180,28.809,40.527,27.344
1532372178.629,36.621,33.691,31.250,41.016,-5.371
1532372178.633,31.738,34.668,28.320,34.180,9.766
1532372178.637,26.855,35.156,26.855,33.203,46.875
1532372178.641,27.832,33.691,29.785,38.086,36.621
1532372178.645,27.832,30.273,32.227,34.180,-13.184
1532372178.649,35.156,31.738,32.227,36.133,-14.160
1532372178.653,32.715,33.691,27.344,30.273,29.297
1532372178.656,30.273,33.691,27.344,29.785,62.500
1532372178.660,36.621,35.156,30.762,39.551,14.648
1532372178.664,35.645,32.715,35.156,43.457,-19.043
1532372178.668,33.691,31.250,37.109,37.109,31.250
1532372178.672,31.738,33.203,37.109,34.180,53.711
1532372178.676,29.785,32.715,37.109,33.691,1.953
1532372178.680,24.414,30.762,35.156,32.227,-32.715
1532372178.684,20.020,33.203,35.645,35.156,20.996
1532372178.688,21.973,38.086,36.133,33.691,83.008
1532372178.692,31.738,41.016,32.715,31.250,25.879
1532372178.695,29.785,38.086,29.785,34.180,-9.766
1532372178.699,18.555,33.691,31.250,31.250,34.668
1532372178.703,24.414,33.691,34.668,30.762,71.289
1532372178.707,32.715,34.668,32.227,34.668,44.922
1532372178.711,30.273,34.180,31.250,25.391,-1.953
1532372178.715,24.414,35.645,32.715,24.414,20.996
1532372178.719,21.484,35.156,32.227,35.156,66.406
1532372178.723,21.973,34.668,32.227,33.691,65.430
1532372178.727,25.879,34.668,31.250,32.715,-4.883
1532372178.731,30.273,35.645,30.762,30.273,-42.480
1532372178.735,39.062,37.598,31.738,28.809,20.020
1532372178.738,44.434,38.574,35.156,30.762,67.871
1532372178.742,36.133,38.574,32.227,24.902,53.223
1532372178.746,27.832,38.574,25.391,19.043,18.555
1532372178.750,34.668,38.086,26.367,23.438,14.160
1532372178.754,35.645,36.621,28.320,28.320,83.496
1532372178.758,28.809,37.598,28.320,34.668,71.777
1532372178.762,30.762,35.156,31.250,35.156,13.184
1532372178.766,33.203,36.621,29.785,30.762,29.785
1532372178.770,42.969,40.039,26.855,31.738,62.012
1532372178.774,34.668,39.062,27.344,26.367,65.918
1532372178.778,23.926,38.574,29.297,24.902,30.273
1532372178.781,36.621,35.156,30.762,28.320,7.324
1532372178.785,36.133,35.156,26.367,24.902,28.809
1532372178.789,32.227,38.086,23.438,27.344,50.293
1532372178.793,37.598,40.039,24.414,34.180,1.465
1532372178.797,37.598,40.039,22.949,39.551,-22.949
1532372178.801,40.527,36.621,23.438,38.574,29.297
1532372178.805,44.922,35.645,25.879,36.133,82.031
1532372178.809,39.062,34.180,27.344,35.156,27.344
1532372178.813,33.203,33.203,27.344,29.785,-21.484
1532372178.817,29.785,36.621,26.367,25.879,35.156
1532372178.820,32.715,34.668,28.809,30.762,82.031
1532372178.824,32.715,32.227,31.250,40.527,66.406
1532372178.828,24.414,34.668,29.297,35.156,-1.465
1532372178.832,25.391,35.156,26.855,26.367,-21.973
1532372178.836,24.902,33.203,25.391,28.809,37.109
1532372178.840,23.926,37.109,26.367,27.832,68.848
1532372178.844,20.996,37.598,26.367,25.391,20.508
1532372178.848,16.602,34.668,27.344,24.414,2.441
1532372178.852,17.578,34.668,30.273,25.879,54.688
1532372178.856,16.602,34.668,26.367,20.996,70.801
1532372178.860,18.555,33.691,24.902,16.113,6.348
1532372178.863,19.531,34.668,28.809,18.066,-10.742
1532372178.867,19.531,37.109,31.250,20.996,10.254
1532372178.871,15.625,38.086,32.227,17.578,17.578
1532372178.875,3.906,37.598,30.762,18.066,7.324
1532372178.879,5.859,35.645,30.762,26.367,5.371
1532372178.883,8.789,36.133,32.227,23.926,35.156
1532372178.887,14.160,34.668,32.227,22.949,43.457
1532372178.891,14.160,30.273,31.250,27.344,17.578
1532372178.895,9.766,31.250,28.809,25.391,-2.930
1532372178.899,9.766,33.203,27.344,22.461,18.555
1532372178.903,9.277,31.250,29.785,24.902,81.543
1532372178.906,11.230,32.227,28.809,20.508,87.402
1532372178.910,5.859,31.738,22.949,16.602,16.113
1532372178.914,5.371,29.785,22.949,20.996,4.395
1532372178.918,19.043,31.738,24.902,32.227,36.133
1532372178.922,27.344,33.691,25.879,34.668,67.383
1532372178.926,14.160,30.273,21.973,23.438,21.484
1532372178.930,9.766,28.320,19.043,17.090,-42.480
1532372178.934,17.090,30.762,20.508,20.020,-3.418
1532372178.938,11.230,33.691,20.020,18.555,59.570
1532372178.942,8.789,34.668,21.484,17.578,58.105
1532372178.945,16.113,31.738,23.926,26.367,13.184
1532372178.949,12.695,32.227,21.973,23.926,8.301
1532372178.953,5.859,34.180,20.508,11.230,63.965
1532372178.957,8.789,36.621,20.508,6.348,53.223
1532372178.961,7.324,38.086,17.090,8.301,-13.184
1532372178.965,-1.953,38.086,20.020,9.766,-12.695
1532372178.969,-4.395,38.086,24.414,7.324,26.367
1532372178.973,-5.371,37.598,25.391,0.977,24.414
1532372178.977,-14.648,38.086,29.297,-1.465,-39.062
1532372178.981,-20.996,33.691,35.156,0.488,-28.809
1532372178.985,-7.324,30.762,34.668,8.789,49.316
1532372178.988,2.930,41.992,30.762,-3.418,66.895
1532372178.992,-3.906,53.711,25.391,-15.137,8.789
1532372178.996,-0.488,51.270,26.367,-1.953,-26.367
1532372179.000,-2.441,47.363,28.809,-0.488,15.137
1532372179.004,-6.348,48.340,27.344,0.488,41.016
1532372179.008,-9.277,45.410,27.832,0.977,4.883
1532372179.012,-3.906,46.387,28.320,-0.977,-29.785
1532372179.016,4.395,51.758,25.391,7.812,-0.977
1532372179.020,10.254,51.270,21.484,20.020,61.523
1532372179.024,22.461,49.805,19.531,20.996,74.219
1532372179.027,20.020,49.316,17.090,16.113,22.461
1532372179.031,20.508,47.363,18.555,20.020,-8.301
1532372179.035,22.949,46.875,20.020,27.344,44.922
1532372179.039,23.438,46.875,18.555,27.832,82.031
1532372179.043,31.738,42.969,20.020,26.367,12.695
1532372179.047,29.785,42.969,19.043,30.273,-22.461
1532372179.051,22.949,44.434,16.113,29.297,13.672
1532372179.055,25.391,41.504,13.672,27.344,60.059
1532372179.059,32.227,40.039,15.137,34.180,35.156
1532372179.063,32.227,41.016,16.602,38.086,-0.488
1532372179.067,34.668,41.016,14.648,42.969,36.621
1532372179.070,45.410,41.016,15.625,46.387,62.988
1532372179.074,49.805,41.504,15.625,49.316,56.152
1532372179.078,46.387,40.527,14.160,52.734,36.133
1532372179.082,42.480,41.504,12.695,52.734,42.969
1532372179.086,46.875,42.480,13.672,58.594,69.336
1532372179.090,46.875,40.527,13.672,57.617,45.898
1532372179.094,36.133,40.527,7.812,51.758,-17.578
1532372179.098,38.086,41.504,7.324,50.293,-27.344
1532372179.102,48.340,41.016,9.766,56.152,44.434
1532372179.106,52.246,41.992,9.277,56.641,65.918
1532372179.110,45.898,44.922,6.348,50.293,-16.602
1532372179.113,49.316,47.363,5.371,51.270,-44.922
1532372179.117,53.711,47.852,6.348,52.734,-7.812
1532372179.121,48.828,45.898,4.395,55.176,39.062
1532372179.125,48.340,43.457,4.395,55.176,56.152
1532372179.129,53.223,42.480,5.371,50.293,10.254
1532372179.133,53.223,38.574,5.859,48.340,11.230
1532372179.137,48.828,37.598,7.324,48.828,77.637
1532372179.141,44.922,38.086,5.859,48.340,77.148
1532372179.145,46.387,39.062,6.836,46.875,-20.508
1532372179.149,50.781,41.992,8.789,41.992,-27.344
1532372179.152,46.387,41.504,7.324,46.875,43.457
1532372179.156,53.711,41.504,5.859,54.688,79.102
1532372179.160,48.340,41.992,3.906,52.734,25.391
1532372179.164,38.086,39.551,5.371,47.852,3.418
1532372179.168,41.016,38.086,6.348,41.016,33.691
1532372179.172,40.527,39.062,5.371,40.039,45.898
1532372179.176,38.574,38.574,0.488,40.527,9.277
1532372179.180,39.062,39.062,-2.441,41.016,-5.859
1532372179.184,36.133,38.574,-0.488,43.457,63.477
1532372179.188,35.156,39.551,0.977,47.363,97.168
1532372179.192,36.133,41.016,3.418,45.898,55.664
1532372179.195,37.598,40.527,0.000,41.016,-6.836
1532372179.199,34.668,41.504,-2.930,40.039,4.883
1532372179.203,41.504,41.504,-2.441,40.039,85.938
1532372179.207,46.387,40.039,-0.488,40.527,84.473
1532372179.211,39.551,41.992,0.000,41.992,6.836
1532372179.215,40.039,41.992,-0.488,43.945,-1.953
1532372179.219,39.062,39.551,0.488,43.945,42.969
1532372179.223,40.039,39.551,-2.441,38.086,92.285
1532372179.227,39.551,38.574,-5.371,37.598,49.316
1532372179.231,38.574,37.598,-6.348,45.410,-18.066
1532372179.234,39.551,39.551,-5.859,44.434,29.297
1532372179.238,49.316,40.039,-2.930,43.945,79.102
1532372179.242,47.852,36.621,-1.953,46.875,47.363
1532372179.246,35.156,35.156,-1.465,44.922,17.578
1532372179.250,33.691,36.133,-1.465,37.109,15.625
1532372179.254,31.250,35.645,-1.465,38.086,45.410
1532372179.258,27.344,33.691,-5.371,45.410,58.105
1532372179.262,21.973,31.738,-10.742,41.992,10.254
1532372179.266,20.508,31.738,-10.254,36.133,10.742
1532372179.270,22.461,33.691,-5.859,35.645,47.852
1532372179.274,24.902,31.738,-4.395,43.457,61.523
1532372179.277,27.344,33.691,-5.371,44.434,9.766
1532372179.281,31.738,37.109,-5.371,41.016,-13.184
1532372179.285,34.180,36.133,-5.859,40.527,51.758
1532372179.289,32.715,33.691,-8.301,33.203,49.805
1532372179.293,35.645,32.227,-13.184,27.344,-21.484
1532372179.297,37.109,32.227,-12.695,33.691,-19.531
1532372179.301,33.203,33.691,-11.230,38.086,20.508
1532372179.305,34.668,32.715,-12.207,38.574,64.941
1532372179.309,44.922,31.250,-10.742,32.227,41.992
1532372179.313,43.945,31.250,-12.207,28.320,-7.812
1532372179.317,43.457,30.762,-12.207,37.598,34.668
1532372179.320,40.039,28.320,-10.742,43.457,81.055
1532372179.324,27.832,25.879,-9.277,49.316,58.105
1532372179.328,21.484,23.926,-8.789,53.223,16.602
1532372179.332,16.602,23.926,-9.766,49.316,22.461
1532372179.336,14.648,27.344,-10.254,46.387,57.129
1532372179.340,13.672,27.344,-7.812,41.504,72.754
1532372179.344,20.020,27.344,-7.812,39.551,33.691
1532372179.348,25.391,27.344,-10.254,39.551,-11.719
1532372179.352,23.438,28.320,-8.301,38.086,0.000
1532372179.356,24.902,30.273,-9.766,38.086,63.477
1532372179.359,28.809,31.250,-13.672,37.598,19.043
1532372179.363,29.785,31.738,-15.625,35.156,-0.488
1532372179.367,25.391,31.250,-16.113,32.227,25.391
1532372179.371,20.020,29.297,-15.625,30.273,53.223
1532372179.375,26.855,30.273,-16.602,31.738,61.035
1532372179.379,30.762,32.227,-13.184,32.715,-16.113
1532372179.383,30.762,32.715,-9.277,41.016,7.324
1532372179.387,34.668,31.738,-9.766,43.945,75.684
1532372179.391,28.320,28.809,-8.301,36.621,23.438
1532372179.395,25.879,29.297,-9.766,34.180,-14.648
1532372179.399,22.949,31.738,-12.695,37.598,5.371
1532372179.402,19.043,30.273,-11.719,37.598,48.828
1532372179.406,13.672,28.320,-15.137,29.785,54.688
1532372179.410,26.855,28.809,-18.555,29.785,-9.766
1532372179.414,36.133,27.344,-13.184,38.086,1.465
1532372179.418,30.762,26.855,-10.742,44.922,26.855
1532372179.422,33.691,28.320,-11.230,46.387,56.641
1532372179.426,30.273,29.785,-7.812,41.504,8.789
1532372179.430,32.715,30.273,-7.812,41.016,-43.457
1532372179.434,35.156,29.785,-9.277,39.062,25.879
1532372179.438,29.785,31.250,-8.789,34.668,65.430
1532372179.442,23.926,30.762,-12.695,31.738,34.668
1532372179.445,18.555,27.344,-15.137,30.762,19.043
1532372179.449,20.020,26.855,-11.719,30.273,32.227
1532372179.453,20.508,28.320,-11.230,29.785,73.242
1532372179.457,27.344,28.320,-14.160,33.203,65.430
1532372179.461,29.785,27.832,-14.648,32.227,3.906
1532372179.465,15.137,25.879,-12.207,31.250,-4.395
1532372179.469,15.625,23.926,-13.672,35.645,29.785
1532372179.473,21.484,22.949,-15.137,33.203,42.969
1532372179.477,26.367,24.902,-15.137,30.762,-8.789
1532372179.481,23.926,26.367,-16.602,31.738,-24.414
1532372179.484,18.066,23.438,-19.043,37.109,23.438
1532372179.488,25.391,23.926,-25.879,35.156,32.715
1532372179.492,27.344,26.367,-33.203,28.320,-3.906
1532372179.496,16.602,26.855,-38.086,31.738,-9.277
1532372179.500,15.137,25.879,-41.016,26.855,12.695
1532372179.504,20.020,24.902,-44.922,26.855,58.594
1532372179.508,18.555,26.855,-49.805,34.668,45.898
1532372179.512,20.996,28.320,-49.316,30.273,-11.719
1532372179.516,23.438,29.785,-49.805,28.809,9.277
1532372179.520,21.973,33.203,-52.734,34.668,56.152
1532372179.524,21.973,31.250,-52.734,35.645,47.852
1532372179.527,25.391,28.809,-51.758,33.203,20.020
1532372179.531,27.344,28.809,-51.270,33.203,4.395
1532372179.535,40.039,30.762,-48.828,37.598,33.203
1532372179.539,41.992,30.273,-49.316,39.551,76.172
1532372179.543,23.438,28.809,-50.293,30.273,41.504
1532372179.547,27.832,31.738,-47.363,33.203,-5.859
1532372179.551,39.062,29.297,-45.898,46.387,24.902
1532372179.555,39.551,28.809,-45.410,47.852,83.496
1532372179.559,43.945,32.715,-43.457,48.828,61.035
1532372179.563,45.410,33.203,-43.945,51.270,36.621
1532372179.566,46.387,33.203,-42.969,54.688,62.012
1532372179.570,47.852,33.691,-39.062,53.711,58.594
1532372179.574,45.898,33.203,-38.086,49.805,41.992
1532372179.578,44.434,32.715,-39.062,45.898,22.461
1532372179.582,34.180,31.738,-38.086,39.551,16.602
1532372179.586,30.273,32.227,-35.645,40.527,56.641
1532372179.590,34.668,32.227,-31.738,42.969,84.961
1532372179.594,29.785,32.227,-32.715,43.457,29.297
1532372179.598,33.203,35.645,-31.250,44.922,-3.906
1532372179.602,31.738,35.645,-29.297,41.016,51.758
1532372179.606,24.414,36.133,-28.320,38.086,77.637
1532372179.609,22.461,39.062,-25.879,37.109,16.602
1532372179.613,19.531,36.133,-21.973,34.180,8.789
1532372179.617,20.508,36.133,-22.461,34.180,57.129
1532372179.621,26.367,37.109,-26.855,34.180,78.613
1532372179.625,31.738,36.133,-27.344,37.598,51.758
1532372179.629,32.715,35.645,-24.902,34.668,-18.066
1532372179.633,36.133,32.227,-21.973,35.645,-16.602
1532372179.637,33.691,33.203,-21.973,41.504,53.711
1532372179.641,28.320,34.180,-22.461,38.086,72.266
1532372179.645,25.391,34.668,-25.391,35.156,23.438
1532372179.649,27.344,31.738,-22.949,33.691,15.625
1532372179.652,28.809,30.273,-19.043,32.715,59.082
1532372179.656,19.043,30.762,-22.949,31.738,54.688
1532372179.660,28.320,30.273,-23.926,33.203,9.766
1532372179.664,37.598,31.738,-21.484,39.062,4.883
1532372179.668,27.344,30.762,-20.996,40.527,20.508
1532372179.672,26.855,31.250,-18.555,37.598,27.344
1532372179.676,28.809,31.738,-21.484,39.551,17.578
1532372179.680,28.320,34.180,-18.555,50.781,-9.766
1532372179.684,23.926,36.133,-17.090,46.387,11.719
1532372179.688,22.461,35.156,-20.020,30.762,60.059
1532372179.691,26.367,33.691,-18.066,29.785,29.297
1532372179.695,26.855,32.715,-14.648,37.109,-20.996
1532372179.699,25.879,32.715,-12.207,35.156,26.367
1532372179.703,21.484,32.715,-15.625,28.320,76.660
1532372179.707,19.531,31.250,-19.043,29.297,47.852
1532372179.711,23.926,29.297,-15.137,32.715,-14.160
1532372179.715,24.414,28.320,-13.184,34.668,-16.113
1532372179.719,30.273,31.250,-15.625,39.062,47.363
1532372179.723,33.203,33.203,-13.184,46.387,63.965
1532372179.727,30.273,32.227,-11.719,42.480,-18.066
1532372179.731,32.715,32.715,-14.160,43.457,-22.461
1532372179.734,33.203,34.668,-15.137,43.457,62.012
1532372179.738,35.156,35.156,-17.090,39.062,101.074
1532372179.742,37.109,34.668,-18.555,39.551,50.293
1532372179.746,34.668,34.668,-16.602,38.086,-8.789
1532372179.750,32.227,34.668,-15.137,36.621,-4.883
1532372179.754,36.621,35.156,-14.648,35.645,50.293
1532372179.758,34.180,34.668,-15.137,32.715,52.734
1532372179.762,37.109,31.250,-16.602,36.133,-13.672
1532372179.766,36.621,33.203,-16.602,39.062,-1.953
1532372179.770,27.832,36.133,-16.602,27.832,48.828
1532372179.774,36.621,35.156,-13.184,29.785,39.062
1532372179.777,41.016,36.133,-13.672,41.504,13.672
1532372179.781,37.598,38.086,-15.625,38.574,17.090
1532372179.785,30.762,37.109,-13.672,37.598,40.039
1532372179.789,24.902,35.156,-12.695,38.574,49.805
1532372179.793,26.855,32.227,-12.207,39.062,18.555
1532372179.797,28.809,31.738,-13.672,36.133,6.836
1532372179.801,26.855,32.715,-12.207,34.668,27.832
1532372179.805,24.902,32.715,-9.766,40.039,57.617
1532372179.809,28.809,32.715,-9.277,36.621,26.855
1532372179.813,27.832,32.715,-8.789,30.273,-56.641
1532372179.816,23.926,33.691,-8.789,30.762,4.883
1532372179.820,27.832,33.691,-11.230,26.855,97.168
1532372179.824,21.973,31.250,-10.254,24.414,81.543
1532372179.828,16.113,30.273,-6.348,29.297,7.812
1532372179.832,16.113,31.738,-10.742,30.273,-2.441
1532372179.836,12.207,28.320,-10.742,25.879,51.270
1532372179.840,17.578,27.344,-5.371,32.715,51.758
1532372179.844,26.367,30.273,-6.836,36.621,16.113
1532372179.848,29.785,31.250,-7.812,26.855,-15.625
1532372179.852,25.879,32.715,-7.324,27.344,22.461
1532372179.856,26.367,31.738,-7.324,32.715,75.684
1532372179.859,28.320,33.691,-9.277,28.809,10.742
1532372179.863,28.809,37.598,-13.184,21.973,-12.207
1532372179.867,23.926,36.133,-12.207,20.020,15.625
1532372179.871,20.508,35.645,-11.230,15.137,30.273
1532372179.875,16.602,36.133,-11.719,17.578,39.551
1532372179.879,23.438,33.691,-12.207,26.367,2.441
1532372179.883,34.668,31.738,-9.277,33.691,20.508
1532372179.887,36.621,34.180,-7.324,34.180,64.941
1532372179.891,33.691,38.086,-7.324,31.738,44.922
1532372179.895,33.203,39.551,-6.348,32.715,-5.371
1532372179.898,28.809,39.551,-7.812,34.180,-8.301
1532372179.902,25.391,39.062,-10.742,29.297,32.715
1532372179.906,35.156,38.574,-11.230,27.344,45.410
1532372179.910,41.016,35.156,-10.254,23.438,-17.090
1532372179.914,27.344,32.227,-6.836,30.273,10.254
1532372179.918,19.531,35.645,-3.906,32.715,73.242
1532372179.922,14.160,36.621,-7.324,19.043,72.754
1532372179.926,7.812,34.180,-6.348,17.090,46.875
1532372179.930,17.578,33.203,-1.465,23.438,-6.348
1532372179.934,18.066,35.645,-2.930,29.785,29.297
1532372179.938,19.043,35.645,-5.859,32.715,80.566
1532372179.941,20.996,34.180,-3.418,30.273,61.035
1532372179.945,18.066,34.180,0.488,34.668,24.414
1532372179.949,18.555,35.645,-0.488,25.879,-15.625
1532372179.953,16.602,37.598,-2.930,19.043,41.016
1532372179.957,22.461,38.574,-4.395,26.855,84.961
1532372179.961,27.832,36.621,-4.395,24.414,13.672
1532372179.965,31.738,35.156,-1.465,25.879,16.113
1532372179.969,32.227,37.598,0.000,31.250,67.871
1532372179.973,23.438,39.062,-4.395,32.715,83.008
1532372179.977,29.785,39.062,-8.789,32.715,48.340
1532372179.981,30.762,39.551,-7.324,34.180,19.043
1532372179.984,33.691,40.039,-3.906,38.086,55.664
1532372179.988,40.039,37.598,-4.883,38.086,72.754
1532372179.992,33.691,35.156,-4.395,34.180,30.273
1532372179.996,41.016,38.574,-5.859,33.203,-3.906
1532372180.000,45.898,41.016,-6.836,40.039,20.020
1532372180.004,34.668,39.551,-5.859,40.039,60.547
1532372180.008,35.156,39.551,-4.395,26.855,45.898
1532372180.012,35.645,40.039,-2.441,34.180,1.465
1532372180.016,40.039,39.551,-3.906,47.852,14.648
1532372180.020,44.922,40.039,-2.441,47.363,51.270
1532372180.023,34.180,40.527,-0.488,37.109,60.059
1532372180.027,30.762,40.527,-4.395,29.297,5.859
1532372180.031,39.551,40.527,-8.789,25.391,-21.484
1532372180.035,44.922,40.039,-6.836,28.809,40.527
1532372180.039,46.875,40.039,-5.371,30.273,85.449
1532372180.043,49.316,41.504,-6.348,27.344,26.855
1532372180.047,45.410,42.969,-5.371,30.273,-19.531
1532372180.051,34.668,41.016,-5.371,29.785,15.625
1532372180.055,27.344,38.086,-1.953,39.551,69.824
1532372180.059,21.973,38.086,1.465,45.898,61.523
1532372180.063,18.555,38.574,2.441,44.922,29.785
1532372180.066,23.438,37.598,6.836,45.410,17.578
1532372180.070,20.996,38.086,16.602,43.945,39.551
1532372180.074,20.020,38.574,20.996,50.781,54.688
1532372180.078,25.879,40.039,20.996,50.781,38.086
1532372180.082,34.668,41.992,28.320,49.316,33.203
1532372180.086,39.551,43.945,28.320,52.246,62.012
1532372180.090,40.039,46.875,25.879,41.992,59.570
1532372180.094,40.527,46.387,30.762,46.387,6.836
1532372180.098,45.898,48.340,34.668,54.199,-11.230
1532372180.102,49.316,48.828,37.109,52.734,28.809
1532372180.105,38.086,47.363,36.133,49.316,81.543
1532372180.109,31.250,47.852,29.785,41.504,39.551
1532372180.113,43.457,47.363,30.762,45.410,-12.695
1532372180.117,52.734,46.387,36.133,51.270,41.016
1532372180.121,48.828,48.340,36.621,57.617,79.590
1532372180.125,47.852,50.293,33.691,54.688,49.316
1532372180.129,46.387,51.270,36.621,49.805,8.789
1532372180.133,47.852,48.828,36.621,54.199,-7.324
1532372180.137,46.875,46.387,34.668,49.805,40.039
1532372180.141,45.898,46.875,37.109,46.875,45.898
1532372180.145,48.340,46.387,37.109,50.781,2.930
1532372180.148,49.316,45.410,35.156,50.781,-2.441
1532372180.152,49.805,47.363,37.598,55.664,19.043
1532372180.156,45.898,45.898,37.109,54.199,49.316
1532372180.160,48.828,43.457,33.203,50.293,19.043
1532372180.164,47.852,42.969,32.227,54.688,-18.066
1532372180.168,43.945,44.434,32.227,57.129,-0.977
1532372180.172,47.363,42.969,33.691,55.664,47.363
1532372180.176,45.410,44.922,34.180,50.781,33.203
1532372180.180,49.316,51.270,36.133,54.199,-23.926
1532372180.184,51.270,48.828,35.156,59.570,0.977
1532372180.188,46.387,46.875,34.180,50.293,28.809
1532372180.191,38.086,46.387,34.668,46.875,6.348
1532372180.195,38.086,43.457,34.180,51.758,-10.742
1532372180.199,40.527,41.504,35.645,48.340,8.789
1532372180.203,38.574,43.945,35.156,45.410,59.570
1532372180.207,38.574,44.922,34.180,41.504,51.270
1532372180.211,40.527,44.922,33.203,34.180,-2.441
1532372180.215,42.969,44.434,32.227,36.621,7.324
1532372180.219,45.898,43.945,31.738,40.527,47.363
1532372180.223,43.457,44.434,32.715,41.016,91.309
1532372180.227,41.504,43.457,33.203,41.992,65.918
1532372180.230,40.527,44.922,33.203,35.645,9.766
1532372180.234,35.645,43.945,33.203,32.715,33.203
1532372180.238,34.668,45.410,33.203,44.922,55.664
1532372180.242,38.574,48.340,34.668,44.922,32.715
1532372180.246,36.133,45.898,34.668,38.574,-7.812
1532372180.250,31.250,46.387,34.668,38.086,-17.090
1532372180.254,30.273,45.410,33.203,34.180,42.969
1532372180.258,30.762,41.016,30.762,33.691,54.688
1532372180.262,34.668,40.527,30.273,34.180,14.648
1532372180.266,39.062,41.504,27.344,39.551,7.812
1532372180.270,37.598,42.480,28.320,33.691,40.527
1532372180.273,31.738,41.504,27.832,31.738,53.711
1532372180.277,32.227,42.480,24.902,33.691,12.207
1532372180.281,35.156,43.945,24.902,28.809,1.953
1532372180.285,31.250,44.434,23.438,33.203,43.457
1532372180.289,27.832,43.945,23.926,31.738,74.219
1532372180.293,35.156,41.016,24.902,29.297,31.250
1532372180.297,41.504,43.457,25.879,29.785,9.277
1532372180.301,40.527,46.387,25.879,32.715,34.180
1532372180.305,41.016,42.480,27.344,33.691,69.336
1532372180.309,37.598,41.504,26.367,28.809,38.086
1532372180.313,27.832,43.457,26.367,29.785,-37.598
1532372180.316,31.738,42.480,28.809,34.180,-7.324
1532372180.320,29.297,41.016,30.273,36.621,40.039
1532372180.324,28.320,42.480,32.715,42.480,46.875
1532372180.328,30.762,45.410,32.227,35.645,-11.719
1532372180.332,30.762,44.922,32.227,28.809,-33.691
1532372180.336,33.203,43.457,30.762,34.668,31.250
1532372180.340,30.762,42.480,26.367,31.250,57.129
1532372180.344,28.809,41.016,30.273,34.180,38.574
1532372180.348,30.762,43.457,34.668,35.645,10.254
1532372180.352,33.691,43.945,36.133,38.086,44.434
1532372180.355,30.273,41.504,34.668,42.969,83.008
1532372180.359,35.156,42.480,31.250,41.992,20.508
1532372180.363,38.086,42.480,31.738,46.875,-18.066
1532372180.367,31.738,41.992,32.227,40.527,15.625
1532372180.371,34.668,42.480,33.691,40.527,55.664
1532372180.375,35.156,42.480,33.691,42.480,32.715
1532372180.379,36.133,43.457,32.227,41.016,-17.578
1532372180.383,37.598,41.504,36.621,45.898,19.043
1532372180.387,33.691,40.039,39.062,46.875,64.453
1532372180.391,40.039,41.992,35.645,43.945,47.852
1532372180.395,41.016,41.504,36.133,43.457,-12.207
1532372180.398,34.668,41.992,37.109,47.363,-14.160
1532372180.402,28.320,43.945,34.180,46.387,49.805
1532372180.406,28.809,41.016,30.762,35.645,87.891
1532372180.410,29.785,38.574,31.250,33.203,33.691
1532372180.414,27.832,38.574,30.762,36.621,-15.137
1532372180.418,29.297,38.086,35.645,40.527,42.480
1532372180.422,28.809,40.039,35.645,43.945,82.520
1532372180.426,32.715,40.527,31.250,41.016,29.785
1532372180.430,36.133,40.527,32.227,39.551,3.418
1532372180.434,28.809,43.457,30.762,39.062,31.250
1532372180.437,24.902,42.969,29.785,31.738,50.293
1532372180.441,33.691,41.992,30.762,31.250,54.199
1532372180.445,34.668,41.016,30.273,36.133,26.367
1532372180.449,26.367,41.992,31.738,36.621,14.648
1532372180.453,27.832,42.969,31.738,41.016,58.594
1532372180.457,32.715,41.504,30.762,39.062,59.570
1532372180.461,34.180,42.480,29.297,37.109,8.789
1532372180.465,27.832,41.504,28.809,35.156,12.207
1532372180.469,24.902,41.504,31.250,25.391,29.297
1532372180.473,23.438,40.527,31.250,21.484,38.086
1532372180.477,27.832,39.551,28.809,28.809,-1.953
1532372180.480,29.785,41.016,28.320,31.738,-23.926
1532372180.484,29.785,40.527,30.762,31.738,16.113
1532372180.488,33.691,39.062,32.227,38.086,59.570
1532372180.492,30.762,39.551,31.738,37.598,49.316
1532372180.496,33.203,37.109,28.809,33.203,-4.883
1532372180.500,39.551,38.574,24.902,32.227,8.789
1532372180.504,37.109,43.945,24.902,36.621,59.082
1532372180.508,34.668,41.992,27.344,36.621,50.293
1532372180.512,37.109,41.504,29.785,33.691,-2.930
1532372180.516,44.922,41.992,30.273,35.156,18.066
1532372180.520,36.621,40.039,27.344,34.668,85.449
1532372180.523,25.879,40.039,28.320,37.598,86.914
1532372180.527,32.227,39.551,30.273,38.086,2.930
1532372180.531,41.016,39.551,30.273,33.691,-11.719
1532372180.535,34.180,42.969,29.785,33.203,32.715
1532372180.539,24.414,40.039,27.832,29.785,84.961
1532372180.543,29.785,39.062,26.367,27.832,50.781
1532372180.547,30.762,41.992,24.414,38.574,-9.277
1532372180.551,29.297,40.527,22.949,39.551,23.438
1532372180.555,32.227,41.016,25.391,36.133,74.219
1532372180.559,41.016,41.992,30.273,40.039,58.105
1532372180.562,44.434,41.992,29.785,41.504,0.977
1532372180.566,39.551,41.504,26.367,41.504,11.230
1532372180.570,36.133,41.992,25.879,38.086,36.133
1532372180.574,34.668,40.039,24.902,35.156,53.223
1532372180.578,38.086,37.109,24.414,34.668,2.930
1532372180.582,40.527,39.062,23.926,37.598,-7.812
1532372180.586,32.227,39.551,23.926,38.086,53.223
1532372180.590,32.227,38.574,22.949,32.715,53.711
1532372180.594,34.180,36.133,22.949,31.250,-1.953
1532372180.598,32.715,35.645,21.973,30.762,-9.766
1532372180.602,40.527,39.551,21.484,33.203,41.992
1532372180.605,44.434,40.039,23.438,41.504,69.824
1532372180.609,37.598,39.551,26.855,37.598,12.207
1532372180.613,32.715,40.039,26.855,33.691,-30.762
1532372180.617,34.668,40.039,25.879,37.109,-2.930
1532372180.621,41.992,40.039,24.414,39.551,19.531
1532372180.625,40.527,36.621,24.414,37.109,38.574
1532372180.629,30.762,33.691,25.879,38.574,-3.418
1532372180.633,28.320,35.645,26.367,36.133,-1.465
1532372180.637,23.926,37.109,23.926,33.203,51.270
1532372180.641,20.508,34.180,20.020,32.715,41.992
1532372180.645,25.879,32.227,20.508,30.762,12.207
1532372180.648,33.203,34.180,21.973,32.715,3.418
1532372180.652,30.273,37.109,22.461,36.133,39.551
1532372180.656,36.133,37.109,24.414,40.039,63.965
1532372180.660,41.016,35.645,22.949,40.039,35.645
1532372180.664,35.645,34.180,23.926,40.527,-0.977
1532372180.668,36.621,35.645,23.926,36.133,19.531
1532372180.672,30.762,35.156,19.531,30.762,19.043
1532372180.676,34.180,34.180,19.043,33.691,16.602
1532372180.680,41.504,34.668,21.484,39.551,8.789
1532372180.684,36.133,34.668,22.949,42.969,1.465
1532372180.687,32.715,34.668,25.879,41.992,59.570
1532372180.691,24.902,35.156,22.461,35.645,55.176
1532372180.695,23.926,35.645,22.949,35.156,-3.906
1532372180.699,27.832,36.133,27.832,35.645,-5.371
1532372180.703,24.902,37.598,24.414,35.156,52.734
1532372180.707,24.414,34.668,20.508,31.738,60.547
1532372180.711,24.414,34.668,21.973,28.320,4.395
1532372180.715,25.391,35.645,26.855,34.668,6.836
1532372180.719,31.250,35.156,30.273,41.016,37.598
1532372180.723,37.109,34.180,27.344,36.621,58.594
1532372180.727,26.855,34.668,25.879,34.180,15.137
1532372180.730,19.043,37.109,27.344,34.180,-30.273
1532372180.734,21.484,34.180,22.949,27.832,28.809
1532372180.738,21.973,35.645,21.973,37.109,68.359
1532372180.742,28.809,37.598,25.879,38.574,43.457
1532372180.746,32.227,37.598,26.855,35.156,15.625
1532372180.750,28.809,39.551,30.273,39.551,10.742
1532372180.754,27.832,39.062,32.227,35.645,40.527
1532372180.758,30.762,39.551,27.344,28.320,42.480
1532372180.762,31.738,41.992,23.438,24.902,3.418
1532372180.766,25.391,41.016,23.438,26.367,7.324
1532372180.769,30.273,42.969,22.949,23.438,33.691
1532372180.773,43.457,45.410,24.414,19.531,43.457
1532372180.777,35.156,43.945,24.902,19.531,19.043
1532372180.781,29.785,40.527,24.414,16.113,13.184
1532372180.785,42.480,38.574,26.367,16.113,54.199
1532372180.789,42.969,38.574,26.367,19.043,88.867
1532372180.793,38.574,38.574,26.855,25.879,44.434
1532372180.797,47.852,40.039,31.738,32.227,-13.184
1532372180.801,48.340,41.016,33.691,41.016,10.254
1532372180.805,35.156,40.527,35.645,48.340,75.684
1532372180.809,32.227,41.504,35.156,43.945,33.691
1532372180.812,29.785,43.945,33.203,36.621,-31.738
1532372180.816,26.855,42.480,34.668,42.969,13.672
1532372180.820,23.926,41.016,35.156,49.316,58.594
1532372180.824,30.273,41.992,36.133,44.434,68.359
1532372180.828,35.156,43.457,35.645,41.992,20.020
1532372180.832,30.273,43.945,35.156,39.551,-39.062
1532372180.836,36.133,47.363,37.598,37.109,0.000
1532372180.840,39.062,47.363,34.668,37.598,57.129
1532372180.844,33.691,45.898,32.227,35.645,24.414
1532372180.848,28.320,45.898,34.180,38.574,-13.672
1532372180.852,35.645,47.363,36.621,34.668,20.996
1532372180.855,39.062,48.340,38.574,30.762,72.266
1532372180.859,36.621,47.363,38.574,36.133,55.176
1532372180.863,30.762,45.898,36.133,36.133,17.090
1532372180.867,30.273,42.969,38.574,32.715,6.348
1532372180.871,35.156,44.922,39.551,32.227,40.527
1532372180.875,38.574,49.805,33.203,34.180,46.387
1532372180.879,43.945,50.293,35.156,38.574,-18.066
1532372180.883,40.527,47.363,36.133,40.039,3.906
1532372180.887,38.574,45.898,32.227,29.785,67.871
1532372180.891,38.574,44.434,32.227,28.809,47.363
1532372180.894,37.598,47.363,32.227,37.598,-0.977
1532372180.898,45.410,48.828,28.320,39.062,6.348
1532372180.902,46.387,45.410,28.320,34.668,61.523
1532372180.906,39.062,45.410,28.320,34.180,69.336
1532372180.910,40.039,47.363,28.320,37.109,18.555
1532372180.914,44.434,45.898,28.320,37.109,-7.324
1532372180.918,44.922,47.363,25.879,39.551,38.574
1532372180.922,38.574,48.340,27.832,41.504,93.750
1532372180.926,37.598,49.805,28.809,44.922,44.434
1532372180.930,44.434,53.711,28.809,34.668,-32.715
1532372180.934,49.316,53.711,26.855,31.738,-40.039
1532372180.937,46.387,50.781,27.832,46.387,36.133
1532372180.941,37.598,48.828,28.809,41.992,72.266
1532372180.945,38.574,48.828,28.320,40.527,25.879
1532372180.949,42.969,49.805,28.320,41.504,8.789
1532372180.953,41.504,50.293,26.367,39.551,54.199
1532372180.957,45.898,48.828,27.832,43.457,69.824
1532372180.961,56.152,49.805,31.250,45.410,31.738
1532372180.965,50.781,51.270,31.250,46.875,10.254
1532372180.969,41.992,49.316,28.809,44.922,23.438
1532372180.973,43.945,47.852,28.320,42.480,50.293
1532372180.976,48.828,49.316,26.855,40.527,8.789
1532372180.980,46.875,49.316,28.320,44.922,-12.207
1532372180.984,44.922,49.805,30.273,53.711,20.020
1532372180.988,48.828,52.734,29.785,50.781,25.879
1532372180.992,49.316,52.734,29.297,44.434,-13.184
1532372180.996,46.387,48.828,29.297,47.363,-8.301
1532372181.000,45.898,48.340,28.320,44.922,23.438
1532372181.004,43.457,52.734,27.344,41.504,79.102
1532372181.008,45.410,52.246,24.414,40.527,79.102
1532372181.012,43.945,50.781,20.996,37.109,11.719
1532372181.016,39.062,50.293,21.484,36.133,13.184
1532372181.019,41.504,48.340,22.461,39.551,67.871
1532372181.023,37.109,48.340,22.461,41.992,67.871
1532372181.027,38.086,48.340,22.461,36.621,-10.742
1532372181.031,38.574,49.316,22.949,32.227,-29.785
1532372181.035,40.039,50.781,20.020,34.668,26.367
1532372181.039,36.621,48.340,16.113,34.668,64.453
1532372181.043,33.203,45.410,14.160,29.785,32.227
1532372181.047,31.738,47.852,14.160,36.621,-20.020
1532372181.051,40.527,47.852,15.137,43.457,-6.836
1532372181.055,41.504,46.875,14.648,41.504,54.688
1532372181.059,27.832,44.922,14.648,38.086,58.594
1532372181.062,26.855,41.992,11.230,33.203,-5.859
1532372181.066,40.527,41.992,11.230,41.992,-16.113
1532372181.070,41.992,43.457,11.230,41.992,35.645
1532372181.074,28.320,42.480,7.324,37.109,49.316
1532372181.078,27.832,41.016,6.836,40.527,16.602
1532372181.082,28.809,40.039,7.812,34.668,18.066
1532372181.086,22.461,36.621,6.348,30.273,49.316
1532372181.090,17.578,35.156,3.906,22.461,47.363
1532372181.094,14.160,34.668,3.906,17.578,-3.906
1532372181.098,22.949,32.227,6.348,25.879,-23.438
1532372181.101,34.180,33.203,6.836,28.320,32.715
1532372181.105,29.785,33.203,3.906,32.715,70.801
1532372181.109,24.414,36.133,2.441,39.062,29.297
1532372181.113,20.508,37.109,-0.488,28.809,-15.625
1532372181.117,26.855,36.621,-1.953,32.715,25.391
1532372181.121,34.180,37.598,0.977,39.062,65.430
1532372181.125,33.691,36.621,0.977,38.086,76.172
1532372181.129,34.668,36.133,1.465,33.691,26.855
1532372181.133,33.691,35.156,1.465,30.273,-15.137
1532372181.137,29.297,35.156,1.465,31.250,55.176
1532372181.141,28.809,37.109,-1.465,31.738,64.453
1532372181.144,28.809,38.574,-1.953,33.203,1.465
1532372181.148,36.133,38.574,-0.488,41.504,-28.320
1532372181.152,41.016,38.086,-1.953,47.363,25.879
1532372181.156,42.969,39.062,-6.348,39.062,92.773
1532372181.160,46.387,36.621,-6.836,36.133,62.500
1532372181.164,35.156,33.691,-7.324,38.574,5.371
1532372181.168,37.109,36.621,-8.789,40.527,7.812
1532372181.172,43.945,38.086,-7.324,38.086,32.227
1532372181.176,41.016,36.621,-6.348,40.527,24.902
1532372181.180,41.504,37.598,-10.742,40.527,29.297
1532372181.184,35.645,36.133,-13.672,34.180,53.223
1532372181.187,33.203,31.250,-12.207,35.645,85.938
1532372181.191,42.480,30.762,-10.742,39.551,64.941
1532372181.195,41.016,32.227,-12.207,37.109,1.465
1532372181.199,34.668,33.203,-12.695,28.809,18.066
1532372181.203,33.691,33.203,-12.695,26.855,56.641
1532372181.207,43.457,35.156,-11.719,32.715,65.918
1532372181.211,41.992,35.645,-11.719,29.297,18.066
1532372181.215,38.574,33.203,-12.207,32.227,14.648
1532372181.219,41.016,33.203,-10.254,42.480,33.691
1532372181.223,38.086,34.180,-10.254,42.480,41.992
1532372181.226,33.203,32.715,-8.789,38.086,21.973
1532372181.230,37.109,31.738,-9.766,40.039,-4.395
1532372181.234,37.598,33.691,-10.254,36.133,31.738
1532372181.238,37.109,36.621,-8.789,35.156,95.703
1532372181.242,38.574,34.668,-6.348,33.203,80.078
1532372181.246,35.645,33.691,-4.883,31.250,39.551
1532372181.250,30.273,36.133,-5.859,29.297,31.250
1532372181.254,20.508,37.109,-5.371,29.297,52.734
1532372181.258,15.137,34.668,-5.371,27.344,87.402
1532372181.262,15.137,34.180,-6.348,21.973,37.109
1532372181.266,15.625,36.133,-5.859,12.695,6.348
1532372181.269,8.789,38.086,-1.953,12.207,31.250
1532372181.273,5.371,38.574,-0.977,18.555,64.453
1532372181.277,7.812,38.574,-0.488,17.578,35.156
1532372181.281,13.672,39.551,1.465,22.949,0.488
1532372181.285,17.090,40.527,-0.488,19.043,30.273
1532372181.289,9.277,39.551,0.977,17.090,31.738
1532372181.293,8.301,39.062,3.906,26.367,6.836
1532372181.297,14.160,38.574,3.418,26.855,-9.277
1532372181.301,17.578,37.598,2.930,24.414,2.930
1532372181.305,20.020,40.039,2.930,27.832,54.688
1532372181.308,21.973,38.086,2.441,30.762,52.246
1532372181.312,28.809,36.621,1.465,35.645,-5.859
1532372181.316,37.109,38.086,1.465,37.109,14.160
1532372181.320,32.227,40.039,2.441,21.973,71.289
1532372181.324,21.484,43.945,0.977,19.531,76.660
1532372181.328,22.949,43.457,-1.465,25.879,29.785
1532372181.332,23.926,39.551,0.000,24.414,-5.371
1532372181.336,24.414,39.062,0.000,27.832,40.039
1532372181.340,20.020,39.551,-4.395,23.926,83.496
1532372181.344,23.926,38.574,-5.859,23.438,26.367
1532372181.348,32.227,41.504,-3.418,31.738,-8.789
1532372181.351,35.645,43.945,-2.930,36.133,20.996
1532372181.355,38.086,43.945,-5.371,35.156,62.500
1532372181.359,45.410,45.898,-7.324,32.227,47.852
1532372181.363,47.363,46.387,-8.301,37.109,3.906
1532372181.367,32.715,45.410,-8.789,32.715,5.371
1532372181.371,29.785,46.387,-6.836,27.344,49.805
1532372181.375,33.203,46.387,-2.441,23.926,54.199
1532372181.379,29.297,46.875,-4.395,21.484,-18.066
1532372181.383,26.855,46.875,-5.371,21.484,-14.160
1532372181.387,24.414,44.434,-3.418,18.066,57.617
1532372181.391,22.461,42.969,-5.371,15.137,36.133
1532372181.394,18.555,43.945,-6.348,10.254,-26.855
1532372181.398,12.207,43.945,-3.418,8.789,-10.742
1532372181.402,26.367,44.922,0.000,10.742,38.574
1532372181.406,28.320,48.340,-1.953,13.672,72.266
1532372181.410,21.484,49.316,-0.977,16.113,18.555
1532372181.414,25.879,45.898,4.883,15.625,-30.273
1532372181.418,17.578,46.387,6.836,20.508,35.156
1532372181.422,12.695,49.316,5.859,18.066,96.191
1532372181.426,19.043,49.805,2.930,17.090,90.820
1532372181.430,21.973,48.340,1.465,19.043,32.715
1532372181.433,16.602,48.828,0.488,11.719,21.484
1532372181.437,22.461,46.875,-2.930,12.695,59.570
1532372181.441,29.297,43.945,-3.906,24.902,60.059
1532372181.445,28.320,43.457,0.488,31.738,28.320
1532372181.449,31.738,43.457,-0.977,28.320,-15.137
1532372181.453,39.551,42.480,-1.953,30.762,-0.488
1532372181.457,36.621,42.480,-6.836,34.668,71.777
1532372181.461,36.133,43.457,-4.883,35.645,48.340
1532372181.465,39.551,42.969,0.000,42.480,26.367
1532372181.469,42.969,41.992,-1.465,41.504,48.340
1532372181.473,41.016,40.039,-0.977,39.062,89.844
1532372181.476,32.227,41.016,-2.930,44.434,68.848
1532372181.480,35.645,42.480,-4.395,48.828,13.184
1532372181.484,39.062,42.480,0.977,49.805,10.254
1532372181.488,46.387,42.480,3.906,45.410,44.922
1532372181.492,42.969,42.480,1.465,37.598,64.453
1532372181.496,39.551,43.457,-0.977,39.062,19.531
1532372181.500,46.387,44.922,-1.465,42.969,1.465
1532372181.504,48.828,42.969,1.465,41.504,44.434
1532372181.508,45.898,42.969,0.488,35.645,55.664
1532372181.512,40.527,44.434,0.000,35.156,2.441
1532372181.515,38.574,42.480,0.000,40.039,-3.418
1532372181.519,40.039,41.992,-0.488,40.527,23.926
1532372181.523,42.969,42.969,-2.441,42.969,39.062
1532372181.527,45.410,43.457,-3.906,40.527,14.648
1532372181.531,50.293,41.992,-2.441,37.598,-32.227
1532372181.535,44.434,40.039,-2.930,39.062,1.465
1532372181.539,41.992,42.969,-2.930,40.039,77.637
1532372181.543,54.199,46.875,-0.488,43.457,55.176
1532372181.547,55.664,48.340,0.977,38.574,-12.695
1532372181.551,56.641,50.293,-0.488,35.645,11.230
1532372181.555,59.570,52.246,0.977,43.945,61.035
1532372181.558,74.707,52.734,0.488,39.551,53.223
1532372181.562,76.660,51.270,-0.977,41.016,19.043
1532372181.566,53.711,49.316,3.906,42.969,-12.207
1532372181.570,44.922,48.828,6.348,38.086,14.648
1532372181.574,39.062,46.387,2.441,38.086,79.590
1532372181.578,42.480,45.410,2.930,44.922,21.973
1532372181.582,40.527,46.387,2.930,48.340,-15.137
1532372181.586,40.039,45.898,1.465,54.688,42.969
1532372181.590,32.715,45.898,-0.977,48.828,59.082
1532372181.594,23.438,47.363,-6.836,42.480,51.270
1532372181.598,32.715,48.340,-11.230,46.875,16.602
1532372181.601,35.645,49.805,-14.160,43.945,30.762
1532372181.605,29.297,49.316,-14.160,44.434,83.984
1532372181.609,32.715,51.758,-17.090,41.504,35.645
1532372181.613,30.273,52.734,-17.578,39.062,0.488
1532372181.617,21.484,52.734,-18.066,34.180,40.527
1532372181.621,25.879,55.176,-20.996,32.227,56.641
1532372181.625,26.855,55.664,-19.043,31.738,64.453
1532372181.629,27.344,53.711,-18.066,24.902,33.691
1532372181.633,30.762,52.246,-18.555,28.320,-5.371
1532372181.637,32.227,51.270,-18.555,40.039,24.414
1532372181.640,32.715,48.340,-17.578,40.039,77.637
1532372181.644,38.086,48.828,-15.137,38.574,39.062
1532372181.648,34.668,48.340,-16.602,37.598,-18.066
1532372181.652,30.762,45.410,-20.020,40.039,13.184
1532372181.656,41.504,46.387,-20.020,45.898,68.848
1532372181.660,41.016,49.805,-23.926,40.039,41.504
1532372181.664,38.574,50.293,-23.926,42.480,-9.766
1532372181.668,37.109,48.340,-21.484,41.992,-8.789
1532372181.672,36.133,48.828,-21.484,32.227,43.945
1532372181.676,40.527,48.828,-19.531,37.598,53.223
1532372181.680,41.992,46.875,-21.973,43.457,11.719
1532372181.683,39.551,46.875,-20.996,46.387,23.438
1532372181.687,46.387,50.781,-15.625,41.504,54.688
1532372181.691,51.270,51.270,-15.625,33.691,56.152
1532372181.695,41.016,49.805,-18.066,33.203,15.625
1532372181.699,33.691,48.828,-16.113,28.809,26.855
1532372181.703,35.156,48.828,-13.672,30.762,66.406
1532372181.707,41.016,47.363,-12.207,27.344,83.496
1532372181.711,38.574,48.828,-11.719,25.391,23.926
1532372181.715,29.785,50.293,-13.184,26.367,-14.160
1532372181.719,26.855,46.875,-11.719,20.508,31.250
1532372181.723,25.879,48.340,-13.184,23.926,50.781
1532372181.726,23.926,50.293,-17.090,20.508,25.391
1532372181.730,33.203,46.387,-18.066,16.113,-29.297
1532372181.734,38.574,43.945,-13.672,24.902,-10.254
1532372181.738,43.945,44.434,-14.160,31.250,73.730
1532372181.742,44.434,46.387,-20.020,36.133,64.453
1532372181.746,41.504,44.434,-19.531,43.945,13.672
1532372181.750,45.898,42.480,-16.602,44.922,41.992
1532372181.754,44.434,41.016,-13.672,47.363,77.148
1532372181.758,45.898,39.062,-11.230,56.152,66.895
1532372181.762,43.945,36.621,-13.184,45.410,41.504
1532372181.765,50.293,36.133,-14.160,41.992,37.598
1532372181.769,48.340,36.621,-10.742,52.734,45.410
1532372181.773,46.875,35.156,-10.742,54.199,83.984
1532372181.777,48.340,34.180,-15.137,57.129,56.152
1532372181.781,41.992,35.156,-16.113,48.340,-11.230
1532372181.785,43.457,36.621,-15.625,42.969,42.480
1532372181.789,51.270,38.086,-17.090,51.758,85.449
1532372181.793,47.852,37.598,-19.043,49.805,31.738
1532372181.797,35.156,36.133,-24.414,41.016,12.207
1532372181.801,41.016,37.598,-23.926,43.457,29.785
1532372181.805,47.852,37.109,-20.996,46.875,48.340
1532372181.808,46.387,36.133,-22.949,44.434,71.777
1532372181.812,42.969,38.574,-23.438,45.410,9.277
1532372181.816,41.016,38.574,-23.438,44.922,-7.812
1532372181.820,44.922,38.574,-27.344,44.434,53.711
1532372181.824,49.316,37.109,-23.926,51.758,65.430
1532372181.828,41.992,37.109,-20.508,48.340,0.488
1532372181.832,41.016,37.109,-23.438,40.527,-40.527
1532372181.836,47.363,37.598,-23.926,51.758,31.738
1532372181.840,49.805,40.039,-23.926,58.594,103.027
1532372181.844,55.176,41.016,-25.879,53.223,41.992
1532372181.847,58.594,40.527,-23.438,48.340,-16.113
1532372181.851,59.570,40.527,-18.555,53.711,42.480
1532372181.855,51.270,41.016,-17.578,61.035,104.004
1532372181.859,51.758,41.992,-16.113,58.105,54.199
1532372181.863,54.688,41.016,-13.184,54.199,-9.766
1532372181.867,52.246,40.527,-14.648,45.410,7.812
1532372181.871,52.246,42.969,-12.695,53.711,26.855
1532372181.875,54.199,41.504,-10.254,62.012,42.480
1532372181.879,47.852,39.062,-16.113,43.945,25.391
1532372181.883,41.016,38.574,-13.672,39.062,11.719
1532372181.887,46.387,40.039,-8.789,45.410,29.297
1532372181.890,53.223,41.504,-9.766,41.504,13.672
1532372181.894,42.480,42.969,-6.348,43.457,-9.766
1532372181.898,44.434,44.434,-4.395,51.758,7.812
1532372181.902,48.828,43.945,-4.395,51.758,31.250
1532372181.906,45.410,41.992,-3.906,49.805,59.570
1532372181.910,42.969,39.551,-1.953,51.270,40.039
1532372181.914,47.852,40.039,-0.488,48.340,15.625
1532372181.918,53.711,38.086,-0.977,47.852,15.625
1532372181.922,52.246,38.574,0.977,57.129,54.199
1532372181.926,47.852,41.504,0.977,57.617,68.359
1532372181.930,56.152,39.551,0.000,54.199,-25.391
1532372181.933,60.059,41.016,1.953,54.688,-24.414
1532372181.937,51.270,44.434,0.977,58.105,51.758
1532372181.941,50.293,40.527,0.977,58.105,66.895
1532372181.945,48.340,40.039,0.000,48.340,34.668
1532372181.949,49.805,41.504,-3.418,47.363,-7.812
1532372181.953,47.852,39.062,-5.371,45.410,34.668
1532372181.957,48.340,36.621,-1.465,45.410,72.754
1532372181.961,50.781,37.598,3.418,53.711,26.855
1532372181.965,46.387,37.109,0.977,55.176,22.461
1532372181.969,53.711,37.109,0.977,55.664,37.109
1532372181.972,48.340,38.574,1.953,49.805,51.270
1532372181.976,42.969,37.109,-1.465,40.527,35.645
1532372181.980,47.363,38.574,-2.441,40.039,-0.977
1532372181.984,38.574,38.574,-0.488,37.598,9.766
1532372181.988,28.809,37.109,3.418,30.273,64.453
1532372181.992,26.855,35.156,5.371,25.879,49.805
1532372181.996,20.996,35.156,3.418,24.414,1.953
1532372182.000,20.020,38.086,1.465,19.043,0.488
1532372182.004,18.066,36.133,8.301,21.484,41.016
1532372182.008,7.812,36.621,10.254,20.996,58.594
1532372182.012,10.254,33.691,13.184,12.207,10.742
1532372182.015,10.742,24.414,21.484,23.926,9.277
1532372182.019,20.996,28.320,20.996,37.598,49.316
1532372182.023,26.367,41.992,8.789,24.414,69.824
1532372182.027,21.484,46.875,3.906,16.113,16.602
1532372182.031,22.949,46.875,7.324,14.160,-34.180
1532372182.035,21.484,49.316,3.418,11.719,29.297
1532372182.039,20.020,53.223,-3.906,3.418,89.355
1532372182.043,19.043,59.570,-4.883,-0.977,44.434
1532372182.047,22.461,59.082,-4.395,13.184,2.930
1532372182.051,23.926,55.664,-5.859,13.184,22.949
1532372182.055,18.555,57.129,-4.395,9.766,35.645
1532372182.058,18.066,55.664,-4.395,13.184,28.320
1532372182.062,24.414,51.758,-4.883,17.090,6.348
1532372182.066,26.855,50.293,-2.441,20.508,18.555
1532372182.070,26.855,50.293,0.488,20.508,11.230
1532372182.074,34.180,49.316,-1.465,24.414,5.371
1532372182.078,32.227,48.340,-3.418,25.879,24.414
1532372182.082,33.203,48.340,-3.418,26.367,31.250
1532372182.086,39.551,46.875,-3.418,34.180,44.434
1532372182.090,38.574,45.898,-1.465,37.109,59.570
1532372182.094,42.480,47.363,0.977,41.504,8.301
1532372182.097,38.574,48.340,0.488,43.457,-24.414
1532372182.101,35.645,46.875,-0.488,36.621,29.297
1532372182.105,39.551,45.410,-0.488,34.668,59.570
1532372182.109,39.062,45.898,-1.953,23.926,46.387
1532372182.113,37.109,45.410,-2.441,23.438,-8.789
1532372182.117,42.480,44.922,-2.930,39.551,-22.949
1532372182.121,42.969,42.969,-1.465,39.062,54.688
1532372182.125,40.039,41.504,2.930,41.504,73.730
1532372182.129,42.969,42.480,4.395,45.410,6.836
1532372182.133,47.852,44.434,3.906,49.805,-10.254
1532372182.137,51.758,41.016,3.418,50.781,40.527
1532372182.140,47.852,38.086,2.930,43.945,73.730
1532372182.144,42.969,41.992,4.395,47.363,22.461
1532372182.148,42.969,40.527,6.348,44.434,-34.180
1532372182.152,47.363,41.016,6.836,44.922,15.137
1532372182.156,49.316,42.480,7.324,46.875,78.125
1532372182.160,43.457,42.969,7.812,41.992,39.062
1532372182.164,45.898,43.945,9.766,50.781,7.812
1532372182.168,41.992,42.969,13.184,51.270,6.836
1532372182.172,30.762,42.969,17.578,39.062,34.180
1532372182.176,38.574,42.480,15.137,37.598,37.109
1532372182.179,39.551,43.945,14.648,35.645,-2.930
1532372182.183,29.297,46.387,17.578,33.203,12.207
1532372182.187,33.691,47.852,17.090,37.109,18.555
1532372182.191,33.691,46.875,15.625,39.551,1.953
1532372182.195,33.691,47.852,13.672,35.645,-11.230
1532372182.199,36.133,48.340,13.672,38.086,0.000
1532372182.203,43.457,44.434,15.137,44.434,43.457
1532372182.207,41.992,43.457,15.137,36.133,54.199
1532372182.211,28.320,43.945,18.066,36.621,2.441
1532372182.215,27.344,43.945,21.484,43.457,-10.254
1532372182.219,35.645,45.410,19.531,42.480,27.832
1532372182.222,39.551,43.945,20.020,42.969,49.316
1532372182.226,39.062,43.945,19.531,36.621,20.996
1532372182.230,40.527,47.363,20.996,36.133,9.766
1532372182.234,41.504,47.852,25.391,40.527,28.809
1532372182.238,42.480,46.875,29.785,42.969,49.316
1532372182.242,53.223,46.387,33.203,44.922,64.453
1532372182.246,49.316,46.387,32.715,48.828,34.668
1532372182.250,34.668,48.828,37.598,47.363,-10.254
1532372182.254,52.734,50.293,41.504,43.457,41.504
1532372182.258,58.105,46.875,39.062,48.340,94.238
1532372182.262,44.922,45.898,41.504,44.922,50.293
1532372182.265,37.109,45.410,44.434,40.527,-0.488
1532372182.269,29.297,42.969,44.922,38.086,25.879
1532372182.273,29.785,43.457,42.480,35.156,68.359
1532372182.277,33.203,46.387,43.945,32.715,41.992
1532372182.281,29.785,48.340,46.387,28.809,25.879
1532372182.285,27.832,47.363,45.410,25.391,16.602
1532372182.289,39.551,47.852,46.387,23.438,18.066
1532372182.293,40.039,47.852,47.363,24.414,39.551
1532372182.297,33.691,48.340,45.898,26.855,19.531
1532372182.301,30.762,48.340,45.410,24.902,10.254
1532372182.304,42.480,48.828,47.363,26.367,50.781
1532372182.308,55.176,50.781,44.434,24.902,39.551
