timestamps,TP9,AF7,AF8,TP10,Right AUX
1532279231.588,50.293,41.992,19.531,51.270,-45.898
1532279231.592,46.875,43.945,17.090,52.734,-184.570
1532279231.596,44.434,39.062,18.555,56.641,99.609
1532279231.600,45.898,36.621,21.484,55.176,281.250
1532279231.604,48.828,40.039,20.020,58.105,38.574
1532279231.607,49.805,41.992,18.555,64.941,-199.219
1532279231.611,44.922,43.457,11.719,56.641,-14.160
1532279231.615,50.293,41.504,8.789,56.641,267.578
1532279231.619,50.781,35.156,13.672,49.805,126.953
1532279231.623,36.621,35.645,14.160,40.039,-203.125
1532279231.627,29.297,32.715,16.602,48.828,-132.324
1532279231.631,48.340,28.320,17.090,72.754,187.012
1532279231.635,51.758,34.668,14.648,71.289,195.312
1532279231.639,42.480,35.645,13.184,47.852,-108.887
1532279231.643,49.805,30.273,12.207,51.758,-166.992
1532279231.647,45.898,31.738,11.230,59.570,132.812
1532279231.650,47.852,33.691,9.277,43.945,232.910
1532279231.654,41.992,31.738,8.301,34.180,-55.664
1532279231.658,35.645,29.785,11.230,54.688,-214.355
1532279231.662,42.480,33.203,12.207,61.035,2.930
1532279231.666,47.363,33.691,13.184,46.387,202.637
1532279231.670,40.039,32.227,14.648,43.457,34.668
1532279231.674,32.715,32.715,15.625,61.035,-222.656
1532279231.678,42.969,33.691,11.719,57.617,-62.012
1532279231.682,48.340,32.715,15.625,62.012,233.887
1532279231.686,24.902,30.273,20.996,59.570,134.277
1532279231.689,13.184,28.320,15.137,42.969,-149.902
1532279231.693,41.504,30.762,13.672,55.664,-107.910
1532279231.697,48.828,33.691,16.113,78.125,193.359
1532279231.701,45.898,33.691,16.113,73.242,221.191
1532279231.705,45.898,34.668,16.602,57.129,-98.633
1532279231.709,41.504,33.691,19.043,60.059,-191.895
1532279231.713,39.551,33.203,18.066,63.965,116.699
1532279231.717,32.227,32.227,15.137,62.500,284.180
1532279231.721,40.039,29.785,17.578,46.875,-16.602
1532279231.725,43.945,29.785,20.508,54.199,-228.516
1532279231.729,48.340,32.715,18.555,68.848,43.945
1532279231.732,42.969,30.762,18.066,66.895,285.645
1532279231.736,25.391,30.762,21.484,59.082,94.238
1532279231.740,34.668,33.691,20.508,53.711,-178.223
1532279231.744,32.227,28.320,20.508,56.641,-49.316
1532279231.748,27.832,27.344,17.578,55.176,233.398
1532279231.752,39.551,33.691,17.090,54.688,145.508
1532279231.756,39.062,33.203,19.043,62.988,-143.555
1532279231.760,35.645,30.273,21.973,66.406,-115.234
1532279231.764,25.391,30.273,23.926,52.734,155.273
1532279231.768,27.832,32.715,20.020,47.852,222.656
1532279231.772,34.668,34.668,19.531,59.570,-54.199
1532279231.775,34.180,34.180,20.508,68.359,-183.594
1532279231.779,52.246,34.668,17.578,68.848,83.984
1532279231.783,47.363,33.691,18.066,53.711,238.770
1532279231.787,31.738,29.785,22.461,47.852,24.902
1532279231.791,47.363,30.762,16.602,62.500,-166.992
1532279231.795,38.574,36.621,11.719,60.547,20.508
1532279231.799,25.879,33.203,18.555,56.152,238.281
1532279231.803,38.574,26.855,24.414,56.641,59.082
1532279231.807,45.898,31.738,21.484,57.129,-198.242
1532279231.811,52.246,36.133,15.137,63.965,-80.566
1532279231.814,41.016,33.691,14.648,63.965,221.191
1532279231.818,25.879,27.344,19.531,51.758,176.758
1532279231.822,32.227,26.367,23.438,58.594,-147.461
1532279231.826,50.781,30.762,23.926,73.730,-162.598
1532279231.830,42.480,31.738,24.414,68.359,165.039
1532279231.834,38.574,33.203,21.973,50.781,249.023
1532279231.838,42.480,33.203,20.508,51.758,-24.902
1532279231.842,40.527,36.621,16.113,48.828,-185.547
1532279231.846,56.641,39.062,13.672,31.738,65.430
1532279231.850,47.363,35.156,16.602,40.039,267.578
1532279231.854,35.156,33.203,19.043,41.992,28.809
1532279231.857,40.039,30.273,23.438,51.758,-192.871
1532279231.861,38.086,30.762,22.461,49.316,-23.438
1532279231.865,33.691,32.715,20.020,51.758,242.188
1532279231.869,47.852,32.227,17.578,65.430,131.836
1532279231.873,54.688,25.391,26.367,62.012,-147.949
1532279231.877,31.250,29.785,22.949,50.293,-96.191
1532279231.881,41.992,36.621,16.113,51.758,202.637
1532279231.885,66.895,40.527,11.230,53.711,202.148
1532279231.889,31.738,28.809,17.090,27.344,-125.488
1532279231.893,2.441,24.414,22.461,1.465,-167.480
1532279231.896,20.020,32.715,16.602,13.672,139.648
1532279231.900,55.176,31.250,26.367,67.871,227.051
1532279231.904,57.617,35.156,24.414,44.434,-94.238
1532279231.908,33.691,33.203,23.438,63.965,-243.164
1532279231.912,50.293,31.738,18.555,78.125,32.227
1532279231.916,54.199,31.250,13.184,49.316,245.605
1532279231.920,52.246,31.250,20.020,95.215,46.875
1532279231.924,82.031,33.691,20.996,117.188,-212.891
1532279231.928,89.355,32.227,18.555,112.305,-51.758
1532279231.932,68.848,30.273,24.414,118.164,239.258
1532279231.936,78.613,33.203,25.391,116.211,116.699
1532279231.939,91.309,30.762,26.367,114.258,-202.637
1532279231.943,68.848,26.855,28.320,124.512,-147.461
1532279231.947,72.754,27.832,25.391,134.277,180.176
1532279231.951,75.195,28.809,21.973,139.648,202.148
1532279231.955,70.312,36.621,15.137,109.863,-95.703
1532279231.959,82.520,40.039,12.695,103.027,-161.621
1532279231.963,73.730,39.551,14.648,118.652,111.816
1532279231.967,78.125,40.039,15.137,105.957,234.863
1532279231.971,80.566,34.180,21.484,111.328,-6.348
1532279231.975,74.707,32.227,25.879,124.023,-157.715
1532279231.979,77.148,36.621,19.043,122.559,56.152
1532279231.982,74.707,34.668,18.555,112.305,244.141
1532279231.986,80.078,31.250,24.414,123.047,55.664
1532279231.990,79.590,32.227,26.367,120.605,-191.895
1532279231.994,72.754,33.691,21.973,108.398,-54.688
1532279231.998,78.125,37.598,19.043,123.047,240.234
1532279232.002,77.148,38.086,21.973,105.469,163.086
1532279232.006,62.988,36.133,22.461,82.520,-166.016
1532279232.010,65.430,35.156,21.484,99.609,-130.371
1532279232.014,65.918,33.203,22.461,95.703,215.820
1532279232.018,53.711,30.762,20.508,77.148,234.863
1532279232.021,55.664,30.273,18.066,71.289,-89.355
1532279232.025,62.500,32.227,16.113,84.961,-190.430
1532279232.029,72.754,29.297,22.949,112.793,83.984
1532279232.033,49.805,21.973,25.879,97.656,256.348
1532279232.037,44.922,23.438,20.996,76.660,47.852
1532279232.041,54.688,26.855,21.484,74.219,-219.238
1532279232.045,51.270,27.344,17.578,62.988,-36.621
1532279232.049,63.477,29.785,14.648,63.477,273.926
1532279232.053,52.734,28.809,19.531,60.547,126.953
1532279232.057,38.574,26.367,19.043,28.320,-169.434
1532279232.061,29.297,25.391,20.508,49.316,-93.750
1532279232.064,48.340,26.855,21.973,96.680,212.891
1532279232.068,57.129,30.762,17.578,80.078,182.129
1532279232.072,36.621,28.320,20.996,65.918,-117.676
1532279232.076,37.598,24.902,29.785,87.891,-149.902
1532279232.080,42.969,26.367,24.414,68.848,137.695
1532279232.084,22.461,22.949,20.996,61.035,214.355
1532279232.088,25.879,25.391,21.484,70.312,-63.477
1532279232.092,25.879,26.855,20.996,52.734,-180.176
1532279232.096,34.180,22.461,20.508,54.688,73.730
1532279232.100,53.223,25.391,23.926,76.172,248.047
1532279232.104,44.434,23.438,27.832,70.801,1.465
1532279232.107,33.203,22.461,22.461,52.734,-220.215
1532279232.111,35.645,24.902,17.090,60.547,-2.930
1532279232.115,46.875,30.273,16.602,60.547,251.465
1532279232.119,43.457,36.621,12.695,19.531,123.535
1532279232.123,34.668,36.133,12.207,27.344,-154.297
1532279232.127,12.695,29.297,20.508,63.965,-110.840
1532279232.131,2.930,27.832,19.531,41.992,197.754
1532279232.135,22.461,31.738,15.625,29.785,197.266
1532279232.139,28.809,31.250,18.066,39.551,-109.375
1532279232.143,6.348,29.785,18.555,25.391,-183.594
1532279232.146,10.742,31.738,17.578,18.066,83.496
1532279232.150,17.090,32.715,20.020,22.949,211.914
1532279232.154,11.719,33.691,19.043,23.438,-47.852
1532279232.158,26.855,34.668,17.090,21.484,-185.059
1532279232.162,26.855,31.250,18.555,36.133,73.730
1532279232.166,4.395,32.227,21.484,21.973,260.254
1532279232.170,1.953,33.203,20.508,11.719,38.086
1532279232.174,23.926,33.691,19.043,20.020,-199.219
1532279232.178,24.414,36.133,16.602,17.090,-40.039
1532279232.182,-18.066,33.691,16.113,30.273,208.984
1532279232.186,-11.719,36.621,12.695,-0.977,105.469
1532279232.189,45.410,35.645,13.184,16.602,-144.043
1532279232.193,32.227,32.227,19.531,57.129,-92.773
1532279232.197,27.344,33.691,18.555,41.016,183.105
1532279232.201,13.672,37.598,15.137,19.531,185.059
1532279232.205,9.277,38.574,18.555,28.809,-104.004
1532279232.209,39.551,35.645,18.555,33.203,-141.113
1532279232.213,46.387,41.016,13.184,21.484,138.672
1532279232.217,45.898,41.992,17.578,28.320,227.539
1532279232.221,33.203,38.574,19.531,10.742,-43.945
1532279232.225,21.973,39.551,16.113,9.277,-216.309
1532279232.229,24.902,37.598,16.113,32.227,27.344
1532279232.232,25.879,36.621,19.043,44.434,277.832
1532279232.236,26.367,37.109,20.508,34.668,76.660
1532279232.240,37.598,36.133,23.438,32.715,-206.055
1532279232.244,31.738,34.668,26.855,33.203,-75.684
1532279232.248,17.090,35.645,26.855,34.668,232.910
1532279232.252,19.043,38.574,25.391,28.809,164.062
1532279232.256,40.527,45.898,27.832,30.762,-144.043
1532279232.260,45.898,49.316,33.691,44.434,-130.371
1532279232.264,47.363,54.199,36.621,48.340,142.090
1532279232.268,56.641,59.570,44.434,56.641,199.707
1532279232.271,64.453,56.641,46.387,63.477,-76.660
1532279232.275,53.711,45.898,41.992,62.012,-181.641
1532279232.279,39.551,38.086,37.598,47.363,82.031
1532279232.283,45.898,40.527,29.785,32.227,199.707
1532279232.287,37.598,32.715,29.297,35.156,-23.926
1532279232.291,49.805,28.320,27.344,31.738,-214.355
1532279232.295,51.270,30.273,20.996,38.086,3.906
1532279232.299,41.504,26.367,24.414,64.453,249.512
1532279232.303,52.734,25.879,23.438,51.270,63.477
1532279232.307,43.457,26.367,15.625,35.156,-183.105
1532279232.311,35.645,23.438,14.160,37.109,-84.473
1532279232.314,45.410,20.508,16.602,38.574,196.289
1532279232.318,47.852,19.043,17.578,37.598,153.809
1532279232.322,41.504,22.461,16.602,32.715,-164.062
1532279232.326,41.992,24.902,16.602,28.320,-159.668
1532279232.330,38.086,24.902,17.090,32.227,168.945
1532279232.334,40.527,26.367,14.648,29.785,224.609
1532279232.338,46.875,25.879,11.719,23.438,-55.664
1532279232.342,40.039,25.391,12.695,23.926,-178.223
1532279232.346,35.645,24.902,11.230,25.879,72.754
1532279232.350,26.855,20.996,13.672,31.250,238.281
1532279232.354,29.297,20.996,14.648,28.320,32.227
1532279232.357,43.457,23.438,10.742,21.484,-185.059
1532279232.361,52.246,25.879,11.719,27.344,-33.691
1532279232.365,51.758,26.367,11.230,25.879,202.637
1532279232.369,42.480,25.391,11.230,23.438,91.797
1532279232.373,49.805,26.855,12.207,26.367,-166.504
1532279232.377,53.711,27.344,7.324,28.320,-117.188
1532279232.381,42.969,27.344,4.883,20.996,168.945
1532279232.385,42.480,27.832,7.812,14.160,182.617
1532279232.389,39.062,26.367,9.277,15.137,-116.211
1532279232.393,36.133,26.855,10.742,20.020,-172.363
1532279232.396,34.668,27.344,11.719,26.367,131.348
1532279232.400,35.156,26.367,10.742,22.949,238.770
1532279232.404,36.133,23.926,9.277,15.137,-59.570
1532279232.408,41.992,22.949,8.789,20.996,-218.262
1532279232.412,41.504,21.484,9.277,21.484,59.570
1532279232.416,37.598,21.484,8.301,21.973,259.277
1532279232.420,31.738,20.996,8.789,13.184,12.207
1532279232.424,28.320,20.020,12.207,2.441,-238.281
1532279232.428,35.645,22.461,13.184,15.625,-49.805
1532279232.432,35.156,20.996,14.160,28.320,221.680
1532279232.436,37.109,20.996,10.254,20.020,129.883
1532279232.439,36.133,21.973,10.254,18.555,-158.691
1532279232.443,44.922,22.461,11.719,24.902,-132.324
1532279232.447,47.852,24.902,9.766,19.531,189.453
1532279232.451,35.645,22.949,14.160,27.344,201.660
1532279232.455,39.062,24.414,14.160,32.715,-115.723
1532279232.459,40.527,25.391,12.207,26.367,-166.504
1532279232.463,49.316,29.785,8.789,10.742,110.840
1532279232.467,45.410,29.785,10.742,7.324,250.488
1532279232.471,39.062,26.855,13.672,16.602,27.832
1532279232.475,33.691,27.344,13.672,21.973,-178.223
1532279232.478,29.785,29.785,15.625,27.832,31.250
1532279232.482,45.898,33.203,15.625,28.809,259.277
1532279232.486,45.898,31.738,14.648,15.137,78.125
1532279232.490,32.715,30.762,16.113,22.949,-182.617
1532279232.494,44.434,30.762,17.578,39.551,-57.129
1532279232.498,50.293,29.785,17.578,34.180,215.332
1532279232.502,38.574,30.273,20.996,24.414,131.836
1532279232.506,36.621,29.785,21.973,19.043,-174.316
1532279232.510,49.316,32.715,16.602,32.227,-122.070
1532279232.514,61.035,32.227,18.555,41.504,181.641
1532279232.518,63.477,32.715,20.996,31.738,215.332
1532279232.521,41.992,36.621,20.020,25.879,-64.453
1532279232.525,29.785,38.574,17.578,21.973,-163.574
1532279232.529,46.387,42.969,16.113,22.461,106.445
1532279232.533,40.527,43.457,17.578,27.344,267.090
1532279232.537,30.273,44.434,13.672,8.789,20.020
1532279232.541,35.156,45.410,13.184,7.812,-177.246
1532279232.545,31.738,43.457,14.648,17.578,17.090
1532279232.549,30.762,42.969,18.555,20.020,221.191
1532279232.553,33.691,42.969,21.484,20.020,88.379
1532279232.557,27.832,44.434,19.531,18.066,-152.832
1532279232.561,38.574,44.922,21.973,25.879,-63.965
1532279232.564,40.527,43.945,26.855,30.762,187.012
1532279232.568,37.109,42.969,28.320,24.902,163.574
1532279232.572,35.645,43.457,26.855,20.020,-111.328
1532279232.576,39.551,48.340,23.926,24.414,-149.902
1532279232.580,42.480,48.340,21.973,24.902,160.156
1532279232.584,36.133,48.828,20.020,12.207,226.074
1532279232.588,33.691,51.270,17.090,11.719,-64.941
1532279232.592,47.363,50.293,12.695,16.602,-208.496
1532279232.596,37.598,44.922,16.113,20.508,77.637
1532279232.600,25.879,39.062,22.461,20.996,283.691
1532279232.603,42.969,42.969,24.902,17.090,4.395
1532279232.607,56.152,48.340,21.973,14.648,-212.402
1532279232.611,48.828,47.363,14.648,20.996,-3.418
1532279232.615,33.203,45.898,11.719,15.137,250.000
1532279232.619,29.297,43.457,10.254,4.883,116.211
1532279232.623,36.621,44.922,8.789,5.371,-199.219
1532279232.627,40.039,43.945,12.695,12.207,-120.605
1532279232.631,35.156,41.016,18.066,15.625,173.340
1532279232.635,39.062,41.504,21.484,18.555,166.016
1532279232.639,42.480,42.969,20.508,13.672,-129.883
1532279232.643,29.785,41.504,20.508,14.648,-205.078
1532279232.646,27.344,37.109,22.949,26.367,113.770
1532279232.650,32.715,40.039,21.973,18.555,239.746
1532279232.654,39.062,44.434,20.020,10.742,-57.617
1532279232.658,42.480,44.434,17.578,17.578,-216.309
1532279232.662,48.340,48.340,15.625,9.766,34.180
1532279232.666,41.016,48.828,20.020,15.625,225.586
1532279232.670,37.598,46.387,26.367,34.180,44.434
1532279232.674,52.246,49.316,24.902,35.156,-181.641
1532279232.678,69.336,49.805,24.902,46.875,-42.969
1532279232.682,71.289,48.828,28.320,41.992,218.262
1532279232.686,57.617,47.852,32.227,32.227,110.840
1532279232.689,60.059,50.293,31.250,40.039,-174.805
1532279232.693,70.312,54.199,31.738,43.945,-118.164
1532279232.697,69.824,58.594,32.227,50.781,190.430
1532279232.701,72.266,59.082,31.738,51.270,194.336
1532279232.705,65.918,56.641,35.645,40.527,-98.633
1532279232.709,65.430,58.594,39.551,44.434,-174.805
1532279232.713,78.613,57.129,41.016,57.129,99.609
1532279232.717,70.801,56.152,42.969,62.988,250.000
1532279232.721,69.336,59.570,41.992,53.223,-22.949
1532279232.725,86.914,64.941,39.551,52.246,-189.941
1532279232.728,84.473,65.918,39.551,61.523,58.105
1532279232.732,70.312,62.012,42.969,59.570,261.230
1532279232.736,69.336,62.500,44.922,54.199,81.543
1532279232.740,73.730,62.012,47.363,59.570,-190.430
1532279232.744,82.520,62.500,45.410,54.688,-95.703
1532279232.748,83.496,62.988,39.062,46.875,209.961
1532279232.752,77.148,63.477,34.180,48.828,169.434
1532279232.756,66.895,58.594,34.668,41.504,-144.043
1532279232.760,65.918,53.223,36.621,48.340,-137.695
1532279232.764,70.801,49.316,39.551,57.129,178.711
1532279232.768,67.383,47.852,38.574,52.734,228.027
1532279232.771,59.570,53.223,33.691,42.480,-76.172
1532279232.775,64.941,55.664,31.738,41.016,-178.711
1532279232.779,75.684,56.641,26.855,53.223,89.355
1532279232.783,66.895,51.758,27.344,53.711,221.191
1532279232.787,55.176,47.363,34.180,40.039,-17.578
1532279232.791,62.012,46.387,34.180,39.551,-202.148
1532279232.795,70.801,44.922,30.762,47.363,10.742
1532279232.799,62.012,43.457,24.902,40.039,249.512
1532279232.803,63.477,43.945,21.484,37.109,82.031
1532279232.807,68.359,42.480,24.414,41.992,-183.594
1532279232.811,65.918,36.621,28.809,47.363,-70.801
1532279232.814,55.176,32.715,27.832,41.992,195.801
1532279232.818,41.016,26.855,22.461,31.738,162.598
1532279232.822,43.945,25.879,16.602,34.180,-123.047
1532279232.826,43.457,28.320,11.230,31.250,-167.480
1532279232.830,44.922,27.344,8.301,34.668,127.441
1532279232.834,53.711,27.832,7.812,36.133,213.379
1532279232.838,48.340,26.367,5.371,24.902,-50.781
1532279232.842,43.945,21.973,6.836,24.414,-199.707
1532279232.846,40.039,16.602,11.230,30.762,21.973
1532279232.850,37.598,13.672,6.348,28.809,239.258
1532279232.853,47.363,15.625,3.906,24.902,31.250
1532279232.857,41.504,16.602,7.812,26.367,-224.121
1532279232.861,44.434,16.602,7.324,28.809,-41.504
1532279232.865,41.992,17.578,7.324,18.555,235.352
1532279232.869,32.227,18.066,6.348,16.113,81.055
1532279232.873,34.668,17.578,4.883,22.461,-181.641
1532279232.877,33.203,19.043,3.418,28.809,-76.660
1532279232.881,38.086,18.555,3.906,31.250,203.125
1532279232.885,43.457,19.043,4.395,21.484,153.320
1532279232.889,42.480,20.020,5.859,15.137,-129.395
1532279232.893,36.133,20.996,5.371,27.832,-153.320
1532279232.896,40.039,21.484,1.953,35.156,126.465
1532279232.900,40.039,20.020,2.930,28.320,243.652
1532279232.904,40.527,18.555,3.906,18.555,-18.555
1532279232.908,46.875,19.043,5.859,22.949,-196.289
1532279232.912,42.480,18.555,3.906,35.645,40.527
1532279232.916,44.434,20.020,2.930,32.227,255.859
1532279232.920,47.852,20.508,7.324,30.273,68.359
1532279232.924,47.363,22.461,9.766,27.344,-193.848
1532279232.928,53.711,23.926,7.812,31.250,-62.012
1532279232.932,60.547,23.438,6.836,36.621,233.887
1532279232.935,57.129,24.414,8.301,30.762,135.742
1532279232.939,53.223,24.902,6.836,24.414,-153.320
1532279232.943,60.547,22.949,8.789,28.320,-109.375
1532279232.947,66.895,22.461,7.812,31.738,201.172
1532279232.951,58.105,23.926,5.859,29.785,206.543
1532279232.955,50.781,24.902,5.371,23.926,-93.262
1532279232.959,56.641,25.879,5.859,28.320,-141.113
1532279232.963,58.594,25.391,6.836,37.109,104.980
1532279232.967,55.176,24.414,8.301,44.434,221.191
1532279232.971,40.527,22.461,8.301,41.016,-10.742
1532279232.975,34.180,23.438,5.859,32.715,-202.637
1532279232.978,50.293,22.461,6.348,41.992,46.875
1532279232.982,42.480,19.043,6.348,34.668,275.879
1532279232.986,40.527,20.020,5.859,28.320,47.363
1532279232.990,48.828,23.438,4.883,41.016,-199.707
1532279232.994,47.852,23.926,2.930,41.504,-37.109
1532279232.998,57.617,24.902,3.418,40.527,241.699
1532279233.002,58.105,25.879,6.348,36.621,151.367
1532279233.006,54.688,26.367,6.836,33.691,-139.160
1532279233.010,57.129,27.832,5.859,36.621,-118.164
1532279233.014,61.523,28.320,6.348,39.551,172.852
1532279233.018,48.828,27.344,10.742,38.574,222.168
1532279233.021,51.758,28.809,13.672,34.668,-75.195
1532279233.025,55.176,27.832,10.742,35.645,-181.152
1532279233.029,54.199,28.320,9.766,45.898,94.727
1532279233.033,53.711,31.250,11.230,38.086,251.465
1532279233.037,56.641,30.273,11.230,30.273,31.738
1532279233.041,56.641,27.344,10.742,33.691,-208.008
1532279233.045,50.293,28.320,12.695,28.320,-41.992
1532279233.049,51.758,29.785,13.672,37.598,229.492
1532279233.053,53.711,29.785,11.719,34.668,105.469
1532279233.057,55.176,32.227,8.789,30.762,-185.059
1532279233.060,58.594,31.738,7.324,46.387,-102.539
1532279233.064,64.941,30.273,8.301,47.852,189.453
1532279233.068,62.012,31.250,6.836,47.363,165.039
1532279233.072,63.477,30.762,4.883,42.480,-132.324
1532279233.076,65.430,27.344,6.836,40.039,-163.574
1532279233.080,52.246,23.926,8.301,41.992,139.160
1532279233.084,56.641,24.902,9.277,32.715,194.824
1532279233.088,68.359,27.832,9.277,33.203,-79.590
1532279233.092,63.965,27.344,9.766,40.527,-171.387
1532279233.096,63.477,26.855,7.812,42.969,93.262
1532279233.100,60.547,26.855,7.324,43.457,274.902
1532279233.103,62.988,25.879,8.789,41.992,39.062
1532279233.107,66.895,26.367,5.859,41.992,-201.660
1532279233.111,66.406,27.832,6.348,46.387,-22.461
1532279233.115,62.012,25.879,10.254,54.199,240.234
1532279233.119,63.965,26.367,13.672,48.340,111.816
1532279233.123,68.359,29.297,14.648,40.039,-208.496
1532279233.127,70.312,30.273,11.719,44.434,-132.812
1532279233.131,61.523,33.203,10.254,47.852,206.055
1532279233.135,58.105,35.156,14.160,39.062,208.496
1532279233.139,58.594,33.691,19.043,36.621,-94.238
1532279233.143,55.664,36.621,20.020,41.992,-159.668
1532279233.146,57.617,39.062,18.555,42.480,117.676
1532279233.150,53.711,39.062,19.531,40.039,256.836
1532279233.154,51.758,38.574,22.461,30.273,-13.672
1532279233.158,52.246,40.039,20.508,23.926,-206.543
1532279233.162,46.875,41.992,20.996,24.902,22.461
1532279233.166,44.434,40.039,24.902,25.879,255.371
1532279233.170,42.969,41.992,26.367,21.973,65.430
1532279233.174,36.133,43.945,26.367,20.020,-211.426
1532279233.178,36.133,41.504,25.879,26.367,-41.504
1532279233.182,43.457,41.504,26.367,21.973,242.676
1532279233.185,41.504,41.992,27.344,22.461,135.742
1532279233.189,36.133,41.504,26.855,22.461,-160.645
1532279233.193,30.762,41.016,24.902,19.531,-129.395
1532279233.197,29.785,36.621,24.414,22.461,176.270
1532279233.201,36.621,36.133,24.414,14.160,191.895
1532279233.205,33.691,38.574,23.438,7.324,-123.047
1532279233.209,28.809,40.039,20.996,13.672,-199.219
1532279233.213,33.203,37.109,20.020,20.508,120.605
1532279233.217,36.133,38.086,19.043,22.461,262.695
1532279233.221,31.738,43.457,16.602,16.602,-37.109
1532279233.225,27.832,43.945,13.184,9.277,-226.562
1532279233.228,32.715,42.969,8.301,15.625,21.973
1532279233.232,35.156,39.062,7.324,17.578,253.906
1532279233.236,24.414,33.203,11.719,13.672,99.121
1532279233.240,15.137,31.738,11.230,15.137,-176.270
1532279233.244,23.926,31.250,10.254,19.531,-83.008
1532279233.248,24.414,27.832,14.648,29.297,225.586
1532279233.252,28.320,28.320,14.648,26.855,169.434
1532279233.256,38.574,31.738,10.254,16.602,-158.691
1532279233.260,30.273,30.273,9.766,16.113,-164.551
1532279233.264,38.086,29.785,7.812,18.066,137.207
1532279233.268,38.086,28.320,7.812,26.855,222.656
1532279233.271,39.062,26.855,11.230,34.180,-52.246
1532279233.275,54.199,28.320,10.742,39.062,-170.410
1532279233.279,55.176,26.367,9.277,42.480,103.516
1532279233.283,56.641,27.832,9.766,47.363,232.910
1532279233.287,56.152,27.832,9.277,45.898,-26.367
1532279233.291,53.223,25.879,7.812,42.969,-212.891
1532279233.295,55.664,24.902,6.836,49.316,-7.324
1532279233.299,58.594,25.879,6.348,44.922,229.492
1532279233.303,46.875,25.879,9.766,36.621,53.223
1532279233.307,50.781,27.832,9.766,38.574,-215.332
1532279233.310,54.688,27.344,8.301,50.293,-93.750
1532279233.314,49.316,24.414,5.859,52.246,209.473
1532279233.318,51.758,25.391,6.348,46.875,189.453
1532279233.322,57.129,26.367,7.812,42.969,-137.695
1532279233.326,65.430,27.344,5.371,44.434,-161.621
1532279233.330,63.965,27.832,3.906,41.992,168.457
1532279233.334,60.059,24.414,6.348,42.480,262.695
1532279233.338,55.664,22.949,5.371,39.062,-37.109
1532279233.342,61.523,26.855,5.371,38.086,-213.379
1532279233.346,64.941,26.367,5.371,50.293,41.992
1532279233.350,52.246,21.973,3.418,45.410,269.043
1532279233.353,57.617,22.949,3.906,35.645,62.988
1532279233.357,63.965,25.879,3.418,43.945,-174.316
1532279233.361,60.059,25.879,1.953,51.758,0.977
1532279233.365,62.500,22.461,4.395,57.129,249.023
1532279233.369,64.941,21.484,7.324,53.223,127.930
1532279233.373,67.871,21.484,5.371,46.387,-157.227
1532279233.377,62.012,20.508,5.371,51.270,-113.770
1532279233.381,68.359,22.461,7.812,56.152,185.547
1532279233.385,72.266,22.461,8.789,46.387,182.129
1532279233.389,61.523,20.020,7.812,43.457,-127.930
1532279233.392,62.988,17.090,8.301,54.688,-184.082
1532279233.396,65.430,16.113,7.812,52.246,131.836
1532279233.400,70.312,18.066,6.836,46.875,253.906
1532279233.404,60.059,18.066,8.301,46.875,-41.992
1532279233.408,52.246,19.043,6.348,44.434,-206.543
1532279233.412,53.711,18.066,5.859,43.457,52.734
1532279233.416,50.781,17.578,5.859,40.039,268.555
1532279233.420,51.758,18.555,5.859,26.855,63.477
1532279233.424,48.340,16.602,7.324,24.902,-220.215
1532279233.428,52.734,14.160,6.348,31.738,-67.871
1532279233.432,48.340,12.695,3.906,36.133,237.793
1532279233.435,35.645,13.672,5.371,32.715,116.211
1532279233.439,40.039,16.602,6.348,30.273,-177.734
1532279233.443,53.223,19.531,4.395,33.691,-129.395
1532279233.447,57.617,19.531,6.836,39.062,161.133
1532279233.451,56.152,19.043,7.324,40.527,204.590
1532279233.455,47.852,17.578,7.324,37.598,-80.078
1532279233.459,40.527,17.090,8.789,37.109,-160.645
1532279233.463,42.480,18.555,6.836,33.203,125.977
1532279233.467,43.457,19.531,4.883,27.344,276.855
1532279233.471,41.504,19.043,3.906,22.461,5.859
1532279233.475,41.016,19.043,4.883,20.996,-181.152
1532279233.478,43.457,19.531,6.836,29.297,42.969
1532279233.482,46.875,21.973,9.277,35.156,267.090
1532279233.486,47.852,23.438,8.301,29.297,107.910
1532279233.490,47.852,22.461,6.836,29.297,-172.363
1532279233.494,53.223,20.996,6.836,37.109,-81.055
1532279233.498,53.711,18.066,6.836,36.133,219.238
1532279233.502,52.734,20.508,8.301,30.762,167.969
1532279233.506,58.105,22.949,11.230,32.227,-148.438
1532279233.510,54.688,21.484,10.254,35.156,-154.785
1532279233.514,50.781,20.508,7.812,39.551,140.625
1532279233.517,51.270,17.090,7.812,40.039,228.027
1532279233.521,48.340,16.113,7.324,34.668,-68.848
1532279233.525,43.945,16.602,7.812,31.250,-215.820
1532279233.529,52.734,16.602,8.301,45.410,49.316
1532279233.533,53.711,15.137,6.348,48.828,221.191
1532279233.537,43.945,15.625,4.395,32.715,13.672
1532279233.541,41.992,17.090,6.348,27.344,-225.098
1532279233.545,41.992,15.625,3.418,26.855,-27.832
1532279233.549,41.504,16.113,2.441,23.438,254.883
1532279233.553,39.062,16.113,2.930,29.297,69.824
1532279233.557,34.668,15.625,-0.977,19.043,-201.172
1532279233.560,39.062,16.602,0.488,19.043,-94.727
1532279233.564,44.434,18.555,2.441,27.344,185.547
1532279233.568,30.273,17.578,3.906,20.508,177.734
1532279233.572,21.973,16.113,5.371,14.648,-122.070
1532279233.576,35.156,15.625,5.371,19.531,-158.691
1532279233.580,30.273,15.137,2.441,25.879,131.836
1532279233.584,24.902,16.602,1.465,18.066,204.590
1532279233.588,26.855,16.602,2.441,11.719,-69.824
1532279233.592,27.832,16.113,2.930,16.113,-177.734
1532279233.596,36.621,16.602,2.930,24.902,88.379
1532279233.600,38.086,18.066,2.930,29.785,259.766
1532279233.603,41.016,19.531,4.883,26.367,35.156
1532279233.607,45.898,18.555,3.906,22.949,-175.293
1532279233.611,42.969,17.090,3.418,23.926,-2.930
1532279233.615,31.250,15.625,3.418,19.531,240.723
1532279233.619,28.320,16.113,6.348,19.531,105.469
1532279233.623,31.250,17.578,8.301,20.020,-194.336
1532279233.627,30.273,16.113,7.324,18.066,-127.930
1532279233.631,33.203,12.695,7.812,27.832,222.168
1532279233.635,33.203,13.184,8.789,19.531,220.703
1532279233.639,43.945,15.625,7.812,19.043,-104.492
1532279233.642,48.340,19.531,7.324,25.391,-168.457
1532279233.646,40.527,19.531,5.859,25.391,133.789
1532279233.650,36.621,18.555,8.789,20.020,234.375
1532279233.654,35.156,20.020,10.254,16.113,-65.918
1532279233.658,47.363,18.555,9.277,22.461,-203.125
1532279233.662,37.598,15.137,9.277,23.926,59.082
1532279233.666,22.949,16.602,7.324,19.043,259.277
1532279233.670,35.156,19.531,8.301,14.160,52.734
1532279233.674,33.203,17.578,11.230,15.137,-193.848
1532279233.678,31.250,17.090,7.812,17.090,-30.762
1532279233.682,38.086,17.090,9.766,11.719,228.027
1532279233.685,43.457,18.066,10.254,3.418,102.539
1532279233.689,50.781,21.484,8.301,13.184,-158.691
1532279233.693,50.293,19.043,8.301,31.250,-98.145
1532279233.697,46.875,18.555,8.301,35.156,216.309
1532279233.701,42.969,16.113,8.789,33.203,194.336
1532279233.705,36.621,14.160,8.789,32.227,-148.926
1532279233.709,34.668,16.602,9.277,35.156,-184.082
1532279233.713,25.879,14.160,8.301,35.645,122.559
1532279233.717,27.832,12.207,7.812,36.133,251.953
1532279233.721,31.738,14.160,5.371,28.320,-14.160
1532279233.725,32.227,16.113,2.930,23.438,-244.141
1532279233.728,34.668,15.137,3.906,29.297,-7.812
1532279233.732,26.855,11.230,7.812,24.414,273.438
1532279233.736,30.273,11.230,6.836,18.066,93.262
1532279233.740,42.480,13.672,4.883,26.855,-203.125
1532279233.744,41.016,14.160,8.301,34.180,-68.359
1532279233.748,35.156,12.207,7.812,34.180,250.488
1532279233.752,36.133,13.672,9.766,28.320,169.922
1532279233.756,38.574,14.648,10.254,32.715,-141.602
1532279233.760,39.551,13.672,8.301,36.133,-132.812
1532279233.764,35.156,11.230,9.277,30.273,156.250
1532279233.767,38.086,10.254,9.277,27.344,214.355
1532279233.771,41.992,12.207,10.254,25.879,-83.496
1532279233.775,28.809,13.184,10.254,25.391,-190.430
1532279233.779,31.738,15.625,9.277,26.367,85.938
1532279233.783,39.551,18.066,12.695,27.832,218.750
1532279233.787,39.062,20.020,11.719,27.832,0.977
1532279233.791,41.992,18.555,8.789,26.855,-168.945
1532279233.795,45.410,20.996,6.836,32.227,39.551
1532279233.799,47.363,21.973,7.812,37.109,262.695
1532279233.803,42.969,19.531,8.789,28.809,82.520
1532279233.807,44.922,19.531,8.301,25.879,-184.082
1532279233.810,47.363,20.020,6.836,28.809,-83.496
1532279233.814,39.551,20.508,7.812,31.738,223.145
1532279233.818,37.109,21.484,9.766,30.762,210.449
1532279233.822,43.945,19.531,9.766,21.973,-138.184
1532279233.826,43.945,20.020,8.789,21.973,-173.340
1532279233.830,40.527,22.461,9.766,34.180,158.691
1532279233.834,43.457,19.531,7.812,30.762,233.887
1532279233.838,43.457,17.090,7.812,20.020,-30.273
1532279233.842,39.062,18.066,7.324,25.879,-175.781
1532279233.846,40.527,19.043,9.277,41.504,69.824
1532279233.850,41.504,20.020,12.207,35.645,263.184
1532279233.853,42.969,18.066,9.277,25.879,37.598
1532279233.857,37.109,16.602,9.277,25.879,-207.031
1532279233.861,40.527,17.578,8.789,28.320,-15.625
1532279233.865,50.781,17.090,6.836,22.949,231.445
1532279233.869,43.457,18.066,5.859,18.066,76.660
1532279233.873,44.434,20.020,4.883,23.438,-192.383
1532279233.877,42.480,18.066,5.371,14.648,-109.375
1532279233.881,39.062,17.090,7.324,20.508,202.148
1532279233.885,44.434,19.531,7.812,29.297,174.805
1532279233.889,44.922,19.531,8.301,30.273,-154.785
1532279233.892,43.457,17.578,6.836,34.668,-175.293
1532279233.896,45.410,17.090,5.859,33.203,149.902
1532279233.900,45.898,18.066,7.324,30.762,225.098
1532279233.904,34.180,19.531,6.836,22.461,-58.594
1532279233.908,40.527,21.484,6.348,20.996,-202.637
1532279233.912,48.828,20.508,9.277,32.227,36.133
1532279233.916,41.016,18.555,9.766,27.344,259.277
1532279233.920,50.293,19.531,5.371,19.043,56.641
1532279233.924,56.152,20.996,6.836,22.949,-210.449
1532279233.928,50.781,19.043,12.695,34.180,-57.617
1532279233.932,52.246,20.996,12.695,40.039,248.047
1532279233.935,52.734,22.461,12.207,37.109,175.781
1532279233.939,51.758,20.996,12.695,34.668,-147.949
1532279233.943,50.781,21.973,11.230,38.086,-120.605
1532279233.947,49.805,21.973,12.207,40.527,203.125
1532279233.951,45.898,21.973,9.766,30.273,210.449
1532279233.955,40.039,23.438,7.324,19.531,-88.379
1532279233.959,37.598,22.461,8.789,19.531,-143.555
1532279233.963,46.387,21.484,9.766,26.855,104.492
1532279233.967,51.270,21.973,9.766,33.203,232.422
1532279233.971,40.527,22.949,12.695,29.297,13.672
1532279233.974,40.527,22.949,14.160,28.320,-184.082
1532279233.978,35.645,20.020,12.695,33.691,28.809
1532279233.982,27.344,19.531,12.695,26.855,251.953
1532279233.986,31.738,20.996,12.207,20.996,81.055
1532279233.990,41.992,22.461,11.230,20.020,-185.059
1532279233.994,41.992,24.414,10.254,21.973,-59.082
1532279233.998,27.832,23.438,13.672,25.391,245.117
1532279234.002,31.250,23.438,15.625,22.461,130.859
1532279234.006,34.180,25.879,13.672,20.996,-184.570
1532279234.010,35.645,24.414,14.160,26.855,-156.250
1532279234.014,41.504,20.996,14.160,36.133,164.062
1532279234.017,38.574,22.461,15.625,36.133,226.074
1532279234.021,48.340,23.926,14.160,38.086,-91.309
1532279234.025,51.270,21.973,10.742,36.621,-181.152
1532279234.029,41.992,21.973,10.254,37.109,88.867
1532279234.033,46.387,23.926,9.766,31.738,254.395
1532279234.037,41.504,22.949,10.254,25.879,0.488
1532279234.041,40.039,19.043,10.254,33.691,-229.004
1532279234.045,46.875,22.461,10.254,37.109,-18.066
1532279234.049,48.828,25.391,11.719,40.527,230.469
1532279234.053,42.969,25.391,10.254,34.668,90.820
1532279234.057,42.969,27.344,9.766,25.879,-193.359
1532279234.060,46.387,28.320,10.254,33.203,-85.449
1532279234.064,47.852,28.320,11.719,36.133,206.055
1532279234.068,43.457,27.344,14.648,33.691,162.109
1532279234.072,33.691,28.320,16.113,32.227,-123.535
1532279234.076,39.551,30.273,13.184,35.645,-146.484
1532279234.080,51.270,31.250,14.160,45.410,168.457
1532279234.084,48.340,30.273,19.043,38.574,249.512
1532279234.088,40.039,31.250,15.625,29.297,-44.922
1532279234.092,41.992,33.203,17.090,31.250,-179.688
1532279234.096,36.621,29.785,17.090,26.855,74.219
1532279234.099,29.297,30.762,15.625,20.020,249.023
1532279234.103,29.297,38.086,19.531,15.625,2.441
1532279234.107,26.855,37.598,20.996,7.812,-242.676
1532279234.111,24.414,32.715,21.484,14.648,-48.828
1532279234.115,11.230,32.227,20.996,17.578,244.141
1532279234.119,13.184,34.180,20.996,12.695,156.738
1532279234.123,12.207,34.668,20.996,2.441,-136.719
1532279234.127,13.184,34.668,19.531,-2.441,-76.172
1532279234.131,17.578,35.645,21.484,4.883,207.031
1532279234.135,6.348,33.691,24.414,0.488,171.387
1532279234.139,0.488,32.227,24.902,-3.906,-105.957
1532279234.142,9.766,30.273,25.391,3.418,-158.203
1532279234.146,12.695,34.180,21.484,-0.488,101.562
1532279234.150,7.324,42.969,18.066,-4.395,225.586
1532279234.154,2.441,41.992,19.531,-3.906,-29.785
1532279234.158,0.000,38.086,22.461,-6.836,-187.988
1532279234.162,3.418,37.109,25.879,-4.395,33.691
1532279234.166,6.348,36.621,28.320,-1.953,233.398
1532279234.170,0.488,39.062,24.902,-9.766,41.504
1532279234.174,0.488,43.945,20.996,-14.160,-216.309
1532279234.178,0.488,45.410,20.996,-10.254,-63.477
1532279234.182,-8.301,42.480,22.949,-10.742,240.234
1532279234.185,-7.324,38.574,27.832,-13.184,136.230
1532279234.189,-6.836,37.109,29.297,-11.719,-186.523
1532279234.193,-3.906,35.645,25.879,-7.812,-128.906
1532279234.197,4.883,39.551,22.461,-3.418,198.730
1532279234.201,9.277,44.434,22.461,-2.441,206.543
1532279234.205,8.301,43.945,23.438,-10.742,-124.512
1532279234.209,4.883,38.086,24.902,-7.812,-200.684
1532279234.213,4.395,37.109,24.414,0.000,129.883
1532279234.217,6.836,38.574,23.926,-2.441,255.371
1532279234.221,11.230,41.504,22.949,-5.859,-25.391
1532279234.224,9.766,41.016,23.438,-2.930,-204.102
1532279234.228,15.137,36.133,23.926,6.348,14.648
1532279234.232,14.648,35.156,25.391,7.324,247.559
1532279234.236,18.066,34.180,26.367,7.812,70.801
1532279234.240,27.832,35.645,26.367,11.230,-188.477
1532279234.244,23.926,40.039,23.926,7.324,-76.172
1532279234.248,25.391,40.527,17.578,9.277,207.031
1532279234.252,28.809,37.598,15.137,12.207,141.113
1532279234.256,24.902,35.156,13.184,12.695,-156.738
1532279234.260,26.367,32.715,13.184,17.090,-153.320
1532279234.264,32.715,29.785,14.160,28.320,145.508
1532279234.267,35.156,30.762,16.113,31.738,213.379
1532279234.271,36.133,31.250,17.578,24.414,-96.191
1532279234.275,41.016,29.785,14.648,20.508,-216.797
1532279234.279,42.480,30.762,14.160,28.320,72.266
1532279234.283,40.527,32.715,18.066,30.273,209.961
1532279234.287,39.062,32.227,16.113,21.484,-61.523
1532279234.291,39.062,30.273,16.113,30.273,-204.590
1532279234.295,46.387,30.762,17.578,36.133,33.203
1532279234.299,52.246,33.203,14.160,33.691,259.277
1532279234.303,47.852,35.156,15.137,33.691,90.332
1532279234.307,46.387,36.133,16.113,33.691,-170.898
1532279234.310,45.410,34.180,15.137,35.156,-78.613
1532279234.314,40.039,32.715,16.113,34.668,206.055
1532279234.318,38.574,35.156,15.137,29.297,169.434
1532279234.322,35.156,34.180,15.137,17.578,-134.766
1532279234.326,39.062,31.738,16.113,18.066,-164.062
1532279234.330,40.527,32.715,16.113,32.227,133.789
1532279234.334,36.133,31.738,17.578,33.203,230.469
1532279234.338,37.598,32.227,18.555,29.785,-58.594
1532279234.342,40.527,34.180,19.531,22.461,-229.492
1532279234.346,41.016,36.621,20.996,20.508,14.648
1532279234.349,36.621,36.621,19.043,27.832,237.305
1532279234.353,40.039,33.691,17.578,26.855,39.551
1532279234.357,37.598,32.715,15.625,23.438,-176.758
1532279234.361,34.180,33.691,12.695,25.879,8.301
1532279234.365,36.621,34.180,12.695,26.855,224.609
1532279234.369,28.320,33.691,16.113,25.879,113.281
1532279234.373,29.297,34.668,17.090,21.973,-151.367
1532279234.377,26.855,34.668,18.066,29.297,-101.074
1532279234.381,37.109,35.156,20.996,35.156,198.242
1532279234.385,41.016,38.086,19.043,20.996,184.082
1532279234.389,23.438,38.086,19.531,14.648,-125.488
1532279234.392,28.320,33.691,21.484,23.438,-171.875
1532279234.396,36.621,30.762,20.508,34.180,137.695
1532279234.400,37.109,32.715,21.484,36.133,262.207
1532279234.404,28.809,39.551,18.555,17.090,-30.762
1532279234.408,26.855,43.457,13.672,6.836,-205.566
1532279234.412,28.809,44.434,11.230,7.812,39.551
1532279234.416,33.691,46.387,14.160,13.184,236.816
1532279234.420,20.996,42.969,20.996,9.766,22.461
1532279234.424,9.277,39.551,23.926,-4.883,-240.234
1532279234.428,15.625,41.992,23.926,4.883,-68.848
1532279234.431,18.555,41.016,21.973,11.230,247.559
1532279234.435,11.719,38.086,23.438,6.836,143.555
1532279234.439,14.648,39.062,24.414,6.836,-154.785
1532279234.443,26.855,39.551,21.484,10.254,-112.793
1532279234.447,32.227,36.133,20.508,16.113,186.035
1532279234.451,27.344,36.133,21.484,3.906,237.793
1532279234.455,27.832,39.062,25.391,-3.418,-60.059
1532279234.459,33.691,41.992,26.855,3.906,-138.184
1532279234.463,28.809,43.945,23.438,9.277,129.883
1532279234.467,27.832,45.410,21.484,13.672,218.750
1532279234.471,22.949,43.945,24.902,8.301,-3.418
1532279234.474,15.625,37.109,31.250,14.160,-155.762
1532279234.478,13.184,32.715,30.273,27.832,47.363
1532279234.482,17.090,36.133,28.320,21.973,226.074
1532279234.486,16.113,40.039,27.832,14.160,50.293
1532279234.490,15.137,37.598,28.809,9.766,-170.898
1532279234.494,14.648,32.715,29.785,9.766,-59.570
1532279234.498,4.395,31.250,26.855,13.184,221.191
1532279234.502,10.254,34.668,25.879,4.883,125.488
1532279234.506,7.324,39.551,23.438,-3.418,-172.852
1532279234.510,4.395,39.551,20.508,-4.883,-119.629
1532279234.514,12.207,39.062,19.531,-1.953,171.387
1532279234.517,16.113,38.574,21.973,1.953,207.031
1532279234.521,17.090,38.086,24.414,0.488,-80.566
1532279234.525,15.137,37.598,26.855,-6.836,-217.285
1532279234.529,17.578,34.180,28.320,2.441,71.289
1532279234.533,16.113,35.156,23.438,6.836,265.137
1532279234.537,16.602,33.203,21.973,-0.977,28.809
1532279234.541,22.949,33.203,23.926,-0.977,-203.125
1532279234.545,17.578,34.668,21.484,0.000,-9.277
1532279234.549,20.020,32.227,19.531,2.930,270.996
1532279234.553,27.344,33.203,19.043,6.348,106.445
1532279234.556,26.367,32.227,22.949,15.137,-168.457
1532279234.560,22.461,31.250,23.438,13.672,-72.754
1532279234.564,17.578,28.809,21.484,7.812,207.520
1532279234.568,22.949,27.344,23.438,6.836,176.758
1532279234.572,29.297,27.832,25.391,7.812,-120.605
1532279234.576,27.344,24.902,25.391,14.160,-134.766
1532279234.580,23.438,24.414,22.949,20.020,169.434
1532279234.584,24.902,29.785,20.508,15.625,245.117
1532279234.588,32.715,32.715,18.555,8.301,-47.852
1532279234.592,33.203,31.738,17.090,12.207,-189.453
1532279234.596,25.879,28.809,19.043,20.996,71.289
1532279234.599,23.438,27.832,22.461,22.949,264.160
1532279234.603,21.973,27.832,23.926,19.531,13.184
1532279234.607,29.785,27.832,23.438,21.973,-227.051
1532279234.611,29.785,29.297,24.902,25.391,-15.625
1532279234.615,30.273,27.832,26.367,31.738,266.602
1532279234.619,37.598,27.344,22.461,34.180,126.465
1532279234.623,41.992,32.715,20.020,30.762,-209.473
1532279234.627,39.551,34.668,18.066,32.227,-130.859
1532279234.631,35.156,29.297,19.531,34.668,236.816
1532279234.635,34.180,24.902,21.484,30.273,234.863
1532279234.639,39.551,26.367,16.113,28.320,-104.004
1532279234.642,44.922,28.320,13.672,32.227,-173.340
1532279234.646,40.039,24.902,16.602,36.133,135.254
1532279234.650,34.180,21.484,21.973,33.691,252.930
1532279234.654,37.598,21.973,21.484,25.391,-28.320
1532279234.658,42.480,26.855,17.578,27.832,-215.332
1532279234.662,43.945,32.715,11.719,25.391,1.953
1532279234.666,43.945,33.691,10.742,22.949,210.938
1532279234.670,39.551,30.273,17.090,33.691,22.461
1532279234.674,35.156,25.879,19.043,35.645,-198.242
1532279234.678,36.621,26.855,18.555,37.109,-46.387
1532279234.681,38.086,28.320,18.555,35.156,230.957
1532279234.685,39.062,27.832,17.578,25.879,118.652
1532279234.689,40.527,29.785,13.184,23.926,-168.945
1532279234.693,30.273,27.832,11.719,23.926,-111.816
1532279234.697,26.855,26.855,9.766,24.902,200.195
1532279234.701,30.273,26.855,10.254,21.484,197.754
1532279234.705,36.621,25.879,12.695,17.090,-132.324
1532279234.709,33.691,24.902,13.184,22.949,-176.270
1532279234.713,25.879,20.996,18.066,24.414,134.766
1532279234.717,32.715,19.531,19.531,20.020,283.203
1532279234.721,45.898,24.414,17.090,22.461,10.742
1532279234.724,40.527,30.273,12.207,19.043,-191.406
1532279234.728,31.250,33.203,7.324,19.043,41.504
1532279234.732,32.227,31.738,9.277,20.508,251.465
1532279234.736,31.738,27.344,13.184,17.090,84.961
1532279234.740,29.297,27.344,13.184,12.207,-194.824
1532279234.744,28.320,27.832,15.625,15.137,-105.469
1532279234.748,31.250,27.344,20.020,24.414,198.242
1532279234.752,33.203,28.809,21.484,24.414,157.227
1532279234.756,37.598,28.320,21.973,26.367,-142.090
1532279234.760,36.133,25.391,20.508,30.273,-136.719
1532279234.764,30.762,23.926,19.043,30.273,165.039
1532279234.767,30.273,25.391,20.996,27.832,226.074
1532279234.771,33.203,30.273,19.043,20.020,-59.570
1532279234.775,32.715,31.250,12.695,21.484,-177.734
1532279234.779,40.527,30.273,9.766,30.762,79.590
1532279234.783,41.992,26.855,14.648,23.926,217.773
1532279234.787,19.043,22.949,17.090,10.254,-14.648
1532279234.791,21.973,23.438,15.137,15.137,-237.793
1532279234.795,31.738,23.926,15.137,24.414,-15.137
1532279234.799,24.902,24.902,15.137,21.484,260.742
1532279234.803,25.879,23.926,11.719,11.719,84.473
1532279234.806,30.273,23.926,12.695,16.602,-191.406
1532279234.810,44.434,24.902,17.090,26.855,-86.914
1532279234.814,42.969,25.391,12.207,28.320,236.328
1532279234.818,30.762,24.414,11.230,22.461,228.027
1532279234.822,34.180,23.438,15.625,18.555,-111.816
1532279234.826,36.133,22.949,15.137,21.973,-159.668
1532279234.830,29.785,21.973,17.578,28.320,179.688
1532279234.834,28.809,20.508,19.043,23.926,269.531
1532279234.838,33.691,19.043,18.555,23.438,-46.875
1532279234.842,34.668,19.043,19.043,30.273,-214.844
1532279234.846,36.621,19.531,18.555,32.715,33.691
1532279234.849,38.086,19.531,17.090,33.203,255.859
1532279234.853,39.551,18.555,19.043,29.785,54.688
1532279234.857,37.109,17.578,22.461,29.297,-190.430
1532279234.861,38.574,17.578,22.949,30.762,-46.387
1532279234.865,39.551,19.531,20.996,31.250,200.195
1532279234.869,34.668,20.996,20.020,32.227,104.980
1532279234.873,35.645,21.484,20.996,31.738,-160.156
1532279234.877,39.062,22.949,19.043,38.086,-97.656
1532279234.881,38.086,21.484,18.066,40.527,208.496
1532279234.885,39.551,21.484,18.066,32.715,194.824
1532279234.889,42.969,21.484,16.602,29.785,-135.254
1532279234.892,42.969,17.090,20.020,34.668,-172.852
1532279234.896,43.457,16.602,21.973,41.992,137.695
1532279234.900,52.246,22.461,18.555,50.293,233.887
1532279234.904,58.594,20.508,13.672,47.363,-66.895
1532279234.908,49.805,12.695,17.090,37.598,-216.309
1532279234.912,45.898,10.742,20.020,44.434,45.410
1532279234.916,46.387,13.184,18.066,49.805,225.586
1532279234.920,49.316,14.648,19.043,42.480,34.668
1532279234.924,49.805,14.648,20.996,41.016,-193.359
1532279234.928,52.246,15.137,17.578,48.828,-62.012
1532279234.931,51.270,13.672,18.555,55.176,236.816
1532279234.935,47.852,15.137,24.414,51.758,135.742
1532279234.939,48.340,15.625,24.414,44.922,-170.898
1532279234.943,47.852,13.184,20.996,42.480,-126.465
1532279234.947,51.270,14.160,20.508,48.340,183.105
1532279234.951,49.316,16.602,20.996,46.387,217.285
1532279234.955,42.969,16.113,21.484,34.668,-92.285
1532279234.959,40.527,18.066,20.996,36.621,-150.391
1532279234.963,43.457,19.531,20.508,38.086,126.953
1532279234.967,43.945,18.555,21.484,38.086,232.422
1532279234.971,35.645,19.043,20.508,38.574,-10.742
1532279234.974,34.668,18.066,19.531,38.086,-216.309
1532279234.978,41.504,17.090,19.043,45.898,0.000
1532279234.982,44.434,18.066,17.090,43.945,228.516
1532279234.986,38.574,19.043,15.625,32.715,35.645
1532279234.990,41.992,17.090,15.625,35.156,-204.102
1532279234.994,40.039,15.137,14.160,39.062,-65.918
1532279234.998,36.621,16.113,13.184,41.504,242.676
1532279235.002,44.434,18.066,14.160,37.598,175.293
1532279235.006,46.875,19.043,14.160,35.645,-142.090
1532279235.010,44.922,17.090,14.160,43.945,-125.488
1532279235.013,47.852,16.113,15.137,47.852,187.500
1532279235.017,50.293,18.066,14.648,48.340,217.773
1532279235.021,52.734,19.043,12.207,46.875,-81.055
1532279235.025,51.758,20.020,14.648,45.410,-203.125
1532279235.029,49.316,20.020,16.602,47.852,82.031
1532279235.033,49.316,19.531,15.137,46.875,254.883
1532279235.037,53.711,21.973,11.719,39.062,14.648
1532279235.041,50.293,24.902,12.207,34.180,-196.777
1532279235.045,46.387,24.414,15.137,33.691,-47.852
1532279235.049,41.016,22.949,15.137,33.691,227.051
1532279235.053,35.156,22.949,18.066,29.785,107.422
1532279235.056,42.969,22.949,17.578,22.949,-177.734
1532279235.060,46.387,21.973,15.625,31.250,-83.984
1532279235.064,43.457,20.996,17.090,39.551,228.516
1532279235.068,43.457,20.020,18.066,36.621,211.426
1532279235.072,50.293,20.020,16.602,35.156,-109.375
1532279235.076,52.246,21.484,13.184,38.086,-158.691
1532279235.080,49.316,20.996,14.648,41.992,150.879
1532279235.084,51.270,23.438,13.672,31.250,209.961
1532279235.088,46.387,22.949,11.719,21.484,-52.734
1532279235.092,49.316,20.508,12.695,29.785,-169.434
1532279235.096,54.199,20.508,8.789,33.203,63.477
1532279235.099,55.664,22.949,9.766,35.156,257.324
1532279235.103,54.688,23.926,10.742,33.203,26.367
1532279235.107,48.340,20.996,10.254,28.320,-197.754
1532279235.111,48.828,21.973,9.766,38.086,12.207
1532279235.115,48.828,19.531,10.254,45.898,275.391
1532279235.119,54.688,20.020,11.719,44.434,131.836
1532279235.123,63.477,21.973,13.184,44.922,-174.316
1532279235.127,59.082,22.949,15.137,47.363,-108.887
1532279235.131,60.547,24.414,14.648,51.270,210.938
1532279235.135,59.570,23.438,16.602,45.410,208.496
1532279235.138,58.594,26.367,19.043,40.527,-95.215
1532279235.142,54.688,30.273,18.066,32.715,-188.477
1532279235.146,52.734,31.250,18.555,28.320,95.215
1532279235.150,49.316,29.785,20.996,34.668,246.094
1532279235.154,43.457,28.320,20.020,36.133,-34.180
1532279235.158,45.898,28.320,17.578,33.691,-201.660
1532279235.162,45.410,26.855,19.531,36.133,31.250
1532279235.166,43.945,27.832,19.531,41.992,255.859
1532279235.170,41.016,28.320,18.555,37.598,67.871
1532279235.174,40.527,27.832,19.531,35.156,-225.098
1532279235.178,40.039,27.832,17.578,34.180,-50.293
1532279235.181,33.691,26.855,15.625,28.809,238.770
1532279235.185,33.691,27.832,17.090,24.414,114.746
1532279235.189,31.738,27.832,18.555,19.043,-178.711
1532279235.193,33.203,27.832,19.531,20.508,-155.273
1532279235.197,31.250,27.832,18.066,23.926,184.570
1532279235.201,26.855,26.855,18.066,19.043,201.660
1532279235.205,29.785,25.879,20.508,17.090,-108.887
1532279235.209,32.227,24.902,20.996,26.367,-154.785
1532279235.213,35.645,26.855,18.555,29.785,130.859
1532279235.217,26.855,27.832,18.066,21.484,260.742
1532279235.221,21.973,25.391,20.508,19.043,-13.184
1532279235.224,31.250,31.250,19.043,20.508,-227.051
1532279235.228,39.062,38.086,13.184,25.879,-13.672
1532279235.232,33.691,37.109,14.160,19.043,245.605
1532279235.236,26.855,34.668,19.531,11.230,94.727
1532279235.240,27.344,33.203,23.438,9.766,-192.871
1532279235.244,32.227,33.691,24.414,13.184,-83.984
1532279235.248,32.227,32.715,23.926,16.113,237.793
1532279235.252,25.879,29.785,24.902,5.859,145.508
1532279235.256,38.574,30.273,24.414,2.441,-177.246
1532279235.260,44.434,32.715,25.391,10.742,-158.691
1532279235.263,35.645,31.250,27.832,18.555,155.762
1532279235.267,33.691,31.250,28.320,19.531,215.332
1532279235.271,26.367,32.227,26.855,20.996,-85.449
1532279235.275,23.438,29.785,29.297,26.855,-188.477
1532279235.279,25.391,26.367,32.227,32.715,74.707
1532279235.283,21.484,29.297,32.227,27.344,203.125
1532279235.287,22.461,30.762,32.715,19.531,-21.973
1532279235.291,26.367,26.367,32.227,24.902,-212.891
1532279235.295,22.461,25.879,30.273,27.344,-20.508
1532279235.299,22.461,23.926,29.785,27.344,255.371
1532279235.303,29.785,24.414,28.320,23.926,85.938
1532279235.306,32.715,26.855,26.367,19.043,-216.309
1532279235.310,30.762,29.297,22.949,22.949,-119.141
1532279235.314,26.367,32.227,20.996,26.855,195.801
1532279235.318,23.438,30.273,25.879,26.855,162.109
1532279235.322,30.273,28.809,28.320,26.367,-146.973
1532279235.326,39.551,27.344,28.320,34.180,-164.062
1532279235.330,38.574,24.902,27.832,40.527,125.488
1532279235.334,44.434,28.320,26.367,38.086,222.656
1532279235.338,43.945,30.273,28.320,37.109,-44.922
1532279235.342,39.551,29.785,26.855,32.715,-200.684
1532279235.346,42.969,31.738,24.902,32.227,69.336
1532279235.349,33.691,29.297,25.879,31.738,277.832
1532279235.353,32.227,24.902,28.809,22.949,44.434
1532279235.357,24.902,23.438,31.738,18.555,-189.941
1532279235.361,21.973,23.926,29.297,24.902,-9.766
1532279235.365,31.738,24.902,26.855,30.762,241.699
1532279235.369,38.574,26.367,26.367,35.645,116.699
1532279235.373,36.621,25.879,27.344,31.250,-183.594
1532279235.377,36.133,24.414,24.902,28.320,-117.188
1532279235.381,39.062,23.926,22.949,34.668,193.359
1532279235.385,39.551,23.926,25.391,34.668,175.293
1532279235.388,44.922,27.344,20.996,29.785,-116.211
1532279235.392,45.898,27.832,17.090,28.320,-186.035
1532279235.396,40.527,26.855,18.555,31.250,114.746
1532279235.400,34.668,28.809,18.066,20.508,281.250
1532279235.404,29.785,26.367,19.043,9.766,-45.410
1532279235.408,29.785,22.461,20.996,21.973,-235.840
1532279235.412,34.180,19.043,18.555,33.691,53.223
1532279235.416,40.039,19.043,11.719,33.691,264.160
1532279235.420,41.504,23.438,8.301,30.762,65.430
1532279235.424,44.434,25.879,8.789,26.367,-185.547
1532279235.428,46.387,26.367,10.254,30.273,-31.738
1532279235.431,41.504,23.926,9.277,38.574,248.047
1532279235.435,42.480,24.414,8.301,34.180,153.320
1532279235.439,41.504,25.879,12.207,29.785,-159.180
1532279235.443,46.387,25.879,11.719,36.621,-153.320
1532279235.447,50.293,27.832,12.207,41.504,162.598
1532279235.451,44.434,30.762,15.137,39.551,190.430
1532279235.455,42.969,32.715,14.648,35.645,-102.051
1532279235.459,48.828,32.715,14.648,34.180,-159.180
1532279235.463,47.852,30.762,15.137,30.762,91.797
1532279235.467,42.969,31.250,17.578,25.879,202.637
1532279235.470,42.969,31.738,19.531,27.344,-31.250
1532279235.474,39.062,30.762,19.043,31.738,-198.730
1532279235.478,37.598,28.809,17.578,36.621,38.574
1532279235.482,35.645,30.273,20.020,35.645,295.410
1532279235.486,40.527,33.691,20.508,32.715,97.656
1532279235.490,45.898,35.645,15.625,30.273,-198.242
1532279235.494,46.387,37.109,15.625,32.227,-51.758
1532279235.498,41.992,36.133,19.043,34.180,246.582
1532279235.502,41.016,35.645,18.066,28.320,171.387
1532279235.506,42.969,36.133,17.090,25.879,-155.762
1532279235.510,40.039,37.109,14.648,28.809,-155.762
1532279235.513,41.016,36.621,10.742,24.902,178.223
1532279235.517,39.062,35.156,10.742,24.902,237.305
1532279235.521,41.016,34.668,11.719,21.484,-79.590
1532279235.525,40.527,35.645,12.695,15.625,-215.332
1532279235.529,35.156,34.180,10.742,24.414,74.219
1532279235.533,39.062,33.203,10.742,28.809,271.484
1532279235.537,36.621,31.738,12.207,22.461,17.578
1532279235.541,30.762,31.250,11.230,20.020,-209.473
1532279235.545,30.273,31.738,11.719,23.438,-10.254
1532279235.549,31.738,30.273,11.230,27.832,235.840
1532279235.553,33.691,30.762,15.625,20.996,103.027
1532279235.556,29.785,29.297,16.602,20.508,-180.664
1532279235.560,23.926,28.809,17.090,30.762,-102.539
1532279235.564,20.508,27.832,18.555,21.973,186.035
1532279235.568,22.461,28.320,17.090,17.578,141.602
1532279235.572,32.227,30.273,14.648,24.414,-139.160
1532279235.576,33.203,29.297,11.230,25.391,-137.207
1532279235.580,37.109,31.250,10.254,27.832,158.691
1532279235.584,40.527,34.668,11.230,23.438,235.840
1532279235.588,32.227,33.691,8.789,18.555,-48.828
1532279235.592,34.180,32.227,11.719,18.555,-229.004
1532279235.595,28.320,31.250,15.137,22.461,28.320
1532279235.599,27.344,30.273,14.648,26.855,240.234
1532279235.603,37.109,32.715,12.207,19.043,20.020
1532279235.607,34.180,33.203,9.277,14.648,-201.172
1532279235.611,24.902,31.250,8.789,17.090,-24.414
1532279235.615,28.809,31.738,12.695,20.508,239.258
1532279235.619,39.062,33.203,11.719,20.996,111.816
1532279235.623,43.945,35.156,9.277,18.066,-187.988
1532279235.627,35.645,33.691,12.207,26.855,-118.164
1532279235.631,29.297,32.227,15.625,23.926,208.984
1532279235.635,29.785,34.668,15.625,21.484,189.453
1532279235.638,30.762,36.133,12.695,22.949,-129.883
1532279235.642,32.715,32.715,11.230,19.043,-187.500
1532279235.646,28.809,29.785,11.230,17.578,88.867
1532279235.650,31.738,31.250,10.742,19.043,218.750
1532279235.654,35.645,34.668,10.742,22.461,-20.508
1532279235.658,34.180,34.180,8.301,24.902,-206.543
1532279235.662,40.527,31.738,6.348,25.391,26.855
1532279235.666,35.156,31.250,7.812,22.461,279.297
1532279235.670,31.250,30.762,11.230,19.531,75.684
1532279235.674,34.180,30.762,14.160,26.367,-200.195
1532279235.678,34.668,31.250,9.766,32.227,-51.270
1532279235.681,33.203,28.320,8.301,29.297,243.652
1532279235.685,28.809,27.344,10.742,26.367,150.879
1532279235.689,27.832,28.809,10.742,18.555,-153.809
1532279235.693,30.762,30.273,9.766,21.973,-129.883
1532279235.697,31.250,29.297,8.789,33.203,196.289
1532279235.701,33.691,29.297,9.277,27.344,212.891
1532279235.705,34.180,30.762,10.742,20.020,-129.395
1532279235.709,32.227,30.762,10.742,21.973,-199.219
1532279235.713,38.086,32.227,11.719,32.227,108.398
1532279235.717,37.109,31.738,12.207,32.227,233.398
1532279235.720,32.227,31.738,14.648,22.461,-16.602
1532279235.724,30.273,28.809,16.602,22.949,-203.125
1532279235.728,25.879,27.344,14.160,26.367,0.488
1532279235.732,31.250,30.273,14.648,26.367,240.234
1532279235.736,34.180,29.785,16.113,23.926,78.125
1532279235.740,33.203,25.879,12.207,19.531,-191.895
1532279235.744,32.227,28.809,8.301,16.113,-80.566
1532279235.748,25.879,33.691,3.418,11.230,209.473
1532279235.752,25.391,32.227,3.418,18.066,132.324
1532279235.756,22.461,29.297,7.812,16.602,-157.227
1532279235.760,17.090,26.855,6.348,13.184,-122.559
1532279235.763,24.902,27.344,8.789,26.367,179.688
1532279235.767,31.738,30.273,12.207,28.320,228.027
1532279235.771,37.598,31.250,14.160,30.762,-64.941
1532279235.775,41.992,30.273,14.160,37.109,-172.852
1532279235.779,41.504,31.738,9.277,39.062,86.426
1532279235.783,43.457,36.621,3.418,23.926,222.656
1532279235.787,40.039,36.621,5.859,16.113,-6.348
1532279235.791,43.457,31.738,9.277,24.902,-187.012
1532279235.795,40.527,31.738,8.789,23.438,12.207
1532279235.799,32.715,33.691,9.766,20.996,272.461
1532279235.803,33.691,33.203,11.719,17.578,99.121
1532279235.806,36.133,33.691,13.184,18.555,-201.172
1532279235.810,36.621,32.227,13.672,28.320,-97.168
1532279235.814,37.598,31.738,10.742,30.762,216.309
1532279235.818,36.621,32.715,8.301,24.902,202.148
1532279235.822,28.320,29.785,8.789,12.695,-125.000
1532279235.826,28.809,28.320,5.371,8.301,-181.152
1532279235.830,25.879,27.344,5.371,16.602,127.441
1532279235.834,25.391,24.902,7.812,20.996,202.148
1532279235.838,32.227,25.879,4.883,22.461,-65.430
1532279235.842,34.668,27.344,4.883,20.508,-194.824
1532279235.845,29.297,24.414,6.836,19.043,54.199
1532279235.849,23.438,22.949,5.859,18.555,245.605
1532279235.853,26.367,25.391,3.906,14.160,28.809
1532279235.857,28.320,25.391,3.418,9.766,-195.312
1532279235.861,27.344,23.926,3.418,11.719,-27.344
1532279235.865,27.832,23.926,5.371,17.578,235.840
1532279235.869,31.250,26.855,6.348,12.695,125.488
1532279235.873,29.785,28.320,0.977,6.836,-169.922
1532279235.877,28.809,26.367,2.930,17.578,-101.074
1532279235.881,30.273,24.414,8.301,23.438,220.215
1532279235.885,28.320,23.438,5.859,14.160,192.871
1532279235.888,26.367,24.902,5.859,8.789,-122.070
1532279235.892,26.855,23.926,4.395,12.695,-175.293
1532279235.896,24.902,22.949,4.395,20.508,126.953
1532279235.900,21.973,24.902,6.348,20.996,215.332
1532279235.904,26.367,25.391,4.883,14.648,-65.918
1532279235.908,31.250,22.949,1.953,10.742,-194.336
1532279235.912,25.391,23.926,1.953,12.207,54.199
1532279235.916,21.973,22.949,3.906,17.578,279.785
1532279235.920,22.949,23.438,4.883,14.648,70.312
1532279235.924,32.227,26.855,3.906,5.859,-208.984
1532279235.928,41.504,26.855,2.930,17.578,-63.965
1532279235.931,35.645,26.367,2.930,26.367,234.863
1532279235.935,32.227,27.832,0.488,13.184,161.133
1532279235.939,39.062,30.273,0.000,13.672,-133.789
1532279235.943,34.668,28.320,5.859,19.531,-113.770
1532279235.947,32.227,26.855,10.254,14.648,206.543
1532279235.951,27.832,25.879,10.742,13.672,241.211
1532279235.955,23.926,22.949,12.207,14.160,-87.891
1532279235.959,29.297,21.484,12.695,19.531,-185.059
1532279235.963,23.438,20.508,9.766,24.902,95.215
1532279235.967,19.043,20.996,8.301,20.020,232.422
1532279235.970,21.484,21.484,9.277,18.555,-22.461
1532279235.974,22.461,24.902,8.301,20.508,-230.957
1532279235.978,24.902,27.832,5.371,17.090,10.742
1532279235.982,30.273,29.297,3.418,11.719,258.301
1532279235.986,28.320,28.320,5.859,14.648,79.590
1532279235.990,21.484,23.926,6.836,9.277,-175.781
1532279235.994,17.578,22.949,7.324,10.254,-76.172
1532279235.998,19.043,24.414,6.836,15.625,207.031
1532279236.002,19.531,23.438,6.836,9.277,155.762
1532279236.006,18.066,23.926,8.789,0.000,-183.594
1532279236.010,19.043,24.902,11.230,11.230,-177.734
1532279236.013,24.414,23.438,12.207,23.438,160.645
1532279236.017,22.461,23.926,12.207,19.531,227.539
1532279236.021,27.344,27.344,10.742,18.555,-91.797
1532279236.025,23.926,27.832,8.789,15.137,-208.496
1532279236.029,21.973,27.344,8.789,17.090,104.980
1532279236.033,23.926,28.320,10.254,19.043,268.555
1532279236.037,26.367,29.785,11.719,16.602,32.715
1532279236.041,31.250,29.785,13.672,18.066,-200.195
1532279236.045,29.785,28.320,13.672,21.973,-32.227
1532279236.049,24.902,27.832,14.648,20.996,247.559
1532279236.052,24.414,25.391,18.066,17.578,131.836
1532279236.056,38.086,27.344,16.602,24.902,-142.090
1532279236.060,40.527,30.762,15.625,28.809,-65.430
1532279236.064,36.621,29.297,16.602,24.902,201.660
1532279236.068,32.715,27.832,14.648,16.602,180.176
1532279236.072,33.691,27.344,17.090,19.531,-99.609
1532279236.076,40.527,27.344,18.066,21.973,-121.582
1532279236.080,33.203,27.344,16.602,23.438,176.270
1532279236.084,38.086,26.367,16.113,24.902,262.695
1532279236.088,48.340,26.855,14.160,22.949,-57.129
1532279236.092,52.246,30.762,12.695,20.508,-195.801
1532279236.095,51.270,28.809,12.695,22.949,91.309
1532279236.099,41.016,27.832,11.719,24.902,255.859
1532279236.103,35.645,29.785,11.719,14.160,24.414
1532279236.107,34.180,29.297,10.742,18.066,-194.824
1532279236.111,36.621,31.250,9.277,23.926,-25.391
1532279236.115,36.133,31.250,10.742,23.438,250.000
1532279236.119,26.367,28.320,14.160,29.297,148.926
1532279236.123,27.344,26.855,13.184,20.996,-187.012
1532279236.127,25.879,26.855,10.742,19.043,-134.766
1532279236.131,29.297,25.391,11.719,30.273,215.820
1532279236.135,35.645,19.531,12.695,30.273,214.844
1532279236.138,32.715,18.066,12.207,24.414,-124.512
1532279236.142,32.715,20.508,11.230,24.902,-187.012
1532279236.146,34.668,20.996,11.719,31.250,125.488
1532279236.150,30.273,20.996,9.766,27.832,244.141
1532279236.154,23.926,20.020,8.789,15.137,-42.969
1532279236.158,23.926,19.043,12.207,19.531,-214.844
1532279236.162,31.250,19.043,12.695,29.785,33.691
1532279236.166,31.250,18.066,10.254,26.367,228.516
1532279236.170,29.785,16.602,11.719,26.855,41.016
1532279236.174,36.621,16.113,14.160,30.273,-198.242
1532279236.177,37.598,15.137,9.766,32.715,-43.457
1532279236.181,29.297,16.113,8.301,33.203,237.305
1532279236.185,40.527,18.066,10.254,31.250,120.117
1532279236.189,46.875,17.578,10.254,27.344,-178.223
1532279236.193,36.621,16.602,10.254,31.738,-128.418
1532279236.197,34.668,19.531,9.277,35.156,188.477
1532279236.201,41.504,21.973,6.348,27.344,218.750
1532279236.205,38.086,22.949,7.324,16.113,-102.051
1532279236.209,28.320,20.020,7.812,16.113,-171.387
1532279236.213,27.344,18.066,4.883,20.020,132.324
1532279236.217,22.461,21.484,5.371,20.020,250.977
1532279236.220,23.438,21.973,8.789,20.996,-11.230
1532279236.224,31.250,19.043,6.348,23.926,-201.660
1532279236.228,31.738,20.020,6.836,26.855,13.672
1532279236.232,32.227,24.414,6.836,25.391,276.367
1532279236.236,33.203,26.367,7.324,25.391,101.562
1532279236.240,38.574,23.926,9.277,28.320,-188.477
1532279236.244,35.645,23.438,8.789,25.879,-83.496
1532279236.248,34.668,23.438,6.836,24.902,214.355
1532279236.252,36.133,21.973,5.859,29.297,163.574
1532279236.256,33.691,23.438,8.789,27.344,-150.391
1532279236.260,36.621,22.949,11.719,29.785,-144.531
1532279236.263,39.551,23.926,9.277,34.668,164.551
1532279236.267,41.992,23.926,7.812,31.738,233.398
1532279236.271,41.992,21.484,7.812,26.855,-61.523
1532279236.275,45.898,21.484,6.348,28.809,-189.453
1532279236.279,48.828,20.996,6.348,38.574,65.430
1532279236.283,46.875,20.996,6.348,35.645,223.633
1532279236.287,50.781,21.973,5.859,31.738,0.000
1532279236.291,54.199,20.996,5.859,30.762,-194.824
1532279236.295,48.828,19.043,3.906,34.180,-7.324
1532279236.299,51.758,20.020,2.930,44.434,243.164
1532279236.302,56.641,21.484,5.371,34.180,83.496
1532279236.306,56.152,22.949,6.348,29.785,-188.477
1532279236.310,49.316,24.414,4.395,36.133,-61.523
1532279236.314,49.316,25.879,1.465,36.133,203.613
1532279236.318,45.898,25.391,3.418,34.180,158.203
1532279236.322,42.969,26.367,7.324,28.320,-132.324
1532279236.326,44.434,28.809,6.348,31.738,-161.621
1532279236.330,47.363,28.809,6.348,41.504,127.930
1532279236.334,50.781,29.785,9.277,36.133,224.609
1532279236.338,43.457,29.785,10.254,33.691,-54.199
1532279236.342,37.598,26.855,8.301,32.227,-210.449
1532279236.345,42.969,30.273,8.789,27.344,55.664
1532279236.349,42.480,32.227,8.789,24.414,243.652
1532279236.353,37.109,29.785,10.254,22.949,20.996
1532279236.357,38.574,28.809,10.742,24.902,-193.848
1532279236.361,37.109,29.297,7.324,22.949,-15.137
1532279236.365,34.180,29.297,5.859,26.855,238.281
1532279236.369,34.668,30.273,5.859,29.297,136.230
1532279236.373,36.621,30.273,5.859,27.344,-139.648
1532279236.377,34.180,26.855,6.836,30.273,-114.746
1532279236.381,42.480,26.367,4.395,36.621,169.434
1532279236.385,46.875,30.273,3.906,40.527,165.527
1532279236.388,40.039,30.273,6.348,38.574,-133.789
1532279236.392,42.969,28.320,5.859,36.621,-169.434
1532279236.396,44.434,33.203,4.883,43.457,137.695
1532279236.400,41.504,36.133,4.395,41.016,256.836
1532279236.404,36.621,36.133,4.883,24.414,-37.109
1532279236.408,28.320,35.156,6.836,20.508,-211.426
1532279236.412,24.902,32.227,5.371,27.832,35.156
1532279236.416,31.250,32.715,2.930,29.297,256.348
1532279236.420,35.156,34.180,7.324,29.297,74.219
1532279236.424,34.668,33.203,12.207,25.879,-192.871
1532279236.427,29.785,36.133,11.230,29.785,-21.484
1532279236.431,31.250,39.062,9.277,30.273,295.410
1532279236.435,33.691,37.598,10.742,22.461,174.316
1532279236.439,37.598,39.551,12.695,28.809,-165.527
1532279236.443,40.527,39.551,14.648,28.320,-174.805
1532279236.447,36.621,37.109,15.625,28.809,134.766
1532279236.451,43.457,37.598,13.672,39.062,201.172
1532279236.455,47.363,39.551,16.602,39.062,-96.680
1532279236.459,41.016,35.156,17.090,38.574,-164.551
1532279236.463,46.387,34.668,13.672,47.852,135.254
1532279236.467,56.641,37.109,15.137,48.828,262.207
1532279236.470,55.176,36.133,15.625,45.410,-22.949
1532279236.474,53.223,36.133,11.719,47.363,-211.426
1532279236.478,61.523,36.621,9.766,52.734,20.508
1532279236.482,63.965,35.645,10.742,50.293,229.492
1532279236.486,64.453,36.621,11.230,45.410,73.730
1532279236.490,69.824,34.668,9.766,49.316,-192.871
1532279236.494,71.289,33.203,7.324,51.758,-105.957
1532279236.498,66.895,32.715,8.301,55.664,198.730
1532279236.502,66.895,33.203,12.207,56.152,154.785
1532279236.506,67.871,33.203,13.184,48.340,-144.531
1532279236.509,64.941,30.273,11.230,55.664,-137.695
1532279236.513,67.383,29.297,10.254,62.988,157.715
1532279236.517,63.477,30.762,11.230,57.129,225.586
1532279236.521,59.082,33.203,14.160,49.316,-60.547
1532279236.525,63.477,37.109,13.672,44.434,-212.402
1532279236.529,60.547,39.062,12.695,55.176,67.383
1532279236.533,61.523,39.551,15.137,59.082,241.699
1532279236.537,57.617,39.551,15.137,46.387,-8.301
1532279236.541,56.641,36.621,15.625,41.016,-204.102
1532279236.545,59.570,38.574,16.602,41.992,-37.598
1532279236.549,48.828,39.551,17.578,44.434,233.398
1532279236.552,45.410,39.551,20.020,40.039,116.699
1532279236.556,46.875,37.598,21.973,33.691,-188.965
1532279236.560,52.734,35.645,20.508,36.621,-102.539
1532279236.564,52.734,37.109,21.484,43.457,210.938
1532279236.568,48.828,39.551,21.973,41.992,192.383
1532279236.572,49.805,37.598,24.414,38.574,-129.883
1532279236.576,51.758,35.156,23.926,39.062,-166.992
1532279236.580,52.246,34.668,19.531,42.969,140.137
1532279236.584,48.828,36.133,19.531,36.621,225.098
1532279236.588,50.781,36.133,18.066,26.367,-43.945
1532279236.592,54.688,33.203,18.555,37.598,-173.340
1532279236.595,51.758,31.250,20.508,51.270,62.500
1532279236.599,56.641,30.273,20.508,49.316,266.602
1532279236.603,54.199,30.762,21.484,44.434,54.199
1532279236.607,52.246,31.738,20.508,43.945,-230.957
1532279236.611,50.781,31.250,18.066,41.504,-64.941
1532279236.615,47.852,29.785,18.066,38.574,221.191
1532279236.619,48.340,30.762,13.184,36.133,109.863
1532279236.623,49.316,31.738,14.160,29.785,-202.637
1532279236.627,48.828,28.320,16.602,31.250,-156.738
1532279236.631,52.734,29.785,13.184,38.574,187.988
1532279236.634,57.617,31.738,13.672,39.551,178.223
1532279236.638,49.316,30.762,15.137,42.480,-125.000
1532279236.642,51.270,32.715,16.113,42.480,-183.105
1532279236.646,61.035,35.156,16.113,42.969,118.164
1532279236.650,53.223,34.180,17.578,42.969,257.324
1532279236.654,47.363,30.762,17.578,37.109,-22.949
1532279236.658,51.270,31.738,14.648,40.039,-202.148
1532279236.662,49.316,32.715,12.207,43.945,26.367
1532279236.666,48.340,29.785,12.207,41.504,244.629
1532279236.670,49.805,30.273,13.184,41.504,44.922
1532279236.674,51.758,32.227,10.742,45.410,-186.035
1532279236.677,59.082,30.762,8.301,49.805,-58.594
1532279236.681,64.453,30.273,10.254,53.711,207.031
1532279236.685,61.035,33.203,12.695,54.199,125.977
1532279236.689,59.570,34.180,11.230,44.434,-168.457
1532279236.693,58.594,30.762,10.254,45.410,-129.395
1532279236.697,59.570,29.297,13.672,48.340,176.758
1532279236.701,52.734,31.250,14.648,48.828,208.008
1532279236.705,51.270,29.785,11.230,45.410,-105.957
1532279236.709,62.012,28.809,10.254,52.734,-192.383
1532279236.713,65.430,31.738,9.766,59.570,98.145
1532279236.717,65.430,33.691,10.254,49.805,231.934
1532279236.720,61.035,34.668,10.254,42.969,-44.434
1532279236.724,57.129,34.668,9.766,40.527,-220.215
1532279236.728,55.664,32.715,9.766,48.828,13.184
1532279236.732,55.664,32.227,9.766,56.152,227.539
1532279236.736,56.152,33.203,11.719,42.969,85.449
1532279236.740,54.199,31.250,13.184,34.180,-178.711
1532279236.744,53.711,32.715,13.184,41.016,-63.477
1532279236.748,49.805,32.715,15.625,41.016,236.816
1532279236.752,47.852,30.762,17.090,34.180,187.012
1532279236.756,47.363,32.715,17.578,33.203,-120.605
1532279236.759,43.457,34.668,14.648,34.180,-148.926
1532279236.763,43.945,36.621,16.113,31.250,159.180
1532279236.767,44.922,37.109,20.996,36.133,228.027
1532279236.771,45.898,35.645,19.531,33.691,-72.754
1532279236.775,43.945,31.250,16.113,28.809,-191.895
1532279236.779,42.969,31.250,15.625,36.133,67.383
1532279236.783,44.922,34.180,15.625,33.691,191.895
1532279236.787,40.039,36.133,16.113,23.926,-34.668
1532279236.791,46.875,33.691,15.137,27.832,-205.078
1532279236.795,48.340,33.203,12.695,38.574,9.277
1532279236.799,50.293,35.156,11.230,45.898,256.348
1532279236.802,54.688,32.227,11.719,41.992,75.684
1532279236.806,47.852,31.250,15.137,38.574,-206.543
1532279236.810,53.223,33.203,11.230,46.387,-113.281
1532279236.814,53.223,33.691,9.766,43.945,197.754
1532279236.818,47.363,30.273,13.184,40.039,183.594
1532279236.822,50.781,26.855,13.184,49.805,-134.766
1532279236.826,50.781,27.344,11.230,47.363,-173.828
1532279236.830,50.293,25.879,10.254,47.852,162.109
1532279236.834,50.293,26.855,11.230,50.293,253.906
1532279236.838,51.270,30.273,9.277,43.945,-46.387
1532279236.842,53.711,30.273,9.277,44.434,-195.312
1532279236.845,56.152,28.809,10.254,47.363,73.242
1532279236.849,51.270,30.762,9.766,49.316,275.391
1532279236.853,48.340,32.715,12.695,41.504,49.316
1532279236.857,47.852,32.715,14.648,40.527,-210.938
1532279236.861,42.480,31.738,12.207,41.504,-46.387
1532279236.865,44.434,32.715,11.719,33.203,260.742
1532279236.869,44.434,33.203,13.672,26.367,139.160
1532279236.873,38.574,34.180,14.648,23.438,-170.898
1532279236.877,40.527,34.668,12.695,25.879,-115.234
1532279236.881,41.992,36.133,11.719,24.902,206.543
1532279236.884,44.922,37.598,13.672,16.602,208.984
1532279236.888,48.828,36.621,15.625,15.625,-97.168
1532279236.892,44.922,36.621,16.113,14.648,-170.410
1532279236.896,38.086,36.133,16.602,15.137,130.859
1532279236.900,32.715,36.133,18.555,20.508,283.203
1532279236.904,29.785,36.621,21.973,11.719,-9.277
1532279236.908,25.879,35.645,24.902,12.695,-187.988
1532279236.912,21.484,34.668,22.461,20.996,39.062
1532279236.916,17.578,36.133,20.508,17.578,256.348
1532279236.920,13.184,36.133,22.461,11.230,40.527
1532279236.924,8.789,36.133,22.949,7.812,-256.348
1532279236.927,8.789,33.691,23.926,11.230,-84.961
1532279236.931,12.207,32.715,25.879,15.625,220.703
1532279236.935,17.090,34.668,25.879,13.672,121.094
1532279236.939,16.113,35.156,23.926,8.789,-175.781
1532279236.943,13.184,36.133,24.902,5.371,-132.324
1532279236.947,10.254,35.156,25.879,8.301,187.012
1532279236.951,12.207,36.621,25.879,3.906,195.801
1532279236.955,15.625,40.527,26.367,-2.930,-105.469
1532279236.959,14.648,39.551,25.391,-5.371,-174.316
1532279236.963,18.555,39.551,24.902,2.930,88.867
1532279236.967,24.414,42.480,24.414,8.301,218.750
1532279236.970,17.090,42.969,21.484,0.977,3.418
1532279236.974,11.230,40.039,23.438,1.465,-193.848
1532279236.978,14.648,38.574,23.926,11.719,-7.812
1532279236.982,17.578,36.133,26.855,17.090,237.305
1532279236.986,20.020,33.203,28.809,15.137,83.496
1532279236.990,19.043,36.133,24.414,12.695,-203.613
1532279236.994,28.320,40.527,21.484,15.625,-98.633
1532279236.998,34.668,39.551,17.090,17.578,208.496
1532279237.002,20.020,38.086,15.625,9.277,144.043
1532279237.006,21.484,38.086,18.066,-1.465,-163.574
1532279237.009,30.273,36.621,20.996,5.859,-138.184
1532279237.013,29.297,36.133,22.949,19.043,176.758
1532279237.017,32.227,39.551,19.043,16.113,229.004
1532279237.021,31.250,39.062,20.020,9.766,-82.031
1532279237.025,31.738,37.598,20.996,11.230,-219.727
1532279237.029,25.391,37.598,18.555,17.090,63.965
1532279237.033,24.414,36.621,21.973,17.090,250.000
1532279237.037,29.297,35.645,21.973,16.113,10.742
1532279237.041,31.738,36.621,21.484,22.461,-216.309
1532279237.045,32.227,41.016,22.949,25.391,-14.160
1532279237.049,29.297,39.551,23.438,27.832,264.160
1532279237.052,32.715,38.086,23.438,25.391,102.539
1532279237.056,39.551,38.574,20.508,16.602,-196.289
1532279237.060,37.598,35.645,18.066,17.578,-94.727
1532279237.064,27.832,37.109,19.531,15.625,194.824
1532279237.068,27.832,40.039,21.484,6.836,156.250
1532279237.072,23.438,38.086,23.438,4.395,-104.492
1532279237.076,28.320,36.133,24.414,12.207,-115.234
1532279237.080,38.086,36.133,23.438,21.484,159.180
1532279237.084,33.203,35.645,23.926,17.090,239.258
1532279237.088,37.109,38.086,21.973,16.602,-33.691
1532279237.091,43.457,40.527,20.020,26.367,-192.871
1532279237.095,38.086,35.645,21.484,33.203,34.668
1532279237.099,29.785,34.180,20.996,25.391,258.789
1532279237.103,36.133,36.133,20.020,17.578,36.133
1532279237.107,43.945,36.133,19.531,17.578,-231.934
1532279237.111,43.945,34.668,15.625,22.461,-25.879
1532279237.115,39.551,34.180,14.160,26.367,255.859
1532279237.119,36.133,36.133,18.555,22.949,132.324
1532279237.123,35.156,36.621,18.066,18.555,-160.645
1532279237.127,39.551,35.156,17.090,22.461,-116.211
1532279237.131,41.016,34.668,16.113,27.344,186.523
1532279237.134,39.551,35.156,15.625,23.438,194.824
1532279237.138,41.504,37.598,14.160,17.578,-91.309
1532279237.142,44.922,38.574,12.695,19.043,-185.059
1532279237.146,47.852,37.598,13.672,27.344,96.680
1532279237.150,43.457,37.598,15.625,30.273,285.156
1532279237.154,41.504,38.086,17.090,24.414,6.348
1532279237.158,44.434,40.039,15.625,23.926,-189.453
1532279237.162,45.898,40.527,16.602,32.227,37.598
1532279237.166,44.434,39.551,17.578,32.227,238.281
1532279237.170,43.945,42.480,18.066,26.855,50.781
1532279237.174,45.898,39.551,17.578,24.902,-208.984
1532279237.177,42.480,35.156,16.113,30.762,-47.852
1532279237.181,36.621,35.645,17.090,36.133,233.887
1532279237.185,40.039,36.133,17.090,29.785,125.488
1532279237.189,37.109,34.668,17.090,27.832,-149.414
1532279237.193,39.062,34.668,16.602,32.227,-109.863
1532279237.197,41.016,33.203,15.625,34.668,194.824
1532279237.201,32.227,31.738,16.113,30.762,202.148
1532279237.205,30.762,32.227,16.113,20.996,-128.906
1532279237.209,36.621,30.273,15.625,25.879,-197.754
1532279237.213,40.039,28.320,15.137,33.691,127.930
1532279237.216,40.527,30.273,15.625,36.621,260.254
1532279237.220,40.039,33.691,15.625,34.668,5.371
1532279237.224,40.527,34.180,12.695,33.691,-162.109
1532279237.228,52.246,32.715,11.719,41.016,39.062
1532279237.232,53.711,29.785,14.160,45.898,286.621
1532279237.236,45.898,29.785,14.160,43.457,103.027
1532279237.240,49.316,31.250,13.184,38.086,-184.082
1532279237.244,49.805,30.762,13.672,40.527,-93.262
1532279237.248,47.852,30.273,12.695,39.062,197.754
1532279237.252,47.852,29.785,13.672,39.062,164.551
1532279237.256,49.316,28.809,13.672,42.480,-140.625
1532279237.259,51.270,28.320,11.230,41.504,-127.930
1532279237.263,52.734,29.785,11.719,45.410,167.480
1532279237.267,56.641,30.762,13.184,41.016,228.027
1532279237.271,56.152,28.809,10.742,38.574,-73.730
1532279237.275,52.734,29.297,10.742,41.504,-203.613
1532279237.279,54.688,31.738,11.230,44.434,89.355
1532279237.283,54.199,28.320,9.766,44.434,253.906
1532279237.287,46.875,25.391,7.324,36.621,16.113
1532279237.291,48.340,24.902,4.395,33.203,-181.152
1532279237.295,53.711,24.902,4.883,43.945,-9.277
1532279237.299,50.781,24.414,5.371,44.922,256.836
1532279237.302,44.922,26.367,6.836,29.297,88.867
1532279237.306,47.852,27.832,7.812,23.926,-237.793
1532279237.310,63.477,26.367,12.207,40.039,-112.793
1532279237.314,59.570,25.879,15.625,47.852,215.332
1532279237.318,57.129,27.832,10.742,51.758,197.754
1532279237.322,58.105,27.832,13.672,51.758,-108.398
1532279237.326,54.199,28.809,15.625,46.875,-167.969
1532279237.330,58.594,31.250,14.160,47.852,127.441
1532279237.334,59.570,31.250,13.184,41.016,220.215
1532279237.338,54.199,32.227,14.160,31.738,-43.457
1532279237.341,53.711,32.715,14.160,32.715,-185.547
1532279237.345,43.457,31.738,11.719,31.250,36.621
1532279237.349,35.645,31.738,14.648,31.250,250.977
1532279237.353,44.434,32.715,16.602,29.297,47.852
1532279237.357,39.551,35.645,16.113,26.367,-205.566
1532279237.361,36.621,36.133,13.672,25.391,-34.180
1532279237.365,28.320,32.715,12.695,13.672,245.605
1532279237.369,20.508,33.203,13.184,8.789,128.906
1532279237.373,28.809,33.203,12.695,13.672,-168.457
1532279237.377,28.809,33.691,11.230,13.672,-120.117
1532279237.381,23.926,34.668,12.695,21.484,182.129
1532279237.384,28.809,32.715,16.113,24.902,179.688
1532279237.388,31.250,33.203,14.160,19.531,-110.840
1532279237.392,35.645,37.109,18.066,26.367,-181.641
1532279237.396,44.922,37.109,22.949,32.227,129.883
1532279237.400,43.945,38.086,16.602,27.832,268.066
1532279237.404,42.480,39.551,20.996,26.367,-48.340
1532279237.408,42.969,36.133,22.949,29.785,-240.723
1532279237.412,40.527,33.203,15.625,30.762,25.879
1532279237.416,41.016,34.668,18.066,26.855,253.418
1532279237.420,40.039,35.156,23.926,23.438,42.969
1532279237.424,35.645,34.668,20.020,18.555,-230.469
1532279237.427,34.180,33.203,15.625,18.555,-79.102
1532279237.431,34.180,29.785,13.184,26.855,242.676
1532279237.435,30.273,27.832,11.230,24.902,194.336
1532279237.439,37.598,31.738,14.160,22.949,-125.000
1532279237.443,46.387,35.156,16.113,33.203,-126.465
1532279237.447,49.316,33.691,11.719,40.527,185.547
1532279237.451,50.293,32.715,9.766,36.621,213.379
1532279237.455,50.293,31.738,12.207,35.156,-86.426
1532279237.459,51.758,28.809,12.207,38.086,-192.871
1532279237.463,56.152,27.832,9.766,35.156,63.477
1532279237.466,62.988,28.320,9.277,40.527,216.797
1532279237.470,62.500,30.273,11.719,50.293,-11.719
1532279237.474,56.641,31.250,10.254,47.363,-216.309
1532279237.478,58.594,27.344,4.395,47.363,13.184
1532279237.482,64.453,24.414,4.395,42.480,246.582
1532279237.486,63.477,26.367,5.371,38.574,71.777
1532279237.490,64.453,27.832,5.371,45.410,-193.848
1532279237.494,63.477,26.367,5.371,49.316,-84.961
1532279237.498,60.059,25.879,3.906,50.293,224.121
1532279237.502,60.547,26.367,5.859,44.434,152.344
1532279237.506,56.152,27.832,12.207,37.598,-131.836
1532279237.509,52.734,25.879,12.695,42.969,-128.418
1532279237.513,55.176,23.926,9.277,48.828,164.062
1532279237.517,53.711,24.902,11.230,37.598,218.262
1532279237.521,50.293,27.832,9.766,32.227,-75.684
1532279237.525,54.688,27.344,9.277,36.621,-226.562
1532279237.529,52.734,25.879,7.324,44.434,52.246
1532279237.533,43.945,28.320,5.371,41.016,270.020
1532279237.537,48.340,23.438,10.742,32.715,35.645
1532279237.541,55.664,20.508,14.160,42.969,-200.684
1532279237.545,52.246,23.438,14.160,49.316,-35.156
1532279237.548,44.922,23.438,10.742,43.457,245.605
1532279237.552,43.945,24.902,10.742,41.016,113.281
1532279237.556,50.293,26.855,10.742,34.668,-185.547
1532279237.560,48.828,26.367,7.812,37.109,-109.863
1532279237.564,48.340,25.879,9.766,41.504,177.246
1532279237.568,44.922,25.391,9.277,37.109,180.664
1532279237.572,45.410,26.367,8.301,37.109,-100.098
1532279237.576,52.246,29.785,7.812,43.945,-138.184
1532279237.580,55.664,29.297,9.277,49.805,162.598
1532279237.584,54.688,27.344,11.230,48.340,255.859
1532279237.588,54.688,28.809,6.836,41.016,-30.273
1532279237.591,55.664,29.297,7.324,41.992,-197.754
1532279237.595,50.781,26.367,9.277,44.434,76.660
1532279237.599,50.293,25.879,4.395,36.133,277.832
1532279237.603,52.734,27.832,3.906,27.832,51.270
1532279237.607,50.781,26.855,4.395,28.320,-188.965
1532279237.611,51.270,24.902,5.371,37.598,-6.836
1532279237.615,51.270,25.391,5.371,37.109,270.996
1532279237.619,50.293,27.344,4.883,33.691,129.883
1532279237.623,57.129,27.344,7.812,25.879,-195.312
1532279237.627,50.781,26.855,8.789,22.949,-148.438
1532279237.631,42.480,26.855,9.277,36.133,189.453
1532279237.634,44.434,27.344,9.277,34.668,210.938
1532279237.638,41.992,27.832,10.254,29.785,-107.910
1532279237.642,41.992,26.367,10.254,27.832,-182.129
1532279237.646,43.945,24.902,8.789,30.762,136.230
1532279237.650,42.480,24.902,8.301,31.250,272.949
1532279237.654,42.969,24.902,10.742,28.320,-0.488
1532279237.658,41.504,24.414,10.742,26.855,-190.430
1532279237.662,41.016,24.414,8.789,28.320,20.020
1532279237.666,42.969,21.484,10.254,27.832,240.234
1532279237.670,37.598,18.555,10.254,24.414,83.008
1532279237.673,41.504,20.508,7.812,25.879,-157.715
1532279237.677,49.805,20.508,7.324,28.320,-44.922
1532279237.681,49.805,22.461,3.906,21.484,232.910
1532279237.685,48.340,22.461,5.371,16.602,152.344
1532279237.689,55.176,20.996,10.742,24.902,-149.414
1532279237.693,60.059,21.973,11.719,33.691,-133.301
1532279237.697,52.734,21.973,10.742,37.598,181.641
1532279237.701,42.480,19.531,10.254,37.598,222.168
1532279237.705,32.715,20.020,9.277,32.715,-121.094
1532279237.709,34.668,20.508,9.277,28.320,-224.121
1532279237.713,41.504,18.555,10.254,37.109,123.047
1532279237.716,39.062,20.508,7.812,39.551,282.715
1532279237.720,38.574,21.973,8.789,28.809,-10.742
1532279237.724,38.574,21.484,9.766,22.461,-218.750
1532279237.728,31.250,24.902,9.277,28.809,19.043
1532279237.732,33.691,26.367,12.695,30.273,286.133
1532279237.736,39.551,26.855,16.113,24.414,126.953
1532279237.740,39.062,28.809,16.602,21.484,-171.387
1532279237.744,38.086,28.809,16.113,20.508,-87.402
1532279237.748,37.598,26.855,16.113,21.973,221.191
1532279237.752,34.180,29.785,17.578,17.578,194.824
1532279237.756,27.344,31.738,19.531,10.742,-134.766
1532279237.759,19.531,29.785,20.508,10.254,-158.691
1532279237.763,23.438,29.297,20.508,10.254,143.066
1532279237.767,21.973,31.250,19.531,1.465,213.867
1532279237.771,13.672,30.273,20.020,2.930,-69.824
1532279237.775,14.160,28.320,18.555,8.789,-191.406
1532279237.779,18.066,28.809,15.625,9.277,73.730
1532279237.783,20.020,27.344,18.555,10.742,238.281
1532279237.787,28.320,28.809,21.973,11.230,18.555
1532279237.791,33.691,31.250,19.043,15.625,-213.379
1532279237.795,31.738,27.832,16.113,20.508,-40.039
1532279237.798,33.203,26.855,14.160,25.879,233.398
1532279237.802,33.691,30.273,14.160,24.414,74.219
1532279237.806,40.527,30.762,12.207,21.973,-224.609
1532279237.810,40.527,28.809,9.277,31.738,-111.816
1532279237.814,41.992,27.832,11.719,34.668,219.727
1532279237.818,42.480,29.297,11.719,28.809,224.121
1532279237.822,39.062,28.809,11.719,24.902,-111.328
1532279237.826,39.062,26.367,12.207,27.832,-188.965
1532279237.830,39.062,25.391,9.277,32.227,132.324
1532279237.834,41.016,27.832,10.254,35.645,231.934
1532279237.838,43.457,27.832,10.254,32.227,-45.898
1532279237.841,43.945,28.809,9.277,30.762,-220.703
1532279237.845,47.363,30.762,12.207,28.320,17.578
1532279237.849,48.340,28.809,15.625,30.273,252.441
1532279237.853,51.270,29.785,17.578,36.133,47.363
1532279237.857,40.527,28.809,17.090,34.180,-209.473
1532279237.861,35.645,28.320,17.090,35.156,-41.504
1532279237.865,41.992,29.297,18.066,34.180,249.512
1532279237.869,35.156,27.344,16.602,27.832,151.367
1532279237.873,28.809,29.297,18.066,24.902,-168.945
1532279237.877,33.691,29.297,18.066,27.344,-120.117
1532279237.881,41.016,28.809,15.137,27.344,195.312
1532279237.884,40.039,29.297,14.648,22.461,210.938
1532279237.888,44.434,28.320,17.578,24.902,-98.145
1532279237.892,47.363,28.809,16.113,24.414,-190.430
1532279237.896,37.109,28.320,10.742,20.996,113.281
1532279237.900,37.598,28.320,13.672,26.855,253.418
1532279237.904,35.645,28.809,16.602,22.949,-26.367
1532279237.908,34.180,25.879,16.113,22.461,-203.125
1532279237.912,35.156,25.391,12.207,28.809,35.156
1532279237.916,29.785,25.391,13.184,26.855,291.016
1532279237.920,30.273,27.344,15.625,27.344,112.305
1532279237.923,35.645,28.320,16.113,29.785,-201.660
1532279237.927,38.574,28.320,17.578,30.273,-48.828
1532279237.931,40.039,30.273,15.625,29.297,251.465
1532279237.935,35.645,32.715,15.137,23.438,142.578
1532279237.939,29.785,33.203,15.625,17.090,-156.250
1532279237.943,26.855,32.715,15.137,16.602,-137.695
1532279237.947,29.297,31.250,18.555,15.137,168.945
1532279237.951,27.832,30.762,20.020,13.184,235.352
1532279237.955,22.949,31.250,20.996,16.602,-77.148
1532279237.959,20.020,30.762,21.484,19.531,-184.570
1532279237.963,20.508,32.715,20.508,20.996,120.605
1532279237.966,16.113,34.668,20.508,16.602,271.484
1532279237.970,11.719,35.156,19.043,13.672,28.809
1532279237.974,16.602,35.645,19.531,13.184,-179.199
1532279237.978,13.672,34.668,20.020,9.277,24.414
1532279237.982,11.719,34.668,17.090,5.371,247.559
1532279237.986,14.648,35.645,17.090,1.465,63.965
1532279237.990,9.277,36.621,17.090,-0.488,-196.289
1532279237.994,9.277,38.574,20.020,7.812,-79.590
1532279237.998,11.230,37.109,22.461,11.719,243.652
1532279238.002,11.719,35.156,20.996,2.930,182.617
1532279238.005,16.113,38.574,19.043,0.000,-130.859
1532279238.009,9.766,39.062,20.996,5.859,-126.953
1532279238.013,3.906,36.621,22.949,2.930,175.293
1532279238.017,1.953,35.645,21.484,-4.395,261.230
1532279238.021,4.395,35.645,23.926,1.465,-24.414
1532279238.025,7.324,36.621,22.949,5.859,-196.289
1532279238.029,10.742,38.574,20.508,4.883,67.871
1532279238.033,6.348,38.086,21.973,0.488,268.555
1532279238.037,-0.977,36.621,22.461,-2.930,22.461
1532279238.041,5.859,35.156,24.414,2.441,-210.449
1532279238.045,15.625,37.109,24.902,4.883,-49.805
1532279238.048,12.695,38.086,21.484,4.883,234.863
1532279238.052,7.324,37.598,20.020,-0.488,113.281
1532279238.056,11.230,40.039,23.438,-0.488,-167.969
1532279238.060,16.113,41.016,20.996,5.859,-95.703
1532279238.064,16.113,41.504,20.020,0.977,190.918
1532279238.068,7.812,37.598,25.879,1.465,197.754
1532279238.072,7.812,37.109,25.879,2.441,-117.188
1532279238.076,7.324,35.156,26.855,6.348,-170.898
1532279238.080,6.836,32.227,27.832,16.602,145.508
1532279238.084,16.602,36.621,22.949,11.719,224.121
1532279238.088,20.996,41.504,20.020,1.953,-65.918
1532279238.091,16.602,41.992,20.020,3.418,-181.641
1532279238.095,18.555,39.062,20.996,10.742,81.543
1532279238.099,20.508,39.062,19.531,12.207,280.273
1532279238.103,16.113,37.598,20.508,5.859,56.641
1532279238.107,16.602,36.133,20.508,2.441,-189.453
1532279238.111,16.602,38.086,19.531,8.789,-20.020
1532279238.115,19.531,41.504,19.531,19.043,252.441
1532279238.119,19.043,40.039,20.996,14.648,125.977
1532279238.123,17.578,38.086,23.438,11.719,-198.242
1532279238.127,21.973,40.039,20.996,16.113,-128.906
1532279238.130,28.320,40.527,19.531,17.090,197.754
1532279238.134,28.320,40.039,19.531,14.160,208.008
1532279238.138,29.297,44.922,14.160,8.789,-74.707
1532279238.142,30.762,46.387,10.742,5.859,-176.758
1532279238.146,24.414,42.969,15.137,11.719,112.793
1532279238.150,25.391,41.992,18.555,15.137,265.137
1532279238.154,26.367,41.992,15.625,9.766,-15.625
1532279238.158,28.320,42.969,12.695,12.695,-188.965
1532279238.162,25.391,41.992,13.184,14.160,20.020
1532279238.166,21.484,40.527,13.672,11.230,237.793
1532279238.170,27.344,41.016,12.207,8.789,67.383
1532279238.173,33.203,41.016,10.742,10.742,-214.355
1532279238.177,31.250,41.504,8.301,14.648,-54.688
1532279238.181,28.320,41.992,9.277,15.625,257.812
1532279238.185,27.832,42.480,12.207,6.836,136.719
1532279238.189,23.926,40.039,12.695,3.418,-168.945
1532279238.193,29.785,38.574,13.184,13.672,-120.605
1532279238.197,29.785,39.551,15.625,19.043,188.965
1532279238.201,28.809,36.621,16.113,9.766,208.008
1532279238.205,35.645,41.992,12.207,3.906,-88.379
1532279238.209,39.062,44.434,12.695,20.508,-152.832
1532279238.213,34.668,43.457,14.648,26.855,122.070
1532279238.216,27.832,42.480,14.648,20.996,246.582
1532279238.220,32.715,43.457,12.695,16.602,-5.859
1532279238.224,39.062,42.969,13.184,17.578,-218.262
1532279238.228,37.598,36.621,14.648,26.367,-4.883
1532279238.232,38.574,35.156,12.207,24.902,252.930
1532279238.236,35.645,39.062,10.742,22.461,79.590
1532279238.240,35.156,38.574,10.742,20.020,-199.219
1532279238.244,41.016,36.621,12.695,20.508,-91.309
1532279238.248,33.691,35.156,14.160,28.809,223.633
1532279238.252,26.855,35.645,14.160,25.391,180.176
1532279238.255,34.180,39.551,12.695,22.949,-143.555
1532279238.259,41.016,41.016,9.766,29.297,-138.184
1532279238.263,41.016,40.039,11.719,34.180,167.969
1532279238.267,34.668,38.574,17.090,30.273,221.680
1532279238.271,31.738,37.598,22.461,29.785,-72.754
1532279238.275,40.527,39.551,20.996,35.645,-214.844
1532279238.279,46.875,39.551,16.602,41.016,61.035
1532279238.283,41.992,35.645,18.555,37.109,258.789
1532279238.287,45.410,34.180,20.020,34.668,7.324
1532279238.291,45.410,30.273,17.090,35.645,-211.914
1532279238.295,43.945,31.738,14.160,41.016,-21.484
1532279238.298,52.246,34.180,15.625,49.316,248.535
1532279238.302,46.387,31.250,16.113,41.016,113.281
1532279238.306,50.781,31.738,15.625,41.504,-187.012
1532279238.310,53.711,32.227,18.066,52.246,-117.676
1532279238.314,54.199,30.273,20.508,51.758,209.473
1532279238.318,53.711,29.785,18.555,41.992,191.406
1532279238.322,50.781,34.180,15.625,39.551,-136.230
1532279238.326,55.664,38.086,16.602,45.410,-184.082
1532279238.330,60.059,38.574,16.113,48.340,110.352
1532279238.334,53.223,36.133,17.578,47.852,230.957
1532279238.338,48.340,38.574,19.531,44.922,-41.504
1532279238.341,49.805,41.016,18.066,37.109,-214.355
1532279238.345,47.852,39.551,20.508,41.992,42.969
1532279238.349,44.922,41.016,22.949,48.828,261.719
1532279238.353,43.457,42.969,23.926,41.016,46.875
1532279238.357,47.363,41.992,27.832,42.969,-183.105
1532279238.361,51.270,41.992,28.809,45.410,-1.465
1532279238.365,53.711,44.922,30.273,42.480,230.957
1532279238.369,57.129,47.852,31.738,42.969,123.535
1532279238.373,57.617,47.363,33.203,43.945,-142.578
1532279238.377,56.152,47.852,33.691,48.340,-120.117
1532279238.380,58.105,48.340,32.227,56.152,181.641
1532279238.384,56.641,47.363,33.691,56.152,211.914
1532279238.388,57.617,44.922,33.691,53.223,-92.285
1532279238.392,64.453,42.969,30.762,55.176,-169.434
1532279238.396,68.359,46.387,30.273,65.430,117.188
1532279238.400,70.801,46.387,28.320,63.477,252.930
1532279238.404,66.895,43.945,26.855,56.152,-37.598
1532279238.408,68.359,41.504,25.391,57.617,-239.258
1532279238.412,71.777,39.062,20.508,59.082,12.695
1532279238.416,62.988,37.109,20.508,60.059,267.090
1532279238.420,58.594,36.621,19.043,51.270,92.773
1532279238.423,62.988,36.133,18.066,45.410,-176.758
1532279238.427,63.477,33.691,18.066,54.199,-77.637
1532279238.431,65.430,32.715,19.531,58.594,223.633
1532279238.435,58.594,31.738,19.531,53.711,153.320
1532279238.439,56.152,33.203,16.113,51.270,-152.832
1532279238.443,62.988,33.691,17.578,57.129,-122.559
1532279238.447,65.430,30.762,19.531,62.500,172.363
1532279238.451,66.406,32.227,20.508,62.012,226.074
1532279238.455,63.965,36.621,20.508,51.758,-92.773
1532279238.459,62.500,35.156,19.531,48.828,-199.707
1532279238.463,59.570,32.715,20.020,51.270,112.305
1532279238.466,62.012,34.668,20.508,50.293,291.504
1532279238.470,65.430,37.109,22.461,53.711,44.434
1532279238.474,66.406,39.062,24.902,55.176,-169.434
1532279238.478,72.266,39.551,23.438,60.547,34.668
1532279238.482,77.637,41.504,20.020,57.129,252.441
1532279238.486,81.055,41.992,19.531,45.410,84.961
1532279238.490,77.148,39.062,18.555,43.457,-162.109
1532279238.494,76.660,36.133,15.137,56.152,-61.035
1532279238.498,79.102,33.203,16.602,69.336,236.328
1532279238.502,72.754,36.133,23.926,67.871,152.344
1532279238.505,64.453,38.574,26.367,58.594,-189.941
1532279238.509,64.941,37.109,24.414,63.965,-177.734
1532279238.513,66.895,38.086,22.949,74.707,166.504
1532279238.517,63.477,39.062,24.414,71.777,256.836
1532279238.521,62.500,39.062,25.879,62.500,-46.387
1532279238.525,63.965,37.109,20.020,58.105,-208.008
1532279238.529,57.617,34.180,18.555,58.594,77.637
1532279238.533,56.152,32.227,20.508,52.734,283.203
1532279238.537,57.129,32.715,19.531,45.898,28.809
1532279238.541,50.293,32.715,20.996,50.781,-201.660
1532279238.545,52.734,30.273,22.461,53.711,-15.625
1532279238.548,58.105,32.227,23.438,54.688,223.145
1532279238.552,56.152,35.156,21.484,48.828,108.398
1532279238.556,49.316,34.180,19.531,42.969,-146.484
1532279238.560,42.969,34.180,19.531,45.898,-62.988
1532279238.564,49.316,37.598,20.020,46.875,206.543
1532279238.568,51.758,38.574,21.973,38.574,184.570
1532279238.572,52.734,36.133,20.508,40.039,-99.121
1532279238.576,55.664,34.180,19.531,54.199,-158.203
1532279238.580,53.223,34.180,20.020,54.199,131.836
1532279238.584,53.711,34.180,18.555,48.828,249.023
1532279238.587,59.082,35.645,19.043,43.945,-32.715
1532279238.591,62.500,37.109,15.625,41.504,-194.336
1532279238.595,61.035,36.621,11.719,48.828,59.570
1532279238.599,60.547,35.156,15.625,53.711,266.602
1532279238.603,61.035,33.203,18.555,43.457,35.645
1532279238.607,67.383,33.691,14.648,36.621,-228.516
1532279238.611,63.477,32.227,13.184,46.387,-34.668
1532279238.615,56.152,31.738,14.160,47.852,270.020
1532279238.619,59.082,34.668,15.137,42.969,155.273
1532279238.623,56.152,36.133,19.043,38.086,-145.020
1532279238.627,56.641,34.668,13.672,43.457,-100.098
1532279238.630,53.711,33.203,10.254,52.246,193.359
1532279238.634,56.152,36.621,18.555,50.781,199.219
1532279238.638,67.383,39.551,21.973,53.223,-109.863
1532279238.642,63.965,36.621,20.020,50.293,-195.312
1532279238.646,62.012,32.715,19.531,40.527,71.777
1532279238.650,55.664,33.203,19.531,42.480,231.445
1532279238.654,51.758,33.203,20.996,47.852,-9.766
1532279238.658,49.805,29.785,14.648,40.039,-204.590
1532279238.662,48.828,29.297,10.742,32.227,22.949
1532279238.666,49.805,28.320,13.184,37.598,264.648
1532279238.670,45.410,29.785,14.648,42.480,79.590
1532279238.673,47.363,27.832,15.625,40.039,-180.664
1532279238.677,44.434,25.879,19.043,46.875,-39.062
1532279238.681,46.387,27.344,19.531,49.316,258.301
1532279238.685,52.734,28.809,18.066,42.480,166.016
1532279238.689,51.758,29.785,15.625,38.086,-172.363
1532279238.693,54.688,28.809,12.207,43.945,-151.367
1532279238.697,56.641,29.297,13.184,53.711,185.059
1532279238.701,56.152,30.273,15.625,47.363,218.750
1532279238.705,60.547,30.273,14.160,33.203,-125.977
1532279238.709,60.547,30.762,10.742,34.668,-244.141
1532279238.712,56.152,28.320,13.672,48.340,55.176
1532279238.716,59.570,29.297,17.578,49.316,238.770
1532279238.720,56.641,28.809,17.578,41.016,-2.441
1532279238.724,57.129,25.391,16.602,41.992,-227.539
1532279238.728,58.105,25.391,16.113,47.852,11.230
1532279238.732,58.594,28.320,13.184,41.016,253.418
1532279238.736,62.988,28.809,10.742,30.762,56.152
1532279238.740,60.547,27.344,12.207,40.527,-213.379
1532279238.744,57.617,29.785,12.695,42.480,-127.441
1532279238.748,57.617,28.809,8.789,41.992,187.500
1532279238.752,58.105,26.855,9.277,45.410,170.410
1532279238.755,61.035,28.809,12.695,42.480,-133.789
1532279238.759,56.641,31.250,13.672,43.457,-142.090
1532279238.763,55.664,31.738,11.719,45.410,130.371
1532279238.767,54.688,31.250,11.719,40.527,200.684
1532279238.771,49.805,32.227,13.672,32.227,-70.312
1532279238.775,44.434,31.738,15.137,27.832,-209.473
1532279238.779,39.551,29.297,15.137,33.203,79.102
1532279238.783,30.762,27.832,16.113,28.809,265.625
1532279238.787,33.203,27.832,19.043,21.973,13.184
1532279238.791,37.109,31.250,18.066,23.438,-206.055
1532279238.795,31.250,31.250,17.090,26.855,-16.113
1532279238.798,29.785,27.344,19.531,31.738,264.160
1532279238.802,31.738,29.785,19.531,23.926,132.812
1532279238.806,28.320,31.250,17.578,17.578,-156.738
1532279238.810,26.367,27.344,18.066,20.020,-64.453
1532279238.814,25.879,26.855,18.066,25.391,219.727
1532279238.818,21.484,29.297,17.578,24.414,163.574
1532279238.822,19.531,29.785,18.555,16.113,-143.066
1532279238.826,30.762,32.227,16.602,9.766,-208.008
1532279238.830,30.762,31.738,13.672,19.043,116.699
1532279238.834,28.809,28.320,14.160,30.273,248.047
1532279238.837,36.621,28.809,15.137,27.344,-42.969
1532279238.841,34.668,29.297,12.207,25.391,-190.430
1532279238.845,30.273,29.785,11.719,31.738,47.852
1532279238.849,33.203,28.809,12.695,36.133,231.934
1532279238.853,38.086,27.832,12.207,32.715,38.086
1532279238.857,43.945,30.273,10.254,33.203,-190.430
1532279238.861,47.852,29.785,9.277,39.551,-52.246
1532279238.865,46.875,28.320,10.742,43.457,242.676
1532279238.869,48.828,27.344,10.742,44.434,135.742
1532279238.873,56.641,30.273,7.324,40.039,-176.758
1532279238.877,54.199,32.227,6.836,42.969,-107.422
1532279238.880,46.387,28.320,10.742,53.223,184.570
1532279238.884,46.875,28.320,10.742,37.598,170.898
1532279238.888,45.410,31.250,10.254,34.180,-130.371
1532279238.892,46.387,30.273,10.742,47.852,-177.246
1532279238.896,48.340,28.809,11.230,47.852,129.883
1532279238.900,42.480,30.762,10.742,44.434,249.512
1532279238.904,48.828,30.762,8.789,43.457,-40.527
1532279238.908,51.270,29.785,11.719,41.016,-198.242
1532279238.912,54.688,30.762,11.719,47.363,45.410
1532279238.916,48.828,32.227,10.254,50.293,250.977
1532279238.920,46.387,32.715,12.207,46.875,64.453
1532279238.923,56.641,34.180,12.695,44.922,-218.750
1532279238.927,61.523,34.668,11.230,46.387,-81.055
1532279238.931,52.734,32.227,8.789,48.828,225.586
1532279238.935,49.316,31.250,10.254,38.086,142.578
1532279238.939,53.223,30.762,10.742,41.504,-149.414
1532279238.943,53.711,26.855,11.230,50.781,-123.047
1532279238.947,49.316,25.391,9.766,50.781,174.805
1532279238.951,47.363,27.832,10.254,49.316,201.172
1532279238.955,55.176,32.227,10.742,45.898,-109.863
1532279238.959,57.617,35.645,10.254,49.805,-203.613
1532279238.962,58.105,34.180,9.766,55.664,89.355
1532279238.966,53.711,30.273,10.254,50.293,251.465
1532279238.970,53.223,31.738,8.789,43.457,-2.441
1532279238.974,56.152,33.203,8.789,48.340,-209.473
1532279238.978,57.617,29.785,12.695,51.758,-1.953
1532279238.982,58.105,32.227,12.695,49.805,249.023
1532279238.986,60.059,32.227,13.184,40.039,85.938
1532279238.990,57.129,31.250,14.648,39.551,-176.758
1532279238.994,51.270,30.762,14.648,45.410,-77.637
1532279238.998,58.594,29.297,14.648,46.875,214.844
1532279239.002,52.246,29.785,15.625,34.668,149.902
1532279239.005,31.250,30.762,17.090,28.809,-170.898
1532279239.009,34.668,32.715,17.578,38.574,-167.969
1532279239.013,41.992,32.715,16.113,35.645,127.441
1532279239.017,38.086,32.227,15.137,26.367,204.590
1532279239.021,37.109,31.250,15.625,19.531,-88.867
1532279239.025,38.086,33.203,18.066,17.578,-222.656
1532279239.029,39.551,33.203,16.602,28.809,82.520
1532279239.033,41.016,28.809,16.602,29.297,286.133
1532279239.037,40.039,29.297,18.555,23.438,47.363
1532279239.041,41.504,32.227,18.555,27.344,-186.035
1532279239.044,45.410,30.762,16.602,32.715,-9.766
1532279239.048,53.711,30.762,17.578,37.598,268.066
1532279239.052,46.387,29.785,19.043,31.250,147.461
1532279239.056,41.992,28.320,18.555,29.297,-164.551
1532279239.060,46.875,29.785,18.066,38.086,-98.145
1532279239.064,46.875,31.738,16.113,31.738,207.031
1532279239.068,50.293,31.738,18.066,28.320,176.270
1532279239.072,52.246,32.227,19.043,36.133,-119.629
1532279239.076,56.152,33.203,16.602,38.086,-153.809
1532279239.080,57.129,28.320,16.602,43.457,149.414
1532279239.084,54.199,27.344,17.578,38.086,243.652
1532279239.087,51.270,30.273,18.066,29.785,-49.316
1532279239.091,53.223,29.785,19.531,34.180,-205.566
1532279239.095,54.688,28.320,22.461,43.945,24.414
1532279239.099,53.711,29.785,21.484,44.434,238.281
1532279239.103,49.316,32.227,19.531,34.668,36.621
1532279239.107,41.016,33.203,18.555,33.203,-213.867
1532279239.111,48.828,31.738,18.066,40.039,-38.086
1532279239.115,56.152,31.250,20.508,43.945,244.629
1532279239.119,52.734,30.762,20.996,38.574,134.277
1532279239.123,45.410,29.297,20.508,29.785,-181.152
1532279239.127,42.480,29.297,17.578,28.320,-132.812
1532279239.130,46.387,27.832,18.066,36.133,190.918
1532279239.134,42.969,26.855,18.555,39.551,227.539
1532279239.138,46.875,25.391,16.113,34.668,-77.637
1532279239.142,49.805,24.414,20.508,36.133,-171.387
1532279239.146,47.852,26.855,19.531,40.039,148.438
1532279239.150,49.805,26.367,17.090,41.016,274.902
1532279239.154,49.316,26.367,20.020,31.738,-40.039
1532279239.158,55.176,28.320,18.066,33.691,-215.332
1532279239.162,51.270,26.367,15.137,43.945,27.344
1532279239.166,43.457,24.902,18.555,40.039,246.094
1532279239.169,44.434,22.949,20.996,41.016,81.055
1532279239.173,47.363,23.438,17.578,44.434,-181.152
1532279239.177,43.457,24.414,12.695,45.410,-49.805
1532279239.181,40.527,23.926,13.672,43.457,241.699
1532279239.185,46.387,24.414,15.625,40.527,145.020
1532279239.189,52.734,27.344,14.160,36.621,-158.691
1532279239.193,48.340,27.832,13.672,38.574,-138.672
1532279239.197,40.527,26.855,11.719,39.062,180.176
1532279239.201,46.387,26.855,14.160,33.691,221.680
1532279239.205,49.316,28.809,18.555,32.715,-102.539
1532279239.209,50.293,30.762,17.578,33.691,-186.523
1532279239.212,54.688,28.809,17.578,40.527,126.465
1532279239.216,51.270,27.344,18.555,46.387,286.621
1532279239.220,48.340,26.855,19.531,40.527,37.109
1532279239.224,48.828,26.855,19.531,36.621,-173.828
1532279239.228,52.734,26.855,20.020,44.922,26.855
1532279239.232,53.223,25.879,20.020,44.922,273.438
1532279239.236,52.246,25.879,18.066,33.203,111.816
1532279239.240,53.711,26.855,17.578,32.227,-178.711
1532279239.244,51.270,25.879,16.113,38.574,-84.473
1532279239.248,48.340,23.926,15.137,41.016,215.820
1532279239.252,44.922,23.926,16.113,37.598,188.965
1532279239.255,41.504,22.461,17.578,25.391,-114.258
1532279239.259,44.922,20.996,16.602,28.320,-146.484
1532279239.263,48.340,22.949,16.602,30.273,122.559
1532279239.267,49.316,24.902,14.648,22.461,203.613
1532279239.271,49.316,24.902,14.160,25.879,-58.105
1532279239.275,55.664,23.438,15.137,33.691,-192.871
1532279239.279,60.059,22.949,11.230,35.156,83.984
1532279239.283,61.035,23.926,12.695,29.785,271.973
1532279239.287,61.035,23.926,13.184,25.879,44.434
1532279239.291,59.570,23.926,13.184,31.738,-160.645
1532279239.294,56.641,24.414,15.137,44.922,-7.812
1532279239.298,56.641,24.414,16.113,48.828,248.047
1532279239.302,46.387,25.879,16.113,36.621,111.816
1532279239.306,31.250,25.391,15.625,32.227,-208.008
1532279239.310,37.598,23.926,19.043,41.992,-101.074
1532279239.314,41.016,23.926,20.508,44.922,244.141
1532279239.318,40.039,24.902,22.461,46.387,215.332
1532279239.322,41.016,25.879,22.461,39.551,-116.699
1532279239.326,41.016,24.902,20.020,36.621,-164.551
1532279239.330,41.504,24.902,19.043,43.945,129.395
1532279239.334,38.574,24.902,17.090,32.715,238.770
1532279239.337,33.203,24.902,18.066,25.391,-40.527
1532279239.341,37.109,26.367,19.531,30.762,-223.633
1532279239.345,36.621,24.414,19.043,33.203,35.156
1532279239.349,33.691,22.461,19.531,36.621,286.133
1532279239.353,41.504,25.391,21.973,36.621,56.152
1532279239.357,41.504,24.902,22.949,36.621,-203.125
1532279239.361,43.945,23.926,19.531,41.016,-14.160
1532279239.365,49.316,27.344,19.043,39.062,241.211
1532279239.369,43.945,29.297,20.508,36.133,132.324
1532279239.373,48.340,30.762,20.020,35.156,-142.090
1532279239.377,50.781,28.809,19.531,42.480,-109.863
1532279239.380,47.852,26.855,20.020,46.875,189.941
1532279239.384,48.340,27.344,20.020,39.551,198.242
1532279239.388,41.992,27.344,18.066,31.250,-126.953
1532279239.392,42.969,27.832,18.066,30.762,-197.754
1532279239.396,44.922,28.809,18.066,37.109,108.887
1532279239.400,49.316,31.250,18.555,43.945,242.188
1532279239.404,57.617,32.715,20.020,36.621,-37.109
1532279239.408,48.828,31.250,18.066,29.785,-212.891
1532279239.412,45.898,30.273,18.066,36.621,30.762
1532279239.416,46.875,29.297,17.090,41.016,277.832
1532279239.419,44.922,28.320,17.090,35.645,74.707
1532279239.423,46.875,29.785,17.578,31.250,-223.145
1532279239.427,50.293,30.273,14.648,38.086,-75.195
1532279239.431,46.875,28.809,13.184,39.551,218.750
1532279239.435,46.387,27.832,14.648,35.645,146.484
1532279239.439,48.340,27.344,16.602,30.273,-152.344
1532279239.443,41.016,25.879,14.648,24.414,-166.504
1532279239.447,38.086,25.391,12.207,24.902,125.000
1532279239.451,42.480,26.855,15.625,29.297,197.266
1532279239.455,43.457,28.320,16.602,23.926,-83.008
1532279239.459,49.316,27.344,14.160,30.762,-172.852
1532279239.462,50.781,26.855,15.625,39.062,116.211
1532279239.466,40.039,26.367,15.137,30.273,270.508
1532279239.470,41.992,26.855,15.625,29.785,8.301
1532279239.474,48.340,25.391,15.137,34.180,-217.773
1532279239.478,44.434,24.414,13.672,34.668,16.113
1532279239.482,52.246,24.902,14.160,38.574,262.695
1532279239.486,54.199,24.902,17.090,30.762,56.641
1532279239.490,44.922,26.855,16.602,25.391,-203.613
1532279239.494,47.852,28.320,15.137,32.227,-88.379
1532279239.498,48.340,30.273,11.230,34.668,212.891
1532279239.502,43.457,29.297,8.301,29.297,166.504
1532279239.505,46.875,30.273,13.672,27.832,-148.926
1532279239.509,54.199,30.273,15.137,32.715,-153.809
1532279239.513,58.105,27.832,14.160,37.109,166.992
1532279239.517,51.270,29.785,13.672,39.062,257.324
1532279239.521,43.457,29.785,14.160,31.738,-58.105
1532279239.525,46.387,27.344,15.137,27.832,-201.172
1532279239.529,46.387,27.832,12.695,35.156,87.402
1532279239.533,48.340,32.227,12.207,32.227,270.508
1532279239.537,50.293,32.227,14.648,27.344,31.250
1532279239.541,50.781,29.785,16.113,30.762,-191.895
1532279239.544,50.293,31.738,15.625,28.809,-39.551
1532279239.548,50.781,32.227,16.113,25.391,236.328
1532279239.552,52.734,30.273,20.020,33.203,116.699
1532279239.556,50.781,31.738,21.973,37.598,-196.777
1532279239.560,45.410,31.738,20.996,37.598,-117.676
1532279239.564,47.363,32.715,23.438,37.109,185.059
1532279239.568,56.641,33.691,22.949,31.738,191.895
1532279239.572,47.363,29.785,18.555,23.926,-113.281
1532279239.576,35.645,28.320,12.695,25.879,-170.410
1532279239.580,40.039,27.344,7.812,31.250,134.277
1532279239.584,36.621,28.809,13.672,26.367,220.215
1532279239.587,41.504,30.273,18.066,23.926,-88.379
1532279239.591,44.434,24.902,16.113,28.809,-231.445
1532279239.595,41.016,25.879,15.625,28.320,52.246
1532279239.599,41.016,28.320,17.578,33.691,266.113
1532279239.603,38.574,29.297,16.602,31.250,52.246
1532279239.607,35.645,31.250,17.578,22.461,-201.660
1532279239.611,45.410,30.273,20.020,31.738,-46.387
1532279239.615,47.852,30.762,20.996,33.203,235.840
1532279239.619,45.898,28.809,21.484,28.320,146.484
1532279239.623,43.945,27.344,22.949,25.391,-180.176
1532279239.626,37.598,28.320,21.484,24.902,-130.371
1532279239.630,42.480,27.832,19.043,33.203,203.125
1532279239.634,40.527,27.832,20.020,31.738,227.539
1532279239.638,32.227,29.297,19.531,21.973,-88.867
1532279239.642,37.598,31.250,16.602,20.996,-185.059
1532279239.646,37.598,31.250,13.184,24.902,104.980
1532279239.650,36.133,29.297,13.184,27.344,247.559
1532279239.654,39.551,29.297,15.137,25.879,-13.184
1532279239.658,35.156,27.832,16.113,20.508,-219.238
1532279239.662,35.156,26.855,16.602,24.902,14.160
1532279239.666,36.133,26.367,16.113,31.250,260.254
1532279239.669,28.809,25.879,18.066,32.715,74.219
1532279239.673,33.203,25.391,17.090,33.691,-201.660
1532279239.677,35.645,23.438,15.137,31.250,-52.246
1532279239.681,36.133,25.391,15.625,31.738,247.559
1532279239.685,39.062,26.367,17.090,24.902,146.973
1532279239.689,31.250,24.902,17.578,21.973,-157.227
1532279239.693,35.645,26.855,19.531,24.414,-155.273
1532279239.697,41.016,25.879,20.508,31.738,164.062
1532279239.701,36.621,26.367,20.508,33.203,214.355
1532279239.705,34.180,27.344,19.043,20.996,-90.332
1532279239.709,34.668,25.879,17.090,23.926,-180.176
1532279239.712,36.133,24.414,15.137,33.691,104.492
1532279239.716,37.109,24.414,14.160,28.809,250.977
1532279239.720,39.062,23.926,16.602,29.297,0.488
1532279239.724,38.086,25.391,17.090,24.414,-206.543
1532279239.728,40.039,25.879,15.625,24.902,-14.648
1532279239.732,44.434,25.879,17.090,35.156,244.141
1532279239.736,41.992,25.879,19.531,28.809,86.914
1532279239.740,46.875,25.879,18.066,26.367,-206.543
1532279239.744,44.922,28.809,16.602,31.738,-94.238
1532279239.748,42.480,29.297,17.578,38.574,237.793
1532279239.751,40.527,29.297,17.578,33.691,193.848
1532279239.755,42.480,31.250,20.508,29.297,-131.836
1532279239.759,45.898,30.762,20.508,32.227,-165.527
1532279239.763,34.668,28.809,19.043,36.621,151.855
1532279239.767,33.691,29.297,19.043,25.879,208.984
1532279239.771,41.016,30.273,17.578,19.043,-112.305
1532279239.775,43.457,28.809,19.043,34.180,-215.332
1532279239.779,41.504,29.785,19.531,36.133,83.496
1532279239.783,39.551,29.297,19.531,28.320,253.418
1532279239.787,41.504,29.297,20.508,20.996,24.902
1532279239.791,42.480,28.809,20.508,24.414,-193.359
1532279239.794,51.758,28.809,19.531,33.691,-32.715
1532279239.798,51.758,27.832,18.066,35.645,255.371
1532279239.802,40.039,26.855,19.531,34.668,112.793
1532279239.806,37.598,28.809,20.508,32.227,-220.215
1532279239.810,41.992,27.832,20.020,29.297,-132.812
1532279239.814,42.480,26.855,17.090,30.762,203.125
1532279239.818,37.598,26.855,15.625,31.250,222.656
1532279239.822,38.086,27.832,20.020,25.879,-102.539
1532279239.826,34.180,31.250,21.484,21.484,-196.289
1532279239.830,36.133,30.273,18.066,31.738,115.234
1532279239.834,38.574,27.344,17.090,34.180,247.559
1532279239.837,37.598,27.344,19.043,26.367,-40.039
1532279239.841,42.480,25.391,16.113,21.973,-223.145
1532279239.845,32.715,24.414,16.113,20.996,31.738
1532279239.849,35.156,24.414,16.113,32.227,240.723
1532279239.853,45.898,26.855,13.672,36.133,47.363
1532279239.857,41.992,25.391,13.184,31.250,-198.242
1532279239.861,32.227,24.414,11.719,29.785,-66.895
1532279239.865,28.809,25.391,12.695,28.320,220.215
1532279239.869,35.156,23.926,13.184,24.902,142.090
1532279239.873,35.645,21.973,17.578,27.344,-161.621
1532279239.876,30.762,22.949,21.973,32.715,-135.254
1532279239.880,32.227,26.367,20.508,31.250,210.449
1532279239.884,31.250,25.879,18.066,28.320,224.609
1532279239.888,26.855,25.391,17.090,21.973,-108.398
1532279239.892,32.227,23.926,14.648,22.949,-178.711
1532279239.896,31.738,22.949,11.719,24.902,112.305
1532279239.900,30.762,24.902,11.719,18.066,260.742
1532279239.904,33.691,25.879,15.625,11.230,-34.668
1532279239.908,30.273,25.391,14.160,16.113,-234.375
1532279239.912,31.250,23.438,12.207,22.461,30.762
1532279239.916,31.738,19.043,14.160,21.484,263.672
1532279239.919,23.926,18.555,15.137,15.137,81.543
1532279239.923,36.133,21.973,15.137,15.625,-226.562
1532279239.927,36.621,23.926,15.625,20.996,-103.516
1532279239.931,25.879,23.438,17.090,24.414,197.266
1532279239.935,27.344,24.414,16.602,23.438,118.652
1532279239.939,30.273,24.902,15.137,19.531,-137.695
1532279239.943,36.621,23.438,15.625,23.438,-142.578
1532279239.947,34.668,24.902,13.184,27.832,136.719
1532279239.951,30.762,25.391,14.160,24.414,208.008
1532279239.955,27.832,24.414,18.066,20.508,-74.707
1532279239.959,30.273,25.391,16.113,22.949,-191.406
1532279239.962,33.691,24.414,14.160,25.879,92.773
1532279239.966,33.203,23.438,14.648,25.391,246.094
1532279239.970,35.156,23.438,16.113,13.184,5.371
1532279239.974,37.109,22.949,19.043,20.020,-202.148
1532279239.978,32.227,21.484,17.578,35.156,0.000
1532279239.982,29.297,22.461,17.090,28.320,246.094
1532279239.986,27.344,24.902,16.602,23.438,101.562
1532279239.990,26.855,24.902,13.672,20.508,-164.551
1532279239.994,35.156,25.879,15.625,23.926,-92.285
1532279239.998,33.203,24.902,18.555,27.832,221.680
1532279240.001,22.949,24.414,16.602,19.043,197.754
1532279240.005,24.414,27.832,17.090,13.184,-141.113
1532279240.009,29.297,28.809,19.043,19.043,-148.926
1532279240.013,25.879,26.855,17.090,16.602,186.035
1532279240.017,14.160,24.902,17.578,12.207,240.723
1532279240.021,11.719,25.391,19.043,10.742,-60.059
1532279240.025,15.625,25.879,19.043,5.371,-212.402
1532279240.029,15.137,25.879,18.066,5.859,46.875
1532279240.033,16.602,25.391,17.578,8.789,270.508
1532279240.037,14.648,25.391,19.043,4.395,42.969
1532279240.041,10.742,24.414,20.996,-0.488,-187.500
1532279240.044,7.812,21.484,23.438,2.441,-27.344
1532279240.048,10.742,22.461,25.391,4.395,241.211
1532279240.052,8.301,22.461,27.832,0.000,114.746
1532279240.056,4.883,21.973,27.344,-5.371,-204.590
1532279240.060,6.348,22.461,26.855,-6.348,-102.051
1532279240.064,7.812,21.973,29.785,-2.930,195.312
1532279240.068,11.230,20.996,34.668,-3.418,178.711
1532279240.072,18.555,28.809,29.297,-10.742,-123.535
1532279240.076,16.113,36.133,19.043,-13.672,-175.781
1532279240.080,8.301,36.133,18.066,-5.859,133.301
1532279240.083,-0.977,33.691,22.949,-6.348,230.469
1532279240.087,-5.371,28.320,26.855,-5.859,-65.430
1532279240.091,2.441,31.250,23.926,4.395,-233.887
1532279240.095,1.465,36.621,17.090,4.395,30.762
1532279240.099,1.465,33.203,15.625,-6.836,284.180
1532279240.103,5.371,33.203,17.578,-9.277,47.852
1532279240.107,7.812,36.133,12.207,-3.418,-221.191
1532279240.111,17.090,35.645,7.324,4.883,-27.344
1532279240.115,24.414,34.180,13.184,12.207,249.023
1532279240.119,24.902,32.227,12.695,8.301,156.738
1532279240.123,29.785,36.133,7.324,3.906,-166.992
1532279240.126,33.691,38.086,5.371,7.324,-153.320
1532279240.130,33.203,33.691,3.418,19.531,187.012
1532279240.134,37.109,32.227,3.906,22.461,217.285
1532279240.138,39.062,32.227,3.418,20.020,-95.215
1532279240.142,43.945,32.715,2.930,27.344,-191.895
1532279240.146,50.781,33.203,2.930,34.180,92.285
1532279240.150,53.711,33.691,3.906,41.016,259.766
1532279240.154,59.082,35.156,6.348,39.551,1.465
1532279240.158,62.500,34.668,3.418,38.086,-189.941
1532279240.162,58.594,33.691,0.488,45.410,29.785
1532279240.166,60.547,34.180,1.465,46.387,255.859
1532279240.169,64.941,31.738,1.953,41.992,63.477
1532279240.173,57.617,30.273,2.930,41.016,-203.613
1532279240.177,55.176,30.762,3.418,47.852,-34.180
1532279240.181,58.105,28.809,3.418,52.734,262.695
1532279240.185,60.059,29.785,3.906,43.457,170.410
1532279240.189,59.082,30.273,6.836,41.504,-140.625
1532279240.193,60.547,28.320,5.859,47.852,-132.324
1532279240.197,65.430,29.785,5.859,50.293,191.895
1532279240.201,63.477,34.668,4.395,41.992,240.723
1532279240.205,57.617,33.691,3.906,33.203,-110.352
1532279240.208,65.918,30.762,5.859,39.062,-211.426
1532279240.212,67.383,31.250,6.348,41.992,107.910
1532279240.216,52.734,27.344,7.324,38.086,284.180
1532279240.220,51.270,26.855,8.789,32.227,25.879
1532279240.224,53.223,28.320,7.812,29.785,-210.938
1532279240.228,44.922,27.832,7.812,33.203,3.906
1532279240.232,44.434,27.344,7.812,31.738,252.930
1532279240.236,45.410,27.832,6.836,24.902,92.285
1532279240.240,41.992,28.320,7.812,20.508,-177.734
1532279240.244,42.969,26.855,7.324,23.926,-85.449
1532279240.248,49.805,25.879,10.742,32.227,208.496
1532279240.251,47.363,26.367,18.066,35.645,182.129
1532279240.255,41.016,26.367,17.578,27.344,-145.508
1532279240.259,45.410,24.902,16.113,27.344,-167.480
1532279240.263,45.898,26.367,17.578,30.762,124.023
1532279240.267,50.781,31.738,17.578,24.902,195.312
1532279240.271,54.688,32.227,18.555,26.367,-69.336
1532279240.275,53.711,30.762,16.113,32.715,-199.707
1532279240.279,56.152,32.227,13.672,45.898,55.664
1532279240.283,54.199,32.227,15.625,39.551,228.516
1532279240.287,54.199,33.203,18.066,32.715,4.883
1532279240.291,55.664,31.738,19.043,41.016,-195.312
1532279240.294,56.641,29.785,15.625,40.527,-10.742
1532279240.298,53.711,31.250,15.625,38.574,252.441
1532279240.302,54.199,32.715,15.137,30.762,74.707
1532279240.306,52.734,32.227,14.648,24.902,-219.727
1532279240.310,51.270,31.738,13.184,28.320,-94.238
1532279240.314,51.270,29.297,13.672,33.203,229.004
1532279240.318,46.387,26.367,16.602,28.320,231.445
1532279240.322,43.457,27.832,18.066,20.020,-112.793
1532279240.326,51.270,25.879,18.066,30.762,-177.246
1532279240.330,49.316,26.367,18.555,38.086,122.070
1532279240.333,41.992,27.832,19.043,32.227,251.465
1532279240.337,45.410,28.320,19.531,30.273,-7.812
1532279240.341,42.969,29.785,21.484,32.227,-210.449
1532279240.345,39.551,29.785,20.508,33.691,23.926
1532279240.349,42.969,31.738,19.043,32.715,261.719
1532279240.353,50.781,33.203,19.043,24.414,71.777
1532279240.357,45.410,31.250,20.020,26.855,-188.965
1532279240.361,46.875,30.273,19.531,36.621,-66.895
1532279240.365,50.293,32.227,18.066,39.551,198.730
1532279240.369,44.434,32.715,17.578,33.203,124.023
1532279240.373,40.039,32.715,18.066,25.391,-168.945
1532279240.376,42.969,34.180,16.602,30.273,-145.508
1532279240.380,43.457,32.227,15.625,35.645,177.246
1532279240.384,43.945,31.738,17.090,29.297,190.430
1532279240.388,40.039,31.250,18.066,23.438,-110.840
1532279240.392,39.062,31.738,17.090,27.832,-164.551
1532279240.396,50.781,31.738,20.508,38.086,135.254
1532279240.400,50.781,32.227,20.996,39.062,267.578
1532279240.404,44.922,34.668,20.020,32.715,-0.977
1532279240.408,46.387,34.668,20.508,30.762,-193.848
1532279240.412,46.387,32.227,21.484,35.645,33.691
1532279240.416,36.133,29.785,23.438,36.133,273.926
1532279240.419,36.621,29.785,22.949,29.297,91.309
1532279240.423,38.086,28.809,21.973,20.508,-218.750
1532279240.427,41.016,27.832,20.020,15.625,-119.629
1532279240.431,49.805,30.762,20.508,26.855,227.539
1532279240.435,44.434,33.203,22.461,30.762,169.434
1532279240.439,39.551,32.227,21.484,24.902,-172.363
1532279240.443,40.039,29.297,18.555,27.344,-168.457
1532279240.447,41.504,30.762,17.578,30.273,153.320
1532279240.451,41.992,30.273,20.508,27.344,199.707
1532279240.455,47.852,29.297,22.461,25.391,-98.145
1532279240.458,52.246,32.227,22.461,26.367,-196.777
1532279240.462,48.828,30.762,24.902,32.227,92.773
1532279240.466,39.062,31.250,24.414,32.227,253.906
1532279240.470,35.156,32.227,22.461,26.855,-25.391
1532279240.474,38.086,32.227,22.949,26.855,-243.164
1532279240.478,36.621,31.250,21.973,31.738,-21.484
1532279240.482,35.645,30.762,21.484,33.691,248.535
1532279240.486,44.434,31.738,21.484,22.949,61.035
1532279240.490,47.363,33.203,21.973,19.043,-234.863
1532279240.494,42.969,34.668,22.461,31.250,-81.543
1532279240.498,47.363,33.691,23.438,41.016,225.586
1532279240.501,51.758,36.133,24.414,37.109,170.410
1532279240.505,48.340,38.086,26.367,30.273,-139.160
1532279240.509,52.246,32.715,27.344,34.668,-157.715
1532279240.513,51.270,27.832,23.438,34.668,166.504
1532279240.517,45.898,31.250,21.973,32.227,251.465
1532279240.521,44.434,33.203,22.461,30.273,-33.691
1532279240.525,49.316,32.715,23.438,31.250,-217.773
1532279240.529,53.223,31.250,22.949,34.668,41.504
1532279240.533,47.363,29.785,22.461,31.250,277.832
1532279240.537,45.410,30.273,22.949,32.227,38.086
1532279240.541,42.480,31.738,23.438,28.320,-219.727
1532279240.544,43.945,32.715,23.438,32.715,-27.344
1532279240.548,46.387,34.180,20.996,38.086,274.414
1532279240.552,42.480,35.156,22.949,30.762,144.531
1532279240.556,47.363,34.180,23.438,30.273,-183.105
1532279240.560,49.316,32.227,22.461,39.062,-122.070
1532279240.564,44.922,33.691,23.926,35.156,198.730
1532279240.568,41.504,33.203,23.926,27.832,196.777
1532279240.572,40.039,31.738,24.902,31.738,-102.539
1532279240.576,48.828,32.715,23.926,37.598,-172.363
1532279240.580,54.199,33.691,23.438,45.898,114.746
1532279240.583,56.152,33.691,23.438,40.039,258.789
1532279240.587,57.129,33.203,23.438,31.738,-0.488
1532279240.591,49.805,34.180,21.973,31.738,-183.594
1532279240.595,46.387,32.715,20.508,35.156,59.570
1532279240.599,50.293,34.668,23.438,37.598,278.809
1532279240.603,55.664,40.039,25.391,34.668,71.777
1532279240.607,53.711,41.016,27.344,26.367,-208.496
1532279240.611,52.246,38.086,27.832,40.039,-83.496
1532279240.615,52.246,34.668,26.855,50.781,218.750
