timestamps,TP9,AF7,AF8,TP10,Right AUX
1532372792.150,14.648,44.434,20.020,5.371,9.766
1532372792.154,18.066,45.410,20.508,9.277,62.988
1532372792.158,19.043,44.434,17.578,9.277,74.219
1532372792.162,17.578,45.410,17.578,8.301,50.293
1532372792.165,21.484,46.875,22.461,15.137,18.555
1532372792.169,32.715,45.898,27.344,24.902,5.371
1532372792.173,34.180,45.410,26.367,29.297,58.594
1532372792.177,24.414,42.969,25.391,22.949,51.270
1532372792.181,22.461,43.945,27.832,21.484,-2.930
1532372792.185,21.973,44.434,26.367,22.949,3.418
1532372792.189,24.414,41.016,23.438,18.555,22.949
1532372792.193,29.297,41.992,25.879,22.461,32.227
1532372792.197,30.273,42.480,25.391,28.320,17.090
1532372792.201,36.621,41.992,22.461,29.297,12.695
1532372792.204,42.480,44.922,21.484,32.715,53.223
1532372792.208,39.551,44.922,22.949,36.133,76.660
1532372792.212,36.621,40.527,22.461,38.086,56.641
1532372792.216,39.551,39.551,20.996,35.156,22.949
1532372792.220,36.621,39.551,20.020,30.273,30.762
1532372792.224,27.832,38.574,19.043,23.438,59.570
1532372792.228,32.227,38.574,24.902,22.461,26.855
1532372792.232,34.668,38.086,25.391,33.691,-1.953
1532372792.236,36.133,38.086,20.020,37.109,13.672
1532372792.240,36.621,39.062,18.066,32.227,68.848
1532372792.244,31.738,41.504,19.043,32.227,45.410
1532372792.247,32.227,39.551,19.531,34.180,-17.090
1532372792.251,35.645,38.086,19.043,34.180,21.484
1532372792.255,37.109,37.598,21.484,30.762,62.500
1532372792.259,34.180,36.133,20.508,27.344,28.320
1532372792.263,35.156,39.062,21.484,27.344,-3.906
1532372792.267,36.133,40.527,22.461,25.879,-2.930
1532372792.271,29.297,36.621,19.531,26.367,42.969
1532372792.275,29.297,38.086,18.066,27.832,70.801
1532372792.279,26.855,39.062,17.090,21.973,10.742
1532372792.283,27.832,36.621,15.625,26.855,-6.836
1532372792.287,32.715,34.668,17.090,33.203,11.719
1532372792.290,34.180,36.621,20.996,30.273,42.480
1532372792.294,36.621,40.039,22.949,34.668,41.504
1532372792.298,34.668,36.133,20.996,40.527,-3.418
1532372792.302,32.715,32.715,22.461,41.992,-0.977
1532372792.306,32.715,34.180,21.973,38.574,34.668
1532372792.310,32.227,33.203,17.090,38.574,46.875
1532372792.314,35.156,31.738,20.020,42.480,25.391
1532372792.318,38.086,34.668,23.438,40.039,25.391
1532372792.322,36.621,34.668,20.996,40.039,71.289
1532372792.326,38.574,34.180,21.973,38.574,42.969
1532372792.329,37.109,36.133,22.461,28.320,-4.395
1532372792.333,37.109,34.668,21.973,24.902,22.949
1532372792.337,42.969,35.156,26.855,35.156,49.316
1532372792.341,37.109,34.180,26.855,38.086,65.430
1532372792.345,35.645,33.691,18.555,35.156,14.160
1532372792.349,37.598,34.180,15.625,33.691,-5.371
1532372792.353,34.668,34.668,17.578,30.762,36.621
1532372792.357,33.691,34.668,14.160,31.250,52.246
1532372792.361,33.203,35.645,6.348,30.762,30.762
1532372792.365,36.621,35.645,4.395,29.297,-1.465
1532372792.369,35.645,32.715,2.930,27.344,-15.625
1532372792.372,35.645,34.180,0.000,29.297,14.648
1532372792.376,40.527,35.156,-1.953,36.621,58.594
1532372792.380,38.574,31.738,-4.883,32.227,37.109
1532372792.384,32.227,30.762,-9.766,24.902,17.090
1532372792.388,36.621,34.180,-11.719,28.320,58.105
1532372792.392,40.039,37.109,-10.742,23.926,78.125
1532372792.396,41.992,37.598,-10.254,18.066,37.598
1532372792.400,47.363,36.621,-8.789,18.066,10.254
1532372792.404,57.617,34.668,-7.812,16.602,21.973
1532372792.408,57.617,37.109,-6.836,21.484,37.109
1532372792.411,43.945,38.574,-4.395,29.297,-16.113
1532372792.415,37.109,33.691,-5.371,32.227,-12.207
1532372792.419,34.180,34.668,-4.395,39.062,27.832
1532372792.423,34.668,34.180,-0.977,41.504,47.363
1532372792.427,33.691,32.227,0.000,38.574,24.902
1532372792.431,28.809,35.645,-0.488,39.062,-11.230
1532372792.435,23.438,34.668,0.488,35.156,3.418
1532372792.439,21.973,35.645,1.953,31.738,66.406
1532372792.443,23.438,35.645,-1.465,30.273,81.055
1532372792.447,25.879,32.227,-3.418,26.855,20.020
1532372792.451,30.762,32.227,-0.488,26.855,-27.344
1532372792.454,33.691,34.668,2.441,29.785,20.508
1532372792.458,34.668,36.133,1.465,28.809,83.496
1532372792.462,33.203,33.203,2.930,30.762,20.020
1532372792.466,32.227,36.133,6.836,29.785,-15.625
1532372792.470,37.109,38.574,5.859,27.344,14.648
1532372792.474,40.527,36.133,4.395,32.715,55.176
1532372792.478,41.016,39.062,4.883,35.156,34.668
1532372792.482,41.504,39.551,3.418,37.109,0.977
1532372792.486,41.992,36.621,0.977,36.133,10.254
1532372792.490,43.945,33.203,3.418,30.762,59.082
1532372792.494,47.852,34.180,3.418,36.133,75.684
1532372792.497,50.781,38.574,4.883,39.062,24.414
1532372792.501,43.945,37.598,5.859,35.645,3.418
1532372792.505,42.480,37.598,2.930,36.133,23.438
1532372792.509,49.316,41.992,7.812,38.086,47.363
1532372792.513,52.246,38.574,7.324,41.016,38.086
1532372792.517,46.875,33.691,4.395,41.504,14.160
1532372792.521,41.016,34.668,5.371,41.504,32.227
1532372792.525,43.457,35.156,8.301,45.410,52.246
1532372792.529,43.945,34.668,8.301,45.898,33.691
1532372792.533,46.875,38.086,5.859,47.852,4.395
1532372792.536,51.758,41.016,10.742,47.852,16.113
1532372792.540,48.828,38.574,16.602,47.363,76.172
1532372792.544,37.109,34.180,10.742,44.922,45.410
1532372792.548,39.062,30.273,6.348,37.109,-22.461
1532372792.552,44.434,29.785,13.672,41.992,-13.672
1532372792.556,40.527,32.227,15.137,43.457,44.922
1532372792.560,43.945,33.203,12.695,41.504,50.293
1532372792.564,48.828,33.203,13.672,41.504,25.391
1532372792.568,41.992,33.691,10.254,33.691,37.598
1532372792.572,42.969,36.621,9.766,36.621,59.082
1532372792.576,47.363,33.691,11.230,39.551,53.711
1532372792.579,38.086,31.250,8.301,32.227,22.949
1532372792.583,32.227,31.250,9.277,33.691,-0.488
1532372792.587,36.621,31.250,14.160,39.062,28.809
1532372792.591,35.156,34.180,13.184,35.156,68.359
1532372792.595,35.645,32.227,12.207,36.621,22.461
1532372792.599,40.039,30.762,13.672,38.574,-7.324
1532372792.603,37.598,29.785,14.160,36.621,28.320
1532372792.607,41.016,35.156,19.043,42.969,30.762
1532372792.611,42.480,40.039,20.996,46.875,27.832
1532372792.615,37.109,36.621,13.672,41.016,14.648
1532372792.619,39.551,36.133,14.648,39.062,15.625
1532372792.622,39.062,35.645,15.625,43.945,68.359
1532372792.626,40.039,36.133,15.137,40.527,33.203
1532372792.630,41.016,37.598,16.113,32.227,-15.137
1532372792.634,32.715,34.668,16.602,36.621,-14.648
1532372792.638,35.645,35.645,15.137,40.039,11.719
1532372792.642,41.992,38.574,13.672,42.480,33.203
1532372792.646,41.016,40.039,14.648,44.922,-6.836
1532372792.650,39.551,38.574,16.602,41.992,-45.410
1532372792.654,42.969,35.645,20.020,45.410,-6.348
1532372792.658,36.621,36.133,18.066,46.387,38.574
1532372792.661,34.180,37.109,18.066,41.016,51.758
1532372792.665,38.574,37.598,21.973,44.434,31.250
1532372792.669,41.992,39.062,20.508,48.340,22.461
1532372792.673,43.945,39.551,21.973,47.363,75.684
1532372792.677,40.527,39.062,24.414,46.387,54.199
1532372792.681,40.527,39.551,20.020,44.922,2.441
1532372792.685,40.527,38.086,17.578,43.457,5.859
1532372792.689,42.969,38.574,22.461,42.969,14.160
1532372792.693,42.480,40.527,21.484,42.969,23.926
1532372792.697,39.062,37.109,17.578,45.410,13.184
1532372792.701,39.551,36.133,17.578,46.875,13.184
1532372792.704,41.992,36.621,18.066,44.922,55.664
1532372792.708,41.504,38.086,17.090,42.969,49.316
1532372792.712,44.922,40.527,17.090,42.480,24.902
1532372792.716,46.875,39.062,17.578,46.387,27.344
1532372792.720,37.598,37.109,18.066,44.434,62.988
1532372792.724,35.156,37.598,16.602,44.922,79.102
1532372792.728,40.039,37.109,15.137,48.828,39.062
1532372792.732,38.086,35.645,15.137,43.945,20.020
1532372792.736,34.180,36.133,14.648,40.039,17.578
1532372792.740,29.297,35.645,15.137,38.574,38.574
1532372792.744,31.250,34.180,16.602,40.039,46.875
1532372792.747,30.273,33.691,15.137,36.621,-5.371
1532372792.751,29.785,35.156,15.137,32.715,1.465
1532372792.755,38.574,36.133,15.137,36.133,53.223
1532372792.759,36.621,35.645,15.137,36.133,47.363
1532372792.763,28.809,35.156,15.625,34.668,25.879
1532372792.767,32.715,37.109,12.207,33.691,4.883
1532372792.771,36.621,38.086,11.719,32.715,49.316
1532372792.775,34.180,36.133,13.184,32.715,77.148
1532372792.779,34.180,35.156,15.137,36.133,35.645
1532372792.783,38.574,36.133,17.090,40.527,7.812
1532372792.786,30.762,33.691,13.184,28.809,22.461
1532372792.790,30.762,35.645,13.184,25.879,32.715
1532372792.794,39.551,35.645,18.066,39.551,16.113
1532372792.798,38.086,32.227,17.090,37.109,3.418
1532372792.802,41.504,33.203,16.113,34.180,23.926
1532372792.806,36.621,32.715,14.160,31.250,47.363
1532372792.810,28.809,34.668,13.184,26.367,44.434
1532372792.814,31.250,35.645,16.113,28.809,20.508
1532372792.818,32.227,36.133,15.137,29.297,24.414
1532372792.822,32.715,35.645,15.137,31.250,55.664
1532372792.826,38.574,39.551,21.973,37.109,32.715
1532372792.829,46.875,46.387,26.855,38.574,-26.367
1532372792.833,48.828,52.246,24.414,40.039,-20.508
1532372792.837,44.922,56.152,23.926,41.016,31.250
1532372792.841,48.828,56.641,26.367,43.945,79.102
1532372792.845,51.758,54.199,30.762,45.898,51.758
1532372792.849,45.410,49.316,32.227,43.457,-13.672
1532372792.853,42.969,46.875,25.879,42.480,-11.230
1532372792.857,44.922,45.898,21.973,41.016,38.086
1532372792.861,40.527,44.922,20.020,34.180,17.578
1532372792.865,38.086,45.898,19.531,34.668,-15.625
1532372792.868,42.969,42.480,19.531,40.039,9.277
1532372792.872,45.898,39.551,19.043,42.969,27.832
1532372792.876,47.363,40.039,18.066,47.363,49.805
1532372792.880,45.410,38.086,18.066,43.457,41.016
1532372792.884,45.898,36.621,19.531,40.527,28.320
1532372792.888,51.270,40.527,19.043,45.410,27.832
1532372792.892,44.922,40.527,13.672,41.016,13.184
1532372792.896,41.504,34.668,10.254,38.574,14.648
1532372792.900,45.410,34.180,10.254,41.016,-8.789
1532372792.904,43.457,38.574,10.742,40.039,14.160
1532372792.908,48.828,37.598,12.695,45.898,56.641
1532372792.911,47.363,35.645,12.695,43.457,28.320
1532372792.915,39.551,31.250,12.207,40.039,0.977
1532372792.919,43.945,28.320,14.160,46.387,-3.906
1532372792.923,47.852,29.297,14.160,49.805,40.527
1532372792.927,45.898,32.715,15.625,46.875,21.484
1532372792.931,44.922,32.715,15.625,41.016,-13.672
1532372792.935,45.410,26.855,15.137,46.875,14.648
1532372792.939,42.969,25.391,14.648,48.828,53.223
1532372792.943,44.434,27.832,13.184,44.922,44.434
1532372792.947,48.828,26.367,9.277,42.480,12.695
1532372792.951,48.340,25.879,6.348,42.969,8.789
1532372792.954,46.387,31.250,7.324,48.340,27.344
1532372792.958,49.805,28.809,6.348,46.387,83.008
1532372792.962,54.688,28.320,7.812,50.781,52.246
1532372792.966,54.688,31.738,3.906,54.199,-12.695
1532372792.970,59.082,32.715,4.395,51.758,0.000
1532372792.974,57.129,33.203,5.859,55.176,27.344
1532372792.978,50.781,28.809,-1.465,49.805,11.719
1532372792.982,51.758,26.367,-0.977,44.434,15.625
1532372792.986,55.176,26.855,1.953,47.852,25.391
1532372792.990,56.152,25.879,1.465,52.734,16.602
1532372792.993,52.246,26.367,2.930,51.758,27.344
1532372792.997,51.270,27.832,2.930,48.340,17.578
1532372793.001,48.828,29.297,0.000,46.875,40.039
1532372793.005,41.992,27.832,0.000,42.969,54.199
1532372793.009,41.016,23.926,0.000,41.992,40.039
1532372793.013,47.363,24.902,-1.465,46.875,21.973
1532372793.017,49.316,24.414,0.977,44.434,6.348
1532372793.021,50.293,23.926,1.953,40.527,52.246
1532372793.025,59.570,28.320,0.000,43.945,62.012
1532372793.029,66.895,29.785,0.488,41.992,-4.395
1532372793.033,72.266,29.297,0.000,44.434,-5.371
1532372793.036,73.242,27.344,0.000,56.641,7.324
1532372793.040,62.012,25.391,-1.953,56.641,41.016
1532372793.044,53.711,26.855,-1.953,54.688,27.344
1532372793.048,53.711,29.297,3.418,61.035,-5.371
1532372793.052,48.340,24.902,0.977,61.035,19.043
1532372793.056,43.945,20.996,-2.441,54.688,60.547
1532372793.060,41.016,21.973,-4.395,53.223,59.082
1532372793.064,40.039,22.461,-4.395,53.711,10.742
1532372793.068,41.016,22.949,-3.418,44.922,-31.250
1532372793.072,39.551,24.902,-4.395,41.992,-8.789
1532372793.076,37.598,24.414,-4.883,44.922,35.645
1532372793.079,40.527,23.926,-5.859,41.504,23.438
1532372793.083,44.922,25.879,-9.277,44.434,23.438
1532372793.087,48.828,27.344,-8.789,49.316,28.320
1532372793.091,49.316,26.855,-3.906,47.852,66.895
1532372793.095,50.781,25.391,-1.953,52.734,45.898
1532372793.099,53.711,22.461,-5.371,48.340,-5.859
1532372793.103,49.316,23.438,-10.254,40.527,10.742
1532372793.107,42.480,23.438,-10.742,41.504,32.715
1532372793.111,41.504,23.926,-9.277,41.992,9.277
1532372793.115,41.992,24.414,-10.742,41.504,9.277
1532372793.118,39.062,22.949,-9.277,37.598,31.738
1532372793.122,41.016,24.902,-4.395,38.086,67.383
1532372793.126,43.945,25.391,-2.930,41.016,37.109
1532372793.130,45.410,25.879,-5.859,40.527,-26.367
1532372793.134,52.734,25.879,-2.930,50.781,-2.930
1532372793.138,52.734,20.020,1.465,50.781,23.926
1532372793.142,48.340,18.066,4.395,43.457,66.406
1532372793.146,49.316,21.973,2.441,45.410,40.039
1532372793.150,54.688,23.438,1.953,50.781,7.812
1532372793.154,52.734,24.902,4.883,46.875,37.109
1532372793.158,45.410,25.879,6.348,41.504,74.707
1532372793.161,44.922,24.902,9.766,44.434,46.387
1532372793.165,43.945,22.949,9.766,42.969,-19.043
1532372793.169,40.039,21.484,5.859,39.551,-14.648
1532372793.173,39.062,21.973,6.836,41.504,41.504
1532372793.177,39.062,21.484,11.230,43.457,42.969
1532372793.181,42.480,23.926,14.648,46.387,17.090
1532372793.185,43.457,26.855,17.090,47.852,8.301
1532372793.189,38.574,24.414,15.625,40.527,33.691
1532372793.193,41.504,24.414,6.836,38.086,53.223
1532372793.197,50.781,25.879,3.906,48.340,22.461
1532372793.200,43.457,21.484,17.090,48.340,10.254
1532372793.204,29.297,17.578,25.391,39.062,13.184
1532372793.208,34.180,18.066,20.996,41.504,49.316
1532372793.212,33.691,17.090,17.090,41.016,50.781
1532372793.216,35.156,10.742,16.113,42.480,2.441
1532372793.220,43.945,9.277,23.926,47.363,16.113
1532372793.224,31.738,8.789,30.273,37.598,45.898
1532372793.228,29.297,7.812,24.414,33.203,-0.977
1532372793.232,40.527,7.812,21.973,41.992,-14.648
1532372793.236,41.504,7.324,24.414,46.387,21.973
1532372793.240,45.410,11.230,23.438,55.176,40.039
1532372793.243,48.340,14.648,23.926,58.105,9.277
1532372793.247,46.387,15.137,23.438,51.758,-44.434
1532372793.251,46.387,16.602,23.438,50.781,-38.574
1532372793.255,43.945,15.625,20.020,48.828,41.504
1532372793.259,36.621,15.137,12.207,42.480,69.336
1532372793.263,41.016,18.066,13.672,45.410,19.531
1532372793.267,45.410,14.648,16.113,47.363,-10.742
1532372793.271,39.062,11.230,12.695,46.387,20.508
1532372793.275,41.016,15.625,10.742,46.875,60.059
1532372793.279,41.016,17.578,10.254,43.945,47.852
1532372793.283,42.969,18.066,10.254,47.363,21.484
1532372793.286,45.410,18.066,7.324,48.828,43.457
1532372793.290,48.828,20.996,9.766,51.270,82.031
1532372793.294,42.480,21.484,8.789,48.828,43.945
1532372793.298,39.551,17.578,4.883,45.898,-12.207
1532372793.302,42.480,17.090,6.348,45.410,2.930
1532372793.306,43.457,16.113,5.371,41.992,28.320
1532372793.310,47.363,15.137,0.977,41.992,-0.488
1532372793.314,46.387,14.648,1.953,43.945,8.301
1532372793.318,45.410,18.066,1.953,41.992,19.043
1532372793.322,45.410,20.508,0.000,43.945,47.852
1532372793.325,46.387,19.043,0.977,44.434,78.125
1532372793.329,48.828,20.996,2.441,42.969,36.133
1532372793.333,46.387,23.438,2.441,37.598,-2.441
1532372793.337,38.086,23.438,-1.465,32.715,36.621
1532372793.341,40.527,22.461,0.488,42.969,76.660
1532372793.345,47.363,22.461,7.324,44.922,24.414
1532372793.349,45.410,23.926,12.207,38.086,-30.273
1532372793.353,41.992,21.484,9.277,39.551,16.602
1532372793.357,37.109,20.996,3.418,39.551,84.961
1532372793.361,35.156,22.949,3.906,34.668,63.477
1532372793.365,41.992,22.461,3.418,36.133,8.301
1532372793.368,41.504,22.949,4.395,34.668,15.625
1532372793.372,37.598,24.902,1.953,33.691,74.219
1532372793.376,41.504,26.855,3.906,37.598,63.477
1532372793.380,41.992,30.762,11.230,39.062,14.160
1532372793.384,41.992,29.785,12.207,39.062,19.531
1532372793.388,42.480,25.391,8.789,38.574,47.852
1532372793.392,40.527,25.879,9.277,39.551,73.242
1532372793.396,35.645,24.414,10.254,38.086,40.527
1532372793.400,30.762,20.996,10.742,33.203,10.254
1532372793.404,28.320,23.926,11.230,35.156,41.992
1532372793.408,27.832,24.414,14.160,35.156,24.414
1532372793.411,29.297,16.113,18.555,38.086,-7.324
1532372793.415,42.480,9.766,23.438,54.688,16.602
1532372793.419,45.898,20.020,18.066,46.387,33.203
1532372793.423,28.320,34.668,6.836,23.926,78.125
1532372793.427,28.320,38.574,5.371,23.438,46.387
1532372793.431,41.016,35.156,2.930,33.691,-30.762
1532372793.435,53.223,33.691,-0.488,43.945,-2.441
1532372793.439,46.875,38.574,-0.488,42.480,22.949
1532372793.443,33.203,40.527,1.953,33.691,26.367
1532372793.447,37.109,40.527,5.371,33.691,8.301
1532372793.450,41.016,42.480,4.883,35.156,-9.766
1532372793.454,44.922,39.551,6.836,42.480,44.434
1532372793.458,44.434,36.133,9.766,45.410,87.402
1532372793.462,38.574,34.180,4.883,33.691,44.434
1532372793.466,35.156,33.691,3.418,29.785,-0.977
1532372793.470,35.645,34.180,6.348,36.133,13.672
1532372793.474,43.945,35.645,11.230,45.410,56.641
1532372793.478,51.270,37.598,12.207,50.781,47.852
1532372793.482,49.805,36.621,10.254,48.828,26.367
1532372793.486,46.875,33.203,12.695,42.480,10.742
1532372793.490,44.434,30.273,8.789,42.969,31.738
1532372793.493,45.410,32.227,4.395,48.340,51.758
1532372793.497,48.828,32.227,7.812,45.410,4.883
1532372793.501,43.457,28.809,11.719,41.016,8.301
1532372793.505,39.551,27.344,7.324,38.086,44.434
1532372793.509,44.922,29.785,11.719,36.133,39.062
1532372793.513,46.387,31.738,17.578,42.480,5.371
1532372793.517,43.457,31.250,13.672,48.828,-8.301
1532372793.521,44.434,30.273,12.695,47.852,41.992
1532372793.525,45.898,27.344,12.695,48.828,62.500
1532372793.529,46.387,28.809,12.695,48.828,15.625
1532372793.533,49.316,30.273,13.672,52.734,2.441
1532372793.536,53.223,32.227,15.625,53.223,48.828
1532372793.540,54.688,33.691,16.602,50.781,78.125
1532372793.544,53.223,34.668,15.137,54.688,39.551
1532372793.548,52.246,34.668,17.578,49.805,-13.184
1532372793.552,56.641,34.668,18.555,53.223,-26.367
1532372793.556,53.711,34.180,17.578,61.523,28.809
1532372793.560,47.852,33.203,18.555,59.570,54.199
1532372793.564,49.805,34.180,20.508,62.500,27.832
1532372793.568,49.316,34.180,19.043,60.547,4.883
1532372793.572,49.316,34.180,16.113,55.176,45.410
1532372793.575,52.246,37.109,16.113,57.129,80.566
1532372793.579,48.340,36.133,19.043,56.641,27.344
1532372793.583,51.270,38.574,22.461,58.594,11.719
1532372793.587,58.594,40.039,25.391,59.570,12.695
1532372793.591,57.617,37.109,22.949,57.129,12.207
1532372793.595,60.059,34.180,21.484,59.570,6.348
1532372793.599,61.035,31.738,21.484,58.594,-29.297
1532372793.603,61.035,31.738,20.508,58.594,-3.418
1532372793.607,62.012,32.227,20.020,57.129,27.344
1532372793.611,56.641,30.273,14.160,52.246,5.859
1532372793.615,48.340,24.902,14.648,48.828,-6.348
1532372793.618,51.758,25.391,16.113,51.270,16.602
1532372793.622,53.711,27.832,18.555,56.641,41.504
1532372793.626,51.270,22.461,20.996,57.129,14.648
1532372793.630,53.711,23.438,16.113,51.270,-17.578
1532372793.634,56.641,27.344,14.648,49.316,-1.465
1532372793.638,54.688,24.902,17.090,51.758,58.594
1532372793.642,54.199,21.484,17.578,47.852,90.820
1532372793.646,57.129,22.461,16.602,44.922,31.250
1532372793.650,55.176,23.438,21.484,45.410,9.766
1532372793.654,63.477,24.902,20.996,47.852,44.922
1532372793.657,77.148,28.320,18.066,46.875,70.312
1532372793.661,79.590,32.715,16.602,41.016,66.895
1532372793.665,70.312,26.855,16.113,39.551,34.180
1532372793.669,62.012,21.484,18.555,47.363,41.504
1532372793.673,62.012,22.461,20.020,61.035,72.266
1532372793.677,60.059,21.973,20.996,64.453,58.594
1532372793.681,55.176,20.996,24.902,67.871,21.484
1532372793.685,50.293,17.578,25.391,64.941,7.324
1532372793.689,41.992,15.137,21.484,56.152,22.949
1532372793.693,38.574,17.578,19.531,57.129,55.176
1532372793.697,34.668,19.043,19.531,52.734,39.551
1532372793.700,29.785,16.113,19.043,48.828,3.906
1532372793.704,31.738,14.160,19.531,49.316,14.160
1532372793.708,41.504,17.578,20.508,50.781,56.152
1532372793.712,41.016,17.578,18.555,49.805,29.785
1532372793.716,34.180,17.090,18.066,45.898,-11.230
1532372793.720,33.203,21.484,17.578,46.875,28.809
1532372793.724,38.574,23.926,16.602,43.457,82.031
1532372793.728,43.457,24.902,16.602,37.598,41.016
1532372793.732,33.203,25.391,13.672,35.156,2.441
1532372793.736,32.227,27.344,16.113,39.062,21.484
1532372793.740,36.133,27.832,17.578,40.527,38.086
1532372793.743,38.086,27.344,14.648,42.480,38.574
1532372793.747,38.574,28.320,11.230,37.598,3.418
1532372793.751,38.574,28.320,11.230,38.086,13.672
1532372793.755,45.898,29.785,14.160,46.387,31.738
1532372793.759,50.293,28.809,13.184,41.504,35.156
1532372793.763,49.805,28.320,12.695,41.992,16.602
1532372793.767,55.176,30.273,13.184,45.898,4.395
1532372793.771,57.129,28.809,11.719,43.457,37.598
1532372793.775,58.594,30.273,11.719,44.922,58.594
1532372793.779,59.570,32.715,13.672,46.875,36.133
1532372793.782,49.805,27.344,13.184,41.504,28.320
1532372793.786,49.316,25.879,14.648,37.109,25.879
1532372793.790,54.199,31.250,18.066,43.945,43.945
1532372793.794,49.316,29.785,16.602,46.875,52.734
1532372793.798,46.387,26.367,14.648,42.480,14.648
1532372793.802,47.363,28.320,13.184,41.016,7.324
1532372793.806,42.969,27.832,12.207,42.480,57.129
1532372793.810,47.363,29.297,15.137,44.434,50.293
1532372793.814,57.617,30.273,20.508,48.828,15.137
1532372793.818,57.129,25.879,20.508,46.875,9.766
1532372793.822,50.781,24.902,17.578,42.969,41.992
1532372793.825,53.711,26.367,20.508,43.457,62.500
1532372793.829,56.152,30.762,23.926,41.504,14.648
1532372793.833,51.270,31.250,23.438,46.387,-21.973
1532372793.837,48.828,26.855,20.508,48.828,2.930
1532372793.841,48.828,25.391,17.090,45.410,35.645
1532372793.845,53.711,27.344,16.602,42.969,13.184
1532372793.849,52.734,27.344,16.113,39.062,-17.578
1532372793.853,47.852,27.344,17.090,39.062,2.930
1532372793.857,44.434,25.879,16.113,37.109,40.527
1532372793.861,42.480,22.949,14.648,36.133,50.781
1532372793.865,41.016,20.508,17.090,38.574,-6.836
1532372793.868,40.039,18.066,17.578,40.527,-42.969
1532372793.872,41.504,18.555,17.578,44.434,16.602
1532372793.876,40.039,17.090,17.578,45.898,44.922
1532372793.880,35.645,15.137,16.602,41.504,10.254
1532372793.884,34.668,17.578,15.625,38.086,-7.324
1532372793.888,45.898,20.996,17.090,42.969,39.062
1532372793.892,56.152,22.461,20.020,49.316,57.617
1532372793.896,57.129,22.949,17.578,47.852,14.160
1532372793.900,53.711,20.996,13.184,46.875,-23.438
1532372793.904,48.828,20.508,11.230,40.527,-10.742
1532372793.907,50.293,19.043,13.672,39.062,32.715
1532372793.911,56.641,20.508,17.090,43.945,-4.395
1532372793.915,56.641,20.996,15.137,44.434,-24.414
1532372793.919,54.688,20.508,17.090,49.316,11.230
1532372793.923,54.199,21.484,20.020,48.340,63.477
1532372793.927,51.758,21.973,21.973,45.898,43.457
1532372793.931,48.828,21.973,20.508,40.039,6.836
1532372793.935,41.504,21.484,15.625,33.691,19.043
1532372793.939,38.086,21.973,16.113,31.738,19.043
1532372793.943,46.875,21.484,20.020,35.645,17.090
1532372793.947,47.363,21.484,19.531,39.062,-9.766
1532372793.950,41.504,18.555,20.020,38.086,-25.391
1532372793.954,43.457,14.160,22.461,41.504,14.160
1532372793.958,43.945,16.113,23.438,45.410,52.246
1532372793.962,36.133,15.625,21.973,47.363,28.809
1532372793.966,42.480,16.113,20.020,50.781,-3.906
1532372793.970,50.781,19.043,22.461,50.781,3.906
1532372793.974,51.270,19.531,24.414,54.688,56.641
1532372793.978,57.129,18.066,23.926,59.082,71.777
1532372793.982,58.105,20.020,23.438,54.688,39.551
1532372793.986,51.758,20.996,21.973,49.805,36.133
1532372793.990,48.828,20.996,20.508,51.758,63.965
1532372793.993,53.711,21.484,17.090,51.270,75.195
1532372793.997,52.246,22.461,18.555,44.922,18.555
1532372794.001,49.805,22.461,23.438,43.945,18.066
1532372794.005,53.711,21.973,21.484,48.340,63.477
1532372794.009,53.223,24.414,20.020,45.410,40.527
1532372794.013,52.734,27.832,17.578,37.109,0.000
1532372794.017,49.316,25.879,13.672,29.297,2.441
1532372794.021,44.922,22.461,17.090,26.367,41.992
1532372794.025,49.805,24.414,14.160,30.762,59.570
1532372794.029,49.316,23.926,6.836,33.691,16.113
1532372794.032,41.504,20.020,7.324,31.250,13.184
1532372794.036,40.527,20.508,7.812,31.738,59.082
1532372794.040,44.434,22.949,7.324,34.668,85.938
1532372794.044,40.039,23.438,5.859,33.691,55.176
1532372794.048,42.480,26.855,7.324,32.227,-1.465
1532372794.052,52.246,27.832,5.859,34.180,4.883
1532372794.056,57.129,28.809,2.441,40.527,62.988
1532372794.060,57.129,26.367,0.977,41.016,61.523
1532372794.064,52.734,23.438,-5.371,36.621,8.789
1532372794.068,54.199,25.879,-2.930,44.434,-21.973
1532372794.072,62.012,25.391,1.953,55.176,8.301
1532372794.075,65.918,24.902,2.930,52.734,46.875
1532372794.079,60.059,23.438,3.418,48.340,6.348
1532372794.083,54.199,22.949,2.441,48.828,-3.418
1532372794.087,53.711,25.391,2.441,42.480,10.254
1532372794.091,55.176,23.438,2.441,38.086,16.602
1532372794.095,50.781,25.391,5.371,38.086,5.859
1532372794.099,48.340,27.344,10.254,36.133,8.301
1532372794.103,50.781,25.391,6.836,38.574,51.270
1532372794.107,47.363,27.344,3.418,33.691,53.711
1532372794.111,43.945,23.926,7.324,27.344,40.039
1532372794.114,42.480,21.973,7.812,26.367,20.508
1532372794.118,37.109,22.949,5.371,26.855,2.930
1532372794.122,38.574,24.414,11.230,32.715,72.754
1532372794.126,42.969,25.879,15.625,32.715,71.777
1532372794.130,41.992,23.438,13.184,31.250,-0.488
1532372794.134,32.227,21.484,13.184,28.320,17.090
1532372794.138,29.297,24.414,12.695,24.414,63.965
1532372794.142,29.785,26.367,11.230,25.879,89.844
1532372794.146,29.297,22.949,10.742,23.438,49.316
1532372794.150,28.809,21.484,10.254,17.578,-12.695
1532372794.154,32.227,22.949,12.207,27.832,3.418
1532372794.157,37.598,22.949,16.602,40.527,41.504
1532372794.161,38.086,23.438,13.184,38.086,36.621
1532372794.165,41.504,22.949,9.766,38.086,26.855
1532372794.169,44.434,24.414,15.625,42.480,31.250
1532372794.173,47.363,24.414,17.578,44.922,61.035
1532372794.177,43.457,24.902,15.137,43.945,68.848
1532372794.181,42.969,26.855,18.066,42.969,14.160
1532372794.185,45.410,26.367,20.996,43.945,10.254
1532372794.189,41.504,24.902,23.926,45.898,54.199
1532372794.193,42.969,25.879,21.484,41.992,51.270
1532372794.197,45.898,27.832,19.531,40.527,18.555
1532372794.200,41.992,29.785,18.066,37.109,-0.488
1532372794.204,36.621,27.832,15.625,33.691,41.016
1532372794.208,38.086,26.855,15.625,34.180,56.641
1532372794.212,40.527,29.785,17.090,35.156,23.438
1532372794.216,41.016,29.297,19.043,36.621,14.160
1532372794.220,41.992,29.297,21.484,37.598,43.945
1532372794.224,40.527,31.250,23.926,40.039,60.547
1532372794.228,37.109,27.832,21.973,38.574,15.137
1532372794.232,38.086,23.926,20.020,39.062,-20.508
1532372794.236,38.086,23.438,16.602,39.062,2.930
1532372794.239,38.086,24.414,16.113,34.668,70.312
1532372794.243,43.457,24.414,23.926,40.527,78.125
1532372794.247,43.945,26.855,24.414,43.945,-18.555
1532372794.251,43.945,27.832,22.949,37.598,-43.945
1532372794.255,43.945,24.414,24.902,41.504,24.902
1532372794.259,41.992,24.414,22.949,44.922,77.148
1532372794.263,45.898,27.832,20.996,39.551,46.875
1532372794.267,47.363,29.785,23.438,44.434,-3.418
1532372794.271,46.387,28.809,26.367,48.828,46.875
1532372794.275,47.363,26.367,23.438,42.969,82.520
1532372794.279,40.527,25.879,19.531,37.598,45.410
1532372794.282,40.039,26.367,19.531,39.062,1.953
1532372794.286,49.805,28.809,23.438,41.016,-23.438
1532372794.290,53.223,32.227,25.879,35.645,28.320
1532372794.294,58.594,35.156,24.902,34.668,59.082
1532372794.298,60.547,37.598,27.344,33.203,21.484
1532372794.302,57.129,36.133,25.391,32.227,18.066
1532372794.306,58.594,33.691,22.461,33.203,62.500
1532372794.310,53.711,32.227,21.973,33.203,67.383
1532372794.314,49.316,29.297,20.508,38.086,23.926
1532372794.318,44.434,28.320,19.531,46.387,8.301
1532372794.322,36.621,30.273,17.578,47.363,56.152
1532372794.325,33.691,29.297,20.020,47.363,62.012
1532372794.329,30.762,25.879,21.973,44.922,-12.207
1532372794.333,30.762,25.879,23.926,47.363,-22.461
1532372794.337,40.527,32.227,29.785,56.641,33.203
1532372794.341,53.223,40.527,34.180,61.523,79.102
1532372794.345,51.270,44.434,38.574,61.035,33.203
1532372794.349,51.758,48.340,40.527,56.641,2.441
1532372794.353,60.059,55.176,46.875,60.547,31.738
1532372794.357,64.941,59.570,49.805,61.035,56.152
1532372794.361,66.406,60.547,51.270,56.152,60.059
1532372794.364,62.988,60.059,52.246,59.570,-1.465
1532372794.368,65.918,64.941,52.246,62.012,-30.762
1532372794.372,70.801,66.406,56.641,62.500,12.695
1532372794.376,71.777,64.941,57.129,67.383,20.020
1532372794.380,71.777,67.871,55.664,69.824,2.930
1532372794.384,77.148,69.336,56.152,70.312,9.277
1532372794.388,75.195,70.801,58.594,71.289,32.227
1532372794.392,74.219,70.312,61.035,76.172,49.316
1532372794.396,76.172,70.312,62.012,77.148,26.367
1532372794.400,74.219,70.801,61.035,74.219,6.348
1532372794.404,74.219,66.895,56.641,74.219,48.828
1532372794.407,61.523,60.547,48.828,62.500,38.574
1532372794.411,57.617,57.617,43.945,52.246,3.418
1532372794.415,58.594,55.664,42.480,52.734,19.043
1532372794.419,56.641,52.246,40.527,51.758,25.879
1532372794.423,54.199,49.805,37.598,50.781,38.574
1532372794.427,53.711,49.316,34.180,44.434,37.109
1532372794.431,54.688,46.387,28.320,38.574,0.488
1532372794.435,53.223,42.480,26.367,41.016,0.977
1532372794.439,46.875,43.945,25.391,38.574,37.598
1532372794.443,38.086,42.969,22.461,33.203,74.219
1532372794.446,37.598,36.621,21.484,32.715,34.668
1532372794.450,37.598,35.156,21.484,33.691,30.762
1532372794.454,40.527,38.086,25.879,38.574,52.734
1532372794.458,38.574,38.574,25.391,41.504,43.945
1532372794.462,37.109,39.062,19.531,40.039,27.344
1532372794.466,40.527,41.992,19.531,41.016,-34.668
1532372794.470,36.621,40.527,20.020,39.551,-20.020
1532372794.474,38.086,38.574,23.438,42.480,49.316
1532372794.478,37.598,40.527,22.949,40.039,42.969
1532372794.482,35.645,38.574,16.113,28.809,5.859
1532372794.486,34.180,37.598,15.625,26.367,8.789
1532372794.489,30.762,37.598,15.625,25.391,35.645
1532372794.493,34.180,36.621,14.160,24.902,51.270
1532372794.497,32.227,35.156,9.766,22.461,49.316
1532372794.501,30.273,33.203,5.859,25.879,40.039
1532372794.505,38.086,34.668,10.742,34.180,43.457
1532372794.509,41.504,37.598,12.207,32.715,53.711
1532372794.513,38.086,39.062,8.301,29.785,54.688
1532372794.517,33.691,36.621,5.859,28.320,39.062
1532372794.521,30.273,34.668,8.301,26.855,52.734
1532372794.525,29.297,34.668,9.277,25.879,53.711
1532372794.529,30.762,35.156,8.789,25.879,21.973
1532372794.532,33.203,35.156,10.254,25.391,13.184
1532372794.536,40.039,35.645,10.254,28.809,40.527
1532372794.540,41.504,35.156,13.672,34.180,80.078
1532372794.544,39.062,34.668,13.672,37.109,57.617
1532372794.548,38.086,34.668,10.254,27.832,6.836
1532372794.552,35.156,33.203,13.184,22.461,8.789
1532372794.556,40.527,37.109,13.672,40.527,49.805
1532372794.560,47.852,42.969,13.184,46.875,47.852
1532372794.564,42.480,38.574,13.184,39.551,21.484
1532372794.568,34.180,35.156,16.113,31.738,-2.930
1532372794.571,27.344,33.203,14.648,25.391,35.156
1532372794.575,27.344,34.180,13.184,26.855,83.984
1532372794.579,23.926,33.691,14.160,26.855,67.871
1532372794.583,19.043,32.227,15.137,25.391,37.109
1532372794.587,23.438,34.668,14.648,25.879,28.320
1532372794.591,25.879,34.180,13.184,27.344,60.547
1532372794.595,28.809,38.574,16.602,27.344,57.617
1532372794.599,28.320,39.062,14.648,25.391,16.602
1532372794.603,28.320,35.645,13.672,27.344,23.926
1532372794.607,30.762,38.574,16.113,26.367,60.059
1532372794.611,27.344,37.109,16.602,21.973,46.387
1532372794.614,25.879,33.203,16.113,21.484,24.414
1532372794.618,26.367,35.645,15.137,22.949,29.297
1532372794.622,26.855,34.180,15.625,22.461,62.500
1532372794.626,27.344,31.250,14.648,25.879,55.176
1532372794.630,30.273,33.203,11.719,26.855,16.602
1532372794.634,33.691,35.645,13.184,25.391,10.742
1532372794.638,32.715,39.062,13.672,24.902,65.918
1532372794.642,27.344,38.574,15.137,21.484,79.590
1532372794.646,24.414,36.133,15.137,15.625,20.020
1532372794.650,25.879,36.621,16.113,17.578,-22.949
1532372794.654,28.809,37.109,16.113,24.414,-18.555
1532372794.657,28.809,37.598,16.602,24.902,36.621
1532372794.661,26.855,35.156,16.602,19.531,45.898
1532372794.665,29.297,34.180,17.578,18.555,-1.953
1532372794.669,32.715,36.621,21.973,17.578,-34.180
1532372794.673,32.715,37.109,22.949,25.391,1.953
1532372794.677,37.598,37.598,23.438,34.668,23.926
1532372794.681,37.109,35.156,23.926,33.691,3.418
1532372794.685,32.227,34.180,23.438,31.250,9.766
1532372794.689,32.715,39.062,24.902,31.250,27.344
1532372794.693,30.273,38.086,24.902,28.809,61.035
1532372794.696,27.344,36.621,23.438,27.832,37.598
1532372794.700,24.414,37.109,22.949,27.832,22.949
1532372794.704,25.391,38.086,25.391,26.367,38.574
1532372794.708,29.785,39.551,23.926,25.879,25.391
1532372794.712,35.156,39.062,22.949,29.297,31.738
1532372794.716,38.574,39.062,22.461,31.250,14.648
1532372794.720,37.598,38.086,20.508,29.785,2.930
1532372794.724,36.133,36.621,22.461,29.297,54.199
1532372794.728,37.598,36.133,23.926,28.320,48.340
1532372794.732,38.086,35.156,21.484,31.250,1.953
1532372794.736,33.203,37.598,20.996,33.203,13.672
1532372794.739,30.273,37.109,20.996,36.133,46.387
1532372794.743,33.203,35.645,21.973,38.086,39.062
1532372794.747,34.180,37.109,22.461,38.086,-1.465
1532372794.751,30.273,36.133,21.484,33.691,-16.602
1532372794.755,32.715,37.109,22.949,30.762,29.297
1532372794.759,40.527,38.086,27.344,39.062,59.082
1532372794.763,37.109,38.574,27.344,38.574,35.645
1532372794.767,32.227,37.109,23.438,30.762,2.930
1532372794.771,32.715,34.180,22.461,31.738,27.344
1532372794.775,32.227,37.598,22.949,29.785,75.684
1532372794.779,37.598,40.039,27.344,28.320,60.547
1532372794.782,37.598,37.598,28.809,33.691,15.625
1532372794.786,30.273,34.668,27.832,31.738,4.883
1532372794.790,31.738,36.133,27.344,31.738,42.969
1532372794.794,34.180,37.598,28.320,36.133,45.410
1532372794.798,31.250,34.668,28.809,32.227,2.930
1532372794.802,26.367,35.156,23.926,28.809,16.113
1532372794.806,30.273,38.086,25.879,29.785,48.340
1532372794.810,32.227,35.645,25.879,24.902,29.785
1532372794.814,32.227,34.668,24.414,27.344,12.695
1532372794.818,34.668,35.645,24.414,31.250,-7.324
1532372794.821,31.738,37.109,21.973,29.297,53.711
1532372794.825,31.250,36.133,18.066,27.832,103.027
1532372794.829,31.738,36.621,18.066,28.320,38.574
1532372794.833,36.621,37.109,17.578,34.668,4.395
1532372794.837,44.922,36.621,15.137,40.039,33.691
1532372794.841,41.504,39.551,16.113,40.527,66.406
1532372794.845,40.527,39.062,17.578,38.574,46.875
1532372794.849,36.621,38.086,18.555,28.809,-27.344
1532372794.853,30.762,37.598,17.090,30.273,-9.766
1532372794.857,36.133,35.645,16.602,40.039,63.965
1532372794.861,33.203,39.062,19.531,35.645,49.316
1532372794.864,29.785,41.016,17.090,27.344,-1.465
1532372794.868,31.250,38.574,13.184,26.855,-0.488
1532372794.872,35.156,41.016,11.230,26.367,54.688
1532372794.876,43.945,43.457,15.625,35.645,47.852
1532372794.880,44.922,41.016,18.555,39.062,0.977
1532372794.884,42.969,39.062,15.625,30.762,19.531
1532372794.888,41.504,41.504,14.648,32.715,53.223
1532372794.892,44.434,44.434,15.137,34.668,46.875
1532372794.896,40.527,40.039,13.672,24.414,35.645
1532372794.900,34.180,36.133,14.160,21.973,-1.465
1532372794.903,34.668,37.109,18.555,26.367,13.184
1532372794.907,33.691,34.180,17.578,25.391,46.387
1532372794.911,31.250,33.691,15.137,22.461,21.973
1532372794.915,37.598,34.668,17.578,26.855,11.230
1532372794.919,39.551,33.691,19.043,30.762,13.672
1532372794.923,31.250,34.180,19.043,27.344,53.711
1532372794.927,28.809,35.645,20.996,27.832,34.668
1532372794.931,33.691,37.109,21.484,30.762,13.184
1532372794.935,36.621,38.086,20.508,29.785,17.578
1532372794.939,35.645,37.598,22.461,29.785,27.344
1532372794.943,37.109,37.109,22.461,27.344,57.129
1532372794.946,34.668,36.621,20.996,19.043,7.812
1532372794.950,35.156,35.156,19.043,19.043,-12.207
1532372794.954,43.457,34.668,22.461,24.902,41.016
1532372794.958,46.387,33.691,23.926,19.043,75.684
1532372794.962,48.340,35.645,22.949,18.066,55.176
1532372794.966,52.734,38.574,22.949,21.484,3.906
1532372794.970,50.293,39.062,25.879,27.344,47.363
1532372794.974,45.410,39.062,29.785,39.062,84.961
1532372794.978,42.480,38.086,28.809,41.016,27.344
1532372794.982,29.785,34.668,27.344,35.156,-25.879
1532372794.986,18.555,35.645,27.832,29.297,-8.789
1532372794.989,21.484,37.109,27.832,25.391,21.484
1532372794.993,23.438,35.156,35.156,34.668,38.574
1532372794.997,22.461,36.621,33.691,40.527,30.273
1532372795.001,22.461,38.574,29.297,36.133,21.484
1532372795.005,25.391,37.109,31.738,35.645,43.945
1532372795.009,28.809,36.133,29.297,31.738,48.828
1532372795.013,30.273,38.086,26.367,26.855,13.184
1532372795.017,25.391,36.621,28.320,22.461,-8.789
1532372795.021,25.391,37.109,32.227,25.879,33.691
1532372795.025,25.391,39.062,34.180,22.461,58.594
1532372795.028,21.973,37.109,31.738,12.207,0.000
1532372795.032,20.996,35.645,28.809,15.625,3.418
1532372795.036,20.996,37.109,34.668,24.414,28.809
1532372795.040,24.902,35.645,37.109,26.855,53.223
1532372795.044,23.438,33.203,35.156,25.879,49.805
1532372795.048,27.344,35.156,36.133,22.949,-26.367
1532372795.052,30.273,37.109,35.645,19.043,-3.906
1532372795.056,25.391,33.691,33.691,18.555,56.641
1532372795.060,26.367,33.203,31.738,20.508,51.758
1532372795.064,29.785,37.109,32.227,21.484,13.672
1532372795.068,34.180,39.551,34.180,26.367,-14.648
1532372795.071,35.645,38.574,33.691,21.484,19.531
1532372795.075,28.809,36.621,33.203,19.043,56.152
1532372795.079,22.949,37.598,31.738,19.531,16.113
1532372795.083,26.855,39.062,30.273,19.531,-1.953
1532372795.087,31.250,38.574,32.227,25.391,9.766
1532372795.091,32.715,38.086,33.203,23.438,36.621
1532372795.095,29.785,37.109,36.621,23.926,37.598
1532372795.099,30.762,39.062,37.598,25.391,-12.207
1532372795.103,29.297,36.621,34.668,20.996,-10.254
1532372795.107,27.832,34.668,33.691,20.996,34.668
1532372795.111,26.855,36.621,32.227,21.973,29.785
1532372795.114,27.832,34.668,36.133,22.949,-0.488
1532372795.118,28.809,33.203,41.504,22.949,-7.812
1532372795.122,29.785,34.180,38.574,24.902,11.719
1532372795.126,34.180,37.109,38.086,23.438,19.531
1532372795.130,32.715,37.109,39.062,17.090,1.953
1532372795.134,33.691,35.156,38.086,18.066,17.578
1532372795.138,33.203,32.715,37.109,18.555,58.105
1532372795.142,31.738,35.156,31.738,17.578,89.355
1532372795.146,31.250,35.645,29.785,16.113,31.250
1532372795.150,24.902,33.691,31.250,14.648,-37.598
1532372795.153,32.227,34.668,32.715,21.484,5.859
1532372795.157,37.598,33.691,33.203,26.855,33.203
1532372795.161,33.691,32.715,33.203,25.391,26.855
1532372795.165,32.227,30.762,32.715,22.949,7.324
1532372795.169,28.320,27.344,32.227,22.949,2.930
1532372795.173,30.273,29.785,32.227,22.949,45.410
1532372795.177,28.320,30.273,32.715,25.879,39.062
1532372795.181,32.227,29.297,32.715,31.250,13.672
1532372795.185,41.504,32.715,36.621,29.785,36.133
1532372795.189,34.180,32.715,34.668,20.996,23.926
1532372795.193,28.809,32.227,32.715,18.066,37.598
1532372795.196,31.250,36.133,32.227,18.555,48.828
1532372795.200,27.344,34.180,31.738,13.184,36.133
1532372795.204,27.344,33.203,36.133,14.160,49.805
1532372795.208,24.414,38.086,37.598,13.184,56.641
1532372795.212,20.508,39.551,37.109,12.207,32.227
1532372795.216,22.461,39.062,38.086,11.719,18.555
1532372795.220,19.043,38.086,36.133,13.672,27.832
1532372795.224,16.113,38.574,37.598,20.020,74.707
1532372795.228,17.090,39.551,40.527,17.090,40.527
1532372795.232,19.531,40.527,40.039,14.160,-24.414
1532372795.236,17.090,40.039,41.016,8.789,2.930
1532372795.239,12.695,36.133,40.527,3.906,49.805
1532372795.243,10.742,36.133,40.527,7.324,62.988
1532372795.247,12.207,37.598,39.062,8.301,11.230
1532372795.251,22.949,40.039,39.062,14.160,-21.973
1532372795.255,22.949,39.062,41.016,9.277,24.414
1532372795.259,14.160,38.086,41.504,3.418,60.547
1532372795.263,16.602,37.598,38.574,11.230,32.715
1532372795.267,24.902,38.086,36.621,12.695,1.465
1532372795.271,19.043,36.621,39.551,4.883,35.645
1532372795.275,21.973,35.645,41.016,9.766,86.914
1532372795.278,35.156,40.039,41.504,20.508,69.336
1532372795.282,38.574,42.480,42.480,26.367,43.457
1532372795.286,37.109,45.410,43.945,28.809,35.645
1532372795.290,34.180,48.340,45.898,27.344,50.293
1532372795.294,33.691,48.340,49.316,26.855,66.406
1532372795.298,36.621,42.480,50.781,32.715,38.086
1532372795.302,40.039,40.039,50.781,38.086,13.184
1532372795.306,39.062,44.922,50.293,36.133,41.016
1532372795.310,34.180,45.410,51.758,27.832,26.855
1532372795.314,36.621,43.945,52.734,23.926,-25.879
1532372795.318,41.016,44.434,48.340,27.344,-29.297
1532372795.321,45.410,43.457,45.410,34.180,40.527
1532372795.325,50.293,43.945,44.434,40.527,88.379
1532372795.329,49.805,45.898,41.504,36.133,19.531
1532372795.333,48.340,46.875,42.969,38.086,-15.137
1532372795.337,53.711,46.875,47.363,47.363,51.270
1532372795.341,54.688,44.922,44.922,48.340,69.824
1532372795.345,51.758,41.992,42.969,49.805,50.293
1532372795.349,53.711,40.039,47.852,51.758,34.668
1532372795.353,52.734,41.504,50.293,48.828,41.504
1532372795.357,48.340,44.922,46.875,50.293,47.852
1532372795.360,45.898,43.945,44.434,49.805,18.555
1532372795.364,48.340,42.969,46.875,47.363,-7.812
1532372795.368,51.270,41.992,55.176,50.293,-9.766
1532372795.372,48.340,40.527,55.664,54.199,33.203
1532372795.376,42.480,38.574,48.828,53.711,39.551
1532372795.380,41.016,38.574,50.293,51.270,20.508
1532372795.384,39.551,38.574,51.758,49.316,26.855
1532372795.388,36.133,38.086,52.246,46.875,30.273
1532372795.392,32.715,36.133,49.316,43.945,55.176
1532372795.396,31.250,35.645,43.945,41.016,33.691
1532372795.400,34.180,37.109,46.387,40.527,19.531
1532372795.403,39.062,38.574,50.293,41.504,47.363
1532372795.407,37.598,41.016,49.316,35.645,55.176
1532372795.411,35.645,40.527,45.898,36.621,32.715
1532372795.415,36.621,34.668,45.410,37.598,19.531
1532372795.419,35.156,37.109,46.387,36.133,26.367
1532372795.423,37.109,42.480,44.434,39.062,59.082
1532372795.427,39.551,41.504,41.992,34.668,62.500
1532372795.431,29.785,39.062,41.016,31.738,13.184
1532372795.435,23.438,36.133,42.480,33.691,33.203
1532372795.439,29.785,36.621,43.945,33.203,90.332
1532372795.443,33.203,39.551,44.434,35.645,57.617
1532372795.446,31.250,37.598,42.480,31.250,-7.812
1532372795.450,27.832,35.156,42.480,32.715,-25.391
1532372795.454,23.926,35.156,43.457,34.668,16.602
1532372795.458,21.484,36.133,39.551,24.902,57.129
1532372795.462,20.508,31.250,38.574,20.508,23.438
1532372795.466,23.438,28.320,37.109,15.625,-13.184
1532372795.470,26.367,31.250,35.156,18.555,-0.977
1532372795.474,31.738,32.715,34.668,26.367,36.133
1532372795.478,36.133,34.180,35.645,26.855,39.551
1532372795.482,34.668,38.086,37.598,26.855,37.598
1532372795.485,33.691,38.574,33.203,25.391,27.344
1532372795.489,26.367,35.645,35.645,24.902,41.016
1532372795.493,25.879,32.715,39.062,26.367,62.500
1532372795.497,26.855,33.203,35.156,26.367,15.625
1532372795.501,20.508,35.156,37.598,29.785,17.578
1532372795.505,20.508,31.738,39.551,30.762,54.688
1532372795.509,20.996,30.273,40.039,21.973,30.762
1532372795.513,23.438,33.691,28.809,22.461,24.414
1532372795.517,27.832,34.668,14.648,36.133,6.836
1532372795.521,28.320,32.715,14.648,40.527,24.414
1532372795.525,27.832,32.715,12.695,34.668,66.895
1532372795.528,24.902,33.203,12.207,26.855,50.781
1532372795.532,21.973,31.738,13.672,27.344,28.809
1532372795.536,20.508,32.227,13.184,27.832,24.902
1532372795.540,17.090,35.156,10.742,20.020,64.453
1532372795.544,17.090,34.180,10.254,18.066,59.082
1532372795.548,20.020,33.203,8.789,19.043,-9.277
1532372795.552,20.508,33.203,11.719,20.508,5.371
1532372795.556,20.020,35.645,15.625,27.832,54.199
1532372795.560,21.973,38.086,13.672,31.250,77.148
1532372795.564,21.484,36.133,15.137,27.344,42.480
1532372795.568,23.926,35.645,17.090,19.531,-10.742
1532372795.571,26.367,37.109,15.137,18.555,19.531
1532372795.575,26.367,38.574,12.207,24.902,57.129
1532372795.579,24.414,37.109,13.184,20.996,20.996
1532372795.583,25.879,37.109,15.137,17.578,-3.906
1532372795.587,30.762,39.551,18.555,22.949,11.719
1532372795.591,31.250,39.062,19.043,25.879,43.945
1532372795.595,31.250,38.086,19.043,21.973,34.668
1532372795.599,32.227,38.086,18.555,20.020,-6.836
1532372795.603,35.156,39.062,17.578,18.066,18.066
1532372795.607,39.062,39.062,19.531,11.719,40.039
1532372795.610,42.969,39.551,19.043,11.230,18.555
1532372795.614,51.270,41.016,19.531,18.555,4.395
1532372795.618,52.734,39.062,23.438,18.555,-6.348
1532372795.622,47.363,36.621,27.344,21.973,24.902
1532372795.626,41.504,36.621,28.320,27.832,58.594
1532372795.630,38.086,39.551,28.809,28.320,31.250
1532372795.634,27.832,37.598,28.809,31.738,7.324
1532372795.638,18.555,36.621,30.273,29.297,12.695
1532372795.642,19.043,38.086,33.203,24.414,26.855
1532372795.646,17.090,37.109,32.715,24.414,-22.949
1532372795.650,16.113,33.691,32.715,21.973,-62.500
1532372795.653,14.160,31.250,37.109,23.926,-5.371
1532372795.657,17.578,35.156,39.062,32.227,44.922
1532372795.661,26.855,41.504,35.156,31.738,39.551
1532372795.665,30.273,42.480,36.621,29.785,-8.789
1532372795.669,23.926,38.086,38.086,26.367,12.207
1532372795.673,19.043,34.668,32.715,16.602,54.199
1532372795.677,20.996,38.574,29.785,13.184,45.410
1532372795.681,24.414,39.062,32.227,18.066,2.930
1532372795.685,18.066,35.645,33.691,14.648,-30.762
1532372795.689,19.043,35.156,34.668,12.695,5.371
1532372795.692,23.438,35.645,38.574,20.508,15.137
1532372795.696,21.484,35.645,40.527,28.320,9.766
1532372795.700,23.926,40.039,39.062,27.832,-10.742
1532372795.704,25.879,41.016,38.086,23.438,-3.418
1532372795.708,31.738,39.062,39.062,24.902,61.523
1532372795.712,34.668,40.527,41.016,23.438,37.109
1532372795.716,35.156,40.527,41.016,24.414,-11.719
1532372795.720,35.156,39.551,41.504,23.438,14.160
1532372795.724,32.715,40.039,42.480,23.926,56.152
1532372795.728,24.414,38.086,41.504,15.137,16.113
1532372795.732,20.508,34.180,37.598,9.766,-20.508
1532372795.735,26.367,33.203,37.109,20.996,-13.672
1532372795.739,32.715,34.180,40.527,26.855,29.297
1532372795.743,36.621,35.645,41.016,32.227,61.523
1532372795.747,38.086,38.574,37.109,28.320,2.441
1532372795.751,37.598,38.086,35.156,27.344,34.668
1532372795.755,39.062,35.645,37.598,31.738,69.336
1532372795.759,45.410,36.621,38.574,33.203,67.383
1532372795.763,46.875,41.504,33.691,30.273,54.199
1532372795.767,41.504,42.480,33.691,28.809,4.883
1532372795.771,42.969,38.086,37.109,31.738,12.207
1532372795.775,47.852,38.086,35.156,32.715,39.551
1532372795.778,37.598,38.086,35.156,30.762,36.133
1532372795.782,27.344,35.645,34.180,27.832,18.555
1532372795.786,33.203,38.086,34.668,31.250,5.859
1532372795.790,36.621,38.574,37.109,32.227,12.207
1532372795.794,31.738,35.156,38.086,33.203,7.812
1532372795.798,31.738,33.691,35.645,31.738,-25.391
1532372795.802,39.062,35.645,33.203,29.297,17.578
1532372795.806,38.574,36.621,35.156,32.227,80.078
1532372795.810,33.691,36.621,39.551,37.109,61.523
1532372795.814,33.203,35.645,35.645,35.645,13.672
1532372795.817,39.062,34.668,31.738,33.691,-5.371
1532372795.821,40.527,36.133,34.180,36.621,25.391
1532372795.825,36.621,37.109,35.156,35.156,52.734
1532372795.829,42.969,35.156,34.180,35.156,19.043
1532372795.833,45.410,34.180,34.668,35.645,-8.789
1532372795.837,41.016,37.598,36.133,37.598,16.113
1532372795.841,41.016,41.504,37.109,41.016,68.359
1532372795.845,36.133,39.551,38.086,38.086,46.387
1532372795.849,30.762,38.086,34.668,33.203,-10.254
1532372795.853,32.227,39.551,31.250,32.715,5.371
1532372795.857,34.668,36.621,33.203,30.762,32.715
1532372795.860,33.691,37.598,32.715,28.320,55.176
1532372795.864,33.691,41.016,32.227,29.297,38.574
1532372795.868,30.273,39.551,34.180,28.809,13.672
1532372795.872,26.855,39.551,37.109,30.762,40.039
1532372795.876,25.879,40.039,36.621,26.367,54.199
1532372795.880,22.461,37.109,34.668,20.996,28.320
1532372795.884,25.391,35.645,34.668,25.391,22.949
1532372795.888,26.855,35.645,33.203,23.926,19.043
1532372795.892,28.809,36.133,35.645,26.367,58.594
1532372795.896,34.668,35.645,36.621,31.250,61.523
1532372795.900,39.551,36.621,37.109,38.574,10.742
1532372795.903,37.109,35.645,36.133,38.574,19.043
1532372795.907,39.551,38.574,36.133,31.738,49.316
1532372795.911,36.621,40.039,37.109,31.738,34.180
1532372795.915,33.691,37.109,38.086,33.203,6.836
1532372795.919,29.785,38.086,37.598,28.320,11.230
1532372795.923,26.367,39.551,34.180,20.996,43.457
1532372795.927,31.250,40.039,33.203,22.949,38.574
1532372795.931,31.250,41.016,33.691,25.879,1.953
1532372795.935,33.691,41.992,34.180,25.879,-1.953
1532372795.939,31.738,38.574,37.109,28.320,42.480
1532372795.942,23.438,34.180,34.180,30.762,67.383
1532372795.946,24.414,32.227,31.250,27.344,13.184
1532372795.950,25.391,35.645,34.668,25.391,-20.508
1532372795.954,18.066,38.574,34.180,24.414,5.859
1532372795.958,22.949,38.086,33.203,25.879,66.895
1532372795.962,27.832,39.062,35.156,29.297,49.316
1532372795.966,30.273,38.086,35.156,26.855,-21.484
1532372795.970,27.832,38.086,30.273,24.902,-8.789
1532372795.974,23.438,38.086,26.855,23.926,57.617
1532372795.978,31.738,35.156,27.344,23.926,48.340
1532372795.982,33.691,36.133,29.785,21.484,13.184
1532372795.985,28.320,38.086,32.227,17.578,3.418
1532372795.989,31.250,39.551,32.227,29.297,7.812
1532372795.993,37.109,37.598,34.180,35.156,46.387
1532372795.997,37.598,35.156,34.668,28.809,-11.719
1532372796.001,31.250,37.109,31.738,24.902,-23.438
1532372796.005,28.320,37.598,31.738,25.879,29.297
1532372796.009,30.273,37.598,31.738,25.879,62.012
1532372796.013,25.391,35.156,28.320,21.484,37.109
1532372796.017,21.484,35.156,26.367,22.461,11.230
1532372796.021,30.762,38.574,26.855,29.785,46.387
1532372796.025,35.645,37.109,26.367,28.809,43.945
1532372796.028,36.133,35.156,25.879,21.484,14.160
1532372796.032,34.180,35.645,22.461,19.531,-41.504
1532372796.036,32.715,35.645,23.926,23.438,-16.113
1532372796.040,33.203,37.109,29.785,23.438,68.359
1532372796.044,38.086,35.645,27.344,26.855,59.082
1532372796.048,38.574,32.227,26.367,31.250,13.184
1532372796.052,33.203,32.715,30.762,28.809,5.859
1532372796.056,35.645,35.156,33.203,33.691,48.340
1532372796.060,41.016,37.598,34.668,39.551,74.219
1532372796.064,39.551,39.062,37.598,38.574,22.949
1532372796.067,33.203,39.551,38.086,32.715,-18.066
1532372796.071,27.344,38.086,33.691,22.461,-2.930
1532372796.075,27.344,36.133,31.738,26.855,29.297
1532372796.079,26.367,35.645,34.180,34.668,38.574
1532372796.083,25.391,34.180,34.668,32.227,28.809
1532372796.087,26.367,32.715,35.156,30.273,18.066
1532372796.091,25.391,34.180,34.180,26.855,46.387
1532372796.095,22.949,35.156,30.762,24.414,51.270
1532372796.099,27.832,36.133,30.273,23.438,35.156
1532372796.103,36.133,37.598,34.668,26.367,36.133
1532372796.107,32.715,39.062,34.180,25.879,49.316
1532372796.110,29.297,39.551,33.691,24.414,63.477
1532372796.114,31.738,38.574,33.203,25.391,33.203
1532372796.118,35.645,41.016,31.250,29.785,9.277
1532372796.122,37.109,41.504,32.715,33.203,43.457
1532372796.126,36.621,37.598,33.203,33.691,42.969
1532372796.130,30.762,38.086,29.297,31.738,4.395
1532372796.134,30.273,39.551,29.785,30.762,0.000
1532372796.138,28.809,35.156,32.715,26.367,33.691
1532372796.142,21.484,36.133,32.715,26.367,55.664
1532372796.146,25.879,38.574,32.715,23.926,22.461
1532372796.149,24.414,37.598,32.227,17.578,2.930
1532372796.153,22.949,39.551,33.691,20.508,31.738
1532372796.157,26.855,39.551,32.227,20.508,43.457
1532372796.161,27.832,41.992,27.832,18.066,36.133
1532372796.165,32.227,43.457,29.297,18.066,0.488
1532372796.169,33.203,41.016,34.180,17.578,-12.695
1532372796.173,31.250,38.574,35.156,24.414,58.594
1532372796.177,31.738,35.156,31.738,30.273,91.797
1532372796.181,33.203,34.180,34.668,30.762,34.668
1532372796.185,31.250,35.645,36.621,31.250,23.438
1532372796.189,27.344,37.598,33.691,31.738,66.895
1532372796.192,32.227,39.551,31.738,33.203,76.172
1532372796.196,34.668,39.062,28.320,30.762,49.316
1532372796.200,36.621,38.574,28.809,32.715,7.324
1532372796.204,37.598,39.062,30.762,34.668,14.160
1532372796.208,36.621,39.062,28.320,29.785,59.570
1532372796.212,38.086,41.016,29.297,31.738,23.438
1532372796.216,38.574,40.527,30.762,33.691,8.789
1532372796.220,35.156,37.109,33.203,34.180,48.340
1532372796.224,31.738,39.062,35.156,31.738,55.176
1532372796.228,26.367,38.574,31.250,26.367,41.992
1532372796.232,22.461,33.203,28.809,22.461,23.926
1532372796.235,29.297,35.156,32.227,24.902,8.789
1532372796.239,36.133,38.574,38.086,30.273,51.270
1532372796.243,37.109,38.574,40.039,34.668,74.707
1532372796.247,35.156,32.715,36.133,30.762,10.742
1532372796.251,40.039,36.133,34.180,31.738,3.906
1532372796.255,45.410,40.527,36.133,34.180,38.574
1532372796.259,45.410,40.527,36.621,30.762,62.500
1532372796.263,51.758,41.992,36.133,30.762,48.828
1532372796.267,48.828,41.016,32.715,23.926,2.441
1532372796.271,48.828,39.062,31.738,17.578,6.836
1532372796.274,56.152,41.016,35.645,22.461,81.055
1532372796.278,62.012,41.504,35.645,29.297,77.637
1532372796.282,62.012,41.992,34.180,34.180,23.926
1532372796.286,54.199,42.969,35.645,41.016,23.926
1532372796.290,48.828,39.551,36.133,44.434,45.410
1532372796.294,41.504,38.086,34.180,41.016,48.340
1532372796.298,31.738,36.621,31.738,32.715,27.344
1532372796.302,28.809,36.621,34.668,37.598,4.395
1532372796.306,29.785,36.133,36.133,38.574,29.785
1532372796.310,24.902,35.156,30.762,27.344,40.039
1532372796.314,28.320,40.527,28.809,29.785,3.906
1532372796.317,37.598,41.992,32.227,34.668,-15.625
1532372796.321,42.969,42.969,31.738,38.574,30.273
1532372796.325,40.527,42.480,30.273,37.109,59.082
1532372796.329,33.691,40.527,31.250,35.156,38.574
1532372796.333,38.574,41.992,32.227,40.039,33.691
1532372796.337,38.574,40.527,34.180,38.086,47.363
1532372796.341,27.344,37.598,34.668,31.738,57.617
1532372796.345,27.344,41.504,33.203,30.273,5.859
1532372796.349,30.762,43.457,35.156,29.297,-9.766
1532372796.353,33.203,38.574,37.598,31.738,46.875
1532372796.357,32.227,38.086,33.203,35.645,64.453
1532372796.360,32.715,42.969,29.297,37.598,51.270
1532372796.364,36.133,42.480,28.320,38.574,27.344
1532372796.368,32.227,37.109,25.879,31.738,-13.184
1532372796.372,30.762,37.109,21.973,30.273,44.922
1532372796.376,37.598,41.504,20.020,32.715,95.703
1532372796.380,36.133,39.551,18.066,31.250,23.926
1532372796.384,35.645,37.598,18.555,34.668,12.695
1532372796.388,38.574,40.039,19.043,39.062,11.719
1532372796.392,33.203,41.016,17.090,35.156,30.762
1532372796.396,27.344,38.574,14.648,29.297,29.297
1532372796.399,23.438,35.156,15.625,26.855,-16.602
1532372796.403,30.762,38.086,21.484,33.203,-3.418
1532372796.407,36.133,40.527,23.438,33.203,22.949
1532372796.411,28.809,40.039,22.461,31.250,28.320
1532372796.415,31.250,38.086,24.414,38.574,2.930
1532372796.419,34.668,35.156,22.461,30.762,12.695
1532372796.423,31.250,37.109,17.578,22.949,55.176
1532372796.427,35.156,40.527,18.066,29.297,50.781
1532372796.431,42.969,39.062,22.949,38.086,16.602
1532372796.435,41.016,36.133,22.461,37.109,2.930
1532372796.439,41.504,41.016,24.414,37.598,30.762
1532372796.442,38.574,41.992,24.902,37.598,61.035
1532372796.446,33.203,39.062,23.438,27.344,16.602
1532372796.450,32.715,39.062,28.320,21.973,-8.789
1532372796.454,33.203,36.621,29.297,24.414,22.949
1532372796.458,28.809,37.109,25.879,23.438,69.336
1532372796.462,25.391,36.621,24.902,22.461,52.246
1532372796.466,32.227,35.645,25.391,25.879,8.789
1532372796.470,36.133,36.621,28.809,30.762,13.184
1532372796.474,32.227,36.133,28.809,28.809,71.289
1532372796.478,28.320,33.691,27.832,20.996,76.172
1532372796.481,28.320,32.715,29.785,24.414,20.996
1532372796.485,39.062,34.180,36.133,32.227,2.930
1532372796.489,41.016,35.156,37.109,32.715,36.621
1532372796.493,33.203,37.598,37.109,36.133,35.645
1532372796.497,33.203,38.086,38.086,33.203,7.812
1532372796.501,34.180,36.621,34.180,27.344,4.395
1532372796.505,31.250,35.645,30.762,21.973,24.414
1532372796.509,26.855,34.668,27.832,18.066,31.738
1532372796.513,31.250,33.691,27.344,23.926,8.301
1532372796.517,32.227,33.691,29.297,28.320,10.742
1532372796.521,35.645,37.109,33.203,28.809,39.062
1532372796.524,35.645,38.574,28.809,21.484,58.594
1532372796.528,29.785,33.203,25.879,18.066,24.902
1532372796.532,30.762,33.691,30.273,24.414,-13.672
1532372796.536,33.203,37.598,32.715,29.785,-7.812
1532372796.540,36.133,39.062,33.691,33.203,30.762
1532372796.544,36.621,37.598,33.203,31.738,41.992
1532372796.548,33.691,36.133,32.715,25.879,2.441
1532372796.552,31.738,39.062,28.320,27.832,1.953
1532372796.556,32.715,41.504,30.762,30.762,38.086
1532372796.560,30.273,35.645,33.691,26.855,44.922
1532372796.564,30.273,32.715,32.227,27.832,25.391
1532372796.567,33.203,40.527,34.180,31.250,-12.207
1532372796.571,37.598,41.992,36.133,34.668,31.250
1532372796.575,37.109,35.645,34.668,36.621,76.172
1532372796.579,30.762,35.645,32.715,38.086,18.066
1532372796.583,36.133,40.527,30.273,35.156,-10.742
1532372796.587,39.551,40.527,30.273,31.738,15.625
1532372796.591,32.715,38.574,32.227,30.273,61.035
1532372796.595,38.086,38.574,34.668,34.668,40.527
1532372796.599,41.504,41.992,35.645,37.109,-14.160
1532372796.603,41.504,41.992,36.133,33.691,8.301
1532372796.606,42.969,40.039,35.156,39.551,65.918
1532372796.610,36.621,40.527,30.762,37.109,69.336
1532372796.614,35.156,41.504,27.344,30.273,23.438
1532372796.618,37.598,40.527,30.273,35.645,-6.348
1532372796.622,43.457,36.621,32.227,38.574,28.320
1532372796.626,41.504,33.691,29.785,32.715,62.988
1532372796.630,30.273,35.645,25.391,28.320,31.738
1532372796.634,36.133,38.086,25.879,36.621,9.277
1532372796.638,39.062,38.574,27.344,39.551,31.738
1532372796.642,36.133,38.574,25.879,36.133,67.871
1532372796.646,32.715,38.574,27.344,32.715,55.664
1532372796.649,27.344,38.574,28.320,28.320,37.598
1532372796.653,29.785,39.062,26.367,33.691,6.836
1532372796.657,38.574,41.504,26.855,40.039,14.160
1532372796.661,36.133,38.086,27.832,37.598,39.062
1532372796.665,26.855,35.156,23.438,32.715,14.648
1532372796.669,27.832,34.668,22.461,35.645,4.395
1532372796.673,29.297,36.621,24.414,37.598,23.926
1532372796.677,25.391,37.109,24.414,34.668,31.738
1532372796.681,25.879,37.109,24.414,29.297,52.246
1532372796.685,31.738,40.039,22.949,27.344,15.625
1532372796.689,31.738,40.039,22.461,31.250,-5.859
1532372796.692,30.762,36.133,26.367,37.598,42.480
1532372796.696,33.691,36.621,25.879,38.574,10.742
1532372796.700,36.133,39.551,26.367,40.039,-14.648
1532372796.704,35.645,40.527,27.832,36.133,39.551
1532372796.708,31.250,37.109,28.809,26.855,69.824
1532372796.712,30.273,37.598,30.273,28.320,40.527
1532372796.716,32.227,39.551,30.273,30.273,-7.324
1532372796.720,31.738,39.551,35.156,34.180,0.000
1532372796.724,31.250,35.156,34.180,33.691,71.777
1532372796.728,34.668,35.156,33.203,33.691,64.941
1532372796.731,31.250,35.156,33.203,36.133,6.348
1532372796.735,32.227,35.156,35.156,39.551,-1.953
1532372796.739,35.645,38.574,37.109,42.969,38.574
1532372796.743,34.180,39.062,36.133,46.387,61.035
1532372796.747,35.156,37.598,40.039,38.574,8.789
1532372796.751,35.156,37.598,38.086,30.273,-6.836
1532372796.755,35.645,40.527,37.598,33.203,38.574
1532372796.759,34.668,42.480,39.062,31.250,56.152
1532372796.763,30.762,39.551,35.156,26.855,30.273
1532372796.767,30.273,37.598,31.250,23.926,19.531
1532372796.771,30.762,36.133,30.273,20.996,25.391
1532372796.774,31.250,35.156,33.691,25.879,51.270
1532372796.778,26.855,36.621,35.156,29.785,55.176
1532372796.782,30.762,38.574,38.086,32.227,4.883
1532372796.786,36.133,39.062,36.621,36.133,30.762
1532372796.790,31.250,36.621,32.227,31.738,88.867
1532372796.794,32.715,35.645,33.203,27.832,58.594
1532372796.798,37.598,40.039,35.156,34.668,22.461
1532372796.802,36.621,41.016,35.156,36.133,22.461
1532372796.806,37.109,39.551,37.109,31.738,56.152
1532372796.810,37.598,38.086,37.598,30.762,49.316
1532372796.814,33.691,36.621,36.133,31.738,11.719
1532372796.817,34.180,34.668,36.133,29.297,20.020
1532372796.821,32.715,34.668,32.715,26.855,20.996
1532372796.825,27.832,35.156,32.715,23.926,23.926
1532372796.829,26.855,35.645,30.762,17.090,7.324
1532372796.833,27.344,37.598,30.762,20.020,1.465
1532372796.837,29.785,33.203,32.227,21.484,27.832
1532372796.841,31.738,33.691,33.203,24.414,75.684
1532372796.845,34.668,36.621,37.598,29.785,77.637
1532372796.849,34.180,35.645,41.504,33.691,11.230
1532372796.853,35.645,32.715,42.480,34.180,26.855
1532372796.856,28.809,30.273,40.527,29.785,69.336
1532372796.860,22.461,32.715,37.109,24.902,44.434
1532372796.864,25.879,33.691,38.574,26.367,5.371
1532372796.868,22.949,33.691,38.574,22.461,-20.508
1532372796.872,28.809,39.551,41.992,23.438,-7.324
1532372796.876,33.691,44.922,49.316,36.621,57.129
1532372796.880,41.016,49.316,49.805,41.992,48.340
1532372796.884,50.293,55.176,54.688,45.410,12.695
1532372796.888,57.129,59.082,61.035,52.734,30.762
1532372796.892,62.012,58.594,62.988,53.711,62.988
1532372796.896,60.059,61.523,65.918,53.711,41.504
1532372796.899,60.059,67.871,68.359,55.176,-3.906
1532372796.903,59.082,70.312,67.383,52.246,7.812
1532372796.907,62.988,71.777,69.824,50.293,53.711
1532372796.911,66.406,72.266,73.730,51.758,52.246
1532372796.915,62.012,70.801,73.242,50.781,9.277
1532372796.919,62.012,71.777,70.312,49.805,3.906
1532372796.923,67.383,74.219,72.754,55.664,58.105
1532372796.927,68.848,75.684,73.730,54.688,57.129
1532372796.931,68.848,74.219,71.289,50.293,15.137
1532372796.935,73.730,74.707,69.824,48.340,13.184
1532372796.938,82.031,78.125,72.754,48.828,65.430
1532372796.942,90.332,80.566,75.684,54.688,90.820
1532372796.946,88.867,78.125,72.266,55.664,50.293
1532372796.950,80.566,75.195,69.824,57.129,20.996
1532372796.954,70.312,69.336,66.406,59.082,40.039
1532372796.958,62.012,59.570,62.500,59.570,58.594
1532372796.962,55.176,53.711,61.035,57.129,49.805
1532372796.966,46.387,50.293,58.105,48.828,13.672
1532372796.970,42.969,46.875,53.711,42.969,4.395
1532372796.974,44.922,42.969,48.340,40.527,64.453
1532372796.978,37.109,38.574,46.387,40.527,75.684
1532372796.981,31.250,37.598,48.828,40.527,30.273
1532372796.985,36.621,39.062,48.340,36.621,5.371
1532372796.989,30.273,34.668,44.434,29.785,8.789
1532372796.993,25.879,31.250,40.527,26.855,12.207
1532372796.997,31.738,33.203,38.086,27.832,-11.230
1532372797.001,37.598,35.645,40.039,26.855,-15.625
1532372797.005,35.645,34.180,39.062,25.391,37.109
1532372797.009,35.645,33.203,35.645,23.438,17.090
1532372797.013,33.203,31.250,32.715,19.043,-9.766
1532372797.017,27.832,29.785,31.738,17.578,16.602
1532372797.021,35.156,33.203,32.227,19.531,22.949
1532372797.024,38.574,31.738,31.250,20.508,58.594
1532372797.028,36.621,30.762,31.738,23.438,38.574
1532372797.032,38.574,31.738,34.180,25.879,-20.508
1532372797.036,39.551,32.227,33.203,21.484,1.953
1532372797.040,34.180,30.762,28.809,18.555,29.785
1532372797.044,29.297,31.250,30.273,25.391,4.883
1532372797.048,30.762,30.762,35.156,23.438,-36.621
1532372797.052,34.180,28.320,34.668,20.020,-17.578
1532372797.056,30.273,29.785,31.250,30.273,62.012
1532372797.060,27.344,27.832,30.273,33.691,63.477
1532372797.063,33.203,23.926,30.762,28.320,33.691
1532372797.067,35.645,22.949,27.832,21.484,11.719
1532372797.071,28.809,26.855,25.879,17.090,36.133
1532372797.075,28.320,29.785,27.344,15.137,62.988
1532372797.079,31.250,27.344,27.344,15.625,27.832
1532372797.083,34.180,26.855,24.414,22.461,10.742
1532372797.087,36.133,30.762,25.879,23.926,17.090
1532372797.091,35.645,29.785,28.320,22.949,33.203
1532372797.095,37.109,28.320,26.855,28.320,27.832
1532372797.099,40.039,27.832,26.367,32.715,7.812
1532372797.103,37.598,29.297,25.879,28.809,30.273
1532372797.106,41.992,30.762,27.832,27.832,42.480
1532372797.110,43.945,27.344,27.832,28.809,39.551
1532372797.114,34.668,27.344,25.879,25.391,46.387
1532372797.118,35.156,29.785,29.297,27.344,11.719
1532372797.122,44.922,28.809,33.691,32.227,38.574
1532372797.126,43.457,29.785,35.156,25.879,68.359
1532372797.130,35.156,30.762,31.250,20.508,7.812
1532372797.134,37.109,28.809,29.785,21.484,-0.977
1532372797.138,37.598,31.738,29.297,18.555,53.711
1532372797.142,31.250,31.250,27.832,15.137,70.801
1532372797.146,25.879,26.367,30.762,8.301,27.344
1532372797.149,31.738,31.250,30.273,7.812,-9.766
1532372797.153,32.715,33.691,30.762,18.066,20.508
1532372797.157,29.785,30.273,30.762,27.832,68.359
1532372797.161,29.297,29.785,27.344,29.297,70.312
1532372797.165,27.344,30.762,27.344,25.879,4.395
1532372797.169,28.809,32.715,28.320,26.855,-21.484
1532372797.173,33.203,33.691,28.320,25.879,40.039
1532372797.177,36.133,34.668,31.738,27.832,56.152
1532372797.181,42.969,35.645,35.156,32.715,29.785
1532372797.185,45.410,34.180,34.180,31.738,5.371
1532372797.188,35.645,36.133,37.109,25.391,11.230
1532372797.192,33.203,38.086,34.668,20.996,46.875
1532372797.196,33.691,34.668,33.203,25.879,28.809
1532372797.200,33.203,32.715,32.715,24.902,16.113
1532372797.204,33.203,33.203,30.273,22.461,27.344
1532372797.208,36.621,33.691,30.762,21.973,41.504
1532372797.212,34.668,35.645,31.250,22.949,27.832
1532372797.216,28.809,35.645,30.273,26.855,22.461
1532372797.220,25.879,35.156,30.762,26.367,50.781
1532372797.224,30.762,37.598,34.668,30.273,46.875
1532372797.228,34.180,36.133,35.645,31.250,31.738
1532372797.231,33.203,32.227,35.156,29.785,-11.719
1532372797.235,31.250,32.227,35.156,32.227,4.883
1532372797.239,26.855,31.738,34.180,32.715,65.918
1532372797.243,24.414,31.250,35.156,33.691,75.195
1532372797.247,23.438,29.297,37.598,33.203,7.324
1532372797.251,26.855,28.320,38.086,32.227,-3.906
1532372797.255,22.949,29.785,39.062,30.762,53.223
1532372797.259,18.555,31.738,39.551,29.785,68.359
1532372797.263,18.555,29.785,36.133,27.832,35.645
1532372797.267,21.973,28.809,36.621,26.855,0.977
1532372797.271,28.320,33.203,38.574,28.809,16.602
1532372797.274,35.156,36.621,37.109,34.668,34.180
1532372797.278,35.156,36.133,33.691,36.621,39.551
1532372797.282,32.715,31.738,27.344,32.715,11.230
1532372797.286,32.227,29.297,29.297,29.297,-1.953
1532372797.290,38.574,32.227,32.227,31.250,35.156
1532372797.294,49.805,35.645,31.738,39.062,44.434
1532372797.298,45.898,34.668,32.715,40.527,12.207
1532372797.302,44.922,36.621,31.738,39.062,15.137
1532372797.306,44.434,38.574,28.320,34.668,30.762
1532372797.310,45.898,40.527,26.855,36.621,27.832
1532372797.313,49.316,38.574,29.785,37.598,2.930
1532372797.317,42.969,38.086,31.738,34.668,18.555
1532372797.321,43.945,39.062,31.250,38.086,53.223
1532372797.325,45.898,36.621,32.715,39.551,49.316
1532372797.329,41.504,35.645,34.668,40.039,8.789
1532372797.333,42.969,36.621,34.668,40.527,-26.367
1532372797.337,41.016,35.156,32.715,33.691,6.348
1532372797.341,37.598,35.645,29.297,31.250,40.527
1532372797.345,37.598,36.621,29.297,30.273,15.625
1532372797.349,37.109,36.621,31.738,27.832,-34.180
1532372797.353,36.621,36.621,32.227,31.738,-22.461
1532372797.356,39.551,36.621,32.715,31.250,36.621
1532372797.360,37.598,35.645,32.227,31.738,48.828
1532372797.364,33.691,30.273,30.273,31.250,27.832
1532372797.368,36.621,29.785,32.715,29.785,-4.395
1532372797.372,30.273,32.715,36.133,33.691,36.621
1532372797.376,26.367,35.156,38.086,38.574,75.684
1532372797.380,25.879,30.762,35.645,35.156,51.758
1532372797.384,17.578,28.809,32.227,24.902,20.020
1532372797.388,15.625,30.762,32.227,20.508,7.324
1532372797.392,18.066,30.273,34.668,20.996,62.500
1532372797.395,27.832,32.715,36.133,26.855,64.453
1532372797.399,36.133,33.691,38.574,35.645,16.602
1532372797.403,34.180,32.227,36.621,39.062,23.438
1532372797.407,34.668,32.715,35.645,36.133,39.062
1532372797.411,34.180,32.227,37.109,35.156,25.879
1532372797.415,33.691,32.227,32.715,31.250,11.230
1532372797.419,30.762,30.762,29.297,23.438,14.648
1532372797.423,31.738,31.250,32.715,24.414,56.641
1532372797.427,33.203,32.715,36.621,21.484,39.551
1532372797.431,29.785,33.203,36.133,20.508,2.441
1532372797.435,28.320,35.645,33.691,24.414,19.043
1532372797.438,35.156,36.621,34.668,23.438,62.988
1532372797.442,29.297,35.156,35.645,18.555,89.844
1532372797.446,22.949,39.062,34.180,19.531,40.039
1532372797.450,24.414,37.109,34.668,22.949,5.371
1532372797.454,22.461,33.691,33.203,23.438,16.113
1532372797.458,26.855,38.086,31.738,20.508,53.711
1532372797.462,23.438,35.156,30.273,12.695,37.598
1532372797.466,21.973,32.227,30.273,9.766,-18.066
1532372797.470,19.043,31.738,30.273,8.789,3.906
1532372797.474,20.020,34.668,30.762,17.090,56.641
1532372797.478,28.809,36.621,31.738,24.902,63.965
1532372797.481,24.414,32.715,31.250,21.973,29.297
1532372797.485,26.367,31.250,29.785,19.043,-12.695
1532372797.489,34.668,33.691,29.785,20.020,13.184
1532372797.493,32.715,35.156,32.227,26.855,46.387
1532372797.497,33.691,37.109,34.668,30.273,-2.441
1532372797.501,33.203,38.574,32.227,27.832,-24.902
1532372797.505,37.109,36.621,31.250,26.367,-4.395
1532372797.509,39.551,36.133,33.691,25.391,28.320
1532372797.513,32.227,39.062,32.227,25.391,24.902
1532372797.517,36.621,40.527,36.133,29.297,-1.953
1532372797.520,38.086,40.039,36.133,29.785,28.320
1532372797.524,29.785,39.062,30.273,24.902,66.406
1532372797.528,27.344,35.156,27.344,19.531,52.246
1532372797.532,22.949,34.668,25.879,15.137,1.465
1532372797.536,23.438,35.156,30.273,19.531,2.441
1532372797.540,31.250,35.156,36.133,25.391,42.969
1532372797.544,33.203,35.645,33.203,23.926,22.461
1532372797.548,38.574,34.668,31.738,20.996,-29.785
1532372797.552,33.203,35.156,30.762,19.531,-18.555
1532372797.556,27.344,37.109,33.203,20.508,36.133
1532372797.560,35.645,37.109,35.645,23.926,41.016
1532372797.563,35.156,38.086,33.203,25.391,1.953
1532372797.567,31.738,40.527,30.762,21.484,-18.066
1532372797.571,25.879,37.109,29.785,19.043,7.812
1532372797.575,23.926,35.645,32.227,23.926,66.406
1532372797.579,25.879,35.156,35.156,25.391,56.152
1532372797.583,23.438,32.227,32.715,24.902,10.254
1532372797.587,23.926,30.273,26.855,25.391,33.203
1532372797.591,29.297,30.762,26.367,24.414,70.801
1532372797.595,38.086,33.691,26.855,30.273,71.777
1532372797.599,45.410,36.621,26.855,28.320,48.828
1532372797.603,48.340,34.180,26.855,23.438,19.531
1532372797.606,52.734,30.273,28.809,25.391,45.898
1532372797.610,56.641,29.785,32.227,29.297,39.551
1532372797.614,49.316,33.203,29.297,31.738,-1.953
1532372797.618,45.898,33.691,28.809,30.762,-9.277
1532372797.622,44.922,32.227,29.785,39.551,22.949
1532372797.626,37.598,33.691,29.297,39.551,37.598
1532372797.630,27.344,34.180,28.809,26.367,18.555
1532372797.634,14.648,35.156,26.855,23.438,39.551
1532372797.638,20.020,34.180,27.344,33.203,45.410
1532372797.642,31.738,33.691,29.785,37.109,73.730
1532372797.645,27.832,37.109,29.785,28.809,55.176
1532372797.649,31.738,39.551,30.273,25.391,0.488
1532372797.653,41.016,40.527,29.785,30.762,24.902
1532372797.657,33.691,41.992,24.902,30.273,73.242
1532372797.661,31.738,41.016,24.414,28.320,60.547
1532372797.665,34.668,40.039,26.367,32.715,12.207
1532372797.669,39.551,44.434,26.855,31.250,0.488
1532372797.673,41.992,42.969,26.855,31.738,36.621
1532372797.677,35.645,35.156,25.879,34.668,62.500
1532372797.681,37.109,32.715,28.320,30.762,23.438
1532372797.685,38.574,34.668,25.391,30.762,14.160
1532372797.688,41.992,35.156,21.484,33.203,34.180
1532372797.692,41.992,36.621,24.414,33.203,69.336
1532372797.696,40.039,34.668,24.414,34.180,43.457
1532372797.700,43.945,32.715,23.438,35.156,-18.555
1532372797.704,45.410,34.180,24.902,30.762,-4.883
1532372797.708,47.363,37.598,27.344,33.203,35.156
1532372797.712,45.410,39.551,26.367,34.668,62.500
1532372797.716,44.434,38.086,23.926,29.785,42.480
1532372797.720,50.293,34.180,25.879,27.832,46.387
1532372797.724,49.805,37.109,29.297,33.203,78.613
1532372797.727,43.457,40.527,32.227,35.645,57.129
1532372797.731,46.387,40.039,26.855,32.227,28.320
1532372797.735,49.316,38.574,25.879,33.691,9.277
1532372797.739,51.758,41.016,32.227,38.574,27.344
1532372797.743,47.852,41.016,34.180,36.133,48.828
1532372797.747,40.527,37.598,30.762,28.809,-14.648
1532372797.751,38.086,36.621,29.785,22.461,-38.086
1532372797.755,35.645,35.156,32.227,25.879,19.531
1532372797.759,36.133,35.645,29.785,30.273,65.430
1532372797.763,36.133,37.598,28.809,29.785,27.832
1532372797.767,38.574,36.621,30.273,27.344,-21.973
1532372797.770,33.203,30.762,30.273,29.297,-3.906
1532372797.774,26.367,29.297,32.227,32.227,29.785
1532372797.778,33.691,29.297,34.668,30.762,56.641
1532372797.782,34.668,31.250,33.691,28.320,11.230
1532372797.786,29.785,34.668,33.691,26.367,9.766
1532372797.790,29.297,32.227,29.785,25.391,70.801
1532372797.794,34.180,30.762,29.297,33.203,76.660
1532372797.798,34.180,29.785,32.227,36.133,24.902
1532372797.802,37.598,32.715,33.203,33.691,-1.953
1532372797.806,33.203,35.156,30.273,27.344,5.371
1532372797.810,27.832,33.691,28.809,24.414,29.785
1532372797.813,38.086,35.156,32.715,30.762,38.086
1532372797.817,39.551,36.621,30.762,28.809,2.441
1532372797.821,37.109,35.645,24.902,23.926,16.602
1532372797.825,33.691,33.203,26.855,19.043,48.340
1532372797.829,30.762,30.273,28.320,10.254,49.316
1532372797.833,32.715,33.203,27.344,14.648,36.133
1532372797.837,31.738,36.621,25.879,18.066,27.344
1532372797.841,30.273,36.621,28.809,21.484,38.574
1532372797.845,27.344,35.156,32.715,27.832,26.855
1532372797.849,23.926,35.645,31.738,23.438,-9.277
1532372797.852,20.020,35.645,34.180,23.926,19.043
1532372797.856,21.484,34.668,31.738,27.344,40.039
1532372797.860,23.926,34.180,27.832,25.391,47.363
1532372797.864,26.367,37.598,30.273,29.297,22.461
1532372797.868,34.180,41.504,31.738,31.250,-15.625
1532372797.872,37.109,37.109,29.297,31.738,26.367
1532372797.876,31.250,34.180,27.832,34.668,59.570
1532372797.880,31.738,36.621,31.738,38.574,29.297
1532372797.884,39.062,38.574,31.738,40.527,-1.953
1532372797.888,44.434,36.133,27.832,37.598,-3.418
1532372797.892,44.434,37.109,27.344,39.062,50.781
1532372797.895,39.551,40.039,23.926,33.203,30.762
1532372797.899,37.109,38.574,23.438,28.809,-8.789
1532372797.903,33.691,36.133,27.344,38.086,25.391
1532372797.907,33.203,35.156,28.320,35.645,24.414
1532372797.911,38.086,36.621,27.832,26.855,20.020
1532372797.915,29.785,35.156,33.203,29.297,16.113
1532372797.919,25.391,33.691,32.715,29.297,9.277
1532372797.923,31.250,35.645,28.320,29.297,48.828
1532372797.927,28.320,35.645,32.227,27.344,62.500
1532372797.931,25.391,36.621,35.156,27.344,7.812
1532372797.935,25.391,38.574,33.203,27.344,-25.391
1532372797.938,21.973,35.645,28.320,20.020,8.301
1532372797.942,22.461,35.645,30.273,20.508,71.289
1532372797.946,25.391,34.668,31.738,20.020,37.109
1532372797.950,31.250,33.691,32.715,21.973,-17.578
1532372797.954,29.297,36.133,34.668,31.250,16.602
1532372797.958,23.438,36.621,33.203,26.855,49.316
1532372797.962,22.461,33.203,29.785,22.949,44.434
1532372797.966,30.762,33.691,32.227,29.785,3.906
1532372797.970,33.691,34.668,35.645,31.738,25.879
1532372797.974,31.250,35.156,34.180,31.738,81.543
1532372797.977,31.250,35.156,31.738,28.320,86.426
1532372797.981,40.039,35.156,33.203,30.273,43.457
1532372797.985,38.574,33.691,35.645,33.203,0.488
1532372797.989,29.785,32.715,34.668,23.926,-7.812
1532372797.993,33.203,32.715,31.738,22.949,27.344
1532372797.997,35.156,32.227,30.762,29.297,1.465
1532372798.001,32.227,31.738,32.227,29.297,-12.695
1532372798.005,26.367,29.297,33.203,27.344,10.254
1532372798.009,24.902,29.785,33.203,31.250,41.016
1532372798.013,22.949,32.715,33.203,33.203,27.344
1532372798.017,19.531,30.273,31.738,26.855,-17.090
1532372798.020,22.949,29.297,33.203,26.367,7.812
1532372798.024,18.066,30.273,32.715,23.438,38.574
1532372798.028,12.207,30.762,32.227,21.973,33.691
1532372798.032,26.367,30.762,31.250,28.809,-5.371
1532372798.036,33.203,30.762,29.297,30.762,-6.836
1532372798.040,30.762,32.227,28.809,30.762,49.805
1532372798.044,38.086,35.156,28.320,32.715,38.086
1532372798.048,41.504,35.645,30.762,30.273,-32.227
1532372798.052,39.062,36.133,29.297,32.227,-50.781
1532372798.056,33.691,33.691,27.832,33.691,10.254
1532372798.060,27.344,32.227,29.785,28.320,31.250
1532372798.063,28.809,31.738,27.344,26.855,4.395
1532372798.067,30.273,33.203,26.855,32.715,-4.395
1532372798.071,26.367,34.668,30.273,37.598,26.855
1532372798.075,27.832,33.691,28.809,31.738,59.082
1532372798.079,30.762,36.621,28.809,30.273,51.270
1532372798.083,32.715,40.039,28.320,29.785,33.691
1532372798.087,31.250,40.039,26.367,21.973,20.996
1532372798.091,29.785,39.062,26.367,20.508,57.129
1532372798.095,32.227,42.480,28.320,22.949,45.410
1532372798.099,34.180,41.016,27.832,19.531,12.207
1532372798.102,33.203,37.109,27.832,14.648,37.598
1532372798.106,29.297,36.133,25.391,7.812,73.242
1532372798.110,30.273,35.645,20.508,5.371,49.805
1532372798.114,29.785,34.668,20.020,13.672,15.137
1532372798.118,25.879,34.668,20.020,20.020,24.902
1532372798.122,29.297,37.109,17.578,24.902,32.227
1532372798.126,30.273,37.109,16.602,28.320,42.480
1532372798.130,35.156,37.598,20.508,30.762,20.996
1532372798.134,37.109,36.621,23.438,36.621,-3.418
1532372798.138,37.598,33.203,20.996,40.039,16.602
1532372798.142,39.062,36.133,18.066,40.527,46.387
1532372798.145,35.156,36.621,19.043,36.621,36.621
1532372798.149,35.645,35.645,18.066,32.715,7.324
1532372798.153,41.504,37.109,18.066,31.738,-11.719
1532372798.157,44.434,38.086,19.531,32.227,40.527
1532372798.161,46.875,38.574,18.555,36.621,65.918
1532372798.165,41.016,34.180,18.066,29.785,18.555
1532372798.169,34.668,33.203,18.066,20.996,3.418
1532372798.173,34.180,38.574,16.602,21.484,22.949
1532372798.177,30.273,36.133,15.137,21.484,30.273
1532372798.181,26.367,32.715,14.648,20.996,17.090
1532372798.184,25.391,36.133,15.625,21.484,-6.836
1532372798.188,25.879,35.645,20.996,27.832,-2.441
1532372798.192,22.949,31.250,20.996,28.809,37.598
1532372798.196,25.391,32.227,17.578,24.902,27.344
1532372798.200,27.832,32.227,17.090,25.879,17.090
1532372798.204,20.508,31.250,14.160,24.414,30.273
1532372798.208,19.043,32.715,12.695,24.414,64.453
1532372798.212,15.137,32.715,12.695,24.414,51.270
1532372798.216,13.184,34.180,10.742,20.996,-12.207
1532372798.220,13.184,35.156,8.301,16.602,-28.320
1532372798.224,21.484,36.133,10.742,17.090,31.738
1532372798.227,23.438,33.203,12.695,12.207,36.621
1532372798.231,24.902,31.738,13.672,10.254,-13.184
1532372798.235,27.832,31.738,15.137,11.230,-6.836
1532372798.239,29.297,31.250,13.184,13.672,41.992
1532372798.243,33.691,35.156,11.230,18.555,65.918
1532372798.247,32.227,39.062,12.695,13.184,37.109
1532372798.251,32.227,37.109,14.648,13.672,13.184
1532372798.255,39.551,38.574,17.090,15.625,40.039
1532372798.259,45.410,41.016,16.602,16.113,68.848
1532372798.263,41.504,35.645,15.625,17.090,24.414
1532372798.267,41.504,34.668,20.020,9.277,-14.648
1532372798.270,38.086,39.062,20.508,10.254,0.977
1532372798.274,31.250,39.551,23.926,20.996,45.898
1532372798.278,28.809,38.086,28.320,32.715,43.945
1532372798.282,18.555,37.598,31.250,37.109,14.160
1532372798.286,11.719,38.574,31.250,31.738,4.883
1532372798.290,13.184,40.527,25.391,31.738,22.949
1532372798.294,11.719,41.016,25.879,31.738,45.898
1532372798.298,12.207,38.086,26.855,29.297,25.391
1532372798.302,17.578,35.645,27.344,29.785,22.949
1532372798.306,18.066,36.133,29.297,30.273,30.762
1532372798.309,20.508,38.086,31.250,31.250,18.555
1532372798.313,22.949,37.109,30.273,27.832,11.230
1532372798.317,24.902,35.645,28.320,21.973,-1.953
1532372798.321,23.926,37.109,25.879,20.996,12.695
1532372798.325,24.414,42.480,29.785,26.367,49.316
1532372798.329,34.180,48.828,38.574,30.273,22.949
1532372798.333,44.922,53.223,41.992,36.133,-27.832
1532372798.337,41.992,53.223,43.945,41.504,-17.090
1532372798.341,35.645,48.340,42.480,40.527,35.645
1532372798.345,32.715,44.922,39.551,36.621,44.922
1532372798.349,28.809,46.875,39.551,34.180,-19.531
1532372798.352,28.809,50.293,38.574,37.598,-22.949
1532372798.356,28.320,49.805,37.598,36.621,20.020
1532372798.360,28.320,49.316,36.133,32.227,25.391
1532372798.364,28.809,45.898,36.133,34.668,17.090
1532372798.368,30.273,44.922,36.621,32.715,-15.137
1532372798.372,35.156,44.922,33.691,28.809,-5.859
1532372798.376,32.715,43.457,29.297,30.762,56.641
1532372798.380,27.344,41.016,26.367,30.762,61.035
1532372798.384,32.227,41.016,27.344,33.203,5.859
1532372798.388,35.156,44.922,28.809,29.785,2.930
1532372798.392,36.133,45.898,23.438,23.438,71.289
1532372798.395,40.527,42.969,23.438,23.438,62.988
1532372798.399,41.992,41.016,27.832,29.785,10.742
1532372798.403,33.691,41.504,27.832,33.691,19.043
1532372798.407,26.367,39.551,26.855,29.297,46.387
1532372798.411,31.250,40.039,28.320,36.621,47.852
1532372798.415,37.598,42.969,30.762,44.434,35.645
1532372798.419,34.668,41.992,30.762,40.527,5.371
1532372798.423,33.691,41.016,32.227,38.574,47.363
1532372798.427,34.668,40.527,35.645,34.668,57.129
1532372798.431,32.227,37.598,31.250,30.273,8.301
1532372798.434,33.203,38.086,26.367,32.227,20.020
1532372798.438,33.691,40.039,30.762,33.691,26.367
1532372798.442,38.574,41.504,33.203,38.086,49.805
1532372798.446,41.504,41.992,31.738,41.504,57.617
1532372798.450,37.109,39.551,31.738,37.109,9.277
1532372798.454,31.738,37.109,29.785,29.785,-8.301
1532372798.458,27.344,41.016,31.250,28.320,57.617
1532372798.462,25.879,42.480,32.715,29.297,46.875
1532372798.466,26.855,37.598,27.832,23.926,-14.160
1532372798.470,26.367,37.598,31.250,16.113,-14.160
1532372798.474,26.855,36.133,34.668,24.414,38.086
1532372798.477,32.227,38.086,31.738,32.227,64.941
1532372798.481,23.926,44.922,29.785,22.949,20.508
1532372798.485,23.438,47.852,29.785,20.508,-2.441
1532372798.489,33.691,41.504,32.715,34.180,32.227
1532372798.493,37.598,41.992,32.227,34.180,59.570
1532372798.497,31.250,45.898,24.902,21.484,18.066
1532372798.501,24.902,42.969,20.508,18.066,5.859
1532372798.505,28.809,41.992,20.508,22.949,41.504
1532372798.509,35.156,41.992,20.996,26.367,36.133
1532372798.513,45.898,42.480,19.043,35.645,28.320
1532372798.517,44.434,38.574,22.461,37.109,1.465
1532372798.520,39.062,38.086,20.508,38.086,25.391
1532372798.524,49.805,42.969,16.602,44.922,79.102
1532372798.528,43.945,37.109,19.531,41.992,68.359
1532372798.532,33.203,29.785,23.438,41.504,31.738
1532372798.536,45.410,31.250,19.043,47.363,21.973
1532372798.540,55.664,34.180,12.695,51.270,49.316
1532372798.544,51.270,33.691,13.672,46.387,50.293
1532372798.548,46.875,32.715,13.672,39.062,-14.648
1532372798.552,49.316,32.227,16.113,44.922,-8.789
1532372798.556,52.734,32.715,16.602,53.711,50.293
1532372798.559,57.129,38.086,15.625,54.199,54.688
1532372798.563,59.570,36.621,17.578,57.617,10.742
1532372798.567,53.711,33.203,19.043,58.105,-35.645
1532372798.571,52.246,35.645,19.531,61.035,-19.043
1532372798.575,53.711,38.086,19.043,64.941,30.273
1532372798.579,54.688,36.621,15.137,54.688,59.082
1532372798.583,47.363,33.203,10.742,42.480,10.742
1532372798.587,42.969,31.738,11.230,43.457,-2.930
1532372798.591,43.945,31.250,16.113,46.387,69.824
1532372798.595,45.410,33.203,17.090,46.387,74.219
1532372798.599,43.945,34.180,16.113,43.945,18.555
1532372798.602,45.898,34.668,19.531,46.387,17.090
1532372798.606,39.551,36.621,18.066,42.480,45.410
1532372798.610,31.250,36.133,14.160,37.598,39.551
1532372798.614,36.621,35.645,15.137,39.062,11.719
1532372798.618,39.551,36.133,16.602,42.969,-6.836
1532372798.622,40.527,34.668,17.578,48.340,35.645
1532372798.626,41.992,33.203,20.020,45.410,39.551
1532372798.630,44.434,32.715,20.996,43.945,-30.762
1532372798.634,46.875,36.133,19.531,43.457,-24.414
1532372798.638,45.410,39.062,25.879,43.457,-9.766
1532372798.641,48.340,37.598,25.879,44.922,15.625
1532372798.645,42.480,35.645,19.043,36.621,36.133
1532372798.649,35.645,34.668,20.508,30.273,-12.695
1532372798.653,34.668,33.691,20.020,31.738,15.625
1532372798.657,33.691,33.691,20.996,34.668,58.594
1532372798.661,39.062,36.133,24.414,41.504,48.828
1532372798.665,38.574,35.645,24.414,39.551,-7.324
1532372798.669,38.086,35.156,27.832,40.039,-3.418
1532372798.673,39.062,39.062,27.832,45.410,60.059
1532372798.677,38.574,38.574,22.949,41.016,60.059
1532372798.681,40.527,34.668,24.902,41.016,52.734
1532372798.684,39.551,34.668,27.832,42.480,21.973
1532372798.688,34.668,35.156,25.391,30.273,-0.488
1532372798.692,35.156,34.668,25.391,28.320,24.902
1532372798.696,38.086,37.109,26.855,39.062,32.227
1532372798.700,36.621,36.133,27.344,40.039,23.438
1532372798.704,30.762,32.715,27.832,40.039,34.668
1532372798.708,28.320,32.715,26.855,38.574,49.316
1532372798.712,31.738,35.645,24.902,36.133,52.246
1532372798.716,29.297,34.180,25.391,31.250,33.691
1532372798.720,26.855,30.762,27.832,31.250,38.574
1532372798.724,31.250,30.762,30.273,41.016,53.711
1532372798.727,36.621,30.762,31.250,45.898,51.270
1532372798.731,35.156,29.297,34.180,45.898,29.297
1532372798.735,40.039,31.250,32.715,50.293,-3.418
1532372798.739,42.969,35.156,28.809,47.363,27.344
1532372798.743,45.410,34.668,32.715,44.922,64.941
1532372798.747,49.805,32.715,33.203,42.969,0.977
1532372798.751,40.527,37.109,31.738,37.109,-33.203
1532372798.755,37.109,38.574,32.227,40.039,25.879
1532372798.759,35.156,36.621,33.691,37.109,55.664
1532372798.763,34.668,37.109,30.762,32.227,28.809
1532372798.766,43.945,38.574,30.273,34.668,4.883
1532372798.770,44.434,39.551,31.738,37.109,24.902
1532372798.774,39.551,38.574,29.297,33.691,55.664
1532372798.778,41.992,40.527,28.320,35.156,53.223
1532372798.782,49.316,38.574,27.832,43.945,14.648
1532372798.786,46.875,36.133,27.832,44.434,-11.719
1532372798.790,42.969,37.598,31.250,41.016,0.488
1532372798.794,41.992,35.156,30.273,40.039,57.617
1532372798.798,42.969,33.691,26.855,39.062,48.340
1532372798.802,44.922,36.621,27.832,34.668,30.762
1532372798.806,37.109,36.621,27.344,31.250,33.203
1532372798.809,36.621,34.180,26.855,36.621,24.902
1532372798.813,41.016,33.203,29.297,39.551,41.504
1532372798.817,35.645,32.715,27.832,36.621,40.527
1532372798.821,33.691,32.227,24.902,31.738,74.707
1532372798.825,40.039,33.691,24.902,35.156,92.285
1532372798.829,40.527,33.691,23.926,37.109,54.688
1532372798.833,39.551,32.715,22.461,35.156,20.020
1532372798.837,42.480,30.273,24.414,38.574,6.836
1532372798.841,40.527,28.809,26.367,36.621,36.621
1532372798.845,34.180,31.250,25.879,30.762,23.438
1532372798.849,36.133,33.203,26.367,27.832,-27.344
1532372798.852,47.363,33.203,30.273,37.598,-4.883
1532372798.856,47.363,30.762,29.785,48.340,39.551
1532372798.860,46.875,30.762,28.809,46.387,45.410
1532372798.864,48.828,31.250,26.855,40.039,9.766
1532372798.868,43.457,33.691,24.902,36.133,-14.160
1532372798.872,40.039,33.691,26.367,34.668,29.785
1532372798.876,40.527,33.203,27.344,37.109,69.824
1532372798.880,41.992,34.668,29.297,41.992,43.457
1532372798.884,36.133,30.273,29.785,40.527,10.254
1532372798.888,38.574,31.738,30.762,36.621,-6.836
1532372798.891,37.109,35.156,32.715,32.227,21.484
1532372798.895,31.738,31.250,29.785,29.297,49.805
1532372798.899,34.668,30.762,24.902,31.250,28.809
1532372798.903,38.086,33.203,26.855,34.180,30.762
1532372798.907,41.504,32.715,31.250,38.574,60.547
1532372798.911,40.527,33.691,28.809,37.598,62.500
1532372798.915,41.504,33.691,25.879,33.203,17.578
1532372798.919,47.363,33.691,27.344,36.133,1.953
1532372798.923,47.852,35.645,24.902,33.691,46.875
1532372798.927,47.852,32.715,24.902,25.879,53.711
1532372798.931,53.223,30.762,29.297,25.879,-8.301
1532372798.934,54.199,31.738,31.250,37.109,-9.277
1532372798.938,52.246,35.156,29.785,45.898,15.137
1532372798.942,45.898,35.156,26.855,45.898,40.039
1532372798.946,34.668,29.785,26.367,43.945,53.711
1532372798.950,25.391,28.809,24.414,40.527,20.996
1532372798.954,25.391,31.250,25.879,46.387,29.785
1532372798.958,31.250,33.203,29.297,48.340,55.664
1532372798.962,28.320,33.203,29.785,42.480,55.664
1532372798.966,23.926,31.250,28.320,36.621,20.996
1532372798.970,23.926,32.227,28.809,28.809,-11.719
1532372798.973,31.250,35.156,30.762,37.598,33.691
1532372798.977,36.621,36.133,33.203,46.387,43.457
1532372798.981,38.574,36.621,31.738,45.410,17.090
1532372798.985,32.715,35.645,25.879,36.621,0.000
1532372798.989,26.367,32.227,26.367,27.344,5.371
1532372798.993,21.973,31.250,26.855,22.461,40.039
1532372798.997,19.531,31.250,25.391,19.531,30.273
1532372799.001,20.996,30.273,25.879,18.555,-8.789
1532372799.005,18.066,29.297,26.855,20.020,20.508
1532372799.009,20.020,30.762,24.902,21.973,68.359
1532372799.013,23.926,31.250,23.438,24.902,27.832
1532372799.016,27.344,33.203,26.855,28.809,-5.371
1532372799.020,33.203,36.621,24.902,30.273,5.371
1532372799.024,35.645,31.738,20.996,31.250,53.711
1532372799.028,28.809,28.320,20.508,24.414,27.344
1532372799.032,26.855,31.250,19.043,22.461,-10.254
1532372799.036,36.133,32.227,21.484,33.691,7.324
1532372799.040,39.551,31.738,25.879,36.621,14.160
1532372799.044,33.203,33.203,23.438,29.785,40.527
1532372799.048,34.180,36.133,23.926,29.297,13.184
1532372799.052,35.645,34.180,27.832,34.180,0.977
1532372799.056,33.203,37.109,27.344,34.180,42.480
1532372799.059,32.227,41.016,27.344,33.203,59.570
1532372799.063,28.320,32.715,24.414,31.250,17.090
1532372799.067,28.809,28.320,23.438,29.785,-41.016
1532372799.071,30.273,29.785,26.855,29.785,6.348
1532372799.075,30.273,31.738,24.414,29.785,89.844
1532372799.079,33.203,31.250,24.902,31.250,55.664
1532372799.083,35.156,29.785,29.785,33.203,0.000
1532372799.087,35.645,32.227,30.762,35.156,3.906
1532372799.091,37.109,33.203,30.762,35.156,69.336
1532372799.095,33.203,32.227,27.832,31.250,97.656
1532372799.098,33.691,31.738,26.367,32.715,23.926
1532372799.102,35.645,31.738,30.762,37.109,-14.648
1532372799.106,33.691,33.691,28.320,32.227,8.789
1532372799.110,38.086,35.645,28.320,28.320,16.113
1532372799.114,44.434,34.180,31.738,33.691,-13.672
1532372799.118,45.410,36.133,31.250,35.645,-19.531
1532372799.122,46.875,36.621,28.809,34.668,19.043
1532372799.126,46.875,34.668,27.832,38.086,28.809
1532372799.130,41.504,34.180,26.855,36.133,0.488
1532372799.134,44.434,34.668,30.762,35.645,-4.395
1532372799.138,48.828,32.715,31.738,34.668,14.648
1532372799.141,41.016,30.273,28.320,30.762,68.848
1532372799.145,36.621,31.250,25.879,29.785,48.340
1532372799.149,41.992,32.227,24.414,31.738,-10.742
1532372799.153,37.598,35.156,25.879,31.250,3.906
1532372799.157,35.645,34.180,25.879,27.344,38.086
1532372799.161,32.715,29.297,24.414,27.344,50.293
1532372799.165,34.180,30.762,25.879,32.227,12.695
1532372799.169,34.668,34.180,25.391,25.879,-47.852
1532372799.173,34.180,35.645,20.996,27.832,4.883
1532372799.177,36.133,31.738,24.902,34.668,73.730
1532372799.181,32.715,31.250,26.855,27.832,9.766
1532372799.184,35.645,30.762,25.879,31.250,-34.668
1532372799.188,40.527,29.785,30.762,40.039,4.883
1532372799.192,36.133,29.785,31.250,38.086,50.293
1532372799.196,34.180,28.320,28.809,34.180,35.156
1532372799.200,36.621,26.855,28.320,38.086,-15.625
1532372799.204,35.645,28.809,23.438,34.180,2.441
1532372799.208,33.203,31.250,20.508,26.855,31.250
1532372799.212,35.645,35.156,20.996,30.762,8.789
1532372799.216,41.504,36.621,19.043,37.598,1.465
1532372799.220,40.039,36.133,19.531,37.109,-0.977
1532372799.223,31.250,33.691,20.020,31.738,34.668
1532372799.227,32.227,30.273,20.996,31.738,47.852
1532372799.231,32.227,30.762,23.438,30.762,18.066
1532372799.235,33.691,32.227,25.391,33.203,19.043
1532372799.239,31.738,32.715,27.832,31.738,53.711
1532372799.243,24.414,32.715,26.367,25.879,65.430
1532372799.247,24.902,32.715,24.902,30.762,21.973
1532372799.251,30.273,35.156,29.785,34.180,-25.879
1532372799.255,24.414,32.227,26.367,33.203,-5.371
1532372799.259,18.555,32.227,23.926,36.621,47.852
1532372799.263,25.879,35.645,28.809,44.922,52.246
1532372799.266,33.203,34.668,28.320,45.898,-4.883
1532372799.270,34.180,35.156,26.855,40.527,-24.902
1532372799.274,34.180,35.156,27.832,41.504,30.762
1532372799.278,32.715,34.668,27.344,40.039,42.480
1532372799.282,34.668,35.645,25.879,36.621,-3.418
1532372799.286,38.574,38.086,25.879,32.715,-20.996
1532372799.290,31.250,36.621,28.320,28.320,50.293
1532372799.294,29.297,35.156,30.762,33.203,87.402
1532372799.298,34.668,36.133,28.809,36.133,17.578
1532372799.302,40.039,36.133,29.297,40.039,9.766
1532372799.306,47.363,36.133,34.180,46.387,31.738
1532372799.309,42.969,34.180,31.250,43.945,26.367
1532372799.313,37.109,34.668,28.809,39.551,9.766
1532372799.317,39.062,38.574,29.297,40.527,-4.395
1532372799.321,32.227,38.574,27.344,40.039,15.137
1532372799.325,29.785,35.156,26.855,39.551,39.551
1532372799.329,40.039,34.180,27.344,39.551,33.203
1532372799.333,46.387,39.062,26.367,43.945,28.809
1532372799.337,43.945,37.109,30.762,46.875,20.996
1532372799.341,39.551,36.621,31.250,40.039,44.434
1532372799.345,38.574,38.574,31.250,36.621,66.895
1532372799.348,40.039,37.598,35.156,36.133,20.508
1532372799.352,43.457,37.109,35.156,39.062,9.766
1532372799.356,45.898,39.551,36.621,44.434,54.688
1532372799.360,41.992,41.992,35.156,40.039,69.336
1532372799.364,36.133,37.109,31.738,35.645,43.457
1532372799.368,38.086,36.133,29.297,34.180,13.672
1532372799.372,39.551,36.621,26.367,33.691,24.414
1532372799.376,45.410,35.156,29.785,36.133,42.480
1532372799.380,39.551,36.621,32.227,37.598,67.871
1532372799.384,31.250,34.668,29.785,36.133,46.387
1532372799.388,35.156,34.180,32.227,38.086,29.297
1532372799.391,34.180,31.738,31.250,37.598,64.453
1532372799.395,33.203,29.785,28.809,40.039,48.340
1532372799.399,35.156,34.180,30.273,41.016,15.625
1532372799.403,33.203,35.645,33.203,38.574,21.973
1532372799.407,33.691,34.668,33.691,34.180,65.918
1532372799.411,31.738,33.691,31.738,32.227,53.223
1532372799.415,27.832,31.738,29.297,34.668,14.160
1532372799.419,29.785,30.762,29.297,37.598,12.207
1532372799.423,31.738,32.715,32.715,39.062,19.531
1532372799.427,34.668,34.668,35.156,39.551,41.016
1532372799.430,37.109,32.227,34.668,40.039,43.457
1532372799.434,40.527,32.715,31.250,43.457,38.086
1532372799.438,38.086,37.598,29.785,42.480,29.785
1532372799.442,37.109,37.109,24.902,39.062,47.852
1532372799.446,41.992,36.133,24.414,37.598,12.695
1532372799.450,42.969,39.551,28.809,35.645,-33.203
1532372799.454,36.621,38.574,28.320,33.691,4.883
1532372799.458,36.621,37.109,27.344,36.133,42.480
1532372799.462,39.062,37.109,30.273,39.551,55.176
1532372799.466,35.645,35.645,32.227,35.156,36.621
1532372799.470,33.203,37.109,30.762,34.180,49.805
1532372799.473,33.691,35.645,33.691,39.062,68.848
1532372799.477,34.668,35.645,39.062,43.457,27.832
1532372799.481,27.832,34.668,35.645,38.574,7.812
1532372799.485,23.926,32.227,34.180,32.715,3.906
1532372799.489,24.902,35.156,34.180,29.785,27.832
1532372799.493,23.926,36.133,31.738,32.227,62.500
1532372799.497,25.391,35.645,35.156,31.738,59.082
1532372799.501,31.738,36.133,37.598,35.156,35.156
1532372799.505,35.156,34.180,34.180,37.598,27.344
1532372799.509,29.785,33.691,32.715,35.156,55.664
1532372799.513,26.855,35.645,31.738,32.715,41.992
1532372799.516,27.832,33.691,31.250,30.273,1.465
1532372799.520,28.320,32.715,30.762,33.691,9.277
1532372799.524,33.691,35.156,30.273,36.133,47.363
1532372799.528,33.203,36.133,33.203,35.156,30.273
1532372799.532,22.461,37.109,28.809,28.320,-7.812
1532372799.536,21.973,36.621,23.438,27.344,14.160
1532372799.540,29.785,37.109,26.367,30.762,25.879
1532372799.544,32.227,39.062,27.344,31.738,59.570
1532372799.548,35.156,38.574,29.297,33.691,38.574
1532372799.552,36.621,38.574,31.738,38.086,11.719
1532372799.555,36.133,39.062,29.785,38.086,43.457
1532372799.559,37.109,37.598,29.297,38.574,78.125
1532372799.563,40.039,35.156,28.809,38.086,56.152
1532372799.567,44.434,35.156,27.832,38.086,15.625
1532372799.571,44.434,37.598,27.832,38.086,12.207
1532372799.575,44.922,40.527,28.809,34.180,25.879
1532372799.579,51.270,43.945,31.250,31.250,28.320
1532372799.583,57.617,42.969,29.785,29.785,13.672
1532372799.587,60.547,41.992,25.879,25.391,2.930
1532372799.591,60.547,41.504,25.391,29.785,30.273
1532372799.595,56.641,37.109,28.320,41.992,66.895
1532372799.598,52.246,35.645,29.785,45.898,-0.488
1532372799.602,44.434,37.109,31.738,45.410,-6.836
1532372799.606,32.715,35.645,36.133,39.062,50.293
1532372799.610,29.785,32.227,36.621,34.180,55.664
1532372799.614,31.250,34.180,32.227,40.039,12.207
1532372799.618,24.902,35.645,32.715,35.156,16.113
1532372799.622,20.508,33.691,34.668,29.297,59.570
1532372799.626,26.855,37.598,35.645,33.203,59.082
1532372799.630,32.227,38.574,34.668,33.691,34.180
1532372799.634,35.645,32.715,31.250,33.203,7.812
1532372799.638,35.156,33.691,32.715,38.574,39.062
1532372799.641,33.203,36.133,34.180,39.551,93.750
1532372799.645,34.180,34.668,35.645,33.691,77.148
1532372799.649,25.879,34.668,34.668,32.227,20.996
1532372799.653,28.320,35.156,30.273,34.180,-1.465
1532372799.657,33.691,38.086,31.738,36.133,25.879
1532372799.661,27.344,36.133,32.715,34.180,46.387
1532372799.665,28.809,33.203,31.738,29.785,26.855
1532372799.669,36.133,34.668,33.691,33.203,-16.113
1532372799.673,37.598,34.180,32.715,36.621,15.625
1532372799.677,39.062,32.715,32.715,36.621,57.617
1532372799.680,41.992,31.738,31.250,36.133,17.090
1532372799.684,39.062,34.180,31.738,37.109,-18.066
1532372799.688,41.992,36.133,36.621,37.598,-15.137
1532372799.692,43.945,34.668,37.109,37.598,51.270
1532372799.696,39.062,33.691,31.250,36.133,54.688
1532372799.700,37.598,34.668,31.250,34.180,2.930
1532372799.704,36.621,34.668,32.227,35.156,18.555
1532372799.708,37.109,36.621,33.691,38.086,64.453
1532372799.712,40.039,38.574,36.133,38.574,56.152
1532372799.716,35.645,37.109,35.645,33.203,8.789
1532372799.720,32.715,34.668,39.551,34.180,-6.836
1532372799.723,34.180,36.621,41.504,35.645,50.293
1532372799.727,33.203,38.086,38.574,27.832,68.848
1532372799.731,37.109,36.621,41.504,26.367,14.648
1532372799.735,40.039,38.086,41.504,31.738,7.812
1532372799.739,38.086,41.504,39.062,32.227,56.152
1532372799.743,35.645,40.039,41.992,29.297,75.195
1532372799.747,29.297,35.645,41.992,26.367,55.176
1532372799.751,26.855,33.203,41.992,27.344,36.133
1532372799.755,39.551,31.738,44.434,34.180,54.688
1532372799.759,46.875,42.969,37.598,28.809,66.895
1532372799.763,24.902,48.340,28.320,9.277,36.621
1532372799.766,23.926,47.852,31.250,9.277,-6.348
1532372799.770,34.668,51.270,32.227,19.531,-10.254
1532372799.774,32.227,50.781,29.785,21.973,32.715
1532372799.778,36.621,52.734,29.785,16.113,69.336
1532372799.782,44.434,52.246,29.785,19.043,45.410
1532372799.786,47.363,49.805,29.297,27.832,20.020
1532372799.790,47.852,50.781,26.855,32.227,64.453
1532372799.794,41.504,49.805,21.973,32.227,88.379
1532372799.798,40.527,49.316,18.555,33.691,42.969
1532372799.802,54.199,49.805,20.508,44.434,14.160
1532372799.805,53.711,48.340,22.949,39.062,46.875
1532372799.809,43.457,48.828,21.973,32.715,73.242
1532372799.813,60.059,48.340,20.508,42.480,20.020
1532372799.817,69.824,47.363,18.555,41.504,-8.301
1532372799.821,62.500,50.781,16.113,39.062,32.715
1532372799.825,65.918,49.805,15.625,40.527,53.223
1532372799.829,69.824,46.875,16.602,41.504,41.504
1532372799.833,62.012,45.898,18.066,44.434,23.926
1532372799.837,54.688,42.969,17.090,40.527,37.598
1532372799.841,51.758,39.062,17.090,41.992,71.289
1532372799.845,50.781,38.086,19.531,47.852,61.035
1532372799.848,56.641,40.039,15.137,46.387,-12.695
1532372799.852,59.570,40.527,12.207,49.805,-22.461
1532372799.856,57.617,40.039,16.602,48.828,25.879
1532372799.860,53.711,41.992,15.625,38.574,41.504
1532372799.864,48.340,39.551,16.602,37.109,7.324
1532372799.868,45.898,35.156,23.926,33.203,-13.672
1532372799.872,55.664,36.621,24.414,38.086,9.766
1532372799.876,52.246,34.668,16.113,41.992,50.781
1532372799.880,42.969,34.180,16.113,43.945,43.457
1532372799.884,50.781,34.668,21.484,54.688,25.391
1532372799.887,49.316,35.156,19.531,50.781,30.273
1532372799.891,45.898,33.203,20.996,45.898,40.527
1532372799.895,43.945,31.250,23.438,45.898,47.852
1532372799.899,40.527,31.250,20.508,41.992,18.066
1532372799.903,41.504,30.273,22.461,41.504,30.762
1532372799.907,41.992,33.203,22.949,39.062,43.945
1532372799.911,46.875,36.621,23.926,39.551,41.992
1532372799.915,55.664,38.086,27.344,50.781,33.203
1532372799.919,54.688,41.016,28.809,55.176,24.414
1532372799.923,51.758,37.109,27.344,55.664,48.828
1532372799.927,52.734,33.691,23.438,54.688,54.688
1532372799.930,50.781,34.668,21.484,48.828,14.160
1532372799.934,44.922,34.180,24.902,44.434,4.395
1532372799.938,44.434,36.133,24.414,48.828,30.273
1532372799.942,45.898,35.645,26.367,51.270,81.055
1532372799.946,43.457,33.203,28.320,50.293,50.781
1532372799.950,43.457,31.738,27.344,49.805,5.371
1532372799.954,47.363,35.156,25.879,51.270,18.555
1532372799.958,45.410,38.086,24.902,51.270,40.527
1532372799.962,45.898,38.086,24.414,48.828,69.336
1532372799.966,51.270,38.574,21.973,48.340,25.879
1532372799.970,49.805,38.086,19.531,46.387,-9.766
1532372799.973,48.828,39.062,14.648,44.922,33.691
1532372799.977,50.293,40.039,17.090,43.457,64.941
1532372799.981,43.945,34.668,19.043,42.969,35.156
1532372799.985,41.504,35.156,12.695,40.527,16.113
1532372799.989,49.805,38.086,12.207,40.527,21.484
1532372799.993,49.805,37.598,12.695,38.574,34.668
1532372799.997,45.898,40.039,13.184,36.133,32.715
1532372800.001,49.805,37.598,16.113,46.875,16.113
1532372800.005,49.805,33.691,17.090,46.387,35.645
1532372800.009,40.039,32.715,12.695,38.574,63.477
1532372800.012,43.457,34.668,12.207,45.410,33.691
1532372800.016,48.828,34.180,17.090,48.828,-5.371
1532372800.020,44.922,34.180,14.648,45.898,27.344
1532372800.024,41.992,38.574,14.648,44.434,70.312
1532372800.028,40.527,35.156,14.160,38.086,36.133
1532372800.032,40.527,31.738,11.230,35.645,5.859
1532372800.036,39.062,35.645,12.695,38.574,11.230
1532372800.040,33.691,35.156,13.672,36.133,50.781
1532372800.044,32.227,31.250,11.230,37.598,80.566
1532372800.048,34.180,33.203,10.742,34.180,31.250
1532372800.052,37.598,31.738,14.160,29.297,-11.230
1532372800.055,38.086,29.785,17.090,35.156,14.648
1532372800.059,36.133,31.738,17.090,37.598,57.617
1532372800.063,34.668,30.273,13.184,35.645,57.617
1532372800.067,36.621,33.691,12.207,35.156,23.438
1532372800.071,38.086,32.715,12.695,36.621,3.906
1532372800.075,40.527,29.785,13.672,38.574,43.945
1532372800.079,39.551,31.738,11.719,36.133,66.895
1532372800.083,36.133,32.715,9.277,31.250,39.551
1532372800.087,29.785,33.691,11.230,30.762,29.297
1532372800.091,30.273,34.180,14.160,32.227,62.500
1532372800.095,39.551,34.668,15.625,35.156,70.801
1532372800.098,40.039,33.203,15.625,30.762,17.090
1532372800.102,38.086,33.203,14.648,34.180,5.859
1532372800.106,44.434,35.156,15.137,39.062,5.371
1532372800.110,44.922,35.156,18.555,35.156,26.855
1532372800.114,40.527,31.738,19.531,35.645,44.434
1532372800.118,41.992,31.250,18.066,35.156,2.930
1532372800.122,42.480,29.785,21.484,37.109,-3.906
1532372800.126,39.551,29.297,21.973,37.598,44.922
1532372800.130,37.598,32.715,18.555,38.086,56.641
1532372800.134,37.109,32.227,20.996,41.016,34.668
1532372800.137,37.109,34.180,23.438,44.434,45.410
1532372800.141,39.062,35.645,20.508,41.016,46.875
1532372800.145,39.062,31.738,17.578,32.715,20.020
1532372800.149,37.598,29.785,15.625,25.879,-17.578
1532372800.153,41.016,32.227,17.578,29.785,11.230
1532372800.157,44.434,32.227,21.973,37.109,60.059
1532372800.161,48.828,32.227,18.555,41.992,73.730
1532372800.165,48.828,32.227,18.066,43.945,38.086
1532372800.169,53.711,31.738,24.902,41.992,20.508
1532372800.173,55.176,32.227,27.344,48.828,62.012
1532372800.177,47.852,33.691,24.902,49.805,60.059
1532372800.180,43.945,32.227,22.949,48.340,41.504
1532372800.184,45.410,29.785,21.484,48.340,6.348
1532372800.188,41.992,29.297,20.996,41.992,-2.930
1532372800.192,35.156,27.344,22.461,40.527,53.223
1532372800.196,40.039,29.785,21.484,47.363,62.988
1532372800.200,41.992,31.250,19.531,47.363,21.484
1532372800.204,40.527,30.762,18.555,41.504,18.555
1532372800.208,53.711,33.691,20.508,43.457,37.109
1532372800.212,52.246,33.203,19.531,41.016,42.969
1532372800.216,44.434,27.832,14.648,32.227,27.832
1532372800.219,48.828,26.367,9.766,27.344,40.039
1532372800.223,52.246,31.250,11.230,28.809,53.223
1532372800.227,60.059,29.785,9.766,33.203,67.871
1532372800.231,63.477,24.414,7.324,40.527,32.715
1532372800.235,55.176,21.973,8.301,48.828,-16.602
1532372800.239,46.875,21.484,7.812,50.293,16.113
1532372800.243,44.922,20.508,9.277,60.059,61.035
1532372800.247,46.875,19.531,10.254,60.547,7.324
1532372800.251,46.875,19.531,10.742,58.594,-28.809
1532372800.255,37.598,21.484,12.695,61.523,-0.488
1532372800.259,32.227,21.484,10.742,60.059,34.668
1532372800.262,37.598,18.555,11.719,59.082,49.805
1532372800.266,40.527,19.043,9.277,56.152,22.949
1532372800.270,34.668,20.508,5.371,52.246,35.645
1532372800.274,31.738,23.438,5.371,46.387,56.152
1532372800.278,36.621,25.879,4.883,48.340,55.176
1532372800.282,44.922,24.902,9.766,50.293,16.113
1532372800.286,45.898,25.879,6.836,48.340,-18.066
1532372800.290,44.434,29.297,1.465,43.945,16.113
1532372800.294,46.875,27.832,2.930,42.969,62.988
1532372800.298,49.316,26.855,2.441,49.316,41.016
1532372800.302,49.805,27.344,2.930,48.828,23.926
1532372800.305,47.363,26.367,2.930,42.969,26.367
1532372800.309,47.852,27.344,4.883,46.387,35.645
1532372800.313,44.434,22.949,9.766,49.805,32.227
1532372800.317,43.945,16.113,12.207,50.293,-6.836
1532372800.321,56.641,22.949,7.812,57.129,19.043
1532372800.325,51.758,34.180,-0.977,46.875,62.012
1532372800.329,49.805,40.527,-4.395,34.668,24.902
1532372800.333,51.758,41.992,-4.883,41.992,5.859
1532372800.337,39.062,41.016,-5.859,43.945,47.363
1532372800.341,38.086,40.039,-0.977,37.109,81.055
1532372800.344,40.039,41.016,0.977,32.715,51.270
1532372800.348,31.738,40.527,2.930,28.320,14.160
1532372800.352,30.273,35.645,5.371,29.297,0.000
1532372800.356,30.273,33.691,4.883,24.902,25.391
1532372800.360,34.668,36.621,2.441,26.855,66.406
1532372800.364,37.109,35.156,0.000,34.668,28.320
1532372800.368,27.832,33.203,2.930,33.691,-8.301
1532372800.372,27.832,33.691,0.977,26.855,-2.930
1532372800.376,29.297,33.203,-6.836,20.508,15.137
1532372800.380,31.250,30.273,-7.324,21.973,26.367
1532372800.384,30.762,28.320,-4.883,23.438,9.277
1532372800.387,31.738,30.762,-6.836,20.508,-3.418
1532372800.391,45.410,34.180,-6.836,29.785,38.086
1532372800.395,48.828,35.645,-7.812,37.598,41.016
1532372800.399,33.691,28.320,-4.883,31.738,7.812
1532372800.403,35.156,20.508,-2.930,32.715,16.602
1532372800.407,40.527,19.531,-3.418,36.133,23.438
1532372800.411,36.621,22.461,-0.977,36.621,51.270
1532372800.415,40.527,20.996,-3.418,37.109,56.641
1532372800.419,39.551,15.137,-8.789,37.598,2.930
1532372800.423,35.156,16.113,-6.348,38.574,17.578
1532372800.427,36.133,15.625,-2.930,37.109,49.316
1532372800.430,37.598,11.230,-4.883,37.109,22.461
1532372800.434,39.062,10.254,-8.789,35.156,19.043
1532372800.438,39.062,9.766,-14.160,34.180,33.691
1532372800.442,40.527,11.230,-15.625,39.062,68.848
1532372800.446,41.504,11.719,-15.137,38.574,54.688
1532372800.450,48.340,11.230,-15.137,43.945,8.301
1532372800.454,52.734,11.719,-8.301,52.734,28.320
1532372800.458,54.688,16.113,-6.836,51.270,62.988
1532372800.462,55.664,16.113,-13.672,55.176,44.434
1532372800.466,57.129,12.695,-12.207,59.082,-6.836
1532372800.469,58.594,16.113,-9.766,52.246,-34.668
1532372800.473,55.176,17.090,-10.742,50.293,6.836
1532372800.477,51.270,16.602,-13.672,53.223,50.293
1532372800.481,45.898,18.555,-13.184,50.293,39.062
1532372800.485,42.480,21.484,-6.348,46.875,6.348
1532372800.489,41.992,22.461,-6.836,43.945,24.902
1532372800.493,40.527,21.484,-6.836,42.969,68.848
1532372800.497,36.133,15.625,-12.207,36.133,34.180
1532372800.501,36.133,13.672,-16.113,36.133,2.441
1532372800.505,31.250,18.066,-7.324,43.945,18.555
1532372800.509,29.785,19.043,-6.348,42.480,41.504
1532372800.512,38.086,16.602,-8.789,45.410,23.438
1532372800.516,40.039,15.625,-7.812,49.316,-13.184
1532372800.520,41.016,16.602,-6.836,44.434,2.930
1532372800.524,41.016,19.531,-9.277,48.828,49.316
1532372800.528,43.945,19.043,-6.836,55.176,25.879
1532372800.532,49.805,16.602,-3.418,55.176,1.465
1532372800.536,50.293,15.625,-3.418,56.641,4.883
1532372800.540,48.340,17.578,-0.488,54.199,27.832
1532372800.544,47.852,20.020,-1.465,56.641,34.668
1532372800.548,41.504,19.531,-4.883,54.199,-10.254
1532372800.552,43.457,21.484,0.000,48.340,-37.598
1532372800.555,52.734,24.902,4.395,52.246,17.090
1532372800.559,52.734,24.902,4.395,52.734,46.387
1532372800.563,52.246,22.461,3.418,54.688,32.715
1532372800.567,55.176,24.414,2.441,58.105,-10.254
1532372800.571,57.129,24.414,1.953,53.223,-23.438
1532372800.575,54.688,20.508,0.000,60.059,73.242
1532372800.579,56.641,22.949,1.953,67.871,66.895
1532372800.583,59.570,24.902,4.395,61.035,16.113
1532372800.587,54.199,23.438,2.441,52.734,-4.395
1532372800.591,48.828,25.879,-0.488,51.758,21.973
1532372800.594,51.270,23.926,0.488,55.664,49.316
1532372800.598,46.875,18.066,1.953,52.734,15.625
1532372800.602,36.133,19.531,1.465,47.363,18.066
1532372800.606,38.574,23.438,1.953,52.734,40.039
1532372800.610,41.016,20.508,-1.465,55.176,48.828
1532372800.614,34.180,19.043,0.000,56.152,41.992
1532372800.618,40.527,18.555,5.371,58.105,9.277
1532372800.622,42.969,17.090,5.371,57.129,6.348
1532372800.626,43.457,21.973,2.441,56.152,54.688
1532372800.630,51.270,23.438,4.395,51.758,30.273
1532372800.634,50.781,23.926,3.906,52.246,-15.137
1532372800.637,45.898,23.926,-2.441,56.641,3.906
1532372800.641,44.434,21.973,1.465,57.129,54.688
1532372800.645,48.828,25.391,3.906,47.852,36.133
1532372800.649,50.781,25.391,-0.488,46.387,-3.906
1532372800.653,50.293,23.438,1.953,48.340,24.414
1532372800.657,51.270,23.926,0.000,45.898,46.387
1532372800.661,51.270,22.461,-1.953,46.387,51.270
1532372800.665,45.898,21.973,0.488,46.387,16.602
1532372800.669,40.527,19.531,0.977,38.086,-11.230
1532372800.673,43.945,20.996,4.395,40.527,50.781
1532372800.676,41.992,22.461,3.906,40.527,88.867
1532372800.680,43.945,25.391,1.465,39.551,43.457
1532372800.684,48.828,26.855,2.930,43.945,-0.488
1532372800.688,51.758,26.367,1.953,41.992,6.348
1532372800.692,51.758,27.832,0.000,41.016,63.477
1532372800.696,46.387,25.879,-1.465,41.992,66.895
1532372800.700,48.340,22.949,-1.465,44.922,15.625
1532372800.704,51.270,25.391,2.441,47.363,23.438
1532372800.708,49.316,26.855,2.441,41.992,40.039
1532372800.712,47.852,24.902,3.418,39.551,27.344
1532372800.716,51.758,27.344,6.348,47.363,7.324
1532372800.719,47.852,26.855,3.418,49.316,-5.371
1532372800.723,49.805,26.367,2.930,48.828,29.785
1532372800.727,53.711,28.320,6.836,53.711,39.062
1532372800.731,50.293,26.367,4.883,56.641,25.391
1532372800.735,45.410,23.926,-0.488,47.852,22.461
1532372800.739,44.434,24.414,2.930,46.387,21.484
1532372800.743,51.758,25.391,6.836,52.246,35.156
1532372800.747,58.105,25.391,2.930,51.270,-1.465
1532372800.751,55.176,26.855,1.953,52.246,-34.668
1532372800.755,49.805,27.344,4.883,50.293,-14.160
1532372800.759,48.828,28.809,4.395,49.805,27.832
1532372800.762,44.922,31.250,-1.465,44.434,54.688
1532372800.766,42.480,27.344,-3.906,39.551,6.836
1532372800.770,49.316,30.273,1.465,43.457,-6.348
1532372800.774,50.781,31.738,5.859,48.828,61.035
1532372800.778,45.898,29.297,8.789,51.270,73.242
1532372800.782,49.805,28.320,7.324,51.758,42.480
1532372800.786,53.711,28.320,3.906,53.711,19.531
1532372800.790,56.641,31.738,3.418,54.688,40.527
1532372800.794,62.988,37.109,5.371,55.176,61.523
1532372800.798,56.152,37.109,4.883,51.270,28.809
1532372800.801,47.363,33.203,1.465,48.828,32.227
1532372800.805,48.828,33.203,4.395,41.992,45.410
1532372800.809,51.758,39.551,6.836,39.062,55.664
1532372800.813,54.688,39.551,7.812,39.062,60.059
1532372800.817,51.270,33.691,4.395,33.203,20.996
1532372800.821,47.363,35.645,0.488,34.668,44.434
1532372800.825,50.781,34.668,2.930,42.969,67.871
1532372800.829,50.781,31.738,5.371,43.457,34.180
1532372800.833,48.828,31.250,6.348,43.945,28.320
1532372800.837,52.734,29.785,4.395,45.898,4.395
1532372800.841,50.781,29.297,3.906,43.945,24.414
1532372800.844,46.387,31.738,3.906,44.922,72.266
1532372800.848,51.270,34.668,3.418,42.969,21.973
1532372800.852,55.176,32.227,6.836,44.434,-15.625
1532372800.856,54.199,30.273,7.324,46.387,17.578
1532372800.860,55.664,31.250,5.859,48.828,53.711
1532372800.864,54.199,29.785,4.395,40.039,36.621
1532372800.868,54.199,28.320,3.418,32.227,4.883
1532372800.872,64.453,30.762,3.906,40.039,49.805
1532372800.876,71.289,32.715,9.277,48.340,65.430
1532372800.880,67.871,32.715,10.254,54.199,17.578
1532372800.884,64.453,32.227,8.789,61.523,-5.371
1532372800.887,54.199,32.715,11.719,62.500,-1.953
1532372800.891,43.945,28.320,8.789,59.570,51.758
1532372800.895,42.969,26.855,4.395,60.059,66.406
1532372800.899,52.246,27.832,8.301,63.477,15.625
1532372800.903,45.410,27.344,9.277,66.895,23.926
1532372800.907,38.086,30.273,5.859,61.523,42.969
1532372800.911,46.875,31.250,10.742,57.617,34.180
1532372800.915,48.340,29.297,10.742,54.688,38.574
1532372800.919,45.410,32.715,7.812,52.246,42.480
1532372800.923,41.992,32.227,11.230,51.758,44.434
1532372800.926,41.504,29.785,15.137,49.805,50.293
1532372800.930,37.598,30.273,12.207,50.293,26.367
1532372800.934,32.715,30.273,8.301,50.293,-11.230
1532372800.938,36.621,34.668,9.766,51.270,9.766
1532372800.942,48.340,38.086,11.230,56.152,50.293
1532372800.946,47.852,37.109,10.742,56.152,18.066
1532372800.950,44.922,38.574,11.719,48.828,-9.277
1532372800.954,45.410,38.086,11.230,48.340,18.555
1532372800.958,45.410,32.715,10.254,48.828,67.871
1532372800.962,47.363,31.738,7.324,46.387,64.453
1532372800.966,46.875,34.180,0.977,46.387,3.418
1532372800.969,52.246,37.109,-0.488,44.922,14.160
1532372800.973,50.781,37.598,2.930,43.457,62.988
1532372800.977,45.898,37.598,2.930,40.527,74.219
1532372800.981,47.363,39.062,4.395,40.039,43.457
1532372800.985,43.945,39.062,5.371,44.922,15.137
1532372800.989,44.434,36.133,6.836,42.969,21.973
1532372800.993,43.945,34.180,5.371,43.945,33.691
1532372800.997,47.852,35.645,8.301,46.387,23.926
1532372801.001,53.711,37.598,12.695,44.434,15.625
1532372801.005,47.852,41.016,11.719,41.504,43.457
1532372801.009,42.480,39.062,14.648,39.551,81.543
1532372801.012,36.621,33.691,12.207,42.480,64.941
1532372801.016,32.227,34.668,9.277,35.645,9.766
1532372801.020,34.180,36.621,9.277,32.227,16.113
1532372801.024,41.992,37.598,15.137,41.504,44.922
1532372801.028,41.504,38.574,19.043,40.527,48.340
1532372801.032,41.504,38.574,15.625,38.086,20.996
1532372801.036,44.922,38.086,15.625,41.504,-9.277
1532372801.040,44.922,38.086,16.602,41.992,29.297
1532372801.044,50.293,35.156,15.137,41.992,59.082
1532372801.048,47.852,33.203,13.672,31.738,16.602
1532372801.051,47.363,35.645,18.066,34.180,-18.066
1532372801.055,53.711,36.133,21.973,49.805,24.414
1532372801.059,54.199,36.621,20.020,47.363,62.012
1532372801.063,53.711,38.086,21.973,43.945,27.832
1532372801.067,49.805,34.668,20.996,39.551,-12.695
1532372801.071,52.246,33.203,19.531,37.598,13.672
1532372801.075,53.711,35.156,20.508,42.480,20.996
1532372801.079,54.688,39.062,19.531,44.434,9.766
1532372801.083,59.082,39.551,19.043,43.457,15.137
1532372801.087,58.594,39.551,22.461,43.945,-3.418
1532372801.091,57.129,37.598,26.855,42.969,22.461
1532372801.094,51.758,35.156,22.461,38.086,66.895
1532372801.098,50.293,36.133,19.043,35.645,31.738
1532372801.102,56.152,36.133,19.043,40.039,4.883
1532372801.106,47.852,38.086,18.555,41.992,41.992
1532372801.110,43.457,39.551,19.043,35.156,75.195
1532372801.114,42.480,38.574,20.996,30.762,19.531
1532372801.118,38.574,35.156,19.043,29.785,2.930
1532372801.122,36.621,33.691,15.625,27.344,50.293
1532372801.126,34.180,32.715,13.184,27.832,56.152
1532372801.130,37.598,31.738,12.695,27.832,17.090
1532372801.133,44.922,33.203,12.207,30.273,-19.531
1532372801.137,41.992,34.180,11.719,34.180,20.020
1532372801.141,37.109,32.227,9.766,34.180,53.223
1532372801.145,39.551,33.691,6.348,31.250,40.527
1532372801.149,38.574,34.180,9.277,27.344,31.250
1532372801.153,37.598,31.738,8.789,31.250,10.254
1532372801.157,40.527,29.785,5.859,34.668,72.266
1532372801.161,39.062,31.738,7.324,34.668,84.961
1532372801.165,39.062,34.668,5.859,33.691,35.156
1532372801.169,38.574,32.715,6.348,38.086,31.250
1532372801.173,46.875,34.180,12.695,45.898,47.852
1532372801.176,49.316,37.598,12.695,47.363,56.641
1532372801.180,42.969,34.668,10.254,44.434,35.156
1532372801.184,43.457,30.762,11.230,41.504,10.254
1532372801.188,37.109,31.738,16.113,37.109,30.762
1532372801.192,31.250,30.273,16.113,38.574,64.941
1532372801.196,29.297,29.297,18.555,43.457,29.785
1532372801.200,25.391,32.715,17.090,38.574,1.953
1532372801.204,23.926,33.691,10.742,34.180,5.371
1532372801.208,27.344,33.691,12.695,34.668,10.742
1532372801.212,25.879,37.109,15.625,34.668,8.301
1532372801.216,24.902,35.645,18.066,36.133,17.578
1532372801.219,33.691,31.250,20.508,37.598,19.531
1532372801.223,35.156,28.809,19.531,41.504,53.223
1532372801.227,35.156,31.250,18.555,39.551,28.320
1532372801.231,38.574,33.691,19.043,34.668,-20.020
1532372801.235,40.039,34.668,20.020,41.992,1.953
1532372801.239,45.898,34.668,18.555,43.457,20.508
1532372801.243,38.574,32.227,20.508,42.480,45.410
1532372801.247,26.855,28.809,23.438,40.039,32.715
1532372801.251,29.785,27.344,20.020,39.551,-4.395
1532372801.255,29.785,30.273,15.625,39.551,21.973
1532372801.258,24.414,31.738,19.043,40.039,73.730
1532372801.262,26.855,32.227,22.461,43.457,72.754
1532372801.266,33.691,32.715,19.531,37.109,13.184
1532372801.270,39.062,33.203,21.973,36.621,-11.719
1532372801.274,40.527,33.691,24.902,40.527,51.270
1532372801.278,35.156,33.203,23.438,36.133,62.500
1532372801.282,30.762,32.715,21.973,35.645,14.648
1532372801.286,29.785,31.250,19.531,33.203,-6.836
1532372801.290,33.691,32.227,20.020,31.738,36.621
1532372801.294,32.715,35.156,22.949,29.785,68.848
1532372801.298,30.273,37.109,17.090,27.832,41.016
1532372801.301,44.922,38.086,16.113,36.133,19.043
1532372801.305,40.039,33.691,20.996,37.598,23.438
1532372801.309,26.367,31.250,20.020,37.598,43.945
1532372801.313,30.273,33.691,17.578,39.551,36.133
1532372801.317,32.715,35.156,18.066,38.086,-19.043
1532372801.321,34.668,35.156,17.578,37.598,3.418
1532372801.325,32.715,36.133,19.043,35.156,48.828
1532372801.329,34.180,36.621,22.461,32.227,16.602
1532372801.333,35.645,35.156,20.020,37.109,-26.855
1532372801.337,37.598,36.133,20.020,43.945,12.695
1532372801.341,41.992,35.645,23.926,43.945,95.215
1532372801.344,47.363,33.203,21.973,43.945,79.590
1532372801.348,51.758,35.645,21.484,43.457,29.297
1532372801.352,45.410,37.109,22.461,41.016,4.395
1532372801.356,48.340,36.133,20.508,41.016,24.902
1532372801.360,50.781,34.668,20.020,41.992,63.477
