timestamps,TP9,AF7,AF8,TP10,Right AUX
1532216087.682,34.668,30.273,26.367,31.738,-24.902
1532216087.686,33.203,25.391,34.180,30.273,-121.582
1532216087.690,42.480,25.391,32.715,39.062,62.500
1532216087.694,47.852,25.879,30.762,51.270,188.965
1532216087.698,43.457,29.297,26.367,51.270,69.824
1532216087.702,36.621,31.738,24.414,43.457,-98.633
1532216087.706,24.902,28.320,26.855,34.180,-30.762
1532216087.709,26.855,23.926,30.273,30.762,135.254
1532216087.713,40.039,24.902,29.297,36.133,84.473
1532216087.717,38.574,30.762,22.949,31.250,-96.191
1532216087.721,20.996,30.273,21.484,25.391,-51.758
1532216087.725,17.578,28.809,28.320,29.785,169.922
1532216087.729,25.391,27.832,28.809,32.715,177.734
1532216087.733,24.902,27.832,31.738,28.320,-36.133
1532216087.737,15.625,28.320,37.109,25.879,-78.125
1532216087.741,17.090,24.414,34.180,33.691,95.703
1532216087.745,24.902,22.461,31.738,41.504,147.461
1532216087.748,30.273,23.926,31.738,38.086,-8.301
1532216087.752,34.180,23.926,31.250,28.809,-125.000
1532216087.756,35.156,27.344,25.391,29.297,24.902
1532216087.760,21.973,28.809,26.855,31.250,175.293
1532216087.764,15.625,24.902,33.203,17.578,46.875
1532216087.768,18.066,22.949,32.715,9.766,-151.367
1532216087.772,21.973,21.484,33.203,24.414,-40.527
1532216087.776,23.438,12.695,36.133,34.180,175.781
1532216087.780,29.785,11.719,36.133,34.180,112.305
1532216087.784,39.062,23.438,28.320,37.109,-90.332
1532216087.788,43.945,29.297,22.949,29.785,-84.473
1532216087.791,37.109,30.273,20.020,30.762,123.535
1532216087.795,21.484,26.367,23.926,25.879,149.414
1532216087.799,12.695,20.996,27.832,14.160,-37.598
1532216087.803,20.996,21.973,24.902,26.855,-80.566
1532216087.807,29.297,20.508,29.297,33.203,81.055
1532216087.811,24.902,18.555,27.832,29.785,157.715
1532216087.815,26.367,18.066,28.809,25.391,8.301
1532216087.819,29.297,15.625,32.227,27.832,-112.305
1532216087.823,29.785,11.719,33.691,32.715,33.691
1532216087.827,28.809,9.277,33.691,31.738,166.992
1532216087.831,32.227,9.766,29.785,30.762,52.734
1532216087.834,34.180,9.766,27.344,31.250,-117.188
1532216087.838,26.855,9.277,32.227,38.574,-28.809
1532216087.842,27.832,11.230,30.273,39.062,144.043
1532216087.846,30.762,17.090,23.438,23.438,83.984
1532216087.850,31.738,19.531,20.996,22.949,-100.098
1532216087.854,40.039,15.625,22.949,31.738,-65.430
1532216087.858,36.621,13.672,26.855,36.621,125.000
1532216087.862,23.438,11.719,26.855,35.645,167.969
1532216087.866,22.461,11.230,27.344,30.273,-22.461
1532216087.870,24.414,10.742,31.738,32.715,-116.699
1532216087.873,31.738,9.766,28.809,37.109,77.148
1532216087.877,25.879,8.301,25.879,31.250,174.316
1532216087.881,14.160,4.883,28.809,27.832,-8.301
1532216087.885,22.461,4.395,29.785,21.973,-165.039
1532216087.889,25.879,5.859,28.320,15.137,-17.578
1532216087.893,21.484,6.348,27.832,19.531,147.949
1532216087.897,21.973,6.348,27.344,27.832,82.520
1532216087.901,20.996,5.859,30.762,31.250,-55.664
1532216087.905,17.090,4.883,34.668,26.855,-31.250
1532216087.909,20.508,3.418,34.180,28.320,110.840
1532216087.913,34.668,4.395,32.715,33.691,127.441
1532216087.916,39.062,13.184,29.785,32.227,-73.730
1532216087.920,30.762,16.602,29.785,28.320,-84.473
1532216087.924,25.879,13.672,31.250,28.320,124.023
1532216087.928,36.621,18.555,30.273,33.691,161.133
1532216087.932,41.992,20.508,28.809,38.086,-5.859
1532216087.936,34.668,22.949,24.902,38.574,-123.047
1532216087.940,38.086,24.902,25.879,39.551,43.457
1532216087.944,39.551,26.367,24.414,41.504,172.363
1532216087.948,44.434,32.227,20.020,35.156,15.625
1532216087.952,43.945,33.691,20.996,37.598,-141.602
1532216087.956,35.645,31.250,22.461,41.992,-11.719
1532216087.959,37.598,31.250,23.438,41.016,164.062
1532216087.963,44.434,34.668,22.949,42.480,103.027
1532216087.967,42.969,37.598,18.555,41.016,-87.891
1532216087.971,37.598,37.109,20.996,36.621,-41.504
1532216087.975,41.016,36.133,23.438,38.086,135.254
1532216087.979,48.828,38.574,23.926,41.504,139.648
1532216087.983,51.758,40.039,28.320,43.457,-59.082
1532216087.987,43.457,38.574,28.809,41.504,-140.625
1532216087.991,39.551,41.016,27.344,39.062,65.430
1532216087.995,40.039,41.504,25.879,40.527,193.359
1532216087.998,43.457,42.480,28.320,44.434,19.531
1532216088.002,41.016,43.945,28.809,42.969,-94.238
1532216088.006,29.785,42.480,28.320,40.039,58.105
1532216088.010,28.809,43.945,25.391,43.457,185.059
1532216088.014,30.273,43.457,25.391,41.992,69.824
1532216088.018,29.785,43.457,26.855,34.668,-98.633
1532216088.022,29.297,45.410,25.879,34.668,-20.996
1532216088.026,32.227,45.410,28.320,38.574,143.555
1532216088.030,35.156,45.410,28.320,34.668,109.375
1532216088.034,37.598,43.457,26.855,35.156,-57.129
1532216088.038,38.574,42.969,24.902,42.480,-53.711
1532216088.041,48.828,44.434,22.949,45.898,138.672
1532216088.045,53.223,48.340,22.949,45.898,159.668
1532216088.049,41.016,49.805,25.879,49.805,-48.828
1532216088.053,38.086,46.875,28.809,48.340,-98.145
1532216088.057,43.945,44.922,27.832,51.758,93.262
1532216088.061,43.457,48.340,24.414,53.711,181.152
1532216088.065,43.457,47.852,25.391,41.992,-26.855
1532216088.069,50.293,46.875,24.902,39.551,-149.902
1532216088.073,57.129,48.340,25.391,42.969,27.344
1532216088.077,45.898,48.340,27.832,41.016,155.273
1532216088.081,39.062,46.875,27.832,41.992,40.527
1532216088.084,42.969,46.875,28.320,41.504,-138.184
1532216088.088,46.387,46.875,27.344,38.086,-73.242
1532216088.092,48.828,44.434,27.832,40.039,116.211
1532216088.096,42.480,44.922,28.809,38.574,89.844
1532216088.100,37.109,46.387,29.785,40.527,-104.492
1532216088.104,43.457,43.945,31.738,41.504,-95.703
1532216088.108,47.363,44.922,31.738,40.039,118.652
1532216088.112,46.875,45.898,32.227,41.992,156.250
1532216088.116,47.363,46.875,30.762,43.945,-19.531
1532216088.120,43.945,49.805,30.762,42.969,-84.961
1532216088.123,46.875,48.828,31.738,46.875,71.777
1532216088.127,59.082,49.316,31.738,48.340,160.645
1532216088.131,56.641,49.805,33.203,49.805,4.883
1532216088.135,42.969,47.363,34.180,47.852,-131.836
1532216088.139,43.457,45.410,34.668,47.363,12.695
1532216088.143,45.410,45.898,32.715,51.758,181.152
1532216088.147,47.363,45.898,32.227,44.434,67.383
1532216088.151,49.316,44.922,33.691,41.992,-105.957
1532216088.155,52.246,45.410,30.273,52.246,-38.574
1532216088.159,59.082,44.922,24.902,51.270,162.109
1532216088.163,57.617,42.480,27.832,48.828,137.207
1532216088.166,58.594,39.551,30.273,49.316,-97.168
1532216088.170,55.176,40.527,31.738,51.270,-99.609
1532216088.174,53.223,41.504,32.227,56.152,115.234
1532216088.178,56.641,44.434,28.809,51.758,166.016
1532216088.182,57.617,43.945,28.809,51.270,-14.160
1532216088.186,61.035,39.062,27.832,46.387,-147.949
1532216088.190,62.012,38.574,27.832,46.875,17.578
1532216088.194,59.570,36.621,28.320,59.082,152.344
1532216088.198,64.453,34.180,31.738,62.500,13.184
1532216088.202,63.965,34.668,29.785,62.988,-102.539
1532216088.205,57.129,35.156,25.879,62.500,30.273
1532216088.209,54.199,38.086,25.879,58.105,165.527
1532216088.213,56.152,36.133,27.832,56.641,56.152
1532216088.217,56.641,33.203,28.809,58.594,-139.160
1532216088.221,53.223,33.691,27.832,55.664,-77.148
1532216088.225,56.152,33.691,26.367,56.641,100.098
1532216088.229,50.293,34.180,27.344,47.852,77.148
1532216088.233,44.922,32.227,27.832,37.598,-87.891
1532216088.237,45.898,31.738,28.809,47.852,-104.492
1532216088.241,51.758,34.180,29.785,49.316,100.098
1532216088.245,51.758,34.180,30.762,48.828,182.617
1532216088.248,42.480,33.203,31.738,49.805,3.906
1532216088.252,41.016,33.691,30.762,51.758,-122.559
1532216088.256,43.945,34.180,30.273,53.223,36.133
1532216088.260,46.875,34.668,30.273,58.594,178.223
1532216088.264,47.363,35.645,26.367,57.129,21.484
1532216088.268,52.246,35.156,24.414,50.293,-167.480
1532216088.272,51.758,38.086,26.855,58.105,-34.180
1532216088.276,53.711,37.109,25.879,60.059,147.949
1532216088.280,59.082,33.691,23.926,51.758,103.516
1532216088.284,59.082,35.156,26.855,52.246,-100.586
1532216088.288,62.012,37.109,26.367,57.129,-112.305
1532216088.291,55.664,37.109,25.391,57.617,130.859
1532216088.295,42.969,37.109,25.879,52.734,151.367
1532216088.299,43.457,39.551,25.391,49.316,-28.809
1532216088.303,44.922,39.062,26.855,49.316,-66.406
1532216088.307,47.852,39.551,28.320,51.270,91.797
1532216088.311,49.805,42.969,25.391,48.340,163.574
1532216088.315,56.641,41.504,28.320,53.223,-7.812
1532216088.319,50.293,40.039,32.227,54.199,-112.305
1532216088.323,37.109,40.527,31.738,49.805,13.184
1532216088.327,38.086,39.551,32.227,45.410,121.094
1532216088.330,42.969,42.480,31.250,45.410,33.203
1532216088.334,47.363,42.480,28.809,43.945,-104.492
1532216088.338,35.156,40.039,27.344,33.691,5.859
1532216088.342,22.461,41.016,30.273,32.715,190.430
1532216088.346,32.227,42.969,33.203,32.227,121.582
1532216088.350,49.316,43.457,31.250,31.738,-56.641
1532216088.354,50.293,42.480,30.273,33.203,-57.617
1532216088.358,39.551,39.062,32.227,25.879,111.328
1532216088.362,34.668,39.551,38.086,22.461,164.551
1532216088.366,40.527,40.527,39.062,24.414,-39.062
1532216088.370,43.457,37.598,40.527,22.949,-123.047
1532216088.373,44.922,36.133,46.387,26.855,89.844
1532216088.377,47.363,36.133,45.410,41.016,201.660
1532216088.381,48.828,39.062,38.086,46.875,29.297
1532216088.385,40.527,45.410,34.180,40.039,-144.043
1532216088.389,35.645,46.875,36.133,33.203,-8.301
1532216088.393,20.508,41.504,39.551,31.250,171.875
1532216088.397,-0.488,39.062,43.945,27.344,97.168
1532216088.401,2.441,35.645,43.457,30.273,-89.355
1532216088.405,3.906,29.785,45.898,36.621,-46.875
1532216088.409,15.137,26.855,53.711,39.062,123.047
1532216088.413,24.902,29.785,48.828,42.969,112.305
1532216088.416,33.203,41.504,37.109,38.574,-49.316
1532216088.420,28.320,42.969,36.133,28.809,-78.125
1532216088.424,6.348,37.598,41.016,25.391,104.980
1532216088.428,14.648,33.203,40.527,25.391,170.410
1532216088.432,37.598,37.109,33.203,36.133,-7.812
1532216088.436,41.992,40.039,31.738,41.504,-99.121
1532216088.440,32.227,38.086,35.156,33.691,66.406
1532216088.444,29.297,39.062,35.645,35.156,183.105
1532216088.448,38.574,37.109,32.227,37.598,36.133
1532216088.452,42.969,34.180,32.715,44.434,-101.074
1532216088.455,32.227,34.180,35.156,42.480,27.832
1532216088.459,27.832,35.645,33.203,38.086,198.242
1532216088.463,38.086,37.109,33.691,41.504,114.258
1532216088.467,50.293,39.062,34.668,31.738,-104.004
1532216088.471,40.527,39.062,35.645,29.297,-84.473
1532216088.475,33.691,35.645,34.668,35.645,132.324
1532216088.479,39.551,35.645,34.668,32.715,146.484
1532216088.483,39.551,38.574,32.715,25.879,-67.871
1532216088.487,33.691,37.109,31.250,22.461,-88.867
1532216088.491,33.691,36.621,31.250,25.391,122.559
1532216088.495,37.109,40.039,30.273,28.320,190.918
1532216088.498,41.992,40.527,31.738,28.809,-11.230
1532216088.502,41.504,38.574,30.762,25.879,-142.578
1532216088.506,31.250,38.086,31.738,26.855,27.832
1532216088.510,33.691,41.016,34.180,28.809,165.527
1532216088.514,36.621,41.016,33.203,31.250,77.637
1532216088.518,38.574,41.992,31.738,37.109,-93.262
1532216088.522,40.039,41.504,30.273,39.062,-26.855
1532216088.526,38.574,39.062,29.297,33.203,117.676
1532216088.530,43.457,40.039,29.785,25.879,54.199
1532216088.534,38.574,39.062,27.344,28.320,-110.840
1532216088.537,33.203,39.062,25.879,33.203,-80.078
1532216088.541,35.645,38.574,29.785,29.297,120.605
1532216088.545,37.598,39.062,31.250,25.391,136.230
1532216088.549,40.527,41.504,30.762,30.762,-47.852
1532216088.553,49.805,37.109,31.738,31.738,-87.402
1532216088.557,43.457,36.133,31.738,31.250,91.797
1532216088.561,35.645,41.992,30.762,36.621,193.359
1532216088.565,47.852,44.434,29.297,39.551,38.574
1532216088.569,48.828,43.945,33.691,41.504,-140.137
1532216088.573,32.227,41.504,38.086,34.180,29.785
1532216088.577,24.902,39.062,39.551,27.832,176.270
1532216088.580,40.527,43.945,36.133,33.203,48.340
1532216088.584,34.668,51.758,28.809,23.926,-92.773
1532216088.588,21.973,51.270,28.809,5.371,-33.203
1532216088.592,30.273,48.828,32.227,7.324,151.367
1532216088.596,30.762,49.316,33.203,18.066,130.371
1532216088.600,16.602,47.363,35.156,16.602,-82.520
1532216088.604,12.695,44.434,37.598,8.301,-86.426
1532216088.608,20.996,42.969,36.133,9.277,93.750
1532216088.612,37.109,44.434,35.645,28.320,165.527
1532216088.616,45.898,47.852,37.109,31.250,7.324
1532216088.620,33.691,44.922,34.668,20.996,-104.980
1532216088.623,30.273,42.480,37.109,24.414,87.402
1532216088.627,29.785,39.551,40.039,23.438,185.059
1532216088.631,32.715,39.062,37.598,28.809,13.184
1532216088.635,38.086,37.109,39.551,38.574,-130.371
1532216088.639,37.598,35.156,39.062,41.016,1.465
1532216088.643,34.180,35.156,35.156,38.574,163.574
1532216088.647,42.969,35.156,33.203,31.738,45.410
1532216088.651,50.293,36.621,29.785,34.668,-143.555
1532216088.655,46.387,37.109,24.902,48.828,-56.641
1532216088.659,40.039,35.156,28.809,46.387,146.484
1532216088.662,38.574,33.691,33.691,38.574,144.531
1532216088.666,43.457,37.109,30.762,42.480,-64.453
1532216088.670,49.805,35.156,30.273,49.805,-56.152
1532216088.674,46.387,30.762,32.715,57.129,142.578
1532216088.678,54.688,35.156,33.691,58.105,157.227
1532216088.682,51.270,35.645,36.133,47.363,-40.039
1532216088.686,35.645,33.691,36.133,41.016,-146.973
1532216088.690,40.039,34.180,34.180,40.527,29.785
1532216088.694,41.016,36.133,33.203,41.504,172.852
1532216088.698,39.062,39.551,34.668,37.598,49.805
1532216088.702,25.879,35.156,38.574,33.691,-103.516
1532216088.705,23.438,33.691,38.086,34.180,-17.090
1532216088.709,30.273,37.109,35.645,26.855,144.531
1532216088.713,33.691,39.062,38.086,26.367,125.488
1532216088.717,29.297,39.062,42.480,30.273,-69.336
1532216088.721,27.832,40.039,42.969,30.762,-61.523
1532216088.725,29.785,41.992,40.039,34.180,123.535
1532216088.729,30.273,41.504,38.086,33.691,137.695
1532216088.733,21.973,39.551,41.992,31.738,-33.203
1532216088.737,9.766,38.574,41.992,30.273,-106.934
1532216088.741,7.812,39.062,41.504,23.926,99.609
1532216088.745,12.695,39.551,43.457,14.160,184.570
1532216088.748,23.438,41.504,40.039,12.207,-11.230
1532216088.752,27.344,45.410,35.645,23.438,-109.375
1532216088.756,17.578,49.316,38.086,19.531,58.594
1532216088.760,14.648,47.852,37.598,12.695,205.078
1532216088.764,24.414,46.875,32.715,18.555,62.988
1532216088.768,25.879,45.898,28.320,24.414,-104.492
1532216088.772,23.438,42.480,30.273,26.367,16.602
1532216088.776,22.461,39.551,36.621,23.438,165.039
1532216088.780,29.785,37.109,33.691,21.484,102.051
1532216088.784,39.551,41.992,24.414,18.555,-95.703
1532216088.787,43.457,47.363,20.508,16.602,-77.148
1532216088.791,34.180,49.316,23.926,19.043,143.555
1532216088.795,32.715,49.316,26.855,26.855,144.531
1532216088.799,31.250,44.434,32.227,28.809,-52.734
1532216088.803,27.344,39.551,30.273,22.461,-88.867
1532216088.807,35.645,38.086,21.973,26.367,97.168
1532216088.811,51.270,39.551,20.996,38.086,174.805
1532216088.815,52.246,40.527,25.391,33.203,3.418
1532216088.819,34.180,41.016,23.438,23.438,-110.352
1532216088.823,31.250,40.527,19.043,22.949,36.133
1532216088.827,38.086,39.062,21.484,23.438,147.461
1532216088.830,40.039,38.574,22.949,22.949,53.223
1532216088.834,34.668,35.645,20.020,24.902,-93.262
1532216088.838,38.086,35.156,22.461,32.715,-20.508
1532216088.842,40.039,36.133,21.484,34.180,190.430
1532216088.846,31.250,35.645,19.531,32.227,125.000
1532216088.850,45.410,39.062,22.949,35.156,-79.102
1532216088.854,54.199,41.992,24.902,35.156,-43.457
1532216088.858,44.434,39.062,26.367,39.551,176.758
1532216088.862,44.922,35.156,27.832,40.039,172.852
1532216088.866,43.945,32.227,29.785,38.574,-58.105
1532216088.869,48.340,33.691,24.902,46.387,-113.281
1532216088.873,52.246,39.551,20.996,44.922,51.758
1532216088.877,49.316,39.551,23.926,41.016,176.758
1532216088.881,50.781,37.598,23.926,40.527,34.668
1532216088.885,50.781,37.109,24.902,30.273,-140.625
1532216088.889,44.434,36.133,26.855,25.391,-17.578
1532216088.893,41.992,36.133,24.902,33.691,143.066
1532216088.897,42.480,34.180,22.949,36.621,83.984
1532216088.901,37.598,35.156,23.926,38.086,-82.031
1532216088.905,37.598,36.621,25.391,41.016,-41.504
1532216088.909,41.016,34.180,25.391,40.527,157.227
1532216088.912,44.434,35.156,24.902,40.527,134.277
1532216088.916,44.434,37.598,26.367,41.016,-58.594
1532216088.920,42.480,37.598,30.273,39.551,-71.777
1532216088.924,39.062,36.133,28.320,34.668,99.609
1532216088.928,41.992,38.574,29.785,32.715,135.254
1532216088.932,43.945,41.016,29.297,37.598,-43.457
1532216088.936,38.086,40.527,24.414,33.691,-122.070
1532216088.940,34.668,38.574,28.809,29.785,77.148
1532216088.944,36.621,38.574,32.715,29.297,183.105
1532216088.948,35.645,39.062,29.785,22.949,32.227
1532216088.952,29.297,37.598,29.785,20.508,-95.215
1532216088.955,23.926,38.086,34.180,18.555,33.691
1532216088.959,25.879,38.574,34.180,19.531,186.035
1532216088.963,34.668,35.156,35.645,24.414,78.613
1532216088.967,33.691,38.086,33.203,23.438,-107.910
1532216088.971,25.879,39.062,30.273,22.461,-66.406
1532216088.975,22.949,39.551,29.785,21.973,146.484
1532216088.979,28.320,47.363,22.949,21.484,161.133
1532216088.983,31.250,50.293,22.949,20.996,-51.758
1532216088.987,26.367,45.410,28.809,13.672,-123.047
1532216088.991,30.762,42.969,24.902,15.137,61.035
1532216088.994,45.410,43.945,20.508,26.367,169.922
1532216088.998,52.246,42.480,21.484,22.949,24.414
1532216089.002,42.480,37.598,21.484,20.996,-98.633
1532216089.006,34.668,34.668,23.926,31.250,45.410
1532216089.010,36.621,36.133,23.926,33.691,186.035
1532216089.014,39.062,38.574,19.531,24.902,73.242
1532216089.018,42.969,38.574,18.555,26.855,-96.191
1532216089.022,41.992,38.086,18.555,35.156,10.742
1532216089.026,40.527,40.527,17.578,29.785,148.438
1532216089.030,42.480,38.574,20.996,23.926,93.750
1532216089.034,41.016,35.645,20.996,25.879,-71.289
1532216089.037,36.621,39.551,18.066,32.715,-60.547
1532216089.041,40.039,39.551,20.996,38.086,143.066
1532216089.045,43.945,35.645,23.438,36.621,152.832
1532216089.049,43.945,34.180,23.438,38.574,-31.250
1532216089.053,35.156,34.668,20.996,38.574,-88.379
1532216089.057,31.250,33.203,23.438,39.551,70.801
1532216089.061,34.180,31.738,25.391,37.109,151.855
1532216089.065,33.203,32.715,27.344,31.250,-19.531
1532216089.069,38.574,34.668,28.809,30.273,-151.367
1532216089.073,43.945,35.156,24.414,31.250,32.715
1532216089.077,46.387,38.086,24.902,35.645,180.176
1532216089.080,45.410,37.598,26.855,39.062,49.805
1532216089.084,48.828,38.574,26.367,38.086,-130.371
1532216089.088,44.434,37.109,25.879,34.180,-52.734
1532216089.092,37.109,31.738,22.949,33.691,152.832
1532216089.096,39.062,29.297,24.414,36.133,134.766
1532216089.100,41.992,30.762,29.297,39.062,-73.730
1532216089.104,45.898,35.156,29.785,44.434,-90.820
1532216089.108,47.363,32.715,27.832,49.316,112.793
1532216089.112,59.570,29.297,27.344,51.758,122.070
1532216089.116,56.641,31.250,27.344,51.758,-73.730
1532216089.119,41.504,31.250,24.902,51.270,-116.699
1532216089.123,43.945,29.297,23.438,47.363,82.031
1532216089.127,44.922,27.344,25.391,39.062,133.301
1532216089.131,56.152,28.809,27.344,41.016,-28.809
1532216089.135,55.176,31.250,25.391,44.434,-125.000
1532216089.139,34.180,32.715,21.973,45.898,15.625
1532216089.143,38.086,32.227,21.973,44.922,172.852
1532216089.147,40.527,29.785,22.949,44.434,86.914
1532216089.151,43.945,29.785,26.855,51.758,-110.840
1532216089.155,47.363,29.297,29.297,51.270,-81.543
1532216089.159,45.410,31.250,26.855,43.457,131.348
1532216089.162,47.363,33.691,25.879,40.039,109.375
1532216089.166,44.434,31.250,27.832,39.551,-95.215
1532216089.170,42.480,29.785,27.832,41.016,-99.121
1532216089.174,40.039,31.250,24.902,41.992,98.145
1532216089.178,40.039,32.227,27.344,41.992,145.020
1532216089.182,46.875,34.668,28.809,43.945,-45.898
1532216089.186,46.387,35.156,28.320,38.574,-143.555
1532216089.190,41.992,34.180,26.367,35.156,26.855
1532216089.194,47.363,33.203,27.344,43.945,162.109
1532216089.198,51.758,31.738,31.250,43.457,17.090
1532216089.202,41.504,30.273,31.250,42.969,-134.277
1532216089.205,40.527,28.809,29.785,43.945,-8.301
1532216089.209,42.480,27.832,26.367,39.551,168.457
1532216089.213,37.598,27.344,25.391,45.898,104.492
1532216089.217,43.457,26.367,23.926,46.875,-102.539
1532216089.221,46.875,28.320,25.391,52.246,-64.453
1532216089.225,48.828,29.297,24.902,56.641,145.020
1532216089.229,48.828,29.297,20.020,48.828,132.324
1532216089.233,57.617,32.715,16.602,44.434,-71.777
1532216089.237,60.059,33.203,18.066,50.781,-99.121
1532216089.241,50.781,31.250,20.996,58.594,106.934
1532216089.244,49.805,31.738,21.973,58.105,148.926
1532216089.248,48.828,33.203,22.949,55.664,-39.062
1532216089.252,54.199,33.203,24.414,58.105,-133.301
1532216089.256,55.664,32.227,24.902,59.570,30.762
1532216089.260,51.758,33.203,25.391,56.152,159.180
1532216089.264,54.199,31.738,25.879,50.781,65.918
1532216089.268,49.805,31.250,24.902,35.156,-117.676
1532216089.272,45.410,32.715,26.367,30.273,-54.199
1532216089.276,47.852,32.227,30.273,36.621,145.020
1532216089.280,49.805,36.621,26.367,33.203,119.141
1532216089.284,54.688,39.062,24.902,26.855,-86.914
1532216089.287,52.246,39.551,29.785,22.949,-72.754
1532216089.291,54.688,40.039,29.785,26.855,139.648
1532216089.295,49.316,38.574,29.785,26.367,134.277
1532216089.299,41.016,36.621,37.598,29.785,-66.895
1532216089.303,40.527,31.250,42.480,42.480,-108.398
1532216089.307,38.086,34.668,35.645,46.875,92.285
1532216089.311,30.273,42.969,30.273,35.156,186.523
1532216089.315,15.625,41.016,32.715,24.414,35.156
1532216089.319,7.812,38.086,33.691,21.484,-98.145
1532216089.323,1.465,37.109,36.133,22.461,57.129
1532216089.326,0.977,36.133,41.504,15.625,142.578
1532216089.330,2.930,36.133,44.434,10.742,30.273
1532216089.334,8.789,37.598,43.945,19.531,-87.402
1532216089.338,21.973,42.969,42.480,23.438,-32.227
1532216089.342,31.250,46.387,39.551,23.438,145.996
1532216089.346,21.484,48.828,39.551,11.719,94.238
1532216089.350,14.160,50.293,39.062,1.953,-118.164
1532216089.354,16.113,46.387,37.598,9.766,-85.938
1532216089.358,15.625,41.016,38.574,16.113,124.512
1532216089.362,21.973,39.062,41.992,19.531,175.293
1532216089.366,32.227,37.109,41.992,20.996,-8.789
1532216089.369,31.738,39.551,37.109,24.902,-97.656
1532216089.373,27.832,41.016,33.691,27.344,97.656
1532216089.377,27.832,37.598,33.203,24.414,186.523
1532216089.381,33.203,38.086,29.785,33.203,44.434
1532216089.385,39.062,37.109,30.762,42.480,-92.285
1532216089.389,38.086,33.203,34.180,41.992,-8.789
1532216089.393,45.898,32.715,31.738,46.387,139.160
1532216089.397,50.293,31.738,31.250,44.922,55.176
1532216089.401,42.969,31.738,31.738,43.457,-128.418
1532216089.405,42.969,34.180,29.785,43.945,-53.711
1532216089.409,48.340,33.691,28.809,38.574,117.676
1532216089.412,56.641,37.598,28.320,39.062,114.746
1532216089.416,51.758,39.551,26.855,35.156,-51.758
1532216089.420,42.480,37.598,25.391,31.738,-75.684
1532216089.424,41.992,36.621,25.391,37.598,105.957
1532216089.428,50.781,35.645,28.320,41.016,155.762
1532216089.432,49.805,34.180,28.320,38.086,-33.203
1532216089.436,42.480,32.715,25.391,37.109,-125.488
1532216089.440,47.852,31.738,25.391,41.016,57.129
1532216089.444,49.316,29.785,26.367,42.969,158.203
1532216089.448,47.852,28.320,28.809,39.062,12.207
1532216089.451,46.875,30.273,30.762,39.551,-110.352
1532216089.455,52.734,29.785,29.785,44.922,9.277
1532216089.459,57.129,28.809,27.832,50.781,180.664
1532216089.463,46.387,31.250,27.832,48.828,143.066
1532216089.467,40.527,30.762,29.297,43.457,-56.152
1532216089.471,40.039,26.855,28.809,40.039,-40.527
1532216089.475,38.086,27.344,27.344,39.062,167.480
1532216089.479,38.086,30.273,30.273,41.992,151.367
1532216089.483,41.992,30.762,34.180,43.457,-45.410
1532216089.487,46.387,30.273,34.180,35.645,-105.957
1532216089.491,44.922,32.715,34.180,31.250,75.684
1532216089.494,41.992,34.180,32.715,37.598,173.828
1532216089.498,47.363,34.180,30.762,40.527,-2.441
1532216089.502,48.340,33.203,32.715,39.062,-91.309
1532216089.506,42.480,33.691,32.715,36.621,71.777
1532216089.510,38.574,37.598,31.738,36.133,163.086
1532216089.514,34.668,37.598,30.762,36.133,18.066
1532216089.518,32.715,37.598,28.320,37.109,-110.840
1532216089.522,33.203,37.109,33.203,31.738,-5.371
1532216089.526,36.621,36.621,36.133,31.250,160.645
1532216089.530,33.691,36.621,36.133,30.762,105.469
1532216089.534,31.250,37.109,36.621,25.391,-104.980
1532216089.537,31.250,35.645,34.180,22.949,-77.637
1532216089.541,17.578,31.250,33.203,22.949,128.906
1532216089.545,14.160,27.832,41.016,19.531,158.691
1532216089.549,27.832,27.832,44.434,25.391,-57.617
1532216089.553,44.434,35.156,38.086,34.180,-123.535
1532216089.557,45.898,43.945,34.668,30.273,71.777
1532216089.561,30.273,49.805,33.691,20.996,168.945
1532216089.565,22.949,52.246,30.762,13.672,29.785
1532216089.569,15.625,50.781,30.762,15.137,-107.422
1532216089.573,0.977,45.898,33.691,12.207,17.090
1532216089.576,7.812,38.574,36.621,13.184,193.848
1532216089.580,28.320,34.668,41.016,25.391,116.211
1532216089.584,25.391,40.527,36.621,17.090,-89.844
1532216089.588,12.207,47.363,29.297,5.859,-46.387
1532216089.592,9.277,48.828,27.344,4.883,143.066
1532216089.596,16.113,50.293,26.367,3.906,92.773
1532216089.600,25.391,52.246,27.832,7.812,-95.703
1532216089.604,27.832,52.246,26.367,15.137,-57.129
1532216089.608,24.414,49.316,27.832,20.020,149.902
1532216089.612,16.113,43.457,36.133,17.090,171.387
1532216089.616,13.184,41.016,39.062,17.090,-46.387
1532216089.619,29.785,37.598,39.062,25.391,-133.301
1532216089.623,43.457,32.227,38.574,40.039,65.430
1532216089.627,38.574,37.109,32.715,36.133,165.527
1532216089.631,29.297,41.016,31.250,25.879,-0.488
1532216089.635,33.691,38.574,33.691,33.691,-123.535
1532216089.639,38.086,38.574,30.762,42.969,26.367
1532216089.643,29.297,35.645,27.832,33.691,177.246
1532216089.647,26.367,36.621,31.738,24.414,72.754
1532216089.651,26.855,37.598,34.180,32.715,-103.516
1532216089.655,36.621,34.668,34.180,42.480,-37.598
1532216089.658,39.551,34.180,32.715,43.457,171.387
1532216089.662,23.926,36.133,29.297,31.738,141.113
1532216089.666,28.320,38.086,30.273,26.855,-76.660
1532216089.670,35.645,35.645,30.273,32.227,-85.938
1532216089.674,24.414,33.691,28.809,30.273,121.582
1532216089.678,22.949,34.180,30.762,29.785,171.387
1532216089.682,31.250,32.227,30.762,29.785,-18.555
1532216089.686,31.250,28.809,27.344,24.414,-121.094
1532216089.690,22.949,26.367,28.320,28.320,54.199
1532216089.694,28.809,25.879,32.227,35.156,187.012
1532216089.698,32.715,28.320,32.715,39.551,35.156
1532216089.701,31.250,28.320,30.762,41.016,-130.371
1532216089.705,27.832,26.367,30.762,33.691,-26.855
1532216089.709,29.297,27.344,30.762,30.273,157.227
1532216089.713,33.691,29.297,28.320,33.691,84.961
1532216089.717,30.273,27.344,25.879,32.715,-117.676
1532216089.721,30.762,27.344,24.414,37.109,-47.852
1532216089.725,32.715,27.832,26.855,41.504,113.281
1532216089.729,29.297,27.832,30.273,39.062,112.793
1532216089.733,43.945,29.785,28.809,47.363,-40.527
1532216089.737,49.805,29.297,29.297,50.293,-88.379
1532216089.741,33.203,26.855,30.762,39.062,107.422
1532216089.744,33.203,25.879,31.250,36.133,183.105
1532216089.748,35.645,26.367,29.785,39.062,11.719
1532216089.752,35.156,26.367,27.344,40.527,-116.211
1532216089.756,32.227,26.855,27.832,42.969,31.250
1532216089.760,32.715,27.832,28.320,41.504,184.082
1532216089.764,33.691,28.809,26.855,36.621,63.477
1532216089.768,34.180,28.809,25.391,32.715,-153.320
1532216089.772,38.574,28.320,26.855,34.668,-60.059
1532216089.776,35.156,29.297,27.344,40.527,164.551
1532216089.780,35.645,31.738,25.879,40.039,140.137
1532216089.783,45.898,33.203,27.832,41.504,-66.895
1532216089.787,41.992,31.250,29.297,39.062,-57.129
1532216089.791,29.785,26.855,30.273,34.180,149.902
1532216089.795,25.879,25.879,31.250,32.715,168.457
1532216089.799,29.785,28.809,31.250,26.855,-44.922
1532216089.803,31.250,29.785,30.762,26.367,-117.188
1532216089.807,26.855,29.297,29.297,31.738,77.637
1532216089.811,30.273,29.785,29.785,34.668,177.734
1532216089.815,37.109,29.785,29.297,37.109,1.465
1532216089.819,47.852,30.273,29.297,41.016,-129.883
1532216089.823,44.434,27.344,32.715,45.898,19.043
1532216089.826,35.156,29.297,32.715,38.086,127.441
1532216089.830,38.086,36.133,32.227,27.344,15.137
1532216089.834,32.227,35.156,30.762,29.297,-127.930
1532216089.838,31.250,31.738,29.785,32.227,-20.996
1532216089.842,36.621,30.273,34.668,41.504,164.551
1532216089.846,40.527,25.391,38.574,45.410,101.562
1532216089.850,46.387,28.320,35.156,41.016,-98.145
1532216089.854,48.340,33.203,30.762,43.457,-89.355
1532216089.858,41.016,33.691,29.297,43.457,122.559
1532216089.862,35.156,34.180,27.832,31.738,177.734
1532216089.866,37.598,39.551,26.855,23.438,-43.457
1532216089.869,28.320,38.574,30.273,24.902,-139.160
1532216089.873,20.508,32.227,35.156,30.762,65.918
1532216089.877,20.020,26.855,38.086,34.180,157.227
1532216089.881,36.133,23.438,37.598,42.480,-17.090
1532216089.885,48.828,32.227,33.203,48.340,-143.555
1532216089.889,39.062,33.691,33.691,43.945,10.254
1532216089.893,27.344,25.879,39.062,41.016,187.012
1532216089.897,29.785,23.926,40.039,44.922,115.723
1532216089.901,43.457,28.320,34.668,51.270,-83.984
1532216089.905,44.434,33.691,27.832,43.457,-43.945
1532216089.908,39.551,35.156,25.391,34.180,149.902
1532216089.912,35.156,32.715,27.344,34.668,111.816
1532216089.916,32.715,25.879,33.691,38.086,-97.168
1532216089.920,38.574,22.461,37.598,45.410,-76.660
1532216089.924,47.852,29.297,32.227,45.898,110.840
1532216089.928,48.828,32.227,29.297,41.016,147.949
1532216089.932,40.527,27.832,34.668,38.086,-13.672
1532216089.936,33.203,27.832,32.227,35.156,-120.605
1532216089.940,36.133,33.203,27.344,41.992,47.852
1532216089.944,43.457,32.227,31.250,42.969,170.898
1532216089.948,49.805,32.715,33.203,41.504,10.254
1532216089.951,47.363,37.598,29.297,43.457,-133.789
1532216089.955,41.992,38.574,27.832,43.457,16.113
1532216089.959,40.039,36.133,29.297,41.016,169.922
1532216089.963,35.156,37.109,26.367,33.203,78.125
1532216089.967,36.621,38.574,27.832,25.391,-114.746
1532216089.971,35.645,38.086,32.715,25.879,-74.707
1532216089.975,29.297,36.133,33.203,24.902,135.742
1532216089.979,23.926,35.156,30.273,26.855,166.504
1532216089.983,20.996,34.180,30.273,27.832,-19.531
1532216089.987,29.785,32.715,35.645,29.785,-93.262
1532216089.990,43.457,32.227,36.133,38.574,62.988
1532216089.994,42.969,32.227,31.738,43.457,153.320
1532216089.998,42.480,31.738,35.156,44.922,10.742
1532216090.002,42.969,31.738,35.645,48.828,-90.820
1532216090.006,40.527,38.086,29.785,40.039,52.734
1532216090.010,34.180,47.363,21.973,20.508,168.457
1532216090.014,27.344,50.781,17.090,18.066,70.312
1532216090.018,23.926,45.410,22.461,20.020,-99.121
1532216090.022,18.555,42.480,27.344,9.277,2.930
1532216090.026,16.113,41.504,26.367,7.324,162.598
1532216090.030,19.531,36.133,25.391,14.160,93.750
1532216090.033,16.602,31.250,28.320,13.672,-76.660
1532216090.037,19.531,33.691,28.809,13.672,-60.547
1532216090.041,20.996,40.039,25.879,18.555,133.789
1532216090.045,18.555,39.551,28.320,19.043,139.648
1532216090.049,14.160,37.109,29.297,18.066,-69.824
1532216090.053,16.602,32.715,33.691,28.320,-117.188
1532216090.057,26.855,27.344,38.574,42.480,77.637
1532216090.061,34.668,27.344,37.109,46.387,171.387
1532216090.065,46.875,35.156,32.227,39.062,-3.418
1532216090.069,46.387,41.992,25.879,24.902,-141.113
1532216090.073,31.738,41.504,19.531,22.461,40.527
1532216090.076,20.020,37.109,22.461,26.367,169.922
1532216090.080,19.043,34.668,27.832,26.367,81.055
1532216090.084,26.855,35.645,26.855,27.832,-94.238
1532216090.088,35.156,35.156,27.344,33.691,-39.062
1532216090.092,36.133,35.645,28.809,37.598,164.551
1532216090.096,29.297,39.551,26.367,29.297,116.699
1532216090.100,25.879,40.039,26.367,24.902,-70.312
1532216090.104,29.785,37.109,25.879,26.367,-65.918
1532216090.108,30.273,35.645,26.367,21.973,115.723
1532216090.112,27.832,32.227,31.738,28.809,167.480
1532216090.115,39.551,30.762,32.715,43.945,-27.344
1532216090.119,46.387,31.738,30.762,49.805,-105.469
1532216090.123,42.969,31.250,27.344,43.457,75.684
1532216090.127,40.527,31.738,24.414,39.062,167.969
1532216090.131,43.457,31.738,22.949,37.109,19.531
1532216090.135,44.434,31.250,25.391,40.039,-107.422
1532216090.139,42.969,30.273,29.297,47.363,16.113
1532216090.143,42.480,30.273,27.832,41.992,172.852
1532216090.147,46.387,32.715,25.879,34.180,69.824
1532216090.151,46.875,35.156,29.297,35.645,-118.164
1532216090.155,45.898,32.227,28.809,39.062,-21.973
1532216090.158,49.805,28.809,28.320,41.992,166.992
1532216090.162,45.898,27.344,30.762,45.898,121.094
1532216090.166,39.062,26.367,30.273,41.992,-94.727
1532216090.170,35.156,26.367,28.809,40.527,-83.496
1532216090.174,36.621,26.855,28.320,41.016,101.074
1532216090.178,42.480,28.320,29.785,39.062,119.629
1532216090.182,45.410,28.809,32.227,41.992,-21.484
1532216090.186,46.387,29.785,30.273,42.480,-111.816
1532216090.190,47.363,31.250,27.344,39.062,57.129
1532216090.194,46.875,31.250,29.297,37.598,189.941
1532216090.198,41.504,28.320,31.250,37.598,43.457
1532216090.201,39.062,27.344,29.785,39.551,-104.980
1532216090.205,41.504,28.809,29.297,42.969,-4.883
1532216090.209,46.387,27.344,30.762,44.922,142.090
1532216090.213,36.621,27.344,31.250,35.645,78.613
1532216090.217,28.809,28.809,32.715,25.879,-105.957
1532216090.221,34.668,32.715,31.738,33.691,-61.523
1532216090.225,38.574,32.715,25.879,33.691,155.273
1532216090.229,36.621,28.320,23.926,24.414,161.621
1532216090.233,43.457,30.762,24.414,20.020,-26.367
1532216090.237,51.270,31.250,23.926,22.461,-68.848
1532216090.240,49.805,27.344,25.879,30.273,85.938
1532216090.244,55.176,29.297,26.855,27.832,133.301
1532216090.248,57.617,32.227,27.832,27.344,-49.805
1532216090.252,48.828,30.762,30.762,37.109,-145.508
1532216090.256,38.086,28.809,32.715,49.316,28.320
1532216090.260,37.598,27.832,30.762,50.293,179.688
1532216090.264,37.109,27.344,28.320,45.410,56.152
1532216090.268,38.574,28.320,28.320,48.340,-99.609
1532216090.272,37.598,28.320,26.855,48.340,19.043
1532216090.276,25.879,28.809,23.926,45.410,161.133
1532216090.280,30.273,31.250,23.438,49.316,94.727
1532216090.283,37.109,30.273,24.902,54.199,-97.656
1532216090.287,35.645,30.273,28.320,46.387,-74.219
1532216090.291,40.039,32.715,27.344,39.551,124.023
1532216090.295,41.016,29.297,23.926,39.062,139.160
1532216090.299,36.133,29.297,25.879,37.109,-56.641
1532216090.303,38.086,29.785,26.367,36.621,-98.633
1532216090.307,39.551,29.297,26.367,37.598,68.359
1532216090.311,47.363,32.715,24.414,35.645,132.812
1532216090.315,46.875,32.715,22.949,35.645,5.859
1532216090.319,40.527,32.715,25.391,40.527,-127.441
1532216090.323,37.109,33.691,25.391,41.016,5.859
1532216090.326,28.320,34.180,22.461,30.273,149.902
1532216090.330,23.926,32.227,23.438,26.855,72.754
1532216090.334,25.391,32.715,24.902,26.855,-93.262
1532216090.338,24.902,32.715,26.855,28.320,-19.531
1532216090.342,28.809,33.691,28.809,28.809,156.250
1532216090.346,31.738,35.645,30.762,26.367,77.148
1532216090.350,33.691,33.691,30.762,26.367,-109.375
1532216090.354,32.715,33.691,29.785,28.320,-67.871
1532216090.358,23.926,35.645,30.762,25.391,117.676
1532216090.362,25.879,37.109,31.250,27.344,148.926
1532216090.365,28.809,36.133,31.738,26.367,-47.852
1532216090.369,26.855,34.180,30.273,18.066,-141.113
1532216090.373,23.926,32.227,27.832,22.461,66.406
1532216090.377,21.484,30.762,29.297,25.879,180.176
1532216090.381,34.668,29.297,31.250,29.297,23.438
1532216090.385,45.898,36.133,25.391,31.250,-133.301
1532216090.389,30.762,44.434,17.578,19.043,-26.855
1532216090.393,20.508,39.062,24.414,15.137,155.273
1532216090.397,23.438,38.086,26.367,25.391,68.359
1532216090.401,16.113,42.969,20.996,22.949,-118.652
1532216090.405,8.789,42.969,23.926,15.137,-64.941
1532216090.408,9.766,42.480,24.902,15.137,130.371
1532216090.412,12.207,38.574,24.414,15.137,114.746
1532216090.416,18.066,34.180,25.391,19.531,-100.586
1532216090.420,22.949,36.133,21.973,19.043,-94.238
1532216090.424,21.973,40.039,17.090,12.695,94.727
1532216090.428,20.996,39.062,19.043,9.277,124.512
1532216090.432,24.902,33.691,22.949,13.184,-20.020
1532216090.436,27.344,34.668,20.996,20.508,-128.418
1532216090.440,28.320,42.480,16.602,23.926,50.293
1532216090.444,26.855,42.480,17.090,20.996,164.551
1532216090.447,21.973,39.062,17.578,13.672,-2.930
1532216090.451,25.879,38.574,15.625,21.484,-120.605
1532216090.455,33.203,36.621,19.043,37.598,12.207
1532216090.459,34.180,31.250,20.996,39.062,162.109
1532216090.463,36.133,26.855,20.996,37.109,81.543
1532216090.467,43.457,29.297,20.508,40.039,-92.285
1532216090.471,42.480,32.227,18.066,38.574,-53.711
1532216090.475,36.621,31.250,17.578,33.203,142.578
1532216090.479,42.969,28.320,16.602,38.086,170.898
1532216090.483,48.340,27.344,15.137,39.062,-34.668
1532216090.487,47.852,28.320,14.648,37.598,-91.309
1532216090.490,52.246,28.809,12.695,45.898,86.426
1532216090.494,61.035,30.273,14.160,49.805,162.598
1532216090.498,60.547,30.273,16.113,46.875,21.973
1532216090.502,52.734,29.785,16.602,48.340,-111.328
1532216090.506,44.922,27.832,16.602,49.316,26.855
1532216090.510,44.922,26.855,17.090,37.598,152.832
1532216090.514,55.664,30.273,18.555,39.551,21.973
1532216090.518,48.340,30.273,20.020,42.969,-122.559
1532216090.522,32.227,30.762,18.066,38.574,10.742
1532216090.526,32.227,29.785,19.531,30.762,152.832
1532216090.530,37.109,28.809,21.973,28.809,76.660
1532216090.533,38.086,27.832,17.090,28.809,-81.055
1532216090.537,32.715,27.344,15.625,29.785,-50.293
1532216090.541,30.273,25.879,17.090,35.156,136.230
1532216090.545,31.250,24.902,21.973,33.691,112.793
1532216090.549,33.203,26.855,26.367,35.156,-84.473
1532216090.553,38.086,29.297,27.344,40.527,-121.094
1532216090.557,51.758,32.227,28.320,42.969,65.918
1532216090.561,44.434,30.762,22.949,43.457,156.250
1532216090.565,31.250,28.809,22.949,39.062,0.000
1532216090.569,34.180,29.785,23.438,33.203,-155.762
1532216090.572,33.691,29.297,17.090,37.109,-5.371
1532216090.576,30.762,28.320,18.555,36.621,184.570
1532216090.580,30.762,27.832,21.484,32.227,96.680
1532216090.584,28.320,26.855,22.949,34.668,-69.824
1532216090.588,27.832,26.367,25.879,37.109,-16.113
1532216090.592,30.273,27.832,21.973,37.598,157.227
1532216090.596,35.645,28.320,20.996,42.480,122.070
1532216090.600,43.457,30.273,26.367,41.992,-92.285
1532216090.604,38.574,33.691,29.297,39.062,-90.332
1532216090.608,26.855,33.691,25.391,37.109,111.328
1532216090.612,27.344,36.621,23.438,28.320,157.715
1532216090.615,25.391,35.645,27.344,23.438,-10.742
1532216090.619,24.902,31.738,24.902,22.461,-92.773
1532216090.623,24.902,33.203,23.926,23.438,51.758
1532216090.627,19.531,32.715,30.762,18.555,145.020
1532216090.631,17.090,29.785,31.738,13.184,-2.930
1532216090.635,14.160,29.297,29.785,16.113,-123.535
1532216090.639,16.602,32.227,29.297,16.602,16.113
1532216090.643,14.160,31.738,27.344,9.277,173.828
1532216090.647,13.184,32.715,27.832,7.324,60.547
1532216090.651,12.695,36.133,32.227,5.859,-126.465
1532216090.655,13.184,35.645,34.180,3.418,-45.410
1532216090.658,21.973,36.621,32.715,8.789,151.855
1532216090.662,19.531,36.621,32.715,18.555,119.629
1532216090.666,18.555,32.227,37.598,19.043,-111.816
1532216090.670,14.648,31.738,39.551,16.113,-96.680
1532216090.674,10.742,30.273,39.551,13.184,128.418
1532216090.678,13.672,34.668,36.621,3.906,162.109
1532216090.682,10.254,43.457,33.203,3.906,-7.812
1532216090.686,6.836,41.992,34.668,4.883,-92.773
1532216090.690,5.371,38.574,36.621,4.395,57.129
1532216090.694,3.418,38.574,40.527,5.859,178.711
1532216090.697,9.766,41.016,40.039,9.766,32.227
1532216090.701,28.320,42.480,37.598,10.742,-133.789
1532216090.705,20.508,40.527,38.574,7.324,-30.762
1532216090.709,0.977,35.645,42.969,7.324,125.000
1532216090.713,8.789,28.809,45.410,13.184,79.590
1532216090.717,19.531,31.250,38.574,23.438,-115.723
1532216090.721,19.043,35.156,35.645,17.090,-68.848
1532216090.725,21.484,34.180,39.551,10.254,122.559
1532216090.729,22.461,37.109,36.133,13.672,108.887
1532216090.733,24.414,42.969,27.344,3.906,-54.199
1532216090.737,21.484,42.969,28.809,-7.324,-86.426
1532216090.740,18.555,40.527,31.738,-3.418,109.863
1532216090.744,16.602,38.574,29.785,3.906,169.434
1532216090.748,10.742,36.621,34.180,5.371,-26.855
1532216090.752,19.043,36.133,35.645,10.742,-143.555
1532216090.756,26.855,35.156,32.227,18.066,37.598
1532216090.760,26.855,34.180,30.273,18.555,162.598
1532216090.764,22.461,34.180,31.250,12.695,16.602
1532216090.768,25.391,34.180,33.691,14.160,-154.785
1532216090.772,30.273,33.203,34.180,25.879,-48.828
1532216090.776,36.133,31.738,31.738,31.250,155.762
1532216090.779,41.992,31.738,27.832,30.762,88.867
1532216090.783,37.109,31.250,28.320,26.855,-94.727
1532216090.787,27.832,27.344,31.250,25.879,-55.176
1532216090.791,31.250,25.391,30.273,26.367,131.836
1532216090.795,32.715,25.391,29.785,27.832,137.207
1532216090.799,32.715,27.344,27.832,28.320,-50.293
1532216090.803,35.156,29.297,25.879,26.855,-108.887
1532216090.807,34.180,27.832,24.902,22.461,52.246
1532216090.811,33.691,25.879,22.461,20.020,143.555
1532216090.815,37.109,26.367,21.484,30.273,-16.113
1532216090.819,40.039,24.902,22.461,31.250,-133.789
1532216090.822,44.434,22.949,21.484,39.551,42.969
1532216090.826,48.828,20.996,22.461,47.852,185.059
1532216090.830,50.293,22.461,24.902,41.504,67.871
1532216090.834,51.758,23.438,24.414,38.574,-92.773
1532216090.838,49.805,22.949,23.926,39.062,-15.137
1532216090.842,47.363,25.879,24.414,46.875,174.316
1532216090.846,56.152,26.855,24.414,44.922,104.492
1532216090.850,57.617,25.391,24.902,35.156,-107.910
1532216090.854,54.199,26.367,21.484,44.922,-73.730
1532216090.858,57.129,26.367,20.020,48.828,130.859
1532216090.862,61.035,25.391,20.996,49.805,165.039
1532216090.865,60.059,26.855,21.973,48.340,-46.875
1532216090.869,53.223,24.902,24.414,53.223,-114.258
1532216090.873,51.270,26.367,24.902,58.105,73.730
1532216090.877,52.246,28.809,23.438,47.852,187.988
1532216090.881,50.781,25.879,22.461,46.387,59.082
1532216090.885,55.176,24.902,22.949,53.223,-122.070
1532216090.889,53.711,24.902,23.438,47.852,-2.441
1532216090.893,53.223,21.973,21.484,40.527,162.598
1532216090.897,57.129,22.461,22.461,41.992,51.758
1532216090.901,54.688,23.438,22.949,45.410,-121.094
1532216090.904,60.059,21.484,20.996,41.992,-60.547
1532216090.908,64.941,24.414,21.484,40.527,105.957
1532216090.912,57.129,24.902,22.461,49.316,98.633
1532216090.916,55.664,25.879,23.438,54.688,-64.941
1532216090.920,56.641,28.320,24.414,52.246,-63.965
1532216090.924,54.199,26.855,21.973,53.223,101.074
1532216090.928,54.688,26.855,21.973,52.734,144.531
1532216090.932,61.035,24.902,25.879,52.246,-14.648
1532216090.936,56.641,23.438,28.809,51.270,-136.230
1532216090.940,43.945,25.879,24.902,46.875,46.875
1532216090.944,47.363,26.367,21.484,40.527,198.242
1532216090.947,44.922,27.832,23.438,32.227,21.484
1532216090.951,36.133,31.738,20.996,26.367,-148.438
1532216090.955,41.016,33.691,22.461,27.832,-1.953
1532216090.959,40.527,32.227,24.902,30.273,168.945
1532216090.963,38.086,29.785,20.996,29.785,90.820
1532216090.967,37.109,30.273,20.020,26.367,-111.816
1532216090.971,38.086,32.227,20.020,29.785,-56.641
1532216090.975,43.945,34.668,21.484,38.086,139.160
1532216090.979,51.270,34.180,24.902,35.156,131.348
1532216090.983,43.945,33.203,23.926,31.738,-51.758
1532216090.987,37.598,32.227,22.949,28.809,-125.000
1532216090.990,41.016,31.738,24.902,24.902,56.152
1532216090.994,41.992,28.809,22.949,31.250,136.719
1532216090.998,47.363,28.320,22.949,37.109,-28.320
1532216091.002,50.293,30.762,22.949,37.109,-107.422
1532216091.006,57.129,29.785,20.508,38.086,50.293
1532216091.010,59.082,31.738,20.020,43.457,161.621
1532216091.014,54.199,31.738,21.484,42.969,32.715
1532216091.018,52.734,29.785,20.508,40.527,-100.586
1532216091.022,49.805,30.762,19.531,41.504,22.949
1532216091.026,42.969,31.250,22.949,40.039,170.410
1532216091.029,41.504,30.273,22.949,37.109,108.887
1532216091.033,46.875,30.273,24.902,37.598,-73.730
1532216091.037,50.293,31.250,29.297,40.039,-30.273
1532216091.041,49.316,31.250,26.855,43.457,170.898
1532216091.045,45.898,28.809,26.855,43.457,142.578
1532216091.049,42.969,28.809,29.297,44.434,-70.801
1532216091.053,44.434,27.832,28.809,47.363,-91.309
1532216091.057,45.898,26.855,28.809,46.875,89.355
1532216091.061,45.898,27.832,29.297,47.852,188.965
1532216091.065,46.387,30.762,29.297,44.922,16.602
1532216091.069,50.781,32.227,28.320,41.016,-106.934
1532216091.072,47.852,28.320,28.809,41.016,41.504
1532216091.076,41.992,28.320,26.367,39.551,145.508
1532216091.080,40.039,29.785,24.414,41.504,59.082
1532216091.084,39.551,27.832,23.438,43.945,-95.703
1532216091.088,45.898,28.809,26.367,44.434,-60.059
1532216091.092,44.922,31.250,31.250,49.316,154.297
1532216091.096,40.527,32.715,28.320,47.363,126.465
1532216091.100,40.527,30.273,22.949,39.062,-84.961
1532216091.104,38.086,26.367,24.414,39.551,-88.867
1532216091.108,34.668,24.414,24.902,38.574,87.402
1532216091.111,38.574,26.855,23.926,35.156,153.809
1532216091.115,38.574,28.320,23.926,34.668,-36.133
1532216091.119,38.574,27.344,23.438,40.527,-140.625
1532216091.123,40.527,28.320,22.949,41.504,44.922
1532216091.127,35.156,30.762,20.508,22.949,145.508
1532216091.131,39.551,29.297,19.531,17.090,-4.395
1532216091.135,39.062,28.809,19.043,31.250,-123.535
1532216091.139,29.785,30.762,19.043,34.668,28.809
1532216091.143,39.062,30.273,20.508,37.109,181.641
1532216091.147,39.551,30.273,18.555,35.645,75.195
1532216091.151,31.738,31.250,19.531,31.250,-97.168
1532216091.154,33.691,30.762,26.367,31.738,-36.133
1532216091.158,42.480,32.227,26.367,35.156,138.672
1532216091.162,41.992,32.227,26.855,33.203,121.094
1532216091.166,35.156,32.227,27.832,32.715,-83.496
1532216091.170,33.691,34.180,21.484,29.297,-104.492
1532216091.174,35.645,34.180,18.555,20.996,113.281
1532216091.178,38.574,31.738,19.531,18.066,187.988
1532216091.182,41.504,32.227,20.020,19.531,-2.930
1532216091.186,47.852,34.668,18.066,18.066,-132.324
1532216091.190,55.664,38.086,18.555,20.508,22.949
1532216091.194,67.871,37.598,21.973,28.320,151.855
1532216091.197,68.848,34.180,26.367,34.180,51.270
1532216091.201,52.246,33.203,28.320,37.598,-90.332
1532216091.205,41.992,34.180,25.879,41.016,9.766
1532216091.209,36.133,32.715,27.832,43.945,181.641
1532216091.213,39.062,32.715,32.715,49.316,95.215
1532216091.217,44.922,36.621,34.180,55.176,-113.281
1532216091.221,42.480,37.598,30.762,51.758,-64.941
1532216091.225,43.457,37.598,28.320,55.176,127.930
1532216091.229,41.992,35.156,28.809,57.617,104.492
1532216091.233,42.480,34.668,32.227,54.688,-75.684
1532216091.236,44.922,39.062,32.715,50.781,-86.426
1532216091.240,45.410,41.992,32.227,51.270,90.820
1532216091.244,54.688,40.039,38.086,49.805,129.395
1532216091.248,51.270,41.504,36.621,46.875,-21.484
1532216091.252,40.527,40.039,32.715,47.363,-108.398
1532216091.256,39.062,37.598,33.203,43.945,51.758
1532216091.260,39.551,36.621,31.738,50.293,185.547
1532216091.264,40.039,36.133,32.715,51.270,64.941
1532216091.268,41.992,36.621,34.180,39.551,-110.840
1532216091.272,48.340,35.156,32.715,48.340,-10.254
1532216091.276,46.875,33.691,32.227,52.734,157.227
1532216091.279,41.504,34.180,32.227,43.457,87.402
1532216091.283,41.016,37.109,29.297,43.945,-85.938
1532216091.287,43.945,36.621,29.785,45.898,-62.012
1532216091.291,49.316,34.180,32.227,45.898,145.508
1532216091.295,47.852,36.133,30.762,46.875,156.250
1532216091.299,45.898,32.715,27.344,47.363,-40.039
1532216091.303,41.504,29.297,26.855,46.875,-74.707
1532216091.307,33.691,28.320,25.879,49.316,108.887
1532216091.311,34.668,28.320,30.273,47.363,172.852
1532216091.315,36.133,29.297,34.180,41.016,18.066
1532216091.319,40.039,30.273,31.738,42.480,-89.355
1532216091.322,46.387,32.715,33.203,51.270,41.992
1532216091.326,49.316,34.180,33.691,50.293,177.734
1532216091.330,52.734,34.668,30.762,49.316,72.754
1532216091.334,57.129,34.668,32.715,54.688,-88.867
1532216091.338,50.293,33.203,33.691,52.246,-13.672
1532216091.342,44.434,33.691,30.273,52.734,135.742
1532216091.346,45.410,36.621,29.785,48.828,106.934
1532216091.350,41.504,35.645,29.785,41.992,-57.617
1532216091.354,43.457,34.668,26.367,39.551,-35.156
1532216091.358,45.410,34.668,23.926,35.645,122.070
1532216091.361,46.875,34.668,25.391,36.621,143.555
1532216091.365,44.922,36.621,25.879,37.598,-44.434
1532216091.369,44.922,34.668,26.367,33.691,-140.625
1532216091.373,44.434,32.715,25.879,39.062,65.918
1532216091.377,41.504,35.645,23.438,42.969,139.160
1532216091.381,40.039,35.645,20.996,40.039,-21.973
1532216091.385,35.645,33.691,21.484,34.668,-134.766
1532216091.389,30.273,32.227,21.484,32.227,-1.953
1532216091.393,31.738,29.785,22.949,31.738,187.500
1532216091.397,34.668,31.250,23.438,33.691,92.285
1532216091.401,43.457,32.227,20.020,29.785,-110.352
1532216091.404,46.875,29.785,18.555,20.508,-38.574
1532216091.408,39.062,31.738,20.508,15.137,121.582
1532216091.412,38.574,32.715,21.484,21.973,92.773
1532216091.416,45.898,32.715,20.996,30.273,-84.473
1532216091.420,51.270,30.762,19.043,33.691,-85.449
1532216091.424,51.270,31.250,19.531,32.227,111.328
1532216091.428,51.270,33.203,22.461,32.715,154.297
1532216091.432,48.828,34.668,23.926,38.574,-5.859
1532216091.436,44.434,36.621,24.902,38.086,-65.918
1532216091.440,41.016,32.715,27.344,34.668,75.684
1532216091.444,39.062,32.715,28.809,35.645,153.809
1532216091.447,44.434,33.203,24.902,35.645,32.715
1532216091.451,45.410,30.762,25.879,32.227,-110.840
1532216091.455,36.621,30.273,25.879,31.738,31.250
1532216091.459,38.574,33.203,23.926,32.227,209.961
1532216091.463,37.598,35.645,25.879,30.273,90.820
1532216091.467,32.715,33.203,24.414,19.531,-125.000
1532216091.471,36.621,33.203,21.484,19.043,-71.289
1532216091.475,34.180,31.738,22.461,23.438,150.391
1532216091.479,36.621,32.715,24.414,27.344,147.461
1532216091.483,42.480,35.645,26.855,32.715,-55.176
1532216091.486,39.551,33.691,28.809,30.273,-84.473
1532216091.490,39.062,32.715,27.832,32.227,95.215
1532216091.494,46.875,33.203,29.297,35.156,178.711
1532216091.498,42.969,32.227,29.785,39.551,12.207
1532216091.502,35.156,31.738,26.855,43.945,-134.277
1532216091.506,36.621,32.715,25.879,38.086,1.953
1532216091.510,40.527,34.180,28.809,39.062,143.066
1532216091.514,39.551,31.738,26.855,41.016,38.574
1532216091.518,35.156,29.297,24.902,36.621,-126.953
1532216091.522,37.598,29.785,24.414,35.156,-8.301
1532216091.526,35.645,30.273,22.949,35.156,163.574
1532216091.529,33.691,29.297,22.461,37.109,103.027
1532216091.533,37.598,27.832,23.926,40.527,-82.031
1532216091.537,36.133,26.367,23.438,41.504,-66.895
1532216091.541,34.668,24.902,24.902,42.480,129.883
1532216091.545,35.156,25.879,26.855,36.621,131.836
1532216091.549,30.762,30.273,26.367,27.832,-63.477
1532216091.553,31.250,31.250,25.391,33.691,-104.492
1532216091.557,30.273,29.297,24.902,38.574,99.609
1532216091.561,34.180,30.273,22.949,33.691,179.688
1532216091.565,38.086,30.273,20.508,28.809,-2.930
1532216091.568,32.227,27.344,19.043,27.832,-140.137
1532216091.572,28.320,26.367,20.996,30.273,20.996
1532216091.576,26.367,27.344,21.973,31.250,200.195
1532216091.580,33.691,26.855,21.484,33.203,87.891
1532216091.584,33.203,25.879,20.996,31.738,-82.520
1532216091.588,25.391,26.367,22.949,28.809,-4.883
1532216091.592,27.344,27.344,23.926,32.715,153.809
1532216091.596,34.180,28.320,24.902,36.621,97.168
1532216091.600,37.109,28.320,26.855,35.645,-94.727
1532216091.604,39.551,29.297,24.414,35.645,-81.055
1532216091.608,43.457,29.297,24.414,35.645,104.980
1532216091.611,51.758,28.809,26.367,36.133,123.535
1532216091.615,50.781,28.809,22.461,36.133,-52.246
1532216091.619,39.551,28.809,22.461,35.645,-96.680
1532216091.623,34.668,29.297,21.973,35.645,85.938
1532216091.627,37.109,28.320,23.926,35.645,154.297
1532216091.631,40.039,26.855,26.855,38.086,14.160
1532216091.635,35.156,23.438,28.809,38.086,-115.723
1532216091.639,23.438,22.949,28.320,38.086,6.836
1532216091.643,24.902,24.414,26.367,43.457,150.391
1532216091.647,32.227,27.344,29.297,41.992,48.828
1532216091.651,34.668,27.344,32.715,44.922,-123.047
1532216091.654,39.062,26.855,31.738,58.105,-55.664
1532216091.658,48.828,26.855,31.250,54.199,137.207
1532216091.662,54.688,26.855,29.785,45.898,136.230
1532216091.666,49.316,30.273,27.344,48.340,-68.359
1532216091.670,53.223,36.621,25.391,50.293,-79.102
1532216091.674,54.688,36.621,23.438,50.781,135.254
1532216091.678,51.758,30.762,23.926,53.223,173.828
1532216091.682,53.223,31.250,23.438,50.781,-34.180
1532216091.686,53.711,29.785,25.391,42.480,-133.789
1532216091.690,52.246,25.879,27.344,42.480,43.945
1532216091.693,38.574,24.414,26.855,43.457,179.688
1532216091.697,27.832,25.391,27.344,42.480,54.688
1532216091.701,30.762,25.391,29.297,44.434,-92.285
1532216091.705,27.344,23.926,30.762,39.551,15.137
1532216091.709,28.809,25.391,33.691,41.992,157.227
1532216091.713,34.668,29.297,35.156,52.246,58.594
1532216091.717,37.598,33.203,32.227,49.316,-109.863
1532216091.721,26.855,30.273,25.391,45.898,-30.273
1532216091.725,24.414,29.785,24.414,41.504,128.906
1532216091.729,37.598,34.668,24.414,41.504,100.098
1532216091.733,41.504,38.086,20.996,46.387,-65.918
1532216091.736,47.852,41.016,20.508,38.086,-75.195
1532216091.740,46.387,40.039,19.043,32.227,123.535
1532216091.744,45.410,38.574,18.555,29.297,165.527
1532216091.748,48.828,38.086,18.555,14.160,-11.719
1532216091.752,41.504,37.109,19.043,16.602,-89.844
1532216091.756,38.086,36.621,23.438,30.762,81.055
1532216091.760,37.109,28.809,26.855,29.297,198.242
1532216091.764,36.133,24.902,27.832,29.297,36.621
1532216091.768,41.016,25.879,28.809,41.504,-105.957
1532216091.772,39.551,26.367,28.809,50.293,5.859
1532216091.776,31.738,26.367,31.250,49.805,158.203
1532216091.779,26.855,25.391,33.203,51.758,76.172
1532216091.783,26.855,23.926,33.203,53.223,-110.840
1532216091.787,23.926,23.926,30.273,45.410,-46.875
1532216091.791,23.438,24.414,31.738,41.016,140.625
1532216091.795,25.879,23.438,32.227,41.504,134.277
1532216091.799,20.996,24.902,27.344,37.598,-63.965
1532216091.803,17.090,26.367,27.344,34.668,-104.492
1532216091.807,12.207,27.344,25.391,23.926,78.125
1532216091.811,10.742,27.832,23.438,14.648,137.695
1532216091.815,11.719,28.809,23.926,16.113,-17.578
1532216091.818,13.672,28.809,20.508,15.625,-123.047
1532216091.822,20.996,32.227,21.973,18.066,25.391
1532216091.826,24.902,33.203,23.926,19.043,166.992
1532216091.830,30.273,31.738,26.367,18.555,49.316
1532216091.834,34.180,33.691,28.320,23.438,-126.465
1532216091.838,33.203,32.715,27.344,32.715,-30.273
1532216091.842,33.691,29.785,26.855,33.691,155.762
1532216091.846,38.574,29.785,27.344,24.902,94.238
1532216091.850,40.527,32.227,30.273,18.555,-104.980
1532216091.854,37.598,34.668,28.320,25.879,-70.801
1532216091.858,37.598,34.668,28.320,31.738,115.234
1532216091.861,43.945,34.668,31.738,36.621,133.301
1532216091.865,47.852,34.668,30.762,29.297,-35.156
1532216091.869,36.621,36.621,27.832,17.578,-96.191
1532216091.873,30.273,37.598,24.414,21.973,76.660
1532216091.877,35.156,37.598,21.484,28.320,137.207
1532216091.881,36.621,38.574,24.902,27.344,-10.254
1532216091.885,37.109,36.621,24.902,21.973,-119.629
1532216091.889,41.992,36.133,23.926,20.996,0.488
1532216091.893,33.203,33.691,24.414,26.367,163.086
1532216091.897,28.320,33.203,23.438,29.297,96.191
1532216091.900,31.738,34.668,25.879,32.715,-90.820
1532216091.904,34.668,33.203,26.855,34.668,-52.246
1532216091.908,33.203,33.203,24.902,32.227,149.414
1532216091.912,26.367,32.715,26.855,28.809,125.000
1532216091.916,25.879,31.250,25.879,22.949,-80.566
1532216091.920,30.273,31.738,27.832,29.785,-73.730
1532216091.924,31.250,35.156,27.832,36.133,105.469
1532216091.928,37.598,37.598,27.344,27.832,120.117
1532216091.932,39.062,36.133,28.320,32.715,-23.926
1532216091.936,30.762,35.645,25.879,36.133,-85.938
1532216091.940,28.809,34.668,24.414,29.297,79.102
1532216091.943,38.086,32.715,22.949,30.273,192.383
1532216091.947,38.086,33.203,25.879,33.203,33.203
1532216091.951,32.715,35.156,26.855,31.738,-118.652
1532216091.955,33.203,33.203,23.926,32.227,21.484
1532216091.959,33.203,30.273,22.461,35.645,189.941
1532216091.963,35.156,30.273,24.902,29.297,102.051
1532216091.967,36.621,30.273,29.785,26.367,-106.934
1532216091.971,32.715,30.762,29.297,29.785,-56.152
1532216091.975,32.227,32.227,31.250,34.180,152.832
1532216091.979,33.203,31.738,33.203,30.762,161.621
1532216091.983,32.227,30.273,32.715,28.320,-46.875
1532216091.986,31.250,30.762,30.762,32.227,-92.773
1532216091.990,30.273,27.832,28.320,30.762,123.047
1532216091.994,31.738,25.879,29.297,36.133,166.504
1532216091.998,37.598,25.391,28.809,42.969,-31.250
1532216092.002,39.551,27.832,30.762,36.133,-127.930
1532216092.006,32.715,29.785,32.227,35.645,27.344
1532216092.010,34.668,28.320,32.715,36.621,154.297
1532216092.014,36.621,27.832,36.621,34.668,42.480
1532216092.018,31.250,29.297,34.180,35.156,-130.859
1532216092.022,28.809,29.785,31.250,38.574,5.371
1532216092.025,30.273,30.762,33.691,36.621,167.480
1532216092.029,35.156,31.250,33.203,30.273,34.668
1532216092.033,27.832,28.320,31.738,31.738,-115.234
1532216092.037,16.602,27.832,33.203,36.133,-40.527
1532216092.041,23.438,30.273,32.227,35.645,145.996
1532216092.045,27.832,33.691,32.227,38.574,149.902
1532216092.049,24.902,32.227,33.691,42.969,-57.129
1532216092.053,28.320,32.227,32.227,38.086,-101.562
1532216092.057,31.738,33.203,31.738,37.109,83.008
1532216092.061,27.344,33.691,34.180,40.039,150.391
1532216092.065,29.785,34.668,34.180,40.527,-22.949
1532216092.068,33.691,36.133,30.762,30.762,-163.086
1532216092.072,29.297,31.250,30.762,29.785,14.648
1532216092.076,34.180,28.809,29.297,31.250,148.438
1532216092.080,39.551,35.156,30.273,28.809,16.602
1532216092.084,36.133,36.621,28.809,32.715,-132.812
1532216092.088,37.598,35.645,26.367,39.551,-47.363
1532216092.092,40.527,36.621,28.320,42.969,146.973
1532216092.096,43.457,35.645,26.855,39.551,83.496
1532216092.100,42.969,36.133,28.809,36.621,-129.883
1532216092.104,37.109,35.645,27.832,30.273,-94.727
1532216092.108,40.039,33.691,25.879,33.691,104.492
1532216092.111,47.363,37.598,28.809,41.504,124.512
1532216092.115,50.293,40.039,31.738,39.551,-41.504
1532216092.119,39.551,37.109,33.691,33.203,-91.797
1532216092.123,40.527,36.621,35.156,28.320,96.680
1532216092.127,48.340,39.551,33.691,24.414,182.129
1532216092.131,43.945,40.527,32.715,20.020,11.230
1532216092.135,43.945,38.574,34.668,17.578,-122.070
1532216092.139,46.387,38.086,37.109,24.902,19.043
1532216092.143,46.387,37.109,36.133,37.109,183.105
1532216092.147,37.109,38.574,37.598,30.273,81.055
1532216092.150,19.043,39.551,39.062,21.484,-106.445
1532216092.154,14.648,36.621,37.598,30.762,-57.129
1532216092.158,21.484,35.156,39.551,39.062,143.066
1532216092.162,20.508,35.156,41.016,33.691,153.320
1532216092.166,9.766,36.621,42.969,22.461,-64.453
1532216092.170,7.812,36.621,44.434,11.719,-110.840
1532216092.174,0.000,35.645,43.457,12.207,98.145
1532216092.178,-8.301,35.645,42.480,13.672,137.207
1532216092.182,-5.859,34.668,41.992,9.277,-44.922
1532216092.186,-4.395,34.180,44.922,9.277,-112.793
1532216092.190,0.977,34.180,43.945,14.648,65.430
1532216092.193,3.418,34.180,42.969,17.578,171.875
1532216092.197,6.348,32.227,42.480,19.531,46.387
1532216092.201,16.602,30.762,39.551,18.555,-92.773
1532216092.205,18.066,32.715,39.062,12.695,1.953
1532216092.209,12.207,32.715,40.527,12.695,173.340
1532216092.213,16.113,31.250,39.551,15.625,101.074
1532216092.217,18.066,32.227,38.086,17.578,-88.379
1532216092.221,18.066,31.250,40.039,19.531,-29.785
1532216092.225,14.648,30.762,39.062,18.555,148.438
1532216092.229,14.160,30.273,40.039,16.602,109.375
1532216092.232,16.113,27.832,41.504,20.020,-86.426
1532216092.236,24.902,25.879,41.016,25.879,-91.797
1532216092.240,33.691,26.367,40.527,36.621,101.562
1532216092.244,22.949,28.809,40.039,32.715,162.598
1532216092.248,20.020,28.320,38.086,23.438,-31.738
1532216092.252,22.461,26.855,37.109,24.902,-122.070
1532216092.256,20.508,25.391,36.133,24.902,53.223
1532216092.260,22.461,25.879,34.668,22.949,178.711
1532216092.264,23.926,28.320,35.645,22.949,40.039
1532216092.268,25.391,29.297,33.691,16.113,-138.672
1532216092.272,24.902,28.809,32.715,12.695,-21.484
1532216092.275,23.926,29.785,34.180,16.113,170.898
1532216092.279,30.762,30.273,34.668,22.949,91.309
1532216092.283,31.250,26.855,37.109,30.273,-104.492
1532216092.287,31.738,26.367,38.086,34.668,-71.777
1532216092.291,27.832,26.367,36.621,35.645,122.070
1532216092.295,21.484,24.414,35.156,28.320,138.184
1532216092.299,22.949,23.926,35.156,25.391,-67.383
1532216092.303,23.926,22.461,37.598,26.855,-99.609
1532216092.307,20.020,25.391,34.668,22.461,71.777
1532216092.311,23.438,28.320,33.691,21.484,131.836
1532216092.315,28.809,26.367,32.715,32.227,-19.043
1532216092.318,34.668,26.855,31.250,37.598,-100.586
1532216092.322,38.086,30.273,31.250,40.039,68.848
1532216092.326,34.180,32.227,31.738,41.504,170.898
1532216092.330,40.527,30.762,33.203,37.109,65.918
1532216092.334,43.945,30.762,31.250,37.109,-75.684
1532216092.338,43.945,33.203,33.203,41.992,-16.602
1532216092.342,46.387,31.738,32.715,43.457,167.969
1532216092.346,41.992,29.297,32.227,41.992,115.723
1532216092.350,42.969,30.273,33.203,38.086,-116.211
1532216092.354,41.504,32.715,31.250,37.598,-86.426
1532216092.357,37.598,32.715,29.297,40.527,135.254
1532216092.361,41.992,35.645,28.809,40.039,177.246
1532216092.365,45.410,37.109,28.809,37.109,-11.230
1532216092.369,41.504,36.621,30.273,39.062,-70.312
1532216092.373,32.715,38.574,31.738,38.574,75.195
1532216092.377,29.297,38.086,30.762,34.180,135.254
1532216092.381,27.344,36.133,31.738,30.273,-9.277
1532216092.385,22.461,36.621,32.715,27.344,-131.348
1532216092.389,21.484,38.574,31.250,24.902,18.066
1532216092.393,20.020,38.086,34.180,24.414,163.574
1532216092.397,24.902,39.062,35.156,23.438,41.992
1532216092.400,31.250,39.551,33.691,20.508,-127.930
1532216092.404,26.855,39.062,35.645,20.996,-55.176
1532216092.408,25.879,39.062,38.086,20.508,102.051
1532216092.412,31.250,37.598,38.086,28.809,85.938
1532216092.416,30.273,39.551,39.551,30.762,-93.750
1532216092.420,18.555,43.945,37.109,20.996,-89.355
1532216092.424,16.113,47.363,36.133,15.137,121.582
1532216092.428,11.230,48.340,37.598,3.418,155.273
1532216092.432,-3.418,47.363,39.062,2.930,-21.973
1532216092.436,-2.441,45.410,43.945,7.812,-100.586
1532216092.440,2.930,44.434,43.945,9.766,77.637
1532216092.443,2.441,42.969,42.969,8.789,162.598
1532216092.447,-7.324,39.551,46.387,-5.859,-18.555
1532216092.451,-24.414,34.668,50.781,-7.324,-122.559
1532216092.455,-22.949,33.203,52.734,5.859,17.090
1532216092.459,-23.438,38.086,45.410,-1.953,174.316
1532216092.463,-22.461,46.875,40.039,-11.230,110.840
1532216092.467,-15.137,49.805,38.574,-17.578,-111.328
1532216092.471,-18.066,45.410,38.086,-18.555,-65.918
1532216092.475,-15.625,47.363,39.551,-13.672,150.391
1532216092.479,-17.578,48.340,35.645,-11.230,146.484
1532216092.482,-20.020,43.945,35.645,-16.113,-58.594
1532216092.486,-15.137,41.992,39.062,-14.160,-117.188
1532216092.490,-9.766,39.062,41.992,-7.324,71.289
1532216092.494,-8.301,39.062,46.875,-8.789,141.602
1532216092.498,-14.160,40.039,47.363,-9.277,-29.297
1532216092.502,-9.766,39.062,46.875,-9.277,-105.957
1532216092.506,-9.766,39.551,44.922,-7.324,48.828
1532216092.510,-15.137,41.992,41.016,-4.395,179.688
1532216092.514,-10.254,41.992,41.016,-5.371,63.965
1532216092.518,-14.160,40.527,40.039,-3.418,-110.840
1532216092.522,-12.695,38.574,38.086,-2.930,-1.953
1532216092.525,-7.324,39.062,37.598,-2.441,160.156
1532216092.529,-2.930,40.039,37.598,-9.277,94.238
1532216092.533,-16.113,39.551,39.062,-15.625,-108.887
1532216092.537,-25.879,38.086,36.621,-16.602,-70.801
1532216092.541,-16.602,35.156,35.645,-11.719,119.141
1532216092.545,-6.348,31.738,40.039,-0.488,127.930
1532216092.549,-3.906,32.715,40.039,-4.883,-49.805
1532216092.553,0.488,36.621,38.086,-0.977,-114.258
1532216092.557,1.465,37.598,39.062,2.930,100.586
1532216092.561,-1.953,37.598,38.086,3.906,188.477
1532216092.565,2.441,36.621,38.086,11.230,3.418
1532216092.568,4.395,37.598,38.086,15.625,-118.652
1532216092.572,5.371,36.621,37.598,13.672,54.688
1532216092.576,6.836,36.621,39.551,12.695,177.734
1532216092.580,8.301,37.598,39.062,16.113,52.734
1532216092.584,6.348,34.180,39.062,14.648,-114.746
1532216092.588,13.672,32.715,38.574,5.859,-46.875
1532216092.592,18.555,32.227,37.109,13.184,140.137
1532216092.596,16.602,33.203,38.086,26.367,123.047
1532216092.600,18.066,31.738,36.621,21.973,-76.172
1532216092.604,10.742,30.273,34.180,20.508,-87.402
1532216092.607,18.066,31.250,34.180,29.297,126.953
1532216092.611,24.902,30.273,36.621,28.320,156.738
1532216092.615,30.273,30.273,37.109,24.902,-28.809
1532216092.619,28.809,31.250,35.645,27.832,-109.863
1532216092.623,25.879,35.156,33.691,27.832,79.102
1532216092.627,39.551,38.574,33.203,27.832,178.223
1532216092.631,31.738,35.645,36.133,22.949,24.902
1532216092.635,15.625,32.227,38.086,26.855,-97.656
1532216092.639,26.855,31.738,34.180,33.203,30.762
1532216092.643,36.621,31.250,33.691,34.180,180.176
1532216092.647,27.344,28.809,34.668,35.645,87.891
1532216092.650,23.926,28.809,36.133,33.203,-80.078
1532216092.654,34.668,33.203,35.156,34.180,7.812
1532216092.658,31.738,35.645,32.715,27.832,162.598
1532216092.662,23.926,34.180,35.645,19.531,138.672
1532216092.666,19.043,34.668,37.598,17.578,-66.406
1532216092.670,16.602,34.668,35.156,20.020,-83.008
1532216092.674,20.508,33.691,35.156,32.227,150.391
1532216092.678,27.832,33.203,39.062,33.203,171.387
1532216092.682,32.715,32.227,39.062,31.738,-33.691
1532216092.686,30.762,32.715,34.668,26.367,-135.254
1532216092.689,30.762,31.738,30.762,22.949,38.086
1532216092.693,37.109,30.762,32.227,29.785,137.207
1532216092.697,41.016,31.250,33.203,25.879,3.418
1532216092.701,32.227,33.203,31.738,17.090,-109.863
1532216092.705,22.949,30.273,36.133,25.391,22.949
1532216092.709,22.461,26.855,36.621,24.414,169.434
1532216092.713,24.902,26.855,33.691,21.973,69.336
1532216092.717,24.414,26.855,32.227,27.832,-99.121
1532216092.721,21.484,26.855,32.227,28.320,-33.691
1532216092.725,27.344,27.832,35.645,29.785,138.184
1532216092.729,39.062,26.855,38.086,33.203,98.633
1532216092.732,47.363,25.879,36.621,38.086,-85.938
1532216092.736,47.363,29.785,30.762,35.156,-90.332
1532216092.740,36.621,33.691,25.879,24.902,93.750
1532216092.744,28.320,28.809,26.855,14.160,145.020
1532216092.748,33.691,24.414,27.344,12.695,-33.691
1532216092.752,32.715,29.297,27.832,20.508,-117.676
1532216092.756,30.762,30.273,31.738,20.508,60.547
1532216092.760,28.320,30.273,34.668,20.020,148.926
1532216092.764,23.926,30.273,36.133,20.996,20.508
1532216092.768,31.250,27.344,37.109,15.625,-121.094
1532216092.772,29.297,28.809,37.109,19.043,-13.672
1532216092.775,28.320,29.785,35.645,30.762,172.852
1532216092.779,32.715,30.762,36.133,25.879,105.957
1532216092.783,32.715,30.273,36.133,18.066,-100.098
1532216092.787,29.785,29.297,32.715,20.508,-85.938
1532216092.791,26.367,29.785,32.227,20.020,108.398
1532216092.795,25.391,29.297,28.809,14.160,153.320
1532216092.799,25.879,27.832,29.297,17.090,-22.461
1532216092.803,34.668,26.367,29.785,22.461,-72.266
1532216092.807,37.109,31.250,25.391,20.020,91.309
1532216092.811,29.785,33.691,24.902,21.484,168.457
1532216092.814,30.762,33.203,27.832,20.508,13.184
1532216092.818,44.434,30.762,26.855,21.973,-115.723
1532216092.822,47.852,29.297,26.367,26.855,46.387
1532216092.826,41.504,25.879,29.785,26.855,155.762
1532216092.830,44.434,25.391,32.227,36.621,19.043
1532216092.834,55.176,28.320,31.738,49.805,-128.418
1532216092.838,57.617,31.250,28.320,46.875,-17.578
1532216092.842,52.246,32.227,28.320,40.527,153.809
1532216092.846,50.293,29.785,27.344,35.645,122.070
1532216092.850,47.363,31.250,22.949,30.762,-75.195
1532216092.854,43.945,31.250,24.902,28.320,-79.102
1532216092.857,41.992,33.203,25.391,32.715,124.512
1532216092.861,57.129,34.668,27.344,36.133,148.926
1532216092.865,49.316,33.203,29.297,36.621,-43.945
1532216092.869,36.621,33.203,26.855,38.086,-127.930
1532216092.873,43.945,33.203,30.273,35.645,67.871
1532216092.877,45.410,35.156,34.668,37.598,195.312
1532216092.881,40.039,36.621,35.156,40.527,22.949
1532216092.885,36.133,35.645,34.668,31.250,-150.391
1532216092.889,38.574,36.621,35.156,27.832,0.488
1532216092.893,43.457,35.645,36.621,34.180,187.988
1532216092.897,49.316,32.227,37.109,35.645,82.031
1532216092.900,45.898,35.645,33.691,41.016,-101.562
1532216092.904,47.363,45.898,24.414,35.645,-33.203
1532216092.908,47.852,50.293,21.484,24.902,135.742
1532216092.912,32.715,46.387,25.879,19.043,129.883
1532216092.916,23.438,43.945,25.391,11.719,-63.477
1532216092.920,26.855,41.992,25.879,12.207,-90.820
1532216092.924,25.391,39.062,33.691,15.137,100.098
1532216092.928,23.926,38.574,35.156,17.090,133.789
1532216092.932,26.367,38.086,36.133,25.391,-22.461
1532216092.936,27.344,36.621,36.621,29.785,-63.965
1532216092.939,23.438,36.133,34.180,22.461,107.910
1532216092.943,22.461,37.598,34.668,22.461,185.547
1532216092.947,26.367,37.598,32.227,33.203,26.367
1532216092.951,29.785,36.133,30.273,38.086,-128.906
1532216092.955,30.273,32.715,32.715,37.109,-12.207
1532216092.959,33.203,33.203,35.645,40.527,169.922
1532216092.963,34.668,32.227,36.133,45.410,107.422
1532216092.967,37.109,27.832,36.621,42.969,-121.582
1532216092.971,42.480,25.879,38.574,44.922,-99.121
1532216092.975,55.176,29.297,35.645,49.805,130.859
1532216092.979,51.758,36.133,28.320,46.387,143.066
1532216092.982,33.691,34.668,28.809,41.016,-82.520
1532216092.986,34.180,33.203,34.668,36.621,-122.559
1532216092.990,39.551,35.156,34.668,37.598,97.168
1532216092.994,40.039,33.203,29.785,37.109,177.246
1532216092.998,40.039,30.273,30.762,41.016,-1.465
1532216093.002,42.969,31.250,27.344,46.875,-101.074
1532216093.006,52.734,34.668,24.414,42.480,49.805
1532216093.010,44.434,35.156,27.832,36.621,158.203
1532216093.014,37.598,33.203,30.273,38.086,51.270
1532216093.018,38.086,32.715,28.320,36.133,-76.660
1532216093.021,34.180,33.691,27.832,33.203,24.902
1532216093.025,42.969,34.180,29.785,28.809,141.602
1532216093.029,38.574,32.715,26.855,29.297,114.746
1532216093.033,33.203,30.762,28.320,34.668,-41.504
1532216093.037,37.598,31.738,29.785,38.086,-41.016
1532216093.041,37.598,32.715,28.809,37.109,139.648
1532216093.045,37.109,33.203,28.320,32.715,129.883
1532216093.049,37.598,33.691,29.297,27.832,-79.102
1532216093.053,47.852,34.668,29.297,31.738,-108.398
1532216093.057,49.316,35.156,28.320,35.645,103.027
1532216093.061,46.875,33.691,32.227,37.598,163.574
1532216093.064,46.387,34.668,36.621,35.156,-7.324
1532216093.068,41.992,33.691,38.574,30.762,-90.332
1532216093.072,44.922,34.180,39.062,35.156,63.965
1532216093.076,50.781,35.645,36.133,29.785,174.805
1532216093.080,53.711,30.273,37.598,28.809,56.641
1532216093.084,53.223,29.785,39.551,39.062,-95.703
1532216093.088,61.523,37.109,36.133,44.922,-21.973
1532216093.092,50.781,39.551,31.250,45.898,155.762
1532216093.096,32.227,40.527,30.273,45.410,125.000
1532216093.100,27.832,38.574,32.227,41.992,-73.242
1532216093.104,15.137,34.668,35.156,37.598,-72.754
1532216093.107,18.066,33.203,39.551,36.133,104.492
1532216093.111,29.297,35.645,41.016,41.016,120.605
1532216093.115,31.738,38.086,39.062,42.969,-31.738
1532216093.119,29.297,35.645,39.551,32.227,-78.613
1532216093.123,29.785,37.109,39.062,28.809,83.984
1532216093.127,33.691,42.969,34.180,26.367,181.152
1532216093.131,41.992,48.340,29.297,25.879,33.203
1532216093.135,40.527,48.340,29.297,29.785,-128.418
1532216093.139,32.227,44.434,32.227,29.297,-6.836
1532216093.143,37.598,46.875,25.391,26.855,162.109
1532216093.146,36.133,48.340,25.879,25.879,41.992
1532216093.150,37.109,42.969,30.762,20.020,-162.598
1532216093.154,42.969,42.480,26.855,32.227,-59.570
1532216093.158,33.203,41.504,25.879,42.969,164.062
1532216093.162,37.598,37.109,28.320,39.551,137.695
1532216093.166,47.852,35.156,30.273,43.945,-83.984
1532216093.170,50.293,33.203,34.180,48.340,-64.453
1532216093.174,54.688,29.297,34.668,53.711,125.488
1532216093.178,48.340,27.344,32.227,53.711,148.438
1532216093.182,54.688,28.809,33.203,50.293,-45.410
1532216093.186,62.988,33.203,29.785,45.898,-140.625
1532216093.189,53.711,37.109,21.973,41.992,69.336
1532216093.193,54.688,39.062,20.020,42.480,183.594
1532216093.197,54.199,41.016,20.996,35.156,22.949
1532216093.201,47.852,38.086,21.973,35.156,-110.352
1532216093.205,50.293,34.668,24.414,39.551,-13.672
1532216093.209,55.664,35.156,29.785,38.574,156.250
1532216093.213,38.086,34.180,33.691,37.109,111.816
1532216093.217,29.297,30.273,29.297,31.738,-86.426
1532216093.221,34.180,29.785,28.809,37.598,-41.992
1532216093.225,39.551,32.227,31.738,43.457,141.602
1532216093.229,40.039,35.156,30.273,43.945,142.090
1532216093.232,41.016,36.621,33.203,47.363,-67.383
1532216093.236,41.016,35.156,35.156,43.945,-89.355
1532216093.240,39.551,35.156,34.180,40.527,120.605
1532216093.244,41.504,35.645,36.133,37.109,158.691
1532216093.248,39.062,30.273,40.527,26.367,-57.129
1532216093.252,33.203,27.832,38.574,26.367,-146.973
1532216093.256,33.691,32.715,35.156,28.320,49.316
1532216093.260,37.109,36.133,35.645,24.414,169.434
1532216093.264,38.574,37.109,35.645,27.344,46.875
1532216093.268,33.691,37.109,36.621,22.461,-115.723
1532216093.271,26.367,37.598,32.227,20.020,-5.371
1532216093.275,32.227,38.086,31.250,29.297,152.344
1532216093.279,34.180,36.621,35.156,34.180,69.336
1532216093.283,32.715,35.645,37.598,31.738,-109.863
1532216093.287,28.809,38.086,36.133,21.484,-73.730
1532216093.291,35.645,36.621,34.668,28.320,127.441
1532216093.295,37.598,32.715,38.086,35.156,125.488
1532216093.299,25.391,32.227,41.504,32.227,-62.500
1532216093.303,32.227,31.250,44.434,41.016,-95.703
1532216093.307,37.598,31.738,40.527,38.574,106.445
1532216093.311,31.250,37.598,32.715,30.762,170.898
1532216093.314,27.344,38.086,32.227,29.297,-3.418
1532216093.318,28.320,30.762,34.668,30.762,-102.539
1532216093.322,35.645,27.832,36.621,38.574,32.227
1532216093.326,46.875,34.668,34.180,39.062,141.113
1532216093.330,43.945,38.574,32.227,26.367,30.273
1532216093.334,38.086,38.086,34.180,30.273,-102.051
1532216093.338,41.504,40.527,34.668,44.922,-4.883
1532216093.342,58.105,39.062,36.621,51.758,154.785
1532216093.346,59.570,37.109,36.621,50.293,106.934
1532216093.350,39.551,38.574,32.227,45.410,-89.355
1532216093.353,33.691,40.039,31.738,46.875,-78.125
1532216093.357,32.227,39.062,35.156,45.410,125.488
1532216093.361,30.273,36.621,37.598,41.016,147.461
1532216093.365,34.180,34.668,35.156,40.527,-37.598
1532216093.369,34.668,34.668,32.715,38.086,-107.422
1532216093.373,31.738,35.156,36.133,42.480,56.641
1532216093.377,34.668,34.668,38.574,43.945,138.184
1532216093.381,47.363,34.668,36.621,41.504,3.906
1532216093.385,43.945,36.133,34.668,38.086,-126.953
1532216093.389,30.762,38.086,32.715,35.156,13.184
1532216093.393,35.156,36.621,33.691,37.109,163.574
1532216093.396,36.621,33.691,36.133,41.992,67.383
1532216093.400,31.738,31.250,37.109,38.086,-102.539
1532216093.404,28.320,30.762,37.109,31.738,-46.875
1532216093.408,28.809,28.320,35.645,33.203,115.723
1532216093.412,33.203,29.785,33.691,43.457,113.281
1532216093.416,36.133,29.785,31.250,47.852,-62.012
1532216093.420,30.762,30.273,30.762,44.434,-81.543
1532216093.424,31.250,35.645,30.762,44.434,109.863
1532216093.428,32.715,38.086,31.250,36.621,150.391
1532216093.432,34.180,35.156,30.273,36.621,-23.926
1532216093.436,41.504,33.691,35.156,46.387,-95.215
1532216093.439,50.293,35.645,39.062,57.129,83.984
1532216093.443,55.664,36.133,32.227,60.059,181.152
1532216093.447,56.641,36.621,25.879,51.270,43.945
1532216093.451,46.387,38.574,25.391,42.480,-92.285
1532216093.455,33.203,40.527,27.344,35.645,30.273
1532216093.459,33.203,38.574,28.809,32.715,169.434
1532216093.463,34.668,38.086,29.785,36.133,39.551
1532216093.467,34.180,37.598,31.250,37.109,-125.000
1532216093.471,38.574,37.109,35.645,39.551,-54.199
1532216093.475,39.551,35.645,37.109,43.945,138.672
1532216093.478,32.715,34.180,34.668,42.480,138.184
1532216093.482,36.621,33.691,31.738,41.504,-54.688
1532216093.486,43.457,36.133,27.344,41.992,-79.102
1532216093.490,45.898,36.621,24.902,46.387,93.750
1532216093.494,42.969,32.227,26.855,49.316,162.109
1532216093.498,40.527,32.715,29.785,45.898,6.348
1532216093.502,40.527,34.668,32.227,44.434,-98.633
1532216093.506,40.039,35.645,31.250,38.574,7.812
1532216093.510,40.527,36.133,29.297,33.203,127.441
1532216093.514,43.945,34.668,30.762,37.109,24.902
1532216093.518,38.574,34.180,29.785,38.574,-134.277
1532216093.521,22.461,29.785,29.297,39.551,9.277
1532216093.525,26.855,31.250,27.832,37.598,145.508
1532216093.529,37.109,36.621,23.926,34.668,35.645
1532216093.533,35.645,36.133,23.438,37.109,-112.793
1532216093.537,35.156,34.668,23.926,37.109,-46.875
1532216093.541,35.156,33.691,25.391,35.156,154.297
1532216093.545,34.668,33.691,27.832,34.668,124.023
1532216093.549,37.109,36.621,28.320,30.762,-89.844
1532216093.553,39.551,34.668,28.809,27.832,-80.078
1532216093.557,27.344,32.227,26.855,30.762,120.117
1532216093.561,27.344,36.621,24.902,35.645,145.996
1532216093.564,38.574,37.109,25.879,35.645,-22.949
1532216093.568,40.527,37.109,27.344,26.855,-140.137
1532216093.572,41.504,37.598,27.832,27.344,24.902
1532216093.576,43.457,35.156,27.832,31.250,196.289
1532216093.580,40.039,33.691,26.855,29.785,55.176
1532216093.584,37.598,31.250,24.902,24.414,-108.398
1532216093.588,39.551,32.715,22.949,25.391,-6.836
1532216093.592,42.969,37.109,22.949,32.227,170.410
1532216093.596,40.039,40.039,22.949,32.227,116.211
1532216093.600,38.086,37.598,22.949,27.832,-65.430
1532216093.603,38.086,37.109,20.996,25.391,-38.574
1532216093.607,44.434,39.551,19.043,23.926,129.395
1532216093.611,41.992,40.527,21.973,23.438,111.816
1532216093.615,35.645,41.016,23.926,24.902,-50.293
1532216093.619,35.156,40.527,22.949,27.344,-58.594
1532216093.623,32.715,39.062,21.484,28.809,121.582
1532216093.627,38.574,39.062,23.926,20.508,162.598
1532216093.631,41.016,37.109,24.902,14.648,-6.348
1532216093.635,38.086,35.645,23.438,19.043,-87.402
1532216093.639,33.203,33.691,24.414,19.531,43.945
1532216093.643,33.691,30.762,23.926,23.926,174.805
1532216093.646,34.668,33.203,24.902,28.320,72.266
1532216093.650,32.227,35.156,25.391,24.902,-107.910
1532216093.654,36.621,34.180,22.461,24.902,-41.992
1532216093.658,40.039,34.180,22.461,24.414,138.184
1532216093.662,37.598,37.109,20.996,22.949,120.605
1532216093.666,36.621,40.527,21.973,20.020,-97.168
1532216093.670,37.598,41.504,24.902,15.137,-114.746
1532216093.674,32.715,41.016,24.902,13.672,99.121
1532216093.678,30.762,40.527,24.902,14.648,133.789
1532216093.682,38.574,38.574,28.320,23.926,-30.762
1532216093.686,41.992,37.598,33.203,28.809,-76.172
1532216093.689,31.250,37.109,29.297,23.438,91.309
1532216093.693,29.297,35.156,32.715,23.438,174.805
1532216093.697,36.133,32.715,38.574,31.738,29.297
1532216093.701,44.434,33.203,32.715,40.039,-106.445
1532216093.705,50.293,45.410,22.949,35.645,16.113
1532216093.709,44.434,50.781,20.020,17.090,155.762
1532216093.713,29.785,42.969,27.832,8.301,48.340
1532216093.717,26.855,41.016,33.203,17.090,-116.211
1532216093.721,31.738,44.434,28.320,26.367,-34.180
1532216093.725,34.180,43.945,27.832,30.273,149.902
1532216093.728,24.414,41.504,30.762,21.973,145.996
1532216093.732,15.137,41.992,31.738,17.090,-49.316
1532216093.736,26.367,40.039,33.203,24.414,-53.223
1532216093.740,36.133,38.574,29.297,29.297,129.883
1532216093.744,23.438,41.016,26.855,28.809,159.180
1532216093.748,16.113,40.039,29.785,20.996,-44.922
1532216093.752,16.113,40.039,32.227,24.414,-118.164
1532216093.756,14.160,38.574,35.156,28.320,87.891
1532216093.760,14.648,35.156,35.156,30.762,203.613
1532216093.764,32.715,37.109,31.738,35.645,77.637
1532216093.768,35.645,41.016,28.320,29.297,-83.984
1532216093.771,18.555,40.527,28.809,26.367,-1.953
1532216093.775,21.973,38.086,33.203,33.203,160.156
1532216093.779,30.762,34.668,34.180,37.109,82.520
1532216093.783,41.016,33.691,31.250,46.387,-103.516
1532216093.787,39.551,36.133,30.762,50.293,-52.246
1532216093.791,40.527,36.621,30.273,44.922,139.160
1532216093.795,44.922,36.621,26.855,40.527,142.578
1532216093.799,41.992,35.645,27.832,41.504,-59.082
1532216093.803,43.457,33.691,28.809,43.945,-117.676
1532216093.807,39.551,33.691,28.320,29.785,63.477
1532216093.810,41.504,35.645,29.785,24.902,129.883
1532216093.814,45.898,36.133,30.273,36.621,-3.906
1532216093.818,42.969,34.668,28.809,40.039,-79.102
1532216093.822,51.758,34.180,27.344,44.922,74.219
1532216093.826,54.199,35.645,29.785,48.828,193.848
1532216093.830,41.016,34.180,32.227,47.852,62.988
1532216093.834,40.527,30.762,32.715,53.223,-117.188
1532216093.838,43.945,30.273,33.691,56.641,-22.949
1532216093.842,43.457,32.227,31.738,61.523,158.203
1532216093.846,41.016,30.762,29.297,48.828,119.629
1532216093.850,41.504,30.762,27.832,29.297,-98.633
1532216093.853,41.992,31.250,24.902,29.785,-89.355
1532216093.857,43.945,29.785,23.438,34.668,118.652
1532216093.861,39.551,31.738,22.949,34.668,122.070
1532216093.865,40.039,36.133,21.973,33.691,-63.477
1532216093.869,41.016,36.621,23.438,35.156,-111.328
1532216093.873,43.457,36.133,20.996,38.574,99.121
1532216093.877,53.711,37.109,20.996,40.039,172.852
1532216093.881,50.781,37.598,25.391,41.016,0.488
1532216093.885,45.410,37.109,27.344,41.992,-130.371
1532216093.889,53.223,38.574,27.344,44.434,0.977
1532216093.893,49.316,37.598,30.273,44.434,148.926
1532216093.896,47.363,36.621,33.691,44.922,31.738
1532216093.900,45.410,38.574,32.227,42.969,-118.164
1532216093.904,34.668,37.598,29.785,38.574,-13.184
1532216093.908,42.969,40.527,30.762,36.133,138.184
1532216093.912,45.898,39.062,32.227,36.621,83.496
1532216093.916,37.598,35.156,33.691,35.645,-72.266
1532216093.920,35.645,38.086,34.180,32.227,-45.898
1532216093.924,42.969,41.504,35.156,33.203,139.648
1532216093.928,42.969,41.992,36.133,40.039,138.672
1532216093.932,41.992,38.086,41.504,52.246,-49.805
1532216093.935,40.039,33.203,45.410,50.781,-123.047
1532216093.939,39.551,39.551,36.621,38.574,38.086
1532216093.943,44.434,51.270,28.809,28.320,148.926
1532216093.947,40.039,53.223,32.715,23.926,-15.137
1532216093.951,19.531,45.410,38.086,21.973,-147.949
1532216093.955,16.113,39.551,37.109,29.297,9.277
1532216093.959,32.227,38.574,37.598,36.133,158.691
1532216093.963,44.922,43.457,34.180,38.086,55.664
1532216093.967,46.875,45.410,32.715,32.715,-141.113
1532216093.971,35.156,44.922,40.039,21.484,-61.035
1532216093.975,25.879,46.875,39.062,18.066,158.203
1532216093.978,24.414,43.457,37.598,24.414,115.234
1532216093.982,27.344,38.574,41.016,30.762,-92.773
1532216093.986,30.273,37.598,42.480,26.367,-123.047
1532216093.990,32.227,37.598,45.410,24.414,69.336
1532216093.994,34.668,34.180,46.875,29.297,173.828
1532216093.998,34.668,34.180,40.527,26.367,4.883
1532216094.002,34.180,36.133,36.133,18.555,-82.031
1532216094.006,35.645,39.551,37.109,19.531,72.266
1532216094.010,39.551,41.504,36.621,22.949,175.293
1532216094.014,39.551,36.621,37.598,21.484,69.336
1532216094.018,37.109,38.086,36.133,20.020,-85.449
1532216094.021,30.273,40.039,33.203,23.438,5.371
1532216094.025,32.227,39.062,35.156,31.738,166.504
1532216094.029,34.180,38.086,36.621,32.715,115.234
1532216094.033,27.344,41.016,33.203,34.668,-74.707
1532216094.037,27.832,45.410,31.738,40.039,-51.758
1532216094.041,24.414,43.945,35.156,38.574,159.668
1532216094.045,17.578,42.480,36.133,28.320,114.258
1532216094.049,15.625,42.969,35.156,21.973,-131.348
1532216094.053,12.695,38.574,37.598,29.297,-94.238
1532216094.057,11.230,34.180,37.109,29.297,142.578
1532216094.060,19.531,32.227,36.621,25.879,187.012
1532216094.064,23.438,33.203,35.645,32.715,-14.648
1532216094.068,27.344,34.668,35.156,35.156,-115.723
1532216094.072,35.156,32.227,37.598,34.180,70.312
1532216094.076,41.504,33.691,37.109,36.621,188.477
1532216094.080,50.293,39.062,31.250,30.273,63.477
1532216094.084,45.898,40.527,28.809,21.484,-97.656
1532216094.088,32.715,36.621,34.180,14.648,-35.156
1532216094.092,32.715,34.180,37.109,12.695,159.668
1532216094.096,41.016,34.668,31.738,21.484,111.816
1532216094.100,38.574,30.762,28.320,25.391,-116.699
1532216094.103,34.668,27.832,31.250,24.414,-100.586
1532216094.107,36.133,30.273,32.715,25.879,100.586
1532216094.111,36.133,29.785,30.273,22.949,136.719
1532216094.115,35.645,28.809,29.785,24.902,-42.969
1532216094.119,47.363,29.785,29.785,31.738,-104.004
1532216094.123,55.176,33.691,27.832,40.039,76.172
1532216094.127,46.387,36.133,30.762,35.645,149.414
1532216094.131,38.086,35.645,34.668,21.484,-9.277
1532216094.135,28.809,34.180,35.645,24.902,-90.820
1532216094.139,30.273,32.715,36.621,30.273,67.871
1532216094.142,46.387,30.762,37.598,38.086,177.734
1532216094.146,53.711,27.344,38.574,32.715,34.180
1532216094.150,52.246,27.832,37.109,27.344,-118.652
1532216094.154,45.410,28.809,32.715,28.809,-35.645
1532216094.158,36.133,29.785,34.668,26.367,138.184
1532216094.162,36.133,34.180,36.133,24.414,123.535
1532216094.166,37.109,33.203,37.109,25.879,-64.453
1532216094.170,48.828,33.691,38.574,33.203,-71.777
1532216094.174,51.270,37.598,38.086,38.574,116.699
1532216094.178,45.410,35.645,36.621,38.086,154.785
1532216094.182,52.246,36.621,32.715,38.574,-26.367
1532216094.185,54.688,39.062,31.250,38.086,-123.047
1532216094.189,42.969,36.621,34.180,28.320,30.273
1532216094.193,42.480,36.621,34.180,28.320,166.016
1532216094.197,50.293,36.621,32.715,30.762,20.508
1532216094.201,54.199,37.109,30.273,33.203,-109.863
1532216094.205,55.176,36.621,30.762,35.156,52.246
1532216094.209,51.758,35.645,34.180,33.691,196.289
1532216094.213,52.734,38.086,32.227,28.809,82.031
1532216094.217,56.641,37.109,29.297,26.367,-107.422
1532216094.221,52.734,39.062,31.738,33.203,-34.180
1532216094.225,51.270,39.551,32.715,37.109,148.926
1532216094.228,52.246,36.621,32.715,31.738,119.629
1532216094.232,53.223,36.621,33.203,31.250,-48.828
1532216094.236,49.316,34.668,33.691,39.062,-63.477
1532216094.240,52.734,34.668,31.738,40.039,129.395
1532216094.244,57.129,37.109,32.715,41.016,180.176
1532216094.248,52.734,38.086,34.668,41.016,-24.414
1532216094.252,48.828,39.062,33.203,35.645,-110.352
1532216094.256,52.734,40.527,33.203,39.062,53.711
1532216094.260,57.617,39.062,33.203,40.039,171.875
1532216094.264,60.547,38.574,32.227,33.691,48.828
1532216094.267,61.035,39.062,34.180,34.668,-139.160
1532216094.271,52.734,36.621,33.203,38.086,-6.348
1532216094.275,52.246,38.086,33.203,31.738,201.660
1532216094.279,52.734,40.039,35.156,28.320,144.531
1532216094.283,51.758,40.039,35.645,26.367,-77.637
1532216094.287,46.875,37.109,32.715,22.949,-76.172
1532216094.291,40.039,35.645,30.762,27.344,132.812
1532216094.295,41.504,35.645,32.227,30.273,154.785
1532216094.299,45.898,36.621,34.180,29.785,-53.711
1532216094.303,42.969,38.574,35.156,35.156,-95.703
1532216094.307,41.016,37.598,33.203,36.133,74.219
1532216094.310,49.805,37.109,32.227,41.992,131.836
1532216094.314,45.410,36.133,34.180,44.922,14.648
1532216094.318,41.016,36.621,34.668,40.527,-93.750
1532216094.322,43.945,37.109,35.156,43.457,46.387
1532216094.326,40.039,39.551,34.668,36.133,179.199
1532216094.330,41.016,40.039,32.715,21.484,31.250
1532216094.334,40.039,39.551,29.297,21.973,-112.305
1532216094.338,34.668,40.527,27.344,25.391,-15.625
1532216094.342,34.668,39.062,30.762,20.508,166.504
1532216094.346,31.738,39.062,29.785,18.555,112.793
1532216094.350,30.762,39.062,27.832,13.672,-103.516
1532216094.353,34.668,38.574,31.738,15.625,-76.660
1532216094.357,26.367,37.598,34.668,20.020,93.262
1532216094.361,16.602,35.156,36.621,15.137,139.648
1532216094.365,26.367,38.086,37.109,16.602,-49.805
1532216094.369,39.062,39.062,36.133,26.367,-150.879
1532216094.373,35.156,35.645,34.180,33.691,64.453
1532216094.377,19.043,38.086,36.133,26.855,153.320
1532216094.381,14.160,40.039,35.156,22.461,4.395
1532216094.385,18.066,40.039,31.250,23.926,-121.582
1532216094.389,15.137,41.016,32.227,22.949,-11.719
1532216094.392,10.742,42.969,30.273,15.137,143.555
1532216094.396,18.555,48.828,28.320,9.277,62.012
1532216094.400,26.367,50.781,28.320,20.020,-102.051
1532216094.404,25.879,48.828,30.273,20.508,-27.344
1532216094.408,36.133,50.781,30.762,9.277,113.281
1532216094.412,39.062,47.363,28.320,11.230,83.496
1532216094.416,23.926,44.434,33.203,17.578,-91.797
1532216094.420,19.043,43.457,35.645,18.555,-97.656
1532216094.424,15.625,39.062,33.691,23.438,116.211
1532216094.428,14.160,34.180,36.621,28.809,144.531
1532216094.432,28.809,32.715,39.062,33.203,-29.785
1532216094.435,32.227,39.551,37.598,33.691,-118.164
1532216094.439,28.320,44.922,31.738,32.227,41.504
1532216094.443,21.973,42.480,33.691,34.180,151.855
1532216094.447,18.066,36.621,41.504,31.250,-14.648
1532216094.451,31.250,34.180,45.410,38.086,-142.090
1532216094.455,31.738,35.156,45.898,41.016,13.184
1532216094.459,29.297,37.109,40.039,35.645,178.711
1532216094.463,29.297,41.504,38.086,29.785,77.637
1532216094.467,28.320,43.945,35.645,18.066,-123.047
1532216094.471,29.297,44.434,28.809,14.648,-65.430
1532216094.474,30.762,45.898,24.414,19.043,145.996
1532216094.478,30.762,45.410,26.855,17.090,154.297
1532216094.482,25.879,43.457,33.203,15.625,-33.691
1532216094.486,26.855,44.434,34.180,14.160,-78.125
1532216094.490,21.484,41.992,34.668,16.113,79.102
1532216094.494,20.020,37.598,32.227,9.277,152.344
1532216094.498,34.668,40.527,26.855,6.348,-20.996
1532216094.502,30.762,41.504,28.809,16.602,-127.930
1532216094.506,18.555,40.527,30.762,14.648,40.039
1532216094.510,22.461,41.504,30.273,11.719,149.414
1532216094.514,24.414,37.109,34.668,22.461,23.438
1532216094.517,27.344,35.156,37.109,31.250,-121.582
1532216094.521,36.133,36.133,34.668,39.551,16.113
1532216094.525,35.645,35.645,36.133,42.480,196.777
1532216094.529,23.438,33.203,42.480,39.062,104.492
1532216094.533,28.809,28.809,44.922,41.016,-103.516
1532216094.537,41.992,32.227,40.039,39.062,-81.055
1532216094.541,33.691,36.621,38.086,34.668,112.793
1532216094.545,26.855,37.109,41.016,28.809,137.695
1532216094.549,34.668,37.598,40.039,20.996,-60.059
1532216094.553,34.180,38.086,34.668,19.531,-101.074
1532216094.557,31.250,43.945,30.762,19.531,104.980
1532216094.560,28.320,44.922,29.297,19.531,182.617
1532216094.564,25.391,38.086,33.691,15.137,-1.465
1532216094.568,28.809,35.156,33.203,11.230,-143.066
1532216094.572,27.344,35.645,30.762,20.508,25.879
1532216094.576,25.391,35.156,31.738,30.273,208.496
1532216094.580,20.996,33.691,37.109,32.715,97.168
1532216094.584,16.602,32.227,39.551,26.367,-85.938
1532216094.588,20.996,32.715,37.109,30.273,-7.324
1532216094.592,24.414,32.715,36.133,39.062,162.109
1532216094.596,36.133,33.203,35.645,34.180,106.934
1532216094.599,42.969,38.086,33.691,35.156,-89.844
1532216094.603,27.344,37.598,37.598,33.691,-48.828
1532216094.607,26.855,33.203,41.504,20.996,125.488
1532216094.611,28.809,32.715,38.086,17.578,122.559
1532216094.615,34.180,34.180,34.668,27.344,-41.016
1532216094.619,42.480,36.133,35.645,34.180,-57.129
1532216094.623,35.156,35.156,34.668,31.738,99.121
1532216094.627,34.668,35.156,32.227,24.902,127.441
1532216094.631,34.668,36.133,30.762,22.949,-7.324
1532216094.635,33.203,36.133,26.367,24.414,-107.910
1532216094.639,32.227,37.598,23.438,25.391,37.598
1532216094.642,28.320,36.133,26.855,28.809,182.129
1532216094.646,30.273,32.227,33.203,25.879,42.480
1532216094.650,37.109,35.156,31.738,26.367,-135.742
1532216094.654,42.969,38.574,23.438,32.715,-48.828
1532216094.658,40.039,38.086,23.438,29.297,144.043
1532216094.662,28.320,36.133,32.227,25.879,100.586
1532216094.666,30.273,37.598,39.551,27.832,-115.234
1532216094.670,34.180,36.621,41.992,30.762,-80.078
1532216094.674,42.969,30.762,41.992,30.762,126.953
1532216094.678,54.199,28.320,41.992,37.109,143.555
1532216094.682,49.316,29.297,37.109,44.922,-46.387
1532216094.685,41.016,37.109,34.180,33.691,-128.418
1532216094.689,38.086,44.434,29.785,21.484,41.992
1532216094.693,36.133,43.457,28.809,26.367,181.641
1532216094.697,33.203,38.086,36.621,29.297,36.621
1532216094.701,28.809,37.598,36.621,37.109,-122.070
1532216094.705,28.809,40.039,35.156,36.133,1.465
1532216094.709,30.762,36.621,38.086,31.738,168.457
1532216094.713,32.715,33.203,39.062,37.598,98.633
1532216094.717,37.109,33.203,37.109,37.598,-88.867
1532216094.721,32.715,33.691,33.691,32.715,-21.484
1532216094.724,30.762,34.668,33.203,31.738,154.785
1532216094.728,39.551,37.109,34.180,26.367,93.750
1532216094.732,41.016,37.109,36.133,21.484,-96.680
1532216094.736,28.809,34.668,34.180,24.902,-85.449
1532216094.740,28.320,32.227,33.203,26.855,114.258
1532216094.744,43.945,35.156,33.203,26.367,156.250
1532216094.748,44.922,38.574,29.785,20.996,-34.668
1532216094.752,35.645,37.598,29.785,19.531,-161.133
1532216094.756,35.156,38.086,29.297,25.391,-0.977
1532216094.760,33.691,35.645,28.809,27.832,142.090
1532216094.764,37.109,31.738,31.250,24.902,4.883
1532216094.767,29.785,31.250,31.738,18.066,-138.672
1532216094.771,30.762,30.273,32.715,24.414,8.301
1532216094.775,38.086,28.809,29.785,30.762,174.316
1532216094.779,38.086,32.715,31.250,32.715,105.957
1532216094.783,38.086,34.668,34.668,33.691,-81.543
1532216094.787,36.133,30.762,34.668,29.785,-85.449
1532216094.791,38.086,27.832,36.133,30.273,106.445
1532216094.795,41.992,33.691,32.715,35.645,152.832
1532216094.799,42.969,43.457,26.855,33.203,-46.875
1532216094.803,41.504,43.457,25.391,31.738,-95.215
1532216094.807,38.574,38.086,31.250,28.809,97.168
1532216094.810,38.086,35.645,35.645,27.832,161.133
1532216094.814,46.387,37.109,34.180,35.645,10.254
1532216094.818,54.199,40.039,32.715,41.992,-97.168
1532216094.822,48.828,36.133,34.668,41.992,34.668
1532216094.826,45.410,33.691,37.598,37.598,154.785
1532216094.830,38.574,36.621,36.621,38.574,50.781
1532216094.834,33.691,37.109,35.156,39.062,-93.262
1532216094.838,30.273,35.156,35.156,40.039,-19.043
1532216094.842,29.785,33.203,37.598,41.016,152.832
1532216094.846,35.645,32.227,38.574,38.574,90.820
1532216094.849,35.645,29.785,38.574,35.645,-119.629
1532216094.853,35.645,29.785,38.086,38.086,-60.059
1532216094.857,35.156,34.180,31.250,39.062,153.809
1532216094.861,35.156,36.133,28.809,36.621,155.762
1532216094.865,35.645,36.621,32.715,34.180,-49.316
1532216094.869,36.133,36.133,31.738,34.180,-94.238
1532216094.873,40.039,35.645,32.715,40.527,106.934
1532216094.877,43.945,39.062,31.250,40.527,208.984
1532216094.881,47.363,43.457,23.926,37.109,65.430
1532216094.885,43.945,41.504,27.344,32.227,-117.188
1532216094.889,32.227,38.574,32.227,27.344,6.836
1532216094.892,37.598,38.574,29.297,32.227,191.895
1532216094.896,40.527,35.645,31.738,31.738,60.547
1532216094.900,22.949,34.180,35.645,27.344,-110.352
1532216094.904,23.926,34.180,35.645,32.715,-14.160
1532216094.908,28.809,33.203,34.668,31.250,139.648
1532216094.912,27.344,32.227,35.645,35.645,122.070
1532216094.916,40.039,33.691,38.574,41.016,-78.613
1532216094.920,43.457,36.621,39.062,38.574,-75.684
1532216094.924,24.902,37.598,39.062,34.180,125.977
1532216094.928,17.090,33.691,40.039,21.973,86.426
1532216094.931,22.949,31.738,37.109,19.043,-77.637
1532216094.935,32.715,32.227,36.133,24.902,-103.516
1532216094.939,40.039,33.691,39.062,26.855,77.148
1532216094.943,37.598,38.574,35.156,25.391,182.617
1532216094.947,35.645,41.504,28.320,24.414,22.461
1532216094.951,32.227,38.086,29.297,17.578,-120.117
1532216094.955,30.273,38.086,32.227,11.719,29.785
1532216094.959,40.039,41.016,30.762,10.742,174.805
1532216094.963,39.062,38.574,27.344,11.230,64.941
1532216094.967,31.738,33.203,31.250,14.160,-129.883
1532216094.971,30.762,33.691,33.691,22.461,-61.523
1532216094.974,34.180,35.645,33.203,30.273,159.668
1532216094.978,38.574,36.133,36.621,35.156,132.812
1532216094.982,34.180,34.180,37.109,41.016,-55.664
1532216094.986,35.156,37.109,38.086,42.480,-84.473
1532216094.990,27.832,39.551,32.715,35.156,59.570
1532216094.994,30.273,39.062,25.879,37.109,108.887
1532216094.998,29.785,40.039,29.297,42.480,-37.598
1532216095.002,23.926,38.086,33.691,37.598,-105.957
1532216095.006,29.297,35.645,33.203,39.062,41.992
1532216095.010,33.691,34.668,32.715,46.387,150.879
1532216095.014,40.527,36.133,32.227,43.457,33.691
1532216095.017,42.480,34.668,30.762,35.156,-122.559
1532216095.021,34.180,33.203,29.785,32.715,0.000
1532216095.025,38.086,37.598,33.691,35.645,139.160
1532216095.029,41.504,38.574,35.156,29.297,30.273
1532216095.033,41.992,36.133,32.227,25.391,-86.426
1532216095.037,45.410,35.156,31.738,38.086,-28.320
1532216095.041,49.805,33.691,33.691,42.969,132.324
1532216095.045,55.176,35.645,36.133,37.109,124.023
1532216095.049,46.875,35.156,36.621,37.109,-78.125
1532216095.053,34.668,30.762,34.180,38.086,-84.961
1532216095.056,33.691,32.227,33.203,39.062,112.793
1532216095.060,36.621,34.668,34.668,41.016,165.527
1532216095.064,39.551,35.156,35.156,40.039,-17.090
1532216095.068,41.992,35.645,37.109,37.598,-140.137
1532216095.072,42.969,33.691,34.668,41.992,49.805
1532216095.076,40.527,34.668,30.273,41.504,175.293
1532216095.080,54.688,39.551,27.832,40.039,43.457
1532216095.084,55.664,40.039,30.273,37.598,-115.234
1532216095.088,35.645,39.551,29.785,33.691,-37.109
1532216095.092,38.086,38.574,29.297,33.691,167.480
1532216095.096,41.504,38.574,31.738,31.250,136.719
1532216095.099,42.969,41.992,30.273,32.227,-82.031
1532216095.103,40.039,41.016,31.250,30.762,-54.199
1532216095.107,41.504,39.551,33.691,24.414,114.258
1532216095.111,39.062,38.086,37.109,27.344,121.094
1532216095.115,40.527,38.086,37.598,34.668,-30.762
1532216095.119,51.758,39.551,34.180,40.039,-94.727
1532216095.123,55.176,37.598,31.250,48.828,108.887
1532216095.127,56.641,39.551,29.297,50.293,178.223
1532216095.131,54.199,41.016,29.297,42.480,-5.859
1532216095.135,45.898,42.480,31.738,32.715,-117.676
1532216095.139,46.387,42.969,33.203,28.320,57.129
1532216095.142,45.898,42.969,31.738,28.809,204.590
1532216095.146,41.016,45.898,29.297,26.367,54.688
1532216095.150,39.551,47.852,32.715,26.367,-102.051
1532216095.154,36.133,39.551,33.203,23.438,-13.672
1532216095.158,35.645,33.691,29.785,24.414,161.621
1532216095.162,40.039,36.621,29.785,32.227,138.672
1532216095.166,51.270,41.016,24.902,33.691,-74.707
1532216095.170,53.223,42.480,22.461,24.902,-91.309
1532216095.174,41.992,39.551,24.414,21.484,118.164
1532216095.178,42.969,36.133,26.855,28.320,165.039
1532216095.181,57.129,37.109,26.855,30.273,-7.812
1532216095.185,57.129,41.016,25.391,26.367,-92.773
1532216095.189,50.293,42.969,25.879,34.180,60.059
1532216095.193,51.758,41.016,28.809,37.598,151.855
1532216095.197,46.875,36.133,29.297,32.715,-0.488
1532216095.201,45.898,35.156,25.879,34.668,-122.559
1532216095.205,48.340,37.598,24.902,36.133,5.859
1532216095.209,46.387,38.574,26.855,33.691,126.953
1532216095.213,46.875,36.621,27.344,37.109,34.668
1532216095.217,44.434,35.645,26.367,38.086,-114.258
1532216095.221,49.316,36.133,24.414,36.133,-46.387
1532216095.224,47.852,35.156,25.879,38.574,141.113
1532216095.228,41.016,34.668,28.320,34.180,163.086
1532216095.232,40.527,33.691,29.785,29.785,-53.223
1532216095.236,40.039,32.715,29.785,31.250,-97.656
1532216095.240,40.039,32.227,26.367,34.668,95.215
1532216095.244,43.457,31.738,27.344,39.062,153.809
1532216095.248,46.875,31.250,29.297,38.574,-24.902
1532216095.252,51.270,29.785,29.785,42.480,-143.555
1532216095.256,47.363,30.273,30.273,45.410,48.828
1532216095.260,42.480,30.762,27.832,42.969,173.828
1532216095.263,44.922,30.762,27.832,45.410,26.855
1532216095.267,37.598,29.785,26.367,34.668,-126.953
1532216095.271,37.598,31.250,26.367,31.250,-11.719
1532216095.275,37.598,32.227,28.320,40.039,183.594
1532216095.279,38.086,31.250,25.879,42.969,116.699
1532216095.283,36.133,28.320,23.926,47.852,-79.590
1532216095.287,45.410,25.879,24.414,47.852,-49.805
1532216095.291,53.711,29.297,25.391,50.781,145.020
1532216095.295,47.852,33.691,26.855,57.617,115.723
1532216095.299,57.617,37.109,26.367,59.082,-61.523
1532216095.303,61.523,35.156,23.926,58.105,-64.453
1532216095.306,51.270,36.133,23.438,55.176,89.844
1532216095.310,50.293,37.598,26.367,47.363,132.324
1532216095.314,50.293,36.133,26.367,45.410,-29.297
1532216095.318,55.176,35.645,24.902,50.293,-151.367
1532216095.322,48.828,34.668,24.414,46.387,15.137
1532216095.326,40.527,36.133,24.414,38.574,132.324
1532216095.330,43.457,38.574,26.367,39.551,-5.371
1532216095.334,44.922,40.039,25.879,45.410,-111.816
1532216095.338,43.945,39.551,27.832,49.805,7.812
1532216095.342,42.969,38.086,32.227,50.781,162.598
1532216095.346,45.898,40.527,29.785,41.504,89.844
1532216095.349,45.410,41.504,27.832,35.645,-94.727
1532216095.353,41.992,38.086,28.320,41.016,-54.199
1532216095.357,48.828,35.645,26.855,49.316,123.535
1532216095.361,56.152,36.621,25.879,46.387,105.957
1532216095.365,49.805,37.109,22.949,35.645,-76.172
1532216095.369,44.434,33.691,24.414,38.086,-91.797
1532216095.373,47.363,32.227,25.879,46.387,95.703
1532216095.377,48.340,34.180,24.902,44.434,168.945
1532216095.381,43.457,36.621,25.879,44.434,5.859
1532216095.385,51.270,36.133,24.902,48.340,-119.629
1532216095.388,49.805,34.668,25.879,46.387,15.137
1532216095.392,32.227,35.156,24.414,43.457,148.926
1532216095.396,39.551,35.156,20.508,46.875,37.598
1532216095.400,49.805,34.180,21.484,50.293,-119.629
1532216095.404,53.223,32.715,24.902,52.734,-28.320
1532216095.408,55.176,32.715,23.438,44.434,126.953
1532216095.412,56.152,34.668,24.902,41.504,83.496
1532216095.416,57.129,33.691,27.832,45.410,-83.984
1532216095.420,54.688,33.691,26.367,37.598,-67.871
1532216095.424,44.434,35.645,27.344,37.598,118.652
1532216095.428,37.109,36.621,28.320,40.527,139.160
1532216095.431,39.062,37.598,29.297,40.527,-60.547
1532216095.435,52.246,36.621,30.762,40.039,-112.793
1532216095.439,54.688,33.691,31.250,42.969,92.285
1532216095.443,47.363,34.668,29.297,45.898,190.430
1532216095.447,51.270,37.109,31.250,42.480,1.953
1532216095.451,56.641,38.574,32.715,40.039,-160.645
1532216095.455,47.852,37.598,32.227,42.969,-15.625
1532216095.459,35.645,35.156,30.762,38.574,139.648
1532216095.463,37.109,34.668,28.809,32.715,58.594
1532216095.467,43.945,36.621,31.738,30.273,-125.977
1532216095.471,37.598,35.156,28.809,32.715,-47.852
1532216095.474,32.715,35.645,26.855,37.598,174.316
1532216095.478,41.504,36.621,29.297,41.504,145.508
1532216095.482,45.898,34.180,28.809,43.457,-68.848
1532216095.486,58.105,36.621,28.320,44.922,-88.379
1532216095.490,62.012,36.621,27.832,47.363,90.820
1532216095.494,51.270,33.691,27.832,48.340,159.180
1532216095.498,49.805,35.156,26.367,46.387,4.395
1532216095.502,41.992,34.668,25.879,43.945,-91.309
1532216095.506,41.992,35.156,26.855,41.992,72.754
1532216095.510,45.898,36.621,28.320,36.133,166.504
1532216095.513,39.551,35.156,28.809,29.297,10.742
1532216095.517,39.062,35.645,28.320,27.832,-107.910
1532216095.521,43.457,35.645,28.320,30.273,19.531
1532216095.525,41.504,34.668,29.297,31.738,151.367
1532216095.529,40.039,36.621,30.762,33.691,73.242
1532216095.533,51.270,35.645,31.250,38.086,-74.219
1532216095.537,44.434,32.715,32.715,42.480,-18.066
1532216095.541,37.109,33.203,34.180,47.852,162.598
1532216095.545,39.551,36.133,31.250,40.039,147.949
1532216095.549,43.457,38.086,27.344,25.879,-91.797
1532216095.553,48.340,38.574,26.855,33.203,-98.633
1532216095.556,48.340,39.551,25.879,36.133,119.629
1532216095.560,45.410,39.062,23.926,29.297,164.062
1532216095.564,48.340,38.086,23.438,30.762,-8.301
1532216095.568,50.293,37.109,24.902,35.156,-117.188
1532216095.572,50.781,34.180,27.832,43.457,47.363
1532216095.576,55.176,33.691,32.227,45.898,151.367
1532216095.580,60.059,34.668,32.715,49.805,22.461
1532216095.584,60.059,34.668,30.273,52.246,-128.418
1532216095.588,49.316,35.645,30.273,41.016,-46.875
1532216095.592,50.293,37.109,28.809,37.109,141.113
1532216095.595,51.270,36.621,26.367,42.480,129.883
1532216095.599,52.246,35.156,25.391,40.039,-63.477
1532216095.603,49.805,36.621,27.832,35.156,-58.105
1532216095.607,48.828,35.645,29.297,36.133,126.465
1532216095.611,53.223,34.668,28.320,40.039,141.113
1532216095.615,46.387,35.156,29.785,41.504,-50.293
1532216095.619,46.875,36.133,32.715,44.922,-108.887
1532216095.623,45.410,35.645,30.273,46.387,80.078
1532216095.627,46.875,33.203,31.738,41.504,152.344
1532216095.631,48.828,34.180,31.250,29.785,-35.156
1532216095.635,42.480,39.551,28.320,30.762,-127.441
1532216095.638,39.551,41.016,28.809,35.156,38.086
1532216095.642,39.062,40.527,29.297,33.691,172.852
1532216095.646,39.062,43.945,32.227,29.297,63.477
1532216095.650,35.645,44.434,36.133,23.926,-103.027
1532216095.654,29.785,41.016,36.133,16.113,-8.789
1532216095.658,22.949,41.504,35.645,12.207,156.738
1532216095.662,22.949,43.945,36.621,10.742,112.793
1532216095.666,25.391,43.457,38.086,13.672,-75.195
1532216095.670,22.949,39.551,38.086,18.066,-65.430
1532216095.674,24.414,38.574,39.062,23.926,132.812
1532216095.678,26.855,42.480,38.086,24.414,155.762
1532216095.681,26.855,45.898,36.133,16.113,-39.551
1532216095.685,21.973,41.992,39.551,10.742,-123.047
1532216095.689,14.160,39.551,41.992,9.277,69.824
1532216095.693,10.742,44.922,39.062,6.348,156.250
1532216095.697,12.207,48.340,37.598,0.000,2.441
1532216095.701,18.555,50.781,34.668,1.953,-88.867
1532216095.705,17.090,53.223,38.574,4.395,35.156
1532216095.709,14.160,51.270,46.875,-3.418,150.391
1532216095.713,19.043,46.387,46.387,2.441,89.844
1532216095.717,25.879,40.527,47.852,16.113,-79.590
1532216095.720,20.996,39.062,48.828,14.648,-35.645
1532216095.724,14.160,43.945,41.016,1.953,150.391
1532216095.728,15.625,47.363,37.109,-4.395,101.074
1532216095.732,14.160,46.387,39.062,0.977,-82.031
1532216095.736,7.812,45.898,41.504,0.977,-79.590
1532216095.740,9.766,44.922,43.457,-1.465,109.863
1532216095.744,16.602,42.969,42.969,1.465,170.898
1532216095.748,11.230,40.527,44.434,6.348,-41.504
1532216095.752,12.207,39.551,45.410,6.348,-135.742
1532216095.756,19.531,41.016,44.922,7.324,62.012
1532216095.760,23.926,41.016,41.992,10.254,183.594
1532216095.763,25.391,37.109,42.480,14.160,45.410
1532216095.767,23.926,37.598,42.480,14.648,-130.859
1532216095.771,20.508,45.410,36.133,9.766,-17.090
1532216095.775,26.367,47.852,33.203,12.695,174.805
1532216095.779,29.297,46.387,34.180,16.602,92.773
1532216095.783,20.020,45.898,36.621,15.137,-90.820
1532216095.787,16.113,42.480,41.504,14.648,-59.082
1532216095.791,20.996,40.039,42.969,20.508,128.418
1532216095.795,25.879,41.504,38.574,18.066,148.438
1532216095.799,24.414,41.504,34.668,10.742,-44.434
1532216095.803,18.066,38.574,30.273,14.648,-77.637
1532216095.806,18.555,34.668,26.367,17.578,113.770
1532216095.810,25.391,35.156,26.855,17.578,178.223
1532216095.814,25.391,35.645,24.902,21.973,-10.254
1532216095.818,31.250,35.156,25.879,29.785,-122.559
1532216095.822,36.133,34.668,29.785,36.133,45.410
1532216095.826,30.762,33.691,31.250,27.344,150.391
1532216095.830,28.320,33.203,31.738,20.508,22.949
1532216095.834,28.320,28.809,33.203,24.414,-100.586
1532216095.838,36.133,23.438,35.645,32.715,-19.043
1532216095.842,40.527,28.320,33.203,31.738,161.621
1532216095.845,38.574,33.203,28.809,23.438,109.375
1532216095.849,39.062,30.762,32.227,24.414,-89.844
1532216095.853,37.598,32.227,30.273,22.949,-41.016
1532216095.857,41.016,33.203,23.926,18.555,145.508
1532216095.861,43.457,35.156,20.020,20.508,143.555
1532216095.865,43.945,36.133,21.973,29.297,-58.594
1532216095.869,45.898,33.203,24.414,20.996,-128.906
1532216095.873,34.180,28.320,23.926,17.090,58.105
1532216095.877,27.832,25.879,27.344,25.391,142.090
1532216095.881,31.250,24.902,27.344,21.973,-10.254
1532216095.885,35.645,24.902,22.949,19.531,-131.348
1532216095.888,39.551,28.809,21.973,19.531,10.742
1532216095.892,52.734,32.715,23.438,14.648,157.715
1532216095.896,56.152,35.156,21.973,9.766,73.242
1532216095.900,47.363,36.133,19.531,8.789,-93.262
1532216095.904,51.758,38.574,21.973,21.484,-39.551
1532216095.908,50.293,39.551,24.902,25.879,123.535
1532216095.912,50.781,36.133,21.973,30.762,86.426
1532216095.916,51.270,33.691,23.926,43.457,-99.609
1532216095.920,41.992,33.691,25.391,44.434,-67.871
1532216095.924,31.250,34.668,22.461,42.969,135.742
1532216095.928,34.180,34.668,21.973,37.109,123.535
1532216095.931,39.062,33.203,22.461,33.691,-61.035
1532216095.935,31.738,33.691,20.508,34.668,-105.469
1532216095.939,26.367,33.691,24.414,33.691,81.543
1532216095.943,40.039,34.668,25.391,29.785,166.992
1532216095.947,43.945,36.133,21.973,28.809,-14.648
1532216095.951,39.551,38.086,20.508,27.832,-152.344
1532216095.955,44.434,38.086,24.414,26.855,11.719
1532216095.959,47.363,36.621,27.832,30.273,173.828
1532216095.963,48.340,36.621,27.832,28.809,79.102
1532216095.967,52.734,36.621,28.320,22.461,-105.957
1532216095.970,52.246,35.645,28.320,24.902,-44.922
1532216095.974,41.016,35.156,30.273,33.203,152.832
1532216095.978,34.180,36.133,29.785,30.762,104.492
1532216095.982,31.250,35.645,26.855,26.855,-87.402
1532216095.986,29.297,35.156,26.367,25.391,-83.496
1532216095.990,30.762,33.203,25.879,22.461,107.910
1532216095.994,32.715,29.785,27.832,23.926,145.508
1532216095.998,29.297,31.738,29.785,25.879,-24.902
1532216096.002,33.203,33.691,28.809,31.738,-93.750
1532216096.006,35.645,33.691,24.902,28.320,58.105
1532216096.010,34.668,36.133,24.414,21.973,167.480
1532216096.013,42.480,36.133,21.973,28.809,54.199
1532216096.017,42.480,32.715,21.484,26.855,-91.797
1532216096.021,41.504,30.762,25.391,27.344,11.719
1532216096.025,47.363,31.738,22.949,32.715,151.367
1532216096.029,44.434,32.227,21.973,29.785,78.613
1532216096.033,41.992,31.738,23.926,31.738,-94.727
1532216096.037,39.062,32.227,24.414,34.668,-45.898
1532216096.041,35.645,33.203,24.414,36.133,137.207
1532216096.045,36.133,34.180,20.996,29.297,111.328
1532216096.049,34.668,34.668,20.996,26.855,-71.777
1532216096.052,39.551,32.715,25.879,34.668,-88.867
1532216096.056,41.016,32.227,25.391,35.156,97.656
1532216096.060,36.621,32.227,23.926,30.273,173.828
1532216096.064,35.156,32.227,23.926,25.391,-0.488
1532216096.068,37.598,33.203,23.926,19.043,-148.438
1532216096.072,36.621,31.738,22.949,17.578,11.719
1532216096.076,32.227,30.762,24.902,21.973,154.785
1532216096.080,26.855,32.227,25.879,19.531,39.062
1532216096.084,25.391,31.250,28.809,20.020,-129.395
1532216096.088,24.414,32.715,32.227,19.043,-37.109
1532216096.092,21.973,33.691,31.738,18.555,158.691
1532216096.095,30.762,31.738,32.227,21.484,92.285
1532216096.099,36.133,34.180,31.250,20.996,-101.562
1532216096.103,27.832,37.109,30.273,18.555,-75.684
1532216096.107,28.320,35.645,32.715,21.973,88.867
1532216096.111,37.598,29.785,36.133,26.855,106.445
1532216096.115,49.805,30.762,35.156,30.273,-64.941
1532216096.119,47.363,37.598,31.250,26.367,-114.746
1532216096.123,31.738,41.504,28.809,18.555,89.355
1532216096.127,21.484,38.086,34.668,15.137,151.367
1532216096.131,28.809,33.203,42.480,22.461,-7.812
1532216096.135,41.016,34.668,38.086,27.344,-124.512
1532216096.138,44.434,42.480,30.273,21.484,9.766
1532216096.142,45.898,47.852,28.320,26.367,166.504
1532216096.146,40.039,44.922,31.738,25.879,42.480
1532216096.150,39.062,39.551,36.133,20.508,-140.625
1532216096.154,41.504,36.621,34.180,31.738,-26.367
1532216096.158,43.945,37.598,32.715,40.039,186.035
1532216096.162,43.457,35.645,38.574,41.992,151.367
1532216096.166,49.805,30.762,41.992,46.387,-71.777
1532216096.170,61.035,31.250,36.621,47.852,-66.895
1532216096.174,52.246,33.691,30.762,41.992,111.816
1532216096.177,36.621,35.156,26.367,29.297,122.559
1532216096.181,30.762,34.180,28.320,29.785,-41.016
1532216096.185,35.156,31.250,30.273,34.668,-110.840
1532216096.189,36.133,28.809,31.250,30.273,57.129
1532216096.193,29.297,25.879,34.180,26.855,145.020
1532216096.197,31.738,26.367,35.156,26.367,4.883
1532216096.201,44.434,28.809,33.203,29.297,-91.797
1532216096.205,41.992,29.785,29.785,28.809,34.180
1532216096.209,33.203,29.785,27.832,23.438,180.176
1532216096.213,30.273,28.320,29.297,16.113,73.730
1532216096.217,25.391,27.832,29.785,16.113,-106.445
1532216096.220,25.879,29.785,28.320,19.531,-20.996
1532216096.224,30.273,28.809,30.273,20.508,179.688
1532216096.228,30.273,28.320,30.762,16.113,133.301
1532216096.232,32.227,29.785,30.273,19.043,-86.914
1532216096.236,37.109,27.832,30.273,24.902,-71.777
1532216096.240,38.574,24.902,28.320,26.855,118.652
1532216096.244,38.086,24.414,28.320,28.809,163.086
1532216096.248,43.945,24.902,27.832,24.414,-29.297
1532216096.252,43.457,25.879,27.344,27.832,-141.113
1532216096.256,38.574,25.391,26.367,37.598,45.898
1532216096.260,33.203,24.414,24.414,37.598,164.551
1532216096.263,38.086,27.344,27.832,32.227,34.180
1532216096.267,43.457,26.367,27.344,29.297,-107.910
1532216096.271,38.574,23.926,27.344,35.156,16.602
1532216096.275,40.039,27.832,30.273,39.062,178.711
1532216096.279,44.922,29.785,30.762,37.598,81.543
1532216096.283,47.363,28.809,29.785,41.016,-97.656
1532216096.287,42.480,28.809,28.320,37.598,-57.129
1532216096.291,43.457,31.738,29.785,33.203,117.676
1532216096.295,52.734,33.203,33.203,43.457,127.441
1532216096.299,55.176,31.738,32.715,46.387,-57.617
1532216096.302,41.504,31.738,30.762,43.457,-69.824
1532216096.306,38.086,32.227,29.297,38.086,139.160
1532216096.310,41.992,31.250,31.250,44.434,187.988
1532216096.314,43.457,30.273,34.668,47.852,3.906
1532216096.318,42.480,30.273,30.762,39.062,-80.078
1532216096.322,41.992,28.809,26.855,41.504,60.547
1532216096.326,41.016,27.832,28.320,37.109,169.922
1532216096.330,41.992,27.344,33.203,36.133,53.711
1532216096.334,40.527,25.879,35.156,38.086,-105.957
1532216096.338,40.039,26.855,31.738,35.156,1.465
1532216096.342,47.852,28.809,33.203,41.016,164.062
1532216096.345,49.316,29.297,35.156,37.598,93.750
1532216096.349,45.410,30.273,31.250,32.715,-98.145
1532216096.353,40.039,29.785,28.809,36.621,-66.895
1532216096.357,42.969,28.809,31.250,37.598,134.277
1532216096.361,48.340,28.809,33.691,36.621,147.949
1532216096.365,49.805,27.344,32.227,35.156,-56.641
1532216096.369,48.828,28.320,29.785,33.203,-114.746
1532216096.373,50.781,29.297,26.367,34.668,72.266
1532216096.377,54.199,28.809,26.367,38.574,142.090
1532216096.381,51.758,29.297,29.785,38.574,-25.391
1532216096.384,44.922,28.320,29.785,38.574,-119.141
1532216096.388,40.039,27.344,28.320,30.762,13.184
1532216096.392,43.945,30.762,29.785,25.391,118.164
1532216096.396,44.434,30.273,30.273,32.227,49.805
1532216096.400,40.039,27.832,29.297,34.180,-101.562
1532216096.404,44.434,28.320,29.297,37.109,-22.461
1532216096.408,41.504,28.809,31.738,38.086,148.438
1532216096.412,34.180,29.297,33.203,36.133,90.332
1532216096.416,39.062,30.273,29.297,36.133,-89.844
1532216096.420,41.504,28.809,27.832,31.250,-80.566
1532216096.424,30.762,28.320,32.715,26.855,138.672
1532216096.427,27.832,32.227,35.645,24.414,136.719
1532216096.431,31.738,33.691,32.715,21.484,-76.660
1532216096.435,32.227,30.273,31.738,21.484,-102.051
1532216096.439,38.574,30.762,32.715,21.484,112.305
1532216096.443,38.574,35.645,32.715,25.391,201.172
1532216096.447,34.180,36.133,33.203,27.344,22.461
1532216096.451,31.250,32.227,31.738,22.949,-130.371
1532216096.455,26.855,30.273,33.203,22.949,15.137
1532216096.459,29.297,34.180,35.645,20.508,186.523
1532216096.463,31.250,34.668,35.645,17.578,90.332
1532216096.467,25.879,33.691,36.621,14.648,-89.844
1532216096.470,22.949,31.738,38.086,9.277,-51.270
1532216096.474,31.738,26.855,41.504,19.043,129.395
1532216096.478,43.457,28.320,42.969,31.738,111.328
1532216096.482,47.852,38.086,35.156,25.879,-69.336
1532216096.486,37.109,43.945,25.879,14.160,-82.031
1532216096.490,25.391,37.598,29.785,9.277,116.211
1532216096.494,18.555,31.738,39.551,12.695,155.762
1532216096.498,19.531,35.645,38.086,15.625,-36.621
1532216096.502,20.996,37.109,36.133,8.301,-126.953
1532216096.506,16.602,36.133,40.039,7.324,42.480
1532216096.509,18.555,36.621,41.016,10.254,170.410
1532216096.513,22.461,36.133,36.621,9.277,11.230
1532216096.517,32.715,39.062,31.738,6.836,-119.629
1532216096.521,31.738,41.992,29.785,8.301,7.812
1532216096.525,23.438,44.434,27.832,11.719,159.180
1532216096.529,23.438,41.504,31.738,11.719,58.105
1532216096.533,20.020,38.574,35.156,6.836,-116.699
1532216096.537,15.137,39.062,31.250,2.930,-23.926
1532216096.541,18.066,41.016,28.809,6.348,164.551
1532216096.545,29.297,43.457,30.273,11.230,122.070
1532216096.549,33.691,44.434,30.273,14.160,-84.473
1532216096.552,32.715,42.480,34.180,13.672,-78.613
1532216096.556,31.250,39.062,34.668,17.090,113.770
1532216096.560,35.645,35.156,32.227,19.531,144.531
1532216096.564,39.062,38.086,35.156,17.578,-19.043
1532216096.568,29.785,41.992,34.668,10.742,-129.395
1532216096.572,30.273,41.504,27.344,10.742,-1.953
1532216096.576,33.203,39.062,28.809,20.020,147.949
1532216096.580,20.508,37.109,35.645,11.230,59.570
1532216096.584,17.578,35.156,37.109,6.836,-121.094
1532216096.588,22.461,32.715,36.621,15.137,-14.648
1532216096.592,22.461,34.668,34.180,13.672,175.293
1532216096.595,19.043,35.645,32.715,13.672,89.355
1532216096.599,13.672,32.227,34.180,13.184,-92.773
1532216096.603,12.695,31.250,37.109,13.184,-57.617
1532216096.607,20.508,32.227,35.156,22.461,120.117
1532216096.611,29.785,35.645,32.715,22.461,151.367
1532216096.615,26.855,37.598,33.691,18.066,-26.855
1532216096.619,27.344,36.621,34.668,17.578,-104.980
1532216096.623,28.320,36.621,35.645,21.484,71.289
1532216096.627,20.020,28.809,39.062,20.020,117.188
1532216096.631,22.461,20.508,41.016,17.090,-37.109
1532216096.634,25.879,25.391,35.645,21.973,-111.328
1532216096.638,23.438,33.203,32.227,17.578,24.414
1532216096.642,23.926,33.691,30.273,15.625,175.293
1532216096.646,31.738,34.668,25.879,18.555,96.191
1532216096.650,38.086,34.668,24.414,21.973,-76.660
1532216096.654,41.016,33.691,27.832,33.203,-25.879
1532216096.658,43.945,34.668,29.785,37.598,137.207
1532216096.662,45.898,33.203,30.762,32.715,99.609
1532216096.666,45.410,29.297,35.645,32.715,-80.078
1532216096.670,47.363,27.344,36.133,36.621,-52.734
1532216096.674,47.852,26.367,32.715,41.504,143.066
1532216096.677,45.410,26.367,32.227,41.504,159.668
1532216096.681,40.527,28.320,29.297,38.574,-26.367
1532216096.685,37.109,31.738,25.879,37.109,-117.676
1532216096.689,39.062,32.227,25.391,36.133,48.340
1532216096.693,42.480,28.320,26.855,37.109,177.734
1532216096.697,42.480,27.344,27.832,36.133,33.203
1532216096.701,44.434,28.809,30.762,37.598,-97.656
1532216096.705,44.922,28.809,31.738,41.504,24.414
1532216096.709,41.504,28.320,29.297,41.016,143.066
1532216096.713,41.504,27.344,29.297,37.109,48.340
1532216096.716,34.668,24.902,27.832,31.738,-131.836
