timestamps,TP9,AF7,AF8,TP10,Right AUX
1532373214.132,77.637,69.824,63.965,56.152,51.758
1532373214.136,74.707,64.453,60.059,62.500,55.176
1532373214.140,74.707,66.406,55.664,65.430,33.691
1532373214.144,69.336,64.941,52.734,51.270,22.949
1532373214.148,62.988,61.035,48.828,38.574,37.109
1532373214.152,65.430,63.477,39.062,26.367,44.922
1532373214.155,62.012,62.500,35.645,22.461,6.348
1532373214.159,60.059,57.129,40.527,26.367,20.996
1532373214.163,62.988,58.105,41.504,28.320,49.805
1532373214.167,62.500,54.688,40.039,26.855,35.645
1532373214.171,58.105,51.270,35.645,20.996,-33.203
1532373214.175,56.152,50.781,32.227,28.809,-41.016
1532373214.179,51.270,48.340,36.133,31.738,22.949
1532373214.183,48.828,47.852,38.086,20.508,55.664
1532373214.187,41.016,45.410,36.133,13.672,21.973
1532373214.191,32.715,41.016,32.227,12.207,-21.973
1532373214.195,34.668,39.062,34.180,18.066,17.090
1532373214.198,36.133,37.109,39.551,21.973,35.645
1532373214.202,33.691,38.574,36.133,21.973,18.066
1532373214.206,31.738,38.574,33.691,20.996,4.883
1532373214.210,36.133,37.109,37.598,26.855,10.254
1532373214.214,41.016,38.574,39.062,30.762,54.688
1532373214.218,40.039,36.621,34.668,21.973,49.316
1532373214.222,30.762,34.180,29.785,11.719,-14.648
1532373214.226,26.855,34.180,28.320,11.230,-7.324
1532373214.230,28.320,33.691,30.762,7.812,35.156
1532373214.234,25.879,31.738,34.180,7.324,36.133
1532373214.238,28.809,31.738,33.203,12.695,45.410
1532373214.241,35.156,31.250,32.715,12.207,28.809
1532373214.245,27.344,27.832,31.738,9.766,26.855
1532373214.249,21.484,29.785,31.250,3.906,42.969
1532373214.253,25.391,32.715,30.762,-3.906,-4.395
1532373214.257,28.320,31.250,26.855,3.906,-11.230
1532373214.261,33.691,29.297,25.391,5.859,41.992
1532373214.265,41.504,33.203,27.344,8.789,90.820
1532373214.269,41.016,36.621,27.344,11.230,41.016
1532373214.273,32.227,32.715,29.297,13.184,-2.930
1532373214.277,31.738,30.273,33.203,26.367,21.973
1532373214.280,32.715,32.227,33.203,40.039,44.922
1532373214.284,28.809,30.762,32.227,41.016,82.031
1532373214.288,36.133,26.855,35.156,37.109,41.016
1532373214.292,37.598,28.320,35.645,39.551,-12.695
1532373214.296,20.020,25.879,28.320,32.715,20.508
1532373214.300,20.020,23.926,29.785,30.273,48.828
1532373214.304,34.180,26.855,37.598,41.016,45.410
1532373214.308,37.598,26.855,40.039,43.945,30.273
1532373214.312,37.109,29.785,36.133,38.086,6.348
1532373214.316,35.156,29.297,31.250,34.180,48.828
1532373214.320,34.668,24.902,33.203,31.738,45.410
1532373214.323,38.574,27.832,33.203,26.367,10.742
1532373214.327,42.480,29.297,31.250,22.461,36.621
1532373214.331,41.504,26.855,33.203,22.949,59.570
1532373214.335,34.668,26.855,32.227,28.320,66.406
1532373214.339,30.273,25.879,31.738,29.785,24.902
1532373214.343,29.297,24.902,32.227,28.809,18.555
1532373214.347,26.855,24.414,31.738,33.203,54.688
1532373214.351,31.250,21.973,33.691,36.133,52.246
1532373214.355,32.227,23.438,32.227,39.551,26.367
1532373214.359,30.762,25.879,30.273,50.781,13.184
1532373214.362,42.969,24.902,31.738,59.570,44.922
1532373214.366,44.922,25.391,34.180,60.547,83.496
1532373214.370,34.668,28.809,34.180,60.059,26.855
1532373214.374,27.832,24.414,38.574,52.246,-20.996
1532373214.378,24.414,23.926,35.156,45.898,13.672
1532373214.382,29.297,27.344,28.320,48.340,44.434
1532373214.386,29.785,28.809,26.367,49.316,63.477
1532373214.390,30.273,27.832,28.809,49.316,33.691
1532373214.394,30.273,27.344,35.645,50.293,1.465
1532373214.398,27.832,28.809,37.109,51.758,58.594
1532373214.402,27.344,29.785,33.203,57.617,63.477
1532373214.405,29.785,27.832,34.180,51.758,20.508
1532373214.409,30.273,25.879,35.156,37.598,27.832
1532373214.413,31.738,26.367,31.250,31.250,61.523
1532373214.417,30.273,23.926,35.156,27.832,74.219
1532373214.421,28.809,25.879,35.645,22.949,41.016
1532373214.425,33.203,27.832,30.273,20.508,17.578
1532373214.429,33.203,28.809,31.738,25.391,29.297
1532373214.433,31.738,27.832,35.156,24.902,53.223
1532373214.437,35.645,27.344,31.250,30.273,52.734
1532373214.441,39.062,27.832,26.855,32.715,12.695
1532373214.445,32.227,27.832,28.809,25.879,8.301
1532373214.448,33.691,31.250,30.273,31.250,24.414
1532373214.452,35.156,31.250,27.832,37.109,13.672
1532373214.456,23.926,26.855,27.832,31.250,-0.977
1532373214.460,20.508,21.484,30.273,21.484,13.184
1532373214.464,24.902,24.414,33.203,23.926,65.430
1532373214.468,23.438,30.273,36.133,24.414,53.223
1532373214.472,20.996,29.297,35.156,17.578,25.879
1532373214.476,22.949,26.855,35.156,21.484,23.926
1532373214.480,25.391,25.879,35.156,30.273,36.133
1532373214.484,22.461,24.414,35.645,39.551,71.777
1532373214.487,23.926,23.438,39.551,56.152,23.926
1532373214.491,25.879,23.926,38.086,60.547,-41.992
1532373214.495,30.762,25.391,33.691,68.848,9.766
1532373214.499,40.039,27.832,31.250,77.148,79.590
1532373214.503,40.039,28.320,31.738,70.801,48.828
1532373214.507,40.039,24.902,32.227,65.430,-1.953
1532373214.511,40.039,23.926,35.645,62.012,25.391
1532373214.515,41.504,28.320,40.039,58.105,62.988
1532373214.519,43.945,29.785,41.504,50.293,24.414
1532373214.523,39.551,29.297,39.551,37.598,-15.625
1532373214.527,40.039,29.297,38.086,39.062,-4.395
1532373214.530,38.086,29.297,41.504,45.410,27.832
1532373214.534,34.180,28.809,41.504,41.504,32.715
1532373214.538,40.039,28.320,35.156,44.922,20.996
1532373214.542,40.527,28.809,39.062,50.293,27.832
1532373214.546,39.551,28.809,45.410,56.152,64.941
1532373214.550,42.969,31.250,45.410,64.941,69.336
1532373214.554,43.945,30.273,41.992,73.242,20.508
1532373214.558,43.457,30.273,41.016,86.426,-14.160
1532373214.562,42.480,31.738,38.086,92.773,20.508
1532373214.566,45.898,28.809,37.109,94.238,76.660
1532373214.570,38.086,27.344,39.551,94.238,29.785
1532373214.573,20.996,23.926,37.598,83.984,-12.695
1532373214.577,21.484,25.391,37.598,84.473,20.020
1532373214.581,28.809,31.250,39.062,88.867,73.242
1532373214.585,31.738,28.809,38.574,93.262,68.848
1532373214.589,33.203,27.344,39.551,95.703,-12.207
1532373214.593,32.715,28.320,37.598,94.238,-36.621
1532373214.597,21.484,25.391,37.109,99.609,19.043
1532373214.601,23.438,27.832,41.016,102.051,52.246
1532373214.605,30.273,28.809,36.133,99.121,14.160
1532373214.609,30.762,27.832,34.180,95.703,1.953
1532373214.612,37.109,28.809,37.109,97.168,27.344
1532373214.616,35.156,23.926,37.598,94.238,68.359
1532373214.620,37.598,26.367,37.109,94.727,47.363
1532373214.624,42.480,28.809,34.180,96.680,-5.859
1532373214.628,39.062,27.832,35.156,94.238,16.602
1532373214.632,28.320,30.762,33.691,84.961,44.434
1532373214.636,36.621,31.250,33.691,79.590,42.969
1532373214.640,38.574,27.344,42.480,88.379,28.320
1532373214.644,22.461,30.273,42.969,93.262,41.992
1532373214.648,29.297,32.715,37.598,86.426,41.016
1532373214.652,30.762,29.297,36.133,83.496,55.664
1532373214.655,28.809,29.785,37.109,87.402,40.039
1532373214.659,31.250,32.715,36.621,90.332,21.973
1532373214.663,24.902,31.250,34.668,89.355,56.152
1532373214.667,27.344,31.250,36.133,87.891,68.848
1532373214.671,41.992,41.504,41.992,98.145,30.762
1532373214.675,47.852,47.363,48.828,107.910,1.953
1532373214.679,47.852,44.434,51.758,106.445,22.949
1532373214.683,49.316,40.527,49.316,106.934,70.312
1532373214.687,49.316,36.621,44.434,110.840,63.965
1532373214.691,48.340,36.133,42.969,109.375,31.250
1532373214.695,51.270,35.156,40.527,101.074,46.387
1532373214.698,44.922,32.715,33.691,90.332,71.289
1532373214.702,37.109,28.809,34.180,85.449,58.594
1532373214.706,37.598,28.809,37.109,83.984,17.578
1532373214.710,38.086,32.715,32.715,69.824,7.812
1532373214.714,39.062,32.715,31.250,64.453,33.203
1532373214.718,39.062,31.738,30.762,63.965,62.500
1532373214.722,42.969,31.738,25.879,63.477,40.039
1532373214.726,38.086,29.297,23.438,67.383,40.527
1532373214.730,36.133,27.832,23.926,63.477,25.391
1532373214.734,34.668,28.320,24.902,64.453,6.836
1532373214.737,38.086,30.762,24.902,73.242,20.020
1532373214.741,38.086,32.715,23.438,74.219,19.531
1532373214.745,23.438,29.785,18.066,68.848,39.551
1532373214.749,25.879,29.785,16.113,70.801,54.199
1532373214.753,28.320,30.273,16.113,69.824,26.855
1532373214.757,27.344,26.855,19.531,68.359,0.000
1532373214.761,27.344,26.367,19.531,62.500,33.691
1532373214.765,21.484,26.855,16.602,53.223,62.988
1532373214.769,20.020,27.832,16.113,43.457,32.715
1532373214.773,16.113,25.391,15.625,29.785,-20.508
1532373214.777,17.090,24.414,16.113,32.715,0.000
1532373214.780,22.949,26.367,16.113,41.016,70.312
1532373214.784,25.391,28.809,15.137,41.016,74.707
1532373214.788,20.996,25.879,12.207,29.785,12.207
1532373214.792,16.602,23.438,12.695,21.484,-3.906
1532373214.796,22.461,22.949,14.648,25.879,29.785
1532373214.800,29.785,23.438,17.578,39.062,63.477
1532373214.804,22.949,24.902,19.531,37.109,52.734
1532373214.808,17.578,23.438,18.555,33.203,-3.906
1532373214.812,26.367,23.438,18.555,40.039,0.000
1532373214.816,26.855,20.508,15.625,38.574,59.570
1532373214.819,24.902,19.531,11.719,36.621,64.453
1532373214.823,32.227,24.902,14.160,48.828,16.602
1532373214.827,41.992,27.832,16.602,63.965,13.672
1532373214.831,49.316,28.320,13.672,64.453,37.109
1532373214.835,44.922,27.344,15.625,62.988,42.969
1532373214.839,43.457,26.367,17.578,62.012,44.922
1532373214.843,44.922,28.320,14.160,60.547,38.086
1532373214.847,31.738,23.926,11.230,51.758,35.156
1532373214.851,29.297,23.438,12.207,46.875,64.453
1532373214.855,27.344,26.367,12.207,49.805,31.250
1532373214.859,19.043,28.809,10.254,42.969,4.395
1532373214.862,24.902,26.855,12.207,52.246,49.316
1532373214.866,31.738,22.461,9.766,62.500,53.711
1532373214.870,29.297,21.973,8.301,53.711,8.789
1532373214.874,21.973,18.555,10.742,50.293,4.883
1532373214.878,13.672,18.066,2.441,57.129,20.020
1532373214.882,13.672,18.555,-0.977,62.012,30.273
1532373214.886,17.090,17.090,5.371,63.477,43.457
1532373214.890,21.973,21.973,9.766,65.430,14.160
1532373214.894,26.367,21.484,8.301,73.242,6.348
1532373214.898,26.855,20.996,1.465,71.289,60.059
1532373214.902,34.668,23.926,4.883,72.266,59.570
1532373214.905,44.434,25.391,6.836,80.566,1.953
1532373214.909,43.945,27.344,4.883,81.543,-26.367
1532373214.913,45.410,28.809,6.836,83.496,30.762
1532373214.917,43.457,28.320,6.836,87.402,78.613
1532373214.921,45.410,29.785,5.371,89.355,16.602
1532373214.925,46.875,32.227,9.277,89.844,-20.020
1532373214.929,40.039,33.691,12.207,83.984,30.273
1532373214.933,40.527,35.156,8.789,76.172,99.121
1532373214.937,44.434,32.715,10.254,71.289,74.707
1532373214.941,43.457,34.180,12.695,71.777,12.695
1532373214.944,45.898,35.645,12.695,77.148,6.836
1532373214.948,45.898,32.715,12.695,74.219,19.531
1532373214.952,32.227,30.762,15.137,66.895,10.254
1532373214.956,27.832,26.855,12.207,62.988,-7.324
1532373214.960,30.273,24.414,8.789,57.129,23.438
1532373214.964,33.203,27.344,13.184,50.781,78.125
1532373214.968,41.992,28.320,14.648,49.316,69.336
1532373214.972,41.992,28.320,17.578,45.898,23.438
1532373214.976,45.898,28.320,15.625,42.969,1.465
1532373214.980,55.664,28.809,14.648,46.387,67.383
1532373214.984,55.664,32.227,17.578,50.293,109.863
1532373214.987,44.922,28.809,20.508,51.270,41.016
1532373214.991,30.762,23.438,21.484,54.199,6.348
1532373214.995,32.715,27.344,20.020,70.312,56.152
1532373214.999,34.668,30.762,23.438,85.449,93.750
1532373215.003,29.785,27.344,24.414,82.520,60.547
1532373215.007,28.809,22.461,23.926,81.543,34.668
1532373215.011,22.461,20.020,26.855,80.078,12.695
1532373215.015,13.672,19.043,23.438,77.148,74.219
1532373215.019,12.695,21.484,22.949,76.172,66.406
1532373215.023,21.484,24.414,24.902,77.637,-9.277
1532373215.027,24.902,24.902,24.902,81.055,10.742
1532373215.030,22.461,22.949,25.391,78.613,34.668
1532373215.034,24.902,22.461,21.484,64.453,45.410
1532373215.038,27.344,22.949,14.648,58.594,41.504
1532373215.042,26.367,25.879,18.555,60.059,23.926
1532373215.046,33.691,29.297,17.090,52.734,22.949
1532373215.050,31.738,26.367,11.230,49.316,39.551
1532373215.054,27.832,27.832,16.113,58.594,40.039
1532373215.058,36.133,31.738,23.438,63.965,20.508
1532373215.062,36.133,28.320,23.438,67.383,19.043
1532373215.066,38.086,26.367,27.344,68.848,51.758
1532373215.069,35.156,26.367,28.809,61.035,8.301
1532373215.073,24.414,24.414,19.531,56.152,-19.531
1532373215.077,30.762,25.391,20.508,63.477,30.273
1532373215.081,41.992,26.367,27.832,65.430,53.223
1532373215.085,38.574,27.832,25.391,56.641,63.477
1532373215.089,37.109,28.809,20.508,49.316,9.277
1532373215.093,33.691,28.320,25.391,39.551,-10.254
1532373215.097,25.391,26.855,29.785,23.438,54.199
1532373215.101,23.926,27.832,25.879,21.973,57.129
1532373215.105,27.832,32.227,23.926,35.645,30.762
1532373215.109,25.391,33.203,29.297,36.133,1.465
1532373215.112,21.973,33.203,29.785,23.926,26.855
1532373215.116,23.926,32.715,29.785,15.137,75.195
1532373215.120,23.926,30.273,31.738,12.207,40.039
1532373215.124,22.949,27.344,30.273,15.625,28.320
1532373215.128,19.043,27.344,28.320,18.066,24.414
1532373215.132,16.113,26.855,31.738,13.672,51.758
1532373215.136,19.531,25.391,33.203,9.277,45.410
1532373215.140,23.926,24.902,33.691,10.742,-4.883
1532373215.144,25.391,23.926,32.227,10.254,19.043
1532373215.148,23.438,25.391,30.762,13.672,48.340
1532373215.152,23.438,25.879,29.785,20.508,20.508
1532373215.155,24.902,25.879,33.203,29.297,-0.977
1532373215.159,32.227,26.367,34.180,31.250,-2.930
1532373215.163,49.805,34.180,41.016,41.992,54.688
1532373215.167,60.059,42.969,52.246,47.363,63.965
1532373215.171,56.152,40.527,49.316,37.109,-36.133
1532373215.175,46.387,34.668,38.574,34.180,-10.742
1532373215.179,39.551,33.203,36.621,38.086,49.316
1532373215.183,46.387,33.203,41.016,53.711,56.641
1532373215.187,48.340,31.738,39.062,57.129,37.109
1532373215.191,41.992,32.715,40.039,53.223,-16.602
1532373215.194,40.527,30.762,41.992,61.035,15.625
1532373215.198,43.457,29.785,41.504,72.266,95.215
1532373215.202,37.598,28.320,40.527,69.336,74.219
1532373215.206,27.832,25.879,37.109,61.035,21.484
1532373215.210,32.715,26.367,36.133,60.059,20.020
1532373215.214,36.621,27.344,35.645,69.336,79.590
1532373215.218,28.320,26.367,34.668,70.312,98.145
1532373215.222,28.809,25.391,30.273,62.988,26.367
1532373215.226,31.250,22.949,31.738,63.477,13.672
1532373215.230,23.438,21.973,34.668,59.082,36.133
1532373215.234,21.973,21.973,31.738,51.758,49.316
1532373215.237,24.414,21.484,35.645,54.688,56.641
1532373215.241,28.320,20.020,40.039,59.082,8.789
1532373215.245,28.320,19.043,36.133,61.523,0.488
1532373215.249,38.574,21.973,35.645,69.824,35.645
1532373215.253,42.969,20.996,33.203,64.941,37.598
1532373215.257,30.273,21.484,27.832,57.617,4.883
1532373215.261,35.156,27.832,24.414,62.500,10.742
1532373215.265,43.457,28.320,26.855,69.336,80.566
1532373215.269,36.133,26.855,30.273,70.312,58.594
1532373215.273,28.320,22.461,27.832,66.406,4.883
1532373215.277,30.762,24.902,29.297,66.895,0.977
1532373215.280,29.785,26.367,31.250,66.406,53.223
1532373215.284,23.438,23.926,30.273,65.918,103.516
1532373215.288,19.043,26.855,26.855,62.012,0.000
1532373215.292,20.020,23.438,29.785,55.664,-52.246
1532373215.296,28.320,20.508,32.715,63.965,50.781
1532373215.300,30.762,24.414,32.715,68.848,80.566
1532373215.304,26.855,25.391,33.691,64.453,23.438
1532373215.308,27.832,23.926,30.273,60.547,7.812
1532373215.312,28.809,23.926,30.762,62.500,36.133
1532373215.316,23.926,22.461,30.762,65.918,70.801
1532373215.319,20.020,22.949,28.320,53.711,49.805
1532373215.323,20.996,23.438,29.785,47.852,10.742
1532373215.327,20.996,26.367,29.785,54.688,22.949
1532373215.331,22.461,30.273,28.809,49.805,47.363
1532373215.335,20.508,28.320,28.809,49.805,41.016
1532373215.339,21.973,27.832,31.738,54.688,11.719
1532373215.343,28.809,30.762,37.598,62.500,11.230
1532373215.347,28.320,29.297,39.551,64.941,48.828
1532373215.351,32.715,29.785,34.180,65.430,67.383
1532373215.355,35.156,31.250,30.762,65.918,29.785
1532373215.359,42.480,29.297,31.738,65.430,9.277
1532373215.362,43.945,29.297,37.598,66.406,37.598
1532373215.366,25.391,28.320,36.621,62.500,77.148
1532373215.370,25.879,28.809,33.203,59.082,5.859
1532373215.374,33.691,34.180,34.180,59.082,-42.969
1532373215.378,33.203,31.738,32.715,58.105,6.836
1532373215.382,31.738,27.832,31.250,48.340,51.758
1532373215.386,30.273,29.297,32.715,48.340,59.082
1532373215.390,41.992,32.227,32.715,54.199,0.977
1532373215.394,43.945,34.180,30.762,53.223,-1.465
1532373215.398,25.879,29.785,28.320,46.387,46.387
1532373215.401,14.648,26.367,24.414,42.969,64.941
1532373215.405,15.137,30.273,26.367,46.387,26.855
1532373215.409,21.973,32.227,26.367,49.316,0.488
1532373215.413,27.344,30.762,26.367,51.758,40.527
1532373215.417,30.762,31.738,29.297,48.340,52.246
1532373215.421,22.461,31.738,25.879,40.039,21.973
1532373215.425,17.578,31.738,22.461,40.527,7.324
1532373215.429,23.438,30.762,21.484,44.434,19.531
1532373215.433,33.203,31.250,21.973,48.828,40.039
1532373215.437,39.062,31.738,21.973,54.199,27.344
1532373215.441,37.109,32.227,22.461,52.246,17.578
1532373215.444,36.621,34.668,21.484,53.223,45.410
1532373215.448,36.621,34.668,21.973,54.688,69.824
1532373215.452,40.039,29.785,24.414,53.711,68.359
1532373215.456,39.551,28.320,23.926,51.758,29.297
1532373215.460,33.203,29.785,19.531,52.734,-6.836
1532373215.464,36.621,31.250,19.043,51.270,34.180
1532373215.468,33.203,31.250,22.461,44.922,79.102
1532373215.472,32.227,32.227,24.902,47.852,33.203
1532373215.476,38.086,33.203,21.973,50.781,12.695
1532373215.480,42.480,31.738,23.926,54.688,58.105
1532373215.484,44.922,35.645,20.508,56.152,104.980
1532373215.487,38.574,38.086,14.648,43.457,44.922
1532373215.491,41.016,35.156,17.090,38.574,-13.672
1532373215.495,54.199,37.109,14.648,45.898,26.855
1532373215.499,55.176,36.621,17.090,48.340,64.941
1532373215.503,46.387,37.109,20.020,43.945,57.617
1532373215.507,36.621,38.574,19.531,34.668,21.973
1532373215.511,35.156,36.133,20.508,33.203,33.691
1532373215.515,35.156,34.668,21.973,37.598,73.730
1532373215.519,27.832,33.691,22.949,41.016,49.805
1532373215.523,23.926,33.203,19.531,39.551,10.742
1532373215.526,24.902,35.156,21.973,41.504,9.766
1532373215.530,26.367,36.621,23.926,46.875,42.480
1532373215.534,25.391,31.738,18.066,46.387,55.176
1532373215.538,23.926,26.855,11.719,41.992,0.977
1532373215.542,29.785,27.832,18.555,42.480,-17.578
1532373215.546,27.832,28.320,20.508,44.434,15.625
1532373215.550,22.949,29.297,13.184,43.457,35.156
1532373215.554,25.879,31.738,17.090,43.945,-10.254
1532373215.558,22.949,33.691,20.508,46.387,-43.945
1532373215.562,20.996,32.715,20.020,49.316,-9.766
1532373215.566,29.297,30.762,16.602,49.805,45.898
1532373215.569,29.785,33.203,17.090,45.410,18.066
1532373215.573,29.297,34.180,18.555,37.109,-22.949
1532373215.577,39.062,31.738,16.602,37.598,11.719
1532373215.581,37.598,30.273,20.508,43.457,60.059
1532373215.585,28.809,28.320,22.949,41.992,68.359
1532373215.589,32.715,28.320,17.578,47.852,0.977
1532373215.593,44.922,30.762,19.043,53.223,-15.137
1532373215.597,43.945,34.668,23.926,51.758,59.570
1532373215.601,38.086,35.645,21.484,50.293,55.176
1532373215.605,40.527,32.227,16.602,50.293,3.906
1532373215.609,41.016,32.715,15.625,49.316,-20.996
1532373215.612,37.109,32.715,17.090,42.480,-25.391
1532373215.616,30.273,30.762,13.184,41.016,47.363
1532373215.620,34.180,30.762,11.719,44.434,47.363
1532373215.624,41.992,31.250,17.578,46.875,18.555
1532373215.628,41.016,33.691,15.625,47.363,57.129
1532373215.632,42.969,33.203,10.742,44.922,65.918
1532373215.636,41.992,30.762,10.742,40.527,29.297
1532373215.640,35.156,29.297,8.301,32.715,9.277
1532373215.644,41.016,30.273,10.254,35.156,4.395
1532373215.648,52.734,29.785,6.348,39.062,34.180
1532373215.651,46.875,30.273,4.395,44.434,41.016
1532373215.655,35.645,27.832,14.160,45.898,20.508
1532373215.659,37.598,27.832,16.602,47.852,10.742
1532373215.663,29.785,29.297,15.137,55.664,24.902
1532373215.667,24.414,28.809,16.113,60.059,58.594
1532373215.671,33.691,31.738,15.137,58.105,-18.066
1532373215.675,37.109,29.785,14.648,51.270,-37.598
1532373215.679,29.297,28.809,14.648,53.711,30.273
1532373215.683,30.762,31.250,16.113,56.641,88.379
1532373215.687,39.551,36.133,20.508,56.641,59.570
1532373215.691,45.898,44.434,32.715,62.988,-14.160
1532373215.694,51.758,53.223,32.715,65.918,-7.812
1532373215.698,52.734,55.664,25.391,60.547,39.062
1532373215.702,52.734,53.223,25.879,55.176,57.129
1532373215.706,47.363,51.758,27.344,51.270,1.953
1532373215.710,46.387,48.828,27.344,53.223,-24.902
1532373215.714,49.316,46.875,24.902,48.340,51.270
1532373215.718,53.711,48.340,24.414,47.363,75.195
1532373215.722,55.176,46.875,24.902,49.316,29.785
1532373215.726,54.199,43.945,21.484,47.852,27.832
1532373215.730,51.270,41.016,18.555,48.340,62.988
1532373215.734,50.781,41.016,20.996,51.270,97.168
1532373215.737,56.152,42.480,20.020,53.223,38.086
1532373215.741,51.758,41.016,20.996,48.828,9.766
1532373215.745,44.434,39.062,16.602,47.852,46.875
1532373215.749,42.480,36.621,9.766,44.434,84.473
1532373215.753,41.016,33.203,18.066,37.598,69.824
1532373215.757,45.410,35.156,20.508,40.527,21.973
1532373215.761,50.781,38.086,16.113,48.340,3.906
1532373215.765,40.527,33.691,17.090,44.922,66.895
1532373215.769,40.527,36.133,17.578,42.969,67.871
1532373215.773,49.805,39.062,17.578,46.875,-29.785
1532373215.776,42.480,38.574,19.531,50.781,-0.977
1532373215.780,34.668,38.574,19.531,44.434,65.430
1532373215.784,37.598,34.180,17.090,43.945,84.473
1532373215.788,41.016,32.715,19.043,53.711,17.090
1532373215.792,40.527,33.691,19.043,55.664,-18.066
1532373215.796,38.086,36.621,15.137,54.688,39.551
1532373215.800,36.621,39.551,21.484,50.293,64.941
1532373215.804,36.133,38.574,27.344,48.828,27.832
1532373215.808,32.715,36.621,27.832,48.828,-27.832
1532373215.812,27.344,37.109,24.414,41.016,-14.160
1532373215.816,29.297,37.598,22.461,35.156,72.266
1532373215.819,32.227,35.156,21.484,32.227,64.453
1532373215.823,26.367,30.273,19.043,28.320,14.160
1532373215.827,27.344,30.762,17.578,30.762,32.715
1532373215.831,33.203,34.180,17.090,34.668,51.758
1532373215.835,32.715,33.691,16.113,30.273,50.781
1532373215.839,31.250,32.227,10.742,33.203,9.277
1532373215.843,33.691,33.691,12.207,37.598,-3.418
1532373215.847,39.062,33.203,13.672,33.203,29.297
1532373215.851,48.828,36.133,17.090,38.574,20.508
1532373215.855,51.758,36.133,20.020,41.504,-18.066
1532373215.859,46.875,30.273,20.996,37.109,-9.277
1532373215.862,47.852,29.297,20.996,41.016,32.715
1532373215.866,43.945,28.809,18.066,43.457,67.871
1532373215.870,36.621,28.809,20.996,42.969,38.086
1532373215.874,36.133,25.879,21.484,37.598,1.953
1532373215.878,34.180,26.367,19.043,33.203,28.809
1532373215.882,39.062,32.227,19.043,36.133,55.664
1532373215.886,45.410,36.133,10.742,35.156,47.852
1532373215.890,41.504,35.645,10.742,30.273,16.113
1532373215.894,40.039,32.715,18.555,28.320,5.859
1532373215.898,43.945,30.762,18.066,32.227,64.453
1532373215.901,42.969,31.250,17.090,35.156,79.102
1532373215.905,40.527,28.809,16.602,36.133,27.832
1532373215.909,40.527,27.344,15.625,34.180,-0.488
1532373215.913,37.598,27.344,17.090,32.227,13.184
1532373215.917,36.133,24.902,18.066,39.551,75.684
1532373215.921,41.504,27.832,18.066,46.387,62.988
1532373215.925,38.574,28.809,14.648,46.387,24.414
1532373215.929,39.062,30.273,14.648,51.270,44.922
1532373215.933,42.480,32.715,21.484,55.176,58.594
1532373215.937,39.062,34.180,23.438,53.711,18.066
1532373215.941,33.691,31.250,19.043,48.828,-16.602
1532373215.944,25.391,25.391,15.625,40.039,3.906
1532373215.948,27.344,28.320,17.090,43.945,51.270
1532373215.952,37.598,34.180,21.973,47.852,28.320
1532373215.956,34.180,29.785,20.996,47.363,0.488
1532373215.960,33.203,27.344,17.090,43.945,20.020
1532373215.964,38.574,30.762,14.160,35.156,70.312
1532373215.968,36.133,31.250,16.113,39.551,68.359
1532373215.972,35.645,33.203,20.020,44.922,9.277
1532373215.976,36.621,37.109,20.508,43.457,-3.906
1532373215.980,39.551,37.109,24.414,44.434,12.207
1532373215.983,42.969,34.668,24.414,45.898,71.777
1532373215.987,46.387,34.668,23.438,45.898,36.621
1532373215.991,40.039,34.180,22.949,39.062,-41.504
1532373215.995,30.273,30.762,18.555,35.645,13.672
1532373215.999,32.227,30.762,21.973,39.062,72.754
1532373216.003,36.621,31.250,22.949,39.062,53.223
1532373216.007,32.715,27.832,20.996,38.574,0.977
1532373216.011,27.344,29.785,19.043,33.691,-8.301
1532373216.015,27.344,32.227,25.391,35.156,68.848
1532373216.019,32.715,33.691,30.762,46.387,93.750
1532373216.023,31.738,34.180,26.367,42.969,33.203
1532373216.026,28.320,33.691,23.926,41.992,-9.277
1532373216.030,30.762,34.668,24.414,35.645,16.602
1532373216.034,31.250,32.715,24.902,33.691,81.543
1532373216.038,29.297,30.762,27.832,43.945,55.664
1532373216.042,34.668,34.180,29.785,45.410,24.902
1532373216.046,38.574,36.621,32.227,45.410,34.668
1532373216.050,39.551,37.598,28.809,45.898,54.199
1532373216.054,34.180,38.086,26.367,37.598,39.551
1532373216.058,28.320,38.086,30.273,34.668,-3.418
1532373216.062,27.344,39.551,33.691,42.480,5.371
1532373216.066,20.508,39.062,36.133,37.109,58.594
1532373216.069,14.648,34.668,34.180,32.715,48.828
1532373216.073,22.949,35.645,33.691,40.039,21.973
1532373216.077,28.809,41.992,35.156,41.992,25.391
1532373216.081,19.531,41.504,36.621,40.527,41.504
1532373216.085,24.414,41.016,37.109,35.645,84.961
1532373216.089,26.367,42.969,37.598,24.902,26.367
1532373216.093,24.414,45.410,38.574,20.020,-8.301
1532373216.097,21.484,43.457,39.551,21.973,60.547
1532373216.101,22.461,38.574,39.551,20.996,78.613
1532373216.105,28.809,41.016,40.527,20.996,54.199
1532373216.108,27.832,46.387,41.016,24.902,3.906
1532373216.112,23.438,46.875,45.898,23.438,33.203
1532373216.116,15.625,43.457,49.316,19.531,84.961
1532373216.120,15.137,43.945,45.898,21.973,40.039
1532373216.124,12.695,43.457,46.875,18.066,15.625
1532373216.128,5.859,40.527,52.246,20.508,18.066
1532373216.132,9.277,42.969,54.199,31.250,21.973
1532373216.136,7.812,43.945,60.059,30.762,34.668
1532373216.140,7.324,43.945,61.523,23.926,17.578
1532373216.144,4.883,42.969,56.641,25.879,28.320
1532373216.148,6.348,40.527,59.570,26.367,59.082
1532373216.151,13.184,46.875,56.152,20.996,61.523
1532373216.155,11.719,48.828,49.316,19.531,52.734
1532373216.159,12.695,47.363,48.340,20.508,51.758
1532373216.163,17.090,51.758,49.805,23.926,58.594
1532373216.167,20.020,50.781,50.293,24.902,47.852
1532373216.171,20.020,48.340,48.340,25.391,3.906
1532373216.175,23.926,48.828,45.898,23.926,-10.742
1532373216.179,29.785,55.176,42.480,19.531,21.973
1532373216.183,25.879,52.734,46.875,19.531,52.734
1532373216.187,20.020,42.969,49.316,18.066,18.555
1532373216.191,21.484,46.875,41.016,13.184,-15.137
1532373216.194,20.020,52.246,38.086,14.160,17.578
1532373216.198,21.484,46.387,43.945,20.996,65.430
1532373216.202,24.414,42.480,45.410,24.902,73.730
1532373216.206,30.273,47.363,37.109,21.973,37.598
1532373216.210,20.996,45.410,37.598,19.531,6.348
1532373216.214,13.672,41.016,46.875,23.926,29.297
1532373216.218,31.738,53.223,53.711,37.109,53.223
1532373216.222,40.527,60.547,54.199,43.945,11.719
1532373216.226,41.504,55.176,49.805,48.340,6.836
1532373216.230,41.016,49.805,48.340,46.387,19.531
1532373216.233,30.762,46.387,49.805,39.062,39.551
1532373216.237,30.273,42.969,47.363,39.551,35.645
1532373216.241,36.133,38.574,43.457,41.504,5.859
1532373216.245,40.039,38.086,37.598,39.062,2.930
1532373216.249,43.945,38.574,33.203,32.227,39.062
1532373216.253,41.992,35.645,36.133,37.109,27.832
1532373216.257,41.992,37.109,34.668,47.852,4.883
1532373216.261,44.434,41.016,30.762,47.363,-3.906
1532373216.265,49.316,38.086,30.273,51.270,25.879
1532373216.269,47.363,35.156,32.227,55.176,40.039
1532373216.273,50.781,34.180,34.180,55.176,-12.695
1532373216.276,49.805,30.762,30.762,54.199,22.949
1532373216.280,41.992,30.273,25.879,50.781,54.688
1532373216.284,45.410,33.203,24.414,48.340,59.082
1532373216.288,47.852,32.715,22.949,40.527,42.969
1532373216.292,54.688,31.250,22.949,39.062,2.930
1532373216.296,61.523,30.762,22.949,50.293,25.879
1532373216.300,57.129,27.344,23.438,58.594,85.938
1532373216.304,52.246,22.949,23.926,63.965,48.340
1532373216.308,48.828,24.902,24.902,64.453,0.977
1532373216.312,46.387,26.855,21.484,58.105,16.113
1532373216.316,47.363,26.367,18.066,59.082,43.457
1532373216.319,50.781,28.320,20.508,62.012,56.641
1532373216.323,47.363,25.879,24.902,61.523,23.438
1532373216.327,41.016,23.438,24.414,58.105,6.836
1532373216.331,35.156,26.367,24.414,52.734,62.988
1532373216.335,31.738,25.391,20.508,43.457,82.031
1532373216.339,35.645,23.926,15.625,39.551,44.922
1532373216.343,38.574,24.414,15.625,44.922,22.461
1532373216.347,39.551,26.855,15.625,49.316,40.527
1532373216.351,33.691,26.367,18.555,52.246,62.012
1532373216.355,32.715,22.949,17.578,58.594,20.020
1532373216.358,39.551,24.414,19.531,61.035,-3.418
1532373216.362,47.852,25.879,23.438,61.035,14.648
1532373216.366,49.316,24.414,24.902,62.988,39.551
1532373216.370,42.969,24.414,20.996,55.176,36.621
1532373216.374,44.922,27.344,12.207,46.875,-9.277
1532373216.378,45.898,27.832,9.766,46.875,18.555
1532373216.382,45.410,25.879,12.207,46.875,73.242
1532373216.386,41.016,23.926,13.672,41.016,61.035
1532373216.390,39.551,23.926,12.207,40.039,12.207
1532373216.394,43.457,25.391,10.742,46.387,24.902
1532373216.398,38.574,25.879,8.301,48.340,60.547
1532373216.401,33.691,26.367,5.371,44.922,51.270
1532373216.405,42.480,27.832,12.695,51.270,36.621
1532373216.409,46.387,26.367,14.160,52.734,-6.836
1532373216.413,38.086,21.973,10.254,44.922,-0.977
1532373216.417,36.621,20.020,12.207,45.898,75.195
1532373216.421,38.086,23.438,12.207,47.363,43.945
1532373216.425,46.387,24.902,14.648,49.316,11.230
1532373216.429,47.852,25.391,13.672,43.457,30.273
1532373216.433,36.621,25.879,12.695,40.527,76.172
1532373216.437,29.297,26.367,15.137,42.969,80.566
1532373216.441,28.809,26.855,12.695,40.039,21.484
1532373216.444,34.180,25.391,10.254,41.992,9.766
1532373216.448,38.086,26.367,14.648,43.945,41.016
1532373216.452,34.180,27.344,13.672,41.016,42.969
1532373216.456,37.109,27.344,16.113,46.387,7.812
1532373216.460,45.410,30.273,19.043,54.688,6.348
1532373216.464,48.340,33.203,16.113,56.152,43.945
1532373216.468,47.363,29.785,18.555,52.734,58.105
1532373216.472,45.410,26.367,18.555,52.246,25.879
1532373216.476,48.828,28.320,14.648,54.688,-5.859
1532373216.480,50.781,28.320,17.578,55.664,-3.906
1532373216.483,47.363,26.367,20.996,52.246,51.270
1532373216.487,42.480,24.414,18.066,43.945,15.137
1532373216.491,46.875,24.414,16.602,41.016,-28.809
1532373216.495,44.434,25.879,15.625,40.039,15.625
1532373216.499,41.016,26.367,17.578,37.598,63.477
1532373216.503,41.016,24.902,20.020,40.527,56.152
1532373216.507,34.180,23.926,16.113,42.480,-8.301
1532373216.511,30.762,25.391,15.137,39.062,-14.160
1532373216.515,29.785,25.391,17.090,41.992,41.504
1532373216.519,34.180,27.344,14.648,48.340,50.293
1532373216.523,38.574,29.297,17.090,53.711,18.066
1532373216.526,31.738,29.297,22.461,51.758,15.137
1532373216.530,28.320,30.762,25.879,49.805,36.133
1532373216.534,35.156,30.762,32.715,55.176,82.520
1532373216.538,41.016,31.250,33.203,58.594,46.875
1532373216.542,39.062,31.250,26.855,53.223,4.395
1532373216.546,36.133,30.762,29.297,52.734,27.832
1532373216.550,31.250,31.250,30.762,48.828,46.387
1532373216.554,32.227,33.203,29.785,46.387,23.926
1532373216.558,37.109,34.180,31.250,50.781,7.812
1532373216.562,38.086,33.203,28.809,43.457,33.203
1532373216.565,37.598,34.668,27.344,44.922,62.500
1532373216.569,36.621,34.668,27.344,51.270,25.879
1532373216.573,41.992,34.180,27.344,45.898,-8.789
1532373216.577,45.410,35.645,29.297,50.781,-1.465
1532373216.581,42.480,34.668,32.715,57.617,27.344
1532373216.585,44.434,32.715,29.297,50.781,70.312
1532373216.589,45.898,31.738,23.926,44.434,24.414
1532373216.593,35.156,33.203,24.414,46.387,-12.695
1532373216.597,34.668,33.691,31.250,48.828,31.738
1532373216.601,36.133,30.273,34.668,44.922,75.684
1532373216.605,30.762,27.832,32.715,41.992,56.152
1532373216.608,34.668,30.273,34.180,44.922,-18.066
1532373216.612,38.574,29.785,33.691,46.387,-22.461
1532373216.616,36.621,33.203,32.227,40.527,53.711
1532373216.620,35.156,32.715,31.738,37.109,44.434
1532373216.624,29.785,31.738,29.785,36.621,3.418
1532373216.628,35.645,36.621,29.785,41.992,13.672
1532373216.632,45.898,35.156,31.250,53.223,78.613
1532373216.636,41.992,34.180,34.668,52.734,75.684
1532373216.640,39.551,36.621,33.203,47.363,4.883
1532373216.644,39.062,38.574,31.738,54.199,24.902
1532373216.648,35.156,38.574,31.250,51.758,51.758
1532373216.651,37.598,39.551,32.227,47.363,11.230
1532373216.655,35.645,37.598,33.203,48.828,-22.949
1532373216.659,36.621,37.598,34.180,43.945,-14.648
1532373216.663,44.922,40.039,34.180,41.992,49.316
1532373216.667,41.016,40.527,29.785,44.434,57.129
1532373216.671,37.109,42.480,29.785,40.039,14.648
1532373216.675,38.574,41.016,30.762,37.598,17.578
1532373216.679,36.133,38.086,28.320,39.551,46.875
1532373216.683,35.645,39.062,23.926,44.434,83.984
1532373216.687,46.387,40.039,24.414,54.688,38.574
1532373216.690,56.152,40.039,26.855,62.012,-19.531
1532373216.694,53.223,40.039,28.809,61.035,-0.488
1532373216.698,51.270,39.062,26.367,60.059,62.500
1532373216.702,55.664,38.574,21.484,60.547,79.590
1532373216.706,54.199,37.109,24.414,61.523,15.137
1532373216.710,51.270,38.574,28.809,59.082,-0.488
1532373216.714,45.898,34.668,24.414,54.688,47.852
1532373216.718,33.691,30.762,22.949,50.781,81.543
1532373216.722,34.180,34.668,29.297,50.293,42.480
1532373216.726,42.480,33.203,33.203,57.617,13.672
1532373216.730,46.387,35.156,31.738,61.035,14.648
1532373216.733,37.109,39.551,30.762,55.176,41.016
1532373216.737,30.762,37.109,30.762,46.875,56.641
1532373216.741,32.715,35.156,29.785,38.574,-1.465
1532373216.745,30.762,35.156,30.762,33.691,2.930
1532373216.749,26.367,35.156,27.344,31.738,62.500
1532373216.753,22.461,35.156,21.973,31.250,73.242
1532373216.757,27.344,32.715,25.391,30.762,24.414
1532373216.761,28.320,32.715,26.855,32.715,-1.953
1532373216.765,18.066,34.180,26.855,30.273,41.016
1532373216.769,14.160,30.762,22.461,20.020,62.012
1532373216.773,17.090,30.273,16.113,19.043,2.930
1532373216.776,24.414,33.691,16.602,25.391,-15.137
1532373216.780,29.297,35.156,15.625,21.973,17.578
1532373216.784,27.832,35.645,12.207,17.578,58.594
1532373216.788,30.762,35.156,14.160,22.461,35.156
1532373216.792,36.133,35.156,17.578,24.902,-26.855
1532373216.796,29.297,31.250,13.184,21.484,0.000
1532373216.800,22.949,26.855,11.230,16.602,56.641
1532373216.804,30.273,30.273,14.648,21.484,52.734
1532373216.808,37.109,32.715,12.695,22.461,-3.418
1532373216.812,34.668,30.762,13.672,22.949,-3.418
1532373216.815,29.785,30.762,14.160,21.973,69.336
1532373216.819,30.273,32.227,15.625,16.113,58.594
1532373216.823,35.645,32.715,18.555,16.602,-0.488
1532373216.827,31.250,32.227,17.090,13.184,-18.066
1532373216.831,20.996,32.715,14.160,4.883,11.230
1532373216.835,21.484,34.668,15.625,5.371,41.992
1532373216.839,23.926,33.691,16.602,9.766,0.977
1532373216.843,24.414,33.691,19.043,17.090,-5.371
1532373216.847,21.484,35.645,21.973,20.020,23.438
1532373216.851,19.043,34.180,18.555,14.648,57.129
1532373216.855,20.508,32.227,19.043,10.742,33.691
1532373216.858,17.090,31.250,22.461,10.254,-23.438
1532373216.862,16.602,35.156,15.625,7.324,10.254
1532373216.866,18.555,38.086,10.254,3.906,49.316
1532373216.870,20.996,32.715,10.742,9.766,53.711
1532373216.874,22.949,27.832,12.695,18.066,17.578
1532373216.878,29.297,29.297,15.625,22.949,7.324
1532373216.882,29.297,31.250,18.066,25.391,52.246
1532373216.886,23.926,28.809,18.066,29.297,58.594
1532373216.890,22.949,25.879,17.578,27.344,0.488
1532373216.894,20.508,25.391,13.184,24.414,-21.484
1532373216.898,13.672,24.902,10.742,29.297,23.438
1532373216.901,13.672,23.438,15.625,29.785,57.617
1532373216.905,24.902,27.344,22.461,30.762,24.414
1532373216.909,41.016,37.109,30.762,40.039,-35.156
1532373216.913,57.617,51.270,37.598,51.270,-13.672
1532373216.917,67.871,62.500,47.852,62.500,52.734
1532373216.921,73.730,64.941,54.199,66.895,40.527
1532373216.925,78.125,67.871,56.641,67.871,11.719
1532373216.929,78.125,67.383,53.223,64.453,10.254
1532373216.933,87.402,63.965,48.340,59.082,26.855
1532373216.937,84.961,62.500,46.875,56.152,28.809
1532373216.940,73.242,56.641,44.922,55.664,-0.488
1532373216.944,71.289,50.781,44.922,66.406,23.926
1532373216.948,69.336,54.688,47.852,75.195,75.684
1532373216.952,62.988,54.688,50.293,79.590,81.055
1532373216.956,53.711,45.898,43.945,77.637,19.531
1532373216.960,50.293,41.992,38.086,70.801,-7.812
1532373216.964,51.270,44.922,34.180,68.848,38.574
1532373216.968,50.293,44.922,33.203,67.871,48.340
1532373216.972,44.434,39.062,34.668,59.082,-21.484
1532373216.976,41.992,36.621,29.785,55.664,-19.043
1532373216.980,46.875,38.086,29.297,64.453,29.297
1532373216.983,50.293,37.109,35.645,75.195,57.129
1532373216.987,50.293,34.180,35.156,75.684,34.180
1532373216.991,43.945,35.645,29.785,67.383,-18.555
1532373216.995,38.086,36.621,30.273,59.082,20.508
1532373216.999,37.598,35.645,31.250,56.152,73.242
1532373217.003,35.156,33.203,27.832,58.594,49.805
1532373217.007,28.809,28.320,23.438,43.945,12.207
1532373217.011,25.391,27.832,19.531,30.273,13.672
1532373217.015,26.855,30.762,21.484,38.086,64.941
1532373217.019,31.738,33.203,18.555,43.457,60.547
1532373217.022,33.203,32.227,20.508,45.898,1.953
1532373217.026,30.273,30.273,26.855,47.363,-0.488
1532373217.030,30.762,31.250,24.414,44.922,-0.488
1532373217.034,32.227,32.227,25.391,43.945,35.645
1532373217.038,34.180,31.738,26.367,41.504,49.316
1532373217.042,37.598,29.785,22.949,41.992,17.578
1532373217.046,30.762,28.809,20.996,43.945,44.434
1532373217.050,24.902,28.809,18.555,40.039,67.871
1532373217.054,26.855,26.367,14.160,34.668,50.293
1532373217.058,24.414,24.414,13.672,36.133,4.395
1532373217.062,26.367,29.297,15.137,40.527,16.602
1532373217.065,30.273,30.273,19.043,41.992,89.355
1532373217.069,29.785,28.809,19.043,33.203,78.613
1532373217.073,30.273,28.320,14.648,24.414,-7.324
1532373217.077,24.902,24.902,16.113,26.855,6.348
1532373217.081,23.926,23.926,21.484,35.156,71.777
1532373217.085,32.715,27.344,22.461,42.969,85.449
1532373217.089,36.621,30.762,21.973,48.828,20.996
1532373217.093,39.551,30.762,22.949,52.246,-3.906
1532373217.097,36.621,27.344,23.438,44.922,62.988
1532373217.101,31.250,26.855,21.973,36.621,87.402
1532373217.105,28.320,26.855,17.578,30.273,54.199
1532373217.108,28.809,25.879,18.066,28.320,9.277
1532373217.112,34.180,26.855,25.391,32.715,3.418
1532373217.116,36.133,25.391,25.879,29.297,62.012
1532373217.120,30.273,25.391,25.391,26.367,58.105
1532373217.124,27.832,26.367,21.484,26.855,38.574
1532373217.128,31.738,27.832,18.066,28.320,41.504
1532373217.132,30.762,29.785,21.484,27.832,47.852
1532373217.136,31.738,30.273,22.949,31.250,74.707
1532373217.140,34.180,29.297,22.461,36.133,42.480
1532373217.144,34.180,29.297,23.926,32.715,16.602
1532373217.147,35.156,29.297,25.879,30.762,38.574
1532373217.151,31.250,26.855,25.391,27.344,61.035
1532373217.155,25.391,25.391,23.438,22.461,40.039
1532373217.159,27.344,27.344,25.391,23.926,-7.812
1532373217.163,31.738,28.809,23.926,24.902,26.855
1532373217.167,33.203,28.809,24.902,25.879,55.664
1532373217.171,36.133,26.855,29.785,27.832,30.762
1532373217.175,33.203,25.391,26.855,26.855,3.906
1532373217.179,32.715,29.297,29.785,31.738,-0.977
1532373217.183,32.227,27.344,32.227,31.738,64.453
1532373217.187,33.203,26.855,29.297,28.809,75.195
1532373217.190,32.227,27.344,30.762,29.785,7.812
1532373217.194,33.203,27.344,33.203,36.621,-1.953
1532373217.198,34.180,28.809,34.668,37.109,27.832
1532373217.202,29.297,28.320,32.715,34.180,38.574
1532373217.206,33.691,29.785,33.691,37.109,31.250
1532373217.210,40.039,31.250,35.156,27.344,3.906
1532373217.214,29.297,26.855,30.273,15.625,-1.953
1532373217.218,23.438,24.414,28.809,20.020,41.504
1532373217.222,39.551,26.367,32.227,28.320,15.625
1532373217.226,38.086,27.832,32.715,30.273,-23.438
1532373217.230,30.762,28.809,34.180,33.691,4.395
1532373217.233,33.691,30.762,33.203,35.156,37.598
1532373217.237,28.320,29.785,30.273,35.156,25.391
1532373217.241,23.438,26.855,29.297,34.180,3.906
1532373217.245,30.273,26.367,30.762,33.203,0.000
1532373217.249,21.973,24.902,30.762,26.367,23.438
1532373217.253,17.578,24.414,31.250,20.508,5.859
1532373217.257,27.832,25.391,34.180,27.344,-31.250
1532373217.261,37.109,26.855,35.645,29.785,-4.395
1532373217.265,40.039,28.809,35.645,29.297,61.035
1532373217.269,32.227,28.320,35.156,27.344,58.105
1532373217.272,27.344,26.367,35.156,25.391,-1.953
1532373217.276,24.414,25.879,32.227,26.367,12.207
1532373217.280,25.879,25.879,30.273,19.531,41.992
1532373217.284,26.367,25.879,32.227,16.602,47.852
1532373217.288,21.973,21.973,30.273,18.066,32.715
1532373217.292,25.391,22.461,29.297,20.020,-10.254
1532373217.296,29.297,24.902,32.715,22.461,-7.812
1532373217.300,28.320,27.344,36.621,27.832,36.621
1532373217.304,26.855,27.832,35.156,24.414,35.645
1532373217.308,26.855,25.879,30.762,24.414,-7.324
1532373217.312,20.508,25.879,29.297,23.926,-25.391
1532373217.315,15.625,22.949,30.762,19.531,53.711
1532373217.319,25.879,22.461,28.809,24.902,84.961
1532373217.323,24.902,24.414,26.367,21.484,16.602
1532373217.327,20.996,27.344,26.855,17.578,2.930
1532373217.331,25.391,28.320,26.367,18.066,55.176
1532373217.335,31.738,27.832,27.344,23.926,73.242
1532373217.339,34.668,29.785,30.273,27.832,31.250
1532373217.343,39.551,28.809,30.273,26.367,31.250
1532373217.347,40.527,28.809,35.156,28.809,66.895
1532373217.351,32.715,33.203,38.086,25.391,50.293
1532373217.355,32.715,33.203,32.227,22.949,11.719
1532373217.358,32.227,32.715,28.809,24.414,0.488
1532373217.362,30.762,31.250,30.762,21.484,17.578
1532373217.366,32.715,34.180,31.250,21.973,42.969
1532373217.370,27.832,34.180,32.715,26.367,40.527
1532373217.374,27.832,29.297,35.156,33.203,27.832
1532373217.378,31.250,29.785,33.203,34.668,31.250
1532373217.382,31.250,32.227,33.691,35.645,51.270
1532373217.386,39.062,33.691,32.227,38.574,53.711
1532373217.390,37.598,32.715,32.715,32.227,-20.020
1532373217.394,33.203,31.250,30.273,20.508,-20.996
1532373217.397,35.156,30.762,21.973,17.578,52.246
1532373217.401,32.227,25.879,29.297,21.973,58.594
1532373217.405,33.203,25.879,33.203,21.973,28.809
1532373217.409,36.133,27.832,26.855,19.531,22.461
1532373217.413,30.762,28.320,25.879,26.367,57.129
1532373217.417,31.738,27.832,24.902,29.785,70.312
1532373217.421,33.203,25.391,29.297,28.320,48.340
1532373217.425,29.297,26.367,30.273,30.273,10.254
1532373217.429,29.297,27.344,26.855,31.738,25.391
1532373217.433,29.297,27.344,27.344,27.832,79.590
1532373217.437,32.227,26.855,23.926,20.508,63.965
1532373217.440,29.785,27.344,24.902,15.625,2.441
1532373217.444,28.320,25.879,28.320,12.695,5.859
1532373217.448,37.109,25.879,29.297,12.695,33.691
1532373217.452,36.133,27.832,31.738,17.090,40.527
1532373217.456,30.273,26.367,27.832,18.555,31.738
1532373217.460,33.203,26.367,25.391,17.090,4.883
1532373217.464,29.785,31.250,27.832,21.484,27.832
1532373217.468,24.414,33.203,27.344,22.461,51.270
1532373217.472,29.297,30.273,31.738,24.414,-0.977
1532373217.476,24.414,28.320,34.180,31.250,-24.902
1532373217.480,26.855,31.250,31.250,37.109,26.855
1532373217.483,39.551,35.156,33.691,49.316,60.547
1532373217.487,36.133,34.668,33.691,50.293,-1.953
1532373217.491,41.016,36.133,35.156,51.758,-49.805
1532373217.495,39.062,34.668,35.645,48.828,-11.719
1532373217.499,25.879,36.621,35.156,42.480,45.410
1532373217.503,29.297,39.551,36.621,45.898,58.594
1532373217.507,31.250,37.598,36.133,45.898,7.324
1532373217.511,32.227,36.133,38.574,40.527,15.625
1532373217.515,31.250,35.645,41.992,36.133,53.711
1532373217.519,23.926,34.180,39.062,37.109,54.688
1532373217.522,21.973,33.203,34.180,37.109,25.391
1532373217.526,24.414,37.598,33.691,37.598,4.395
1532373217.530,28.809,37.598,31.738,36.621,33.203
1532373217.534,34.668,34.668,31.738,34.668,58.105
1532373217.538,33.203,34.180,31.738,40.039,18.555
1532373217.542,37.109,35.645,29.297,45.410,-18.066
1532373217.546,41.016,36.133,27.832,41.992,-0.488
1532373217.550,33.203,33.691,26.855,27.344,44.922
1532373217.554,34.180,32.227,28.320,25.391,52.734
1532373217.558,36.133,32.715,26.367,32.227,14.648
1532373217.562,38.086,34.668,26.367,33.203,28.809
1532373217.565,42.969,33.203,27.344,34.180,70.312
1532373217.569,39.551,30.762,26.367,33.203,41.016
1532373217.573,40.039,34.180,23.438,27.832,-3.906
1532373217.577,46.387,35.156,24.902,28.809,14.160
1532373217.581,53.711,35.156,29.785,34.180,47.852
1532373217.585,54.199,36.133,25.391,27.832,76.660
1532373217.589,41.992,35.645,23.438,16.602,19.531
1532373217.593,39.551,34.180,26.855,25.391,-20.996
1532373217.597,45.898,41.504,36.133,44.434,38.574
1532373217.601,56.152,51.270,47.852,59.570,84.961
1532373217.604,60.059,50.781,46.875,59.082,59.570
1532373217.608,45.410,48.828,40.039,51.758,8.301
1532373217.612,33.691,48.340,37.109,54.199,27.832
1532373217.616,40.039,49.805,39.062,56.641,81.055
1532373217.620,42.969,47.363,39.062,56.152,66.895
1532373217.624,38.574,41.992,39.551,50.293,22.461
1532373217.628,39.062,41.992,41.016,41.504,0.000
1532373217.632,36.133,42.969,37.109,38.574,25.391
1532373217.636,32.715,39.062,34.180,36.621,46.875
1532373217.640,31.250,36.133,32.715,33.691,-7.324
1532373217.644,28.809,37.109,31.738,33.691,-15.625
1532373217.647,29.297,39.062,31.738,32.715,46.387
1532373217.651,30.273,34.668,27.344,35.156,81.055
1532373217.655,34.668,32.715,24.414,32.715,29.297
1532373217.659,35.156,35.156,23.926,32.227,0.488
1532373217.663,33.691,35.156,25.879,36.133,41.504
1532373217.667,35.156,36.133,30.762,33.203,77.148
1532373217.671,34.180,36.133,31.250,22.461,18.555
1532373217.675,32.227,32.715,26.367,21.484,-20.020
1532373217.679,30.762,29.785,27.832,30.273,36.621
1532373217.683,28.809,30.762,27.832,28.320,62.500
1532373217.687,25.879,27.344,23.438,30.762,61.523
1532373217.690,28.320,25.391,21.973,36.621,21.484
1532373217.694,29.785,23.926,23.438,36.133,19.531
1532373217.698,26.367,25.391,19.531,39.062,68.359
1532373217.702,31.250,28.809,22.461,47.852,63.477
1532373217.706,33.691,26.367,30.273,51.270,45.898
1532373217.710,27.832,23.926,25.879,55.664,49.805
1532373217.714,29.785,26.367,25.879,62.500,50.293
1532373217.718,31.250,27.344,29.785,63.965,79.590
1532373217.722,24.902,25.879,29.785,62.988,54.199
1532373217.726,20.996,28.320,27.344,54.688,8.789
1532373217.729,20.996,28.809,22.461,36.133,-13.672
1532373217.733,20.996,26.367,24.414,26.367,37.109
1532373217.737,21.484,24.414,24.902,30.762,65.430
1532373217.741,21.973,24.414,23.438,37.109,14.648
1532373217.745,28.320,25.879,25.879,41.504,22.949
1532373217.749,34.668,25.391,26.855,42.969,58.105
1532373217.753,31.738,25.879,28.320,42.480,71.777
1532373217.757,27.344,28.320,29.297,41.992,40.527
1532373217.761,25.879,33.691,31.250,46.387,15.137
1532373217.765,27.832,32.715,28.320,51.270,44.434
1532373217.769,27.832,28.809,26.855,46.387,53.711
1532373217.772,30.762,25.391,28.320,43.945,17.578
1532373217.776,34.668,26.367,30.762,45.410,24.414
1532373217.780,38.086,30.762,30.762,49.316,75.195
1532373217.784,42.969,30.273,31.738,57.617,79.590
1532373217.788,44.434,28.320,30.273,58.594,40.039
1532373217.792,39.551,27.344,23.926,49.805,29.785
1532373217.796,32.715,25.879,23.926,41.992,41.504
1532373217.800,29.297,26.855,25.391,39.062,89.844
1532373217.804,26.855,27.832,24.902,36.621,90.820
1532373217.808,24.414,24.414,25.391,37.109,13.184
1532373217.812,31.250,25.391,24.902,39.551,10.254
1532373217.815,32.715,24.414,24.414,41.016,58.594
1532373217.819,26.855,22.949,24.414,41.016,53.711
1532373217.823,22.949,25.879,24.414,36.621,6.836
1532373217.827,26.855,29.297,21.973,39.551,-12.207
1532373217.831,32.715,27.344,20.020,43.945,17.578
1532373217.835,30.273,23.438,19.531,37.109,65.918
1532373217.839,27.832,25.879,18.555,29.785,42.969
1532373217.843,25.879,25.391,18.555,25.391,-8.789
1532373217.847,30.273,23.926,18.555,26.855,8.301
1532373217.851,36.133,24.902,17.090,30.762,23.438
1532373217.854,35.156,23.438,14.160,31.250,20.996
1532373217.858,32.227,24.414,13.672,14.648,9.766
1532373217.862,27.344,24.902,16.113,-1.953,23.926
1532373217.866,23.438,21.973,16.113,-9.766,54.199
1532373217.870,24.902,19.043,11.230,-24.902,22.461
1532373217.874,25.879,18.066,11.230,-34.668,-11.230
1532373217.878,25.879,22.461,15.137,-36.133,-3.418
1532373217.882,31.738,26.367,15.625,-38.086,43.457
1532373217.886,30.273,23.926,15.137,-38.086,66.406
1532373217.890,25.391,24.414,13.184,-43.457,3.418
1532373217.894,25.391,25.879,11.719,-46.875,13.672
1532373217.897,23.926,21.484,8.789,-26.855,49.805
1532373217.901,19.531,17.578,8.789,-6.836,37.598
1532373217.905,26.367,20.508,8.789,7.812,20.020
1532373217.909,30.273,21.973,12.695,11.230,-24.902
1532373217.913,24.902,19.531,10.742,-18.555,-13.184
1532373217.917,23.438,18.555,12.695,-37.598,81.055
1532373217.921,19.043,18.066,15.137,-46.387,61.523
1532373217.925,13.672,18.555,11.719,-59.082,-9.277
1532373217.929,23.438,19.043,12.695,-46.387,21.973
1532373217.933,27.832,23.438,15.625,-17.090,78.613
1532373217.937,17.578,23.926,17.578,1.465,65.918
1532373217.940,12.695,20.020,9.766,9.766,5.371
1532373217.944,10.742,20.996,6.348,13.184,13.184
1532373217.948,15.137,20.508,9.277,13.184,42.969
1532373217.952,26.367,25.391,7.324,15.137,54.688
1532373217.956,28.320,27.832,5.859,20.996,47.852
1532373217.960,31.250,27.344,7.812,28.809,9.766
1532373217.964,34.180,27.344,11.719,43.945,18.555
1532373217.968,30.762,21.973,12.695,42.969,34.180
1532373217.972,28.809,20.020,10.742,33.691,21.973
1532373217.976,16.602,22.949,11.230,35.156,-14.160
1532373217.979,14.648,19.531,11.230,39.062,5.859
1532373217.983,23.926,20.020,11.230,40.039,63.477
1532373217.987,26.855,23.926,13.184,43.457,35.156
1532373217.991,25.879,24.414,14.160,48.340,-5.859
1532373217.995,25.879,23.926,11.230,45.898,10.254
1532373217.999,21.484,20.996,7.324,39.551,42.480
1532373218.003,19.043,20.996,7.812,35.156,44.434
1532373218.007,26.367,22.461,9.766,38.086,-4.395
1532373218.011,26.855,23.438,12.695,42.480,-20.508
1532373218.015,25.391,23.926,13.184,42.480,45.410
1532373218.019,28.809,21.484,11.719,47.363,77.637
1532373218.022,28.320,21.973,11.719,49.316,29.297
1532373218.026,30.273,22.949,10.254,49.316,-6.836
1532373218.030,29.785,21.484,10.742,48.828,21.484
1532373218.034,20.996,19.531,11.719,45.898,82.031
1532373218.038,19.531,16.113,7.812,45.410,61.035
1532373218.042,22.949,18.555,7.324,46.875,-11.230
1532373218.046,30.273,20.508,11.230,46.875,3.906
1532373218.050,27.344,14.648,14.160,41.504,34.180
1532373218.054,18.066,12.207,12.207,37.109,44.922
1532373218.058,22.461,12.695,11.230,37.598,31.738
1532373218.062,22.949,13.672,12.695,34.668,28.809
1532373218.065,19.043,13.184,8.789,27.832,56.641
1532373218.069,20.020,14.648,8.301,30.762,62.012
1532373218.073,24.414,18.066,11.719,40.039,15.625
1532373218.077,31.250,18.555,14.648,46.875,6.348
1532373218.081,32.227,18.555,14.648,32.715,59.082
1532373218.085,15.137,13.184,11.230,-6.348,40.039
1532373218.089,9.766,12.207,14.160,-34.180,-12.695
1532373218.093,19.043,16.602,19.043,-45.898,8.789
1532373218.097,26.367,16.113,22.949,-39.551,55.664
1532373218.101,26.367,18.066,24.902,-34.668,77.637
1532373218.104,22.949,21.973,20.996,-39.551,42.969
1532373218.108,17.090,22.461,20.996,-44.922,-14.648
1532373218.112,12.695,20.020,20.020,-66.895,4.395
1532373218.116,28.320,26.855,27.344,-85.938,54.688
1532373218.120,38.086,39.551,37.598,-91.797,39.062
1532373218.124,34.668,38.574,34.668,-97.656,-30.273
1532373218.128,37.598,36.133,34.180,-100.586,-0.977
1532373218.132,33.203,33.691,34.180,-106.445,35.156
1532373218.136,28.320,31.738,29.297,-114.746,9.277
1532373218.140,31.738,31.250,27.832,-113.281,5.371
1532373218.144,30.273,29.785,26.855,-110.352,4.883
1532373218.147,28.809,28.320,26.367,-109.863,36.133
1532373218.151,32.227,27.344,25.879,-105.469,54.688
1532373218.155,33.203,24.902,26.367,-99.121,15.137
1532373218.159,28.320,24.414,23.438,-93.750,1.953
1532373218.163,20.020,22.461,15.625,-102.539,31.738
1532373218.167,22.949,21.973,18.555,-117.188,59.570
1532373218.171,26.367,19.531,19.043,-123.535,63.477
1532373218.175,30.273,20.996,19.531,-116.211,23.438
1532373218.179,41.992,25.879,24.414,-104.980,17.090
1532373218.183,41.992,29.297,26.855,-101.074,67.871
1532373218.186,39.062,29.297,27.832,-94.727,71.777
1532373218.190,31.250,24.902,22.949,-95.703,5.371
1532373218.194,21.973,23.926,19.531,-93.750,15.625
1532373218.198,30.273,24.902,24.414,-73.242,65.430
1532373218.202,36.133,20.020,26.855,-66.406,71.289
1532373218.206,34.668,15.137,24.414,-68.359,38.574
1532373218.210,36.133,23.438,21.973,-68.848,20.508
1532373218.214,39.551,28.320,25.879,-61.523,58.594
1532373218.218,47.852,28.320,26.855,-53.223,68.359
1532373218.222,51.270,30.762,20.996,-59.082,16.602
1532373218.226,44.434,25.879,21.973,-54.199,-9.277
1532373218.229,40.039,23.926,21.973,-49.805,20.508
1532373218.233,39.551,23.438,19.043,-52.734,54.199
1532373218.237,24.414,19.043,21.973,-57.129,32.227
1532373218.241,19.531,21.484,22.461,-58.594,-13.184
1532373218.245,21.973,25.391,19.531,-56.641,-1.465
1532373218.249,20.996,23.926,17.578,-58.594,66.406
1532373218.253,21.484,23.926,17.090,-58.594,55.664
1532373218.257,21.484,22.461,17.090,-55.176,5.859
1532373218.261,24.414,22.461,20.020,-50.293,20.508
1532373218.265,20.996,24.414,21.973,-47.852,50.293
1532373218.269,20.508,23.926,26.367,-48.340,9.277
1532373218.272,20.020,19.531,27.832,-52.246,-43.457
1532373218.276,22.461,15.625,22.461,-53.711,-20.996
1532373218.280,20.996,17.578,22.949,-56.152,8.789
1532373218.284,7.812,16.113,26.367,-64.453,41.992
1532373218.288,10.742,13.184,28.809,-62.500,10.742
1532373218.292,19.531,18.066,29.297,-56.641,-33.691
1532373218.296,25.391,22.949,29.297,-49.316,14.648
1532373218.300,26.855,24.902,29.785,-40.527,52.734
1532373218.304,22.949,21.973,30.273,-44.434,35.645
1532373218.308,22.461,19.531,30.762,-47.363,-1.953
1532373218.311,23.926,20.020,27.832,-48.340,-10.254
1532373218.315,20.508,20.020,26.367,-55.176,49.805
1532373218.319,23.926,23.926,30.762,-43.457,50.293
1532373218.323,31.250,27.832,28.809,-2.930,-13.672
1532373218.327,32.227,27.832,30.762,12.207,-25.879
1532373218.331,30.762,28.320,30.273,4.395,-1.953
1532373218.335,26.367,23.438,23.926,-1.465,19.043
1532373218.339,22.461,19.531,27.344,-2.441,9.277
1532373218.343,23.438,23.926,30.762,7.812,4.883
1532373218.347,25.391,23.926,30.273,9.766,31.250
1532373218.351,20.020,22.461,27.832,5.371,72.266
1532373218.354,24.414,24.902,25.879,15.137,58.594
1532373218.358,34.180,27.344,26.855,22.949,39.062
1532373218.362,34.180,27.344,28.320,23.438,35.156
1532373218.366,28.320,25.391,25.391,20.508,57.617
1532373218.370,24.902,22.949,21.484,18.066,79.102
1532373218.374,25.391,22.949,21.484,21.973,27.832
1532373218.378,24.902,23.926,27.344,28.320,19.043
1532373218.382,24.902,22.949,27.832,30.273,57.129
1532373218.386,29.297,23.438,23.926,40.527,63.477
1532373218.390,28.809,20.020,27.344,56.641,6.348
1532373218.394,25.391,20.020,27.344,64.453,-14.648
1532373218.397,32.227,23.438,25.879,84.961,43.457
1532373218.401,40.527,24.902,28.320,104.492,74.219
1532373218.405,37.598,24.902,27.832,101.074,37.598
1532373218.409,31.250,26.367,27.344,93.750,14.648
1532373218.413,35.645,25.879,27.832,93.262,45.898
1532373218.417,35.156,25.879,26.367,87.402,68.359
1532373218.421,29.785,26.367,27.344,91.797,57.617
1532373218.425,31.738,24.414,32.715,93.262,23.926
1532373218.429,36.133,24.902,34.668,78.125,20.508
1532373218.433,34.668,25.879,33.203,68.359,35.156
1532373218.436,30.273,27.344,27.832,66.895,64.453
1532373218.440,25.391,29.297,23.926,69.824,23.438
1532373218.444,26.855,27.344,25.391,75.195,9.277
1532373218.448,30.762,25.391,27.832,78.125,66.406
1532373218.452,31.738,25.391,27.832,78.125,73.730
1532373218.456,31.250,21.973,23.438,72.266,55.664
1532373218.460,33.691,22.949,19.043,70.801,24.902
1532373218.464,33.203,21.484,23.926,77.637,38.574
1532373218.468,27.832,16.602,27.832,75.195,75.684
1532373218.472,28.809,16.113,26.367,76.172,45.898
1532373218.476,33.203,15.137,26.855,80.566,3.906
1532373218.479,26.367,17.578,23.926,77.148,39.551
1532373218.483,19.043,20.996,24.414,77.148,82.520
1532373218.487,24.414,20.996,30.273,82.031,58.594
1532373218.491,34.180,24.414,34.180,81.543,5.859
1532373218.495,32.227,21.973,35.645,74.219,7.812
1532373218.499,20.020,17.578,29.297,62.988,40.527
1532373218.503,14.648,17.090,24.414,53.711,41.992
1532373218.507,20.996,19.043,23.926,55.176,10.742
1532373218.511,28.320,19.043,27.344,58.594,-18.066
1532373218.515,32.227,21.973,35.156,59.082,16.602
1532373218.519,33.691,26.367,35.156,55.176,27.344
1532373218.522,28.320,23.438,30.273,45.410,27.832
1532373218.526,23.438,21.484,31.738,48.828,9.766
1532373218.530,24.902,23.438,32.715,53.711,4.883
1532373218.534,26.367,26.855,27.832,50.293,59.570
1532373218.538,27.344,28.320,26.367,54.199,39.062
1532373218.542,28.320,26.855,28.320,63.965,-2.930
1532373218.546,32.715,26.855,26.367,71.289,21.973
1532373218.550,34.668,28.320,25.391,74.219,66.406
1532373218.554,27.832,28.320,26.367,66.895,62.012
1532373218.558,25.391,28.809,26.855,58.594,7.324
1532373218.561,22.949,28.320,28.320,58.105,-0.488
1532373218.565,17.090,25.879,30.273,58.105,37.598
1532373218.569,20.508,27.832,27.832,48.340,34.180
1532373218.573,24.414,29.297,25.879,40.527,-12.695
1532373218.577,21.973,28.320,27.344,45.898,5.371
1532373218.581,26.367,28.809,27.344,45.898,55.664
1532373218.585,32.227,29.785,28.320,41.504,96.680
1532373218.589,41.016,31.738,28.320,44.922,53.711
1532373218.593,45.898,34.180,28.809,49.805,-4.883
1532373218.597,39.551,33.691,35.645,54.688,22.949
1532373218.601,41.992,32.227,40.527,59.082,74.707
1532373218.604,42.969,32.715,35.156,60.547,51.758
1532373218.608,36.621,28.809,31.250,63.965,-1.465
1532373218.612,35.645,28.809,37.109,56.641,-7.324
1532373218.616,31.250,30.273,34.180,52.246,38.086
1532373218.620,27.832,29.785,31.250,51.270,51.270
1532373218.624,39.551,42.969,45.410,66.895,13.672
1532373218.628,56.641,51.270,54.688,82.031,13.184
1532373218.632,54.688,45.898,49.805,75.684,54.688
1532373218.636,43.945,43.457,45.410,73.242,84.961
1532373218.640,41.016,42.969,45.898,68.848,38.086
1532373218.643,41.504,40.527,43.945,60.547,19.043
1532373218.647,40.527,37.598,37.109,57.129,55.176
1532373218.651,36.621,37.109,34.668,55.664,53.711
1532373218.655,34.668,37.598,39.062,56.152,33.203
1532373218.659,32.715,35.645,35.156,56.641,27.832
1532373218.663,32.715,33.691,31.250,52.246,49.316
1532373218.667,34.668,31.738,33.203,47.852,71.289
1532373218.671,42.969,30.273,36.133,54.199,29.785
1532373218.675,47.363,30.273,35.645,58.105,-3.906
1532373218.679,47.363,31.250,33.203,55.176,39.551
1532373218.683,41.504,32.715,31.738,51.758,83.008
1532373218.686,32.227,30.762,28.320,49.316,61.523
1532373218.690,30.762,27.832,24.414,46.875,29.785
1532373218.694,37.109,29.785,25.391,47.852,23.926
1532373218.698,41.504,36.133,29.297,46.875,32.227
1532373218.702,42.969,34.668,30.762,42.480,74.707
1532373218.706,44.922,27.344,27.344,41.016,23.438
1532373218.710,42.480,26.367,22.949,37.109,-40.039
1532373218.714,36.133,25.391,24.414,38.086,14.160
1532373218.718,32.715,25.879,26.367,41.992,86.914
1532373218.722,31.250,26.855,27.832,38.086,62.500
1532373218.726,33.691,24.414,29.297,41.504,4.883
1532373218.729,27.344,23.438,28.320,45.898,25.391
1532373218.733,27.344,24.414,27.344,40.527,84.961
1532373218.737,30.762,26.367,30.762,39.551,54.688
1532373218.741,29.297,27.344,31.738,42.480,10.254
1532373218.745,30.762,23.926,30.273,37.109,15.137
1532373218.749,27.832,20.996,31.738,26.855,32.715
1532373218.753,24.902,22.461,34.180,22.461,24.414
1532373218.757,29.297,24.902,33.203,29.297,-12.207
1532373218.761,28.809,25.879,28.809,29.785,-12.695
1532373218.765,25.879,26.367,26.367,22.949,54.199
1532373218.768,23.438,25.879,30.273,17.090,72.266
1532373218.772,25.879,23.926,33.691,20.996,36.133
1532373218.776,34.668,22.949,31.738,32.227,11.230
1532373218.780,36.621,25.391,27.832,34.180,58.105
1532373218.784,25.879,23.926,26.855,22.461,122.070
1532373218.788,22.461,22.461,29.785,13.184,45.898
1532373218.792,28.809,23.438,31.738,16.113,-26.855
1532373218.796,30.762,23.926,32.715,22.949,25.391
1532373218.800,26.855,24.414,30.273,27.832,72.754
1532373218.804,31.250,24.414,27.832,27.344,64.941
1532373218.808,27.832,23.926,27.832,24.414,19.043
1532373218.811,23.926,28.320,25.879,22.461,-18.555
1532373218.815,30.762,28.320,25.879,27.832,46.875
1532373218.819,30.273,26.367,31.738,30.273,86.426
1532373218.823,25.391,27.832,32.715,27.832,44.922
1532373218.827,29.297,27.832,28.809,26.367,25.391
1532373218.831,28.320,23.438,28.809,22.461,48.340
1532373218.835,20.020,26.367,31.738,22.949,55.664
1532373218.839,22.949,26.855,31.250,25.879,7.324
1532373218.843,27.344,23.438,23.926,19.043,3.906
1532373218.847,26.367,27.832,23.926,17.578,20.020
1532373218.851,22.461,25.879,24.902,22.461,53.711
1532373218.854,28.320,23.438,20.020,16.602,54.688
1532373218.858,40.527,25.391,19.531,19.531,-0.488
1532373218.862,52.246,29.297,20.020,27.344,20.508
1532373218.866,49.805,28.320,20.996,28.809,62.500
1532373218.870,40.527,23.438,16.602,27.344,23.926
1532373218.874,33.691,21.484,6.348,24.902,2.930
1532373218.878,28.809,20.996,8.789,27.832,17.090
1532373218.882,25.879,21.973,14.160,31.738,51.270
1532373218.886,29.297,23.438,14.160,35.156,57.617
1532373218.890,26.855,24.902,15.137,32.227,-35.156
1532373218.893,20.508,25.391,12.695,30.273,-62.500
1532373218.897,20.020,23.438,11.719,31.250,0.488
1532373218.901,19.531,22.461,8.789,30.273,59.570
1532373218.905,21.484,20.996,8.789,34.180,25.391
1532373218.909,18.555,20.508,7.812,25.879,-26.855
1532373218.913,16.602,20.508,4.883,17.090,-5.371
1532373218.917,25.391,20.996,10.254,24.414,36.133
1532373218.921,29.297,22.461,8.301,24.414,28.809
1532373218.925,27.832,25.391,3.418,22.949,-18.066
1532373218.929,26.855,23.926,5.859,25.391,-11.719
1532373218.933,25.391,25.391,12.207,30.273,16.602
1532373218.936,30.273,31.738,14.648,42.480,21.484
1532373218.940,34.180,26.367,12.207,50.293,27.344
1532373218.944,31.250,23.926,14.160,55.664,10.742
1532373218.948,33.691,25.391,13.184,60.547,-8.301
1532373218.952,40.527,22.461,8.301,55.176,-5.859
1532373218.956,36.621,21.973,8.789,53.223,-22.949
1532373218.960,23.438,22.949,8.789,52.734,-2.930
1532373218.964,19.043,25.879,7.812,49.316,35.645
1532373218.968,24.414,29.785,11.230,57.129,33.691
1532373218.972,30.762,28.809,10.742,60.059,15.625
1532373218.976,34.668,27.344,9.766,59.570,-3.906
1532373218.979,30.273,24.414,13.184,55.664,21.973
1532373218.983,24.414,22.949,11.230,44.922,78.125
1532373218.987,25.391,24.902,11.230,41.992,53.711
1532373218.991,26.855,28.809,14.160,39.551,-18.555
1532373218.995,35.156,32.227,11.719,43.945,1.465
1532373218.999,39.551,30.273,12.207,43.945,67.383
1532373219.003,35.645,32.227,13.672,36.133,78.613
1532373219.007,35.645,35.645,15.625,32.227,25.879
1532373219.011,40.039,35.156,20.996,35.645,-1.465
1532373219.015,35.645,32.715,15.625,39.062,55.664
1532373219.018,36.621,34.180,9.277,36.133,78.125
1532373219.022,34.668,30.762,15.137,38.086,29.297
1532373219.026,31.738,23.926,21.973,43.457,12.695
1532373219.030,33.203,25.879,23.438,40.039,28.320
1532373219.034,35.645,29.297,20.020,40.039,42.969
1532373219.038,35.156,29.785,20.508,47.852,48.340
1532373219.042,38.574,31.738,21.973,52.246,32.227
1532373219.046,31.738,31.738,17.578,43.945,39.062
1532373219.050,21.973,29.785,14.160,31.738,66.406
1532373219.054,23.438,26.367,17.578,28.809,52.246
1532373219.058,30.273,27.832,17.090,30.273,21.973
1532373219.061,34.180,27.344,14.160,32.715,21.484
1532373219.065,28.809,25.391,15.137,31.250,54.688
1532373219.069,40.527,36.133,26.367,33.203,64.453
1532373219.073,49.805,44.922,34.668,31.250,35.156
1532373219.077,43.457,45.410,35.645,28.320,16.113
1532373219.081,46.387,43.457,33.691,35.156,55.176
1532373219.085,48.828,38.086,27.344,36.133,87.402
1532373219.089,43.945,37.598,23.926,32.227,29.297
1532373219.093,41.016,37.109,21.973,34.180,4.395
1532373219.097,45.898,38.574,25.391,41.992,14.160
1532373219.101,42.969,37.598,27.832,45.410,53.223
1532373219.104,41.504,33.691,22.949,40.039,43.945
1532373219.108,45.898,34.180,19.043,37.598,-29.785
1532373219.112,43.457,33.691,20.020,40.527,2.441
1532373219.116,42.480,35.156,20.020,41.504,83.496
1532373219.120,41.992,35.156,24.414,46.875,62.500
1532373219.124,33.203,28.320,27.832,45.898,20.996
1532373219.128,20.508,26.367,24.902,32.715,9.277
1532373219.132,18.066,25.879,21.973,15.625,41.016
1532373219.136,26.367,22.949,21.484,20.508,73.242
1532373219.140,27.344,25.391,22.949,30.762,40.039
1532373219.143,21.484,25.391,19.531,23.438,27.832
1532373219.147,16.602,22.949,17.578,24.414,56.641
1532373219.151,15.625,26.367,20.020,23.926,46.387
1532373219.155,22.949,28.320,18.066,23.926,-2.441
1532373219.159,24.902,27.344,16.602,26.367,-19.531
1532373219.163,23.926,31.250,20.020,30.762,20.508
1532373219.167,30.273,33.203,24.414,36.621,57.129
1532373219.171,32.715,27.832,22.949,32.715,15.625
1532373219.175,22.949,25.879,19.043,27.832,-23.438
1532373219.179,24.902,26.855,17.578,33.203,1.465
1532373219.183,35.156,30.762,21.484,43.945,67.383
1532373219.186,37.109,32.715,22.949,46.387,44.922
1532373219.190,41.504,32.227,25.391,49.316,-21.973
1532373219.194,43.945,32.227,25.391,44.434,-13.672
1532373219.198,35.645,32.715,24.414,20.020,16.602
1532373219.202,30.273,30.762,24.902,-7.324,25.879
1532373219.206,34.668,29.785,23.926,-31.738,8.301
1532373219.210,35.156,32.227,22.949,-48.340,-19.043
1532373219.214,26.855,32.715,22.461,-57.617,-21.973
1532373219.218,21.484,30.762,25.391,-67.383,50.781
1532373219.222,26.855,32.715,24.902,-71.289,38.086
1532373219.225,33.203,35.156,23.438,-72.754,-10.742
1532373219.229,33.691,32.715,24.902,-83.496,-9.277
1532373219.233,30.273,30.273,24.902,-89.844,27.344
1532373219.237,27.344,26.367,23.926,-92.773,51.758
1532373219.241,23.438,25.391,23.438,-92.773,4.883
1532373219.245,33.203,31.738,22.461,-87.891,4.395
1532373219.249,44.434,34.668,19.531,-89.844,51.270
1532373219.253,39.551,34.180,18.066,-94.727,65.918
1532373219.257,37.598,33.203,22.949,-98.145,22.949
1532373219.261,33.691,30.762,23.438,-103.027,-2.930
1532373219.265,25.391,30.762,20.996,-108.398,29.297
1532373219.268,34.180,31.250,22.949,-104.004,28.809
1532373219.272,37.598,30.762,23.926,-99.121,-12.207
1532373219.276,31.250,32.227,23.926,-98.633,-10.254
1532373219.280,31.250,33.203,22.949,-100.098,-6.836
1532373219.284,31.250,34.668,25.391,-104.004,26.855
1532373219.288,25.879,34.668,23.438,-107.422,24.414
1532373219.292,26.855,30.273,19.043,-106.934,-11.719
1532373219.296,28.320,29.785,20.996,-104.004,20.508
1532373219.300,24.902,27.344,20.508,-100.098,77.148
1532373219.304,25.391,25.391,22.461,-76.660,56.152
1532373219.308,21.973,27.832,20.996,-47.363,-26.367
1532373219.311,22.461,28.320,21.484,-22.461,-29.785
1532373219.315,32.715,28.809,21.973,-3.906,43.945
1532373219.319,29.785,31.250,17.090,2.441,65.918
1532373219.323,22.949,31.738,20.020,10.254,18.555
1532373219.327,29.297,29.297,20.020,19.043,-3.906
1532373219.331,31.250,28.809,18.555,17.578,9.277
1532373219.335,30.762,33.203,21.484,20.508,51.758
1532373219.339,26.367,31.250,18.555,26.367,58.594
1532373219.343,22.461,25.391,19.043,27.832,20.996
1532373219.347,20.996,25.391,24.902,31.738,37.598
1532373219.350,17.578,29.297,19.531,33.691,62.988
1532373219.354,19.043,29.297,15.137,29.297,16.113
1532373219.358,20.996,25.391,18.555,27.832,-8.301
1532373219.362,20.996,24.414,20.996,28.809,39.551
1532373219.366,20.508,24.414,20.996,26.367,73.730
1532373219.370,21.973,25.879,23.438,28.809,41.016
1532373219.374,24.414,26.855,26.855,34.180,21.484
1532373219.378,23.926,27.344,24.414,32.715,15.137
1532373219.382,27.344,26.855,21.973,35.156,45.410
1532373219.386,28.320,24.414,22.949,48.340,75.684
1532373219.390,23.926,26.367,23.926,50.293,20.508
1532373219.393,18.555,29.297,24.414,43.457,7.324
1532373219.397,20.020,27.344,24.902,44.434,51.758
1532373219.401,25.391,26.855,26.367,44.922,78.613
1532373219.405,26.367,27.832,27.344,49.805,31.250
1532373219.409,21.973,29.297,28.809,53.711,-13.184
1532373219.413,16.602,30.273,34.180,54.199,52.734
1532373219.417,22.461,32.227,38.574,56.641,81.543
1532373219.421,31.250,33.691,38.574,59.570,22.949
1532373219.425,26.855,29.785,37.109,54.199,16.113
1532373219.429,25.391,29.785,38.086,46.875,32.227
1532373219.433,32.227,33.203,39.551,48.828,70.801
1532373219.436,24.902,31.250,37.109,42.480,72.266
1532373219.440,22.949,32.227,37.109,40.039,31.250
1532373219.444,23.926,33.203,34.668,45.410,36.621
1532373219.448,11.719,29.297,30.273,35.645,65.430
1532373219.452,9.766,29.297,32.715,33.691,40.039
1532373219.456,19.043,29.785,34.668,47.363,3.906
1532373219.460,26.367,27.344,34.180,54.199,12.695
1532373219.464,22.949,28.809,35.645,56.152,46.387
1532373219.468,16.602,30.762,36.133,54.688,74.219
1532373219.472,20.020,29.297,34.180,52.734,35.645
1532373219.475,23.438,27.832,31.738,51.758,8.789
1532373219.479,23.926,27.832,27.832,48.828,44.434
1532373219.483,33.691,25.879,32.715,57.129,106.934
1532373219.487,31.250,24.902,37.109,56.152,71.777
1532373219.491,26.367,25.879,30.273,43.457,-7.324
1532373219.495,28.320,24.414,31.738,42.480,-11.230
1532373219.499,27.832,24.902,35.156,38.086,46.875
1532373219.503,31.250,28.320,34.180,32.715,81.543
1532373219.507,33.203,26.367,36.621,37.109,28.809
1532373219.511,36.133,24.414,33.691,38.574,6.836
1532373219.515,36.133,25.879,29.297,40.039,35.645
1532373219.518,42.969,26.367,33.691,45.898,62.012
1532373219.522,47.852,24.414,38.574,53.223,40.527
1532373219.526,39.062,20.020,35.156,57.617,-0.977
1532373219.530,33.691,25.879,35.156,55.664,3.418
1532373219.534,32.715,28.809,41.992,61.035,56.152
1532373219.538,28.809,22.949,41.016,70.312,57.129
1532373219.542,27.344,22.461,35.156,70.801,6.836
1532373219.546,26.855,25.879,35.645,69.336,1.953
1532373219.550,22.461,22.949,40.039,67.871,22.949
1532373219.554,23.438,19.531,38.574,65.918,8.301
1532373219.558,28.320,24.414,38.086,66.406,-30.762
1532373219.561,24.902,27.344,35.645,58.105,-10.742
1532373219.565,23.438,24.414,35.156,50.293,32.715
1532373219.569,22.461,24.902,34.668,50.293,43.457
1532373219.573,24.414,26.367,29.297,46.387,-15.137
1532373219.577,29.785,26.367,32.227,44.922,-44.922
1532373219.581,31.738,26.367,34.180,42.969,17.578
1532373219.585,30.762,28.809,34.180,39.551,59.570
1532373219.589,28.320,29.785,35.645,37.109,18.066
1532373219.593,32.227,27.344,39.551,42.480,-1.953
1532373219.597,34.180,25.391,42.480,49.805,29.785
1532373219.600,28.320,22.949,38.086,48.340,38.086
1532373219.604,24.902,23.926,31.738,45.898,41.504
1532373219.608,27.344,27.344,32.715,50.781,-13.184
1532373219.612,23.438,24.414,33.691,49.805,-16.602
1532373219.616,25.879,25.879,34.180,50.781,27.344
1532373219.620,32.715,29.785,34.668,54.688,30.273
1532373219.624,35.156,28.320,35.156,58.105,5.859
1532373219.628,33.691,27.832,39.062,56.641,-42.480
1532373219.632,25.879,29.785,31.738,50.293,-31.738
1532373219.636,25.391,36.133,29.297,52.734,3.906
1532373219.640,32.715,34.668,30.273,57.617,-34.668
1532373219.643,34.180,26.367,26.367,54.199,-35.645
1532373219.647,35.156,27.832,28.809,55.664,1.465
1532373219.651,37.109,30.762,29.297,51.758,19.043
1532373219.655,38.574,29.785,26.367,42.480,22.461
1532373219.659,36.621,28.809,24.414,43.457,-3.906
1532373219.663,32.227,32.227,25.391,45.410,15.625
1532373219.667,30.762,32.227,29.297,44.922,50.293
1532373219.671,35.156,28.809,25.879,41.016,48.828
1532373219.675,36.133,31.250,17.578,40.039,12.207
1532373219.679,37.109,39.551,21.484,41.992,10.254
1532373219.683,46.387,50.293,38.086,53.711,51.758
1532373219.686,63.477,58.594,51.758,73.242,58.105
1532373219.690,78.125,68.359,58.105,80.078,0.977
1532373219.694,82.031,73.242,68.359,88.867,-1.953
1532373219.698,82.520,71.289,74.707,97.168,64.941
1532373219.702,77.148,65.430,67.383,87.402,73.730
1532373219.706,59.570,56.152,56.641,74.219,25.879
1532373219.710,51.758,52.246,53.223,69.336,0.488
1532373219.714,45.898,48.340,49.805,63.965,18.066
1532373219.718,38.086,44.922,45.410,58.594,63.965
1532373219.722,36.133,45.410,38.086,56.641,54.199
1532373219.725,33.691,40.527,35.156,53.223,1.953
1532373219.729,37.109,38.086,38.574,55.176,10.742
1532373219.733,42.969,36.133,38.574,52.246,72.266
1532373219.737,39.062,33.691,38.086,41.504,56.641
1532373219.741,38.574,32.227,38.086,32.715,-12.695
1532373219.745,37.109,34.180,36.621,29.785,9.277
1532373219.749,37.598,34.180,35.156,29.297,44.434
1532373219.753,37.109,30.273,31.738,14.648,37.598
1532373219.757,28.320,31.250,29.785,1.953,5.371
1532373219.761,30.762,32.227,30.273,4.883,-12.207
1532373219.765,37.598,27.832,31.250,19.531,18.066
1532373219.768,38.086,28.809,33.203,35.645,31.738
1532373219.772,39.551,30.762,36.133,27.344,22.949
1532373219.776,35.156,29.297,34.668,8.789,2.441
1532373219.780,20.020,27.344,28.320,-1.465,13.672
1532373219.784,22.461,30.273,29.785,3.906,65.918
1532373219.788,29.297,30.273,33.203,14.160,50.781
1532373219.792,23.438,22.949,33.203,12.207,-5.371
1532373219.796,23.926,21.973,33.203,13.184,-9.766
1532373219.800,23.438,23.438,33.203,17.578,39.551
1532373219.804,20.020,21.973,31.738,19.531,47.852
1532373219.807,11.719,21.973,29.785,20.996,9.277
1532373219.811,15.137,19.531,28.809,21.484,5.859
1532373219.815,25.391,24.414,29.297,28.809,44.922
1532373219.819,26.367,28.320,29.785,32.715,55.176
1532373219.823,28.320,18.555,32.227,34.668,2.441
1532373219.827,30.762,17.578,35.645,41.992,-29.785
1532373219.831,31.250,22.461,39.062,44.434,-8.301
1532373219.835,35.156,25.879,39.062,46.875,37.598
1532373219.839,33.203,27.344,34.180,48.340,20.996
1532373219.843,28.809,25.879,32.227,41.504,-20.996
1532373219.847,38.086,26.855,35.645,42.969,-3.418
1532373219.850,47.852,29.785,35.645,49.316,7.324
1532373219.854,42.969,27.344,30.762,48.340,0.977
1532373219.858,33.691,22.949,24.414,40.039,1.465
1532373219.862,35.156,27.344,25.879,40.527,-14.160
1532373219.866,38.086,28.320,28.809,44.922,23.438
1532373219.870,34.668,24.902,26.367,39.551,31.250
1532373219.874,33.691,23.926,27.832,39.062,-13.184
1532373219.878,34.668,27.344,32.715,45.898,-8.301
1532373219.882,33.691,29.785,29.785,51.758,18.066
1532373219.886,35.645,28.320,24.414,43.945,54.199
1532373219.890,27.832,27.832,20.508,31.250,-13.672
1532373219.893,23.438,25.879,19.043,31.250,-40.039
1532373219.897,34.180,25.879,22.461,41.016,32.715
1532373219.901,38.086,25.391,26.367,41.504,66.895
1532373219.905,36.621,26.855,27.832,39.062,38.086
1532373219.909,37.598,27.832,26.855,35.156,-11.230
1532373219.913,40.039,30.273,24.414,35.156,15.137
1532373219.917,37.109,28.320,25.391,45.410,19.043
1532373219.921,30.273,26.367,19.531,44.922,33.203
1532373219.925,24.902,27.344,14.160,38.086,33.203
1532373219.929,32.227,25.391,20.020,43.945,-13.672
1532373219.932,39.062,24.902,20.020,52.246,31.738
1532373219.936,35.645,25.391,20.020,53.223,63.477
1532373219.940,38.086,26.855,18.555,51.270,21.973
1532373219.944,43.945,29.785,18.066,53.711,26.855
1532373219.948,47.363,29.785,22.461,57.129,27.832
1532373219.952,38.086,28.809,23.926,49.316,21.973
1532373219.956,33.691,26.855,23.926,45.410,23.438
1532373219.960,36.621,25.391,21.484,44.434,-1.465
1532373219.964,29.785,25.879,19.043,38.574,17.090
1532373219.968,21.484,20.996,17.090,33.203,69.824
1532373219.972,27.344,24.902,14.648,37.109,38.574
1532373219.975,36.621,32.715,16.113,44.434,0.000
1532373219.979,33.691,31.738,18.066,42.969,31.738
1532373219.983,26.367,27.344,18.066,45.410,81.055
1532373219.987,29.297,29.297,19.043,47.852,92.285
1532373219.991,33.203,28.809,16.602,44.922,16.113
1532373219.995,35.156,28.320,18.066,47.852,26.367
1532373219.999,36.133,30.273,15.137,48.340,63.965
1532373220.003,31.738,29.297,14.648,46.387,51.758
1532373220.007,30.273,30.273,17.578,44.434,43.945
1532373220.011,28.320,28.809,17.090,41.504,34.668
1532373220.015,26.855,27.832,20.020,42.969,74.219
1532373220.018,30.762,27.832,21.973,41.504,99.121
1532373220.022,21.484,27.832,16.602,31.250,48.340
1532373220.026,12.207,25.391,14.648,22.461,5.371
1532373220.030,15.625,21.973,17.578,20.508,26.367
1532373220.034,20.996,23.438,21.484,29.785,73.242
1532373220.038,24.902,25.879,24.414,40.527,59.570
1532373220.042,20.996,24.414,21.484,35.645,21.484
1532373220.046,26.855,24.902,21.484,34.668,53.223
1532373220.050,22.461,23.438,20.020,36.133,83.496
1532373220.054,15.625,19.531,15.137,29.297,76.660
1532373220.057,34.180,21.484,17.578,33.691,10.254
1532373220.061,39.551,27.344,22.461,41.992,4.883
1532373220.065,31.738,26.855,22.949,40.527,88.867
1532373220.069,35.156,23.438,26.367,38.574,77.148
1532373220.073,31.250,21.973,27.344,38.086,14.160
1532373220.077,25.879,23.438,22.949,32.715,18.066
1532373220.081,30.762,27.832,21.973,36.621,55.664
1532373220.085,35.645,27.344,24.414,43.945,51.758
1532373220.089,30.762,25.391,25.879,37.598,14.160
1532373220.093,21.484,25.391,23.926,36.621,18.066
1532373220.097,25.391,25.879,25.879,40.039,39.551
1532373220.100,30.762,27.344,27.344,42.969,63.477
1532373220.104,29.297,26.367,24.414,38.086,74.219
1532373220.108,25.879,24.902,25.391,33.203,40.039
1532373220.112,31.738,29.785,27.832,32.715,17.578
1532373220.116,33.203,31.738,25.391,29.785,97.656
1532373220.120,32.227,30.762,25.879,32.227,117.676
1532373220.124,34.668,30.762,29.297,34.668,34.668
1532373220.128,34.180,28.320,25.879,31.738,11.230
1532373220.132,25.879,26.367,21.973,31.250,54.199
1532373220.136,31.250,28.320,27.344,41.992,81.543
1532373220.140,35.645,28.809,31.738,45.898,53.711
1532373220.143,31.250,28.320,31.738,42.480,21.484
1532373220.147,31.738,27.344,32.227,45.410,44.922
1532373220.151,31.250,27.344,32.715,44.434,65.918
1532373220.155,32.227,29.785,27.832,37.109,72.266
1532373220.159,33.691,31.250,20.996,32.715,52.734
1532373220.163,40.527,34.180,24.414,35.645,42.480
1532373220.167,50.293,35.156,26.367,34.668,66.406
1532373220.171,53.711,34.180,21.973,26.367,29.297
1532373220.175,52.734,33.691,19.531,22.949,-4.395
1532373220.179,47.363,30.273,21.484,24.414,34.668
1532373220.182,40.039,30.273,24.414,24.414,71.289
1532373220.186,36.621,30.273,26.855,30.273,89.844
1532373220.190,30.273,30.273,27.344,31.250,44.434
1532373220.194,23.926,30.762,28.320,28.809,45.410
1532373220.198,25.879,31.250,32.715,31.250,68.848
1532373220.202,23.926,30.762,31.250,28.320,86.914
1532373220.206,25.879,29.297,31.250,28.809,52.734
1532373220.210,29.297,31.738,32.227,29.297,-16.113
1532373220.214,27.344,32.227,33.203,28.320,28.320
1532373220.218,21.484,28.320,28.809,25.879,88.379
1532373220.222,24.902,25.879,22.949,23.926,58.105
1532373220.225,33.203,29.785,26.855,21.973,11.719
1532373220.229,28.809,33.203,31.250,23.926,20.020
1532373220.233,29.297,29.785,33.203,24.902,79.590
1532373220.237,29.785,26.855,29.297,21.484,58.594
1532373220.241,30.762,27.832,26.367,28.809,13.672
1532373220.245,46.875,40.039,41.016,45.898,44.434
1532373220.249,62.988,57.129,58.105,58.105,53.711
1532373220.253,60.547,60.547,55.664,55.176,26.855
1532373220.257,55.664,55.176,54.688,52.734,-3.906
1532373220.261,52.734,52.734,57.617,46.387,-7.324
1532373220.265,45.898,54.688,50.781,33.691,4.395
1532373220.268,38.086,55.664,53.711,28.320,0.488
1532373220.272,32.715,51.270,59.082,20.996,-24.902
1532373220.276,29.785,47.852,53.711,13.184,-30.762
1532373220.280,26.367,45.898,54.199,14.160,3.906
1532373220.284,24.902,43.945,61.523,13.184,41.504
1532373220.288,22.949,48.828,58.594,8.789,3.418
1532373220.292,14.160,52.734,52.246,0.977,-21.484
1532373220.296,16.113,54.199,55.664,0.977,28.320
1532373220.300,16.113,54.199,55.176,-2.441,76.660
1532373220.304,2.441,52.246,54.199,-12.695,51.270
1532373220.307,2.930,55.176,57.617,-9.277,-16.113
1532373220.311,6.348,53.711,58.594,-2.930,-16.602
1532373220.315,-4.395,46.387,58.594,-14.160,53.223
1532373220.319,-6.348,41.504,55.664,-18.555,67.871
1532373220.323,0.488,41.016,57.617,-6.836,16.113
1532373220.327,-2.930,42.480,62.500,-11.230,-10.742
1532373220.331,-2.441,43.945,58.105,-10.254,14.648
1532373220.335,-0.977,44.434,51.270,-10.254,51.270
1532373220.339,-5.371,47.852,50.781,-17.090,39.062
1532373220.343,-3.906,50.293,54.199,-10.254,20.996
1532373220.347,-10.254,44.434,52.734,-8.789,42.480
1532373220.350,-10.254,41.016,54.199,-17.090,59.570
1532373220.354,1.465,41.016,53.223,-15.625,22.461
1532373220.358,-1.465,41.992,53.711,-9.766,8.301
1532373220.362,-12.695,39.551,56.152,-15.137,40.039
1532373220.366,-17.578,38.574,49.805,-18.066,67.871
1532373220.370,-16.113,35.645,51.270,-15.625,72.754
1532373220.374,-9.277,30.762,60.059,-17.578,44.922
1532373220.378,-7.324,29.297,60.059,-15.625,14.648
1532373220.382,-13.672,29.785,58.105,-16.602,49.316
1532373220.386,-13.672,26.855,58.105,-16.113,64.453
1532373220.389,0.488,25.391,57.129,-7.812,-4.395
1532373220.393,4.395,31.738,52.246,-9.766,-21.484
1532373220.397,-4.395,31.250,51.758,-15.137,47.363
1532373220.401,-1.465,23.926,52.734,-6.836,91.797
1532373220.405,11.719,26.855,43.945,4.883,51.758
1532373220.409,14.160,30.762,42.480,10.254,11.230
1532373220.413,10.254,30.273,41.504,9.766,17.090
1532373220.417,9.766,27.344,41.016,-0.977,55.176
1532373220.421,11.719,23.926,42.480,2.441,54.688
1532373220.425,14.648,24.902,40.039,13.672,16.113
1532373220.429,14.160,25.879,42.969,19.531,28.320
1532373220.432,17.578,22.461,41.504,26.855,78.613
1532373220.436,26.855,21.484,37.109,30.273,85.449
1532373220.440,20.508,21.973,35.645,29.297,32.227
1532373220.444,8.301,18.555,42.969,26.855,14.160
1532373220.448,8.301,12.207,49.316,24.414,29.297
1532373220.452,13.672,15.137,45.898,23.438,36.133
1532373220.456,18.066,25.879,44.922,24.414,32.715
1532373220.460,17.578,26.367,48.828,23.926,25.391
1532373220.464,14.160,25.391,44.434,18.555,66.895
1532373220.468,11.719,29.297,38.086,12.695,93.750
1532373220.472,10.742,29.297,41.992,18.555,51.758
1532373220.475,6.348,24.902,47.852,17.090,-1.953
1532373220.479,9.766,20.508,50.781,2.441,7.812
1532373220.483,17.578,21.973,53.223,9.277,58.105
1532373220.487,10.254,30.762,44.434,13.672,69.336
1532373220.491,7.324,33.203,40.039,4.395,8.789
1532373220.495,1.465,32.715,47.363,0.488,3.906
1532373220.499,-4.395,31.738,46.387,0.977,58.105
1532373220.503,0.488,24.902,45.898,9.766,56.641
1532373220.507,5.371,26.367,47.852,20.020,17.578
1532373220.511,3.906,24.902,48.340,11.719,4.395
1532373220.514,10.254,18.066,48.828,16.602,30.273
1532373220.518,8.789,17.090,52.734,23.438,62.988
1532373220.522,16.113,23.438,48.340,16.113,41.016
1532373220.526,37.598,32.715,36.621,12.695,-3.418
1532373220.530,32.227,31.738,40.039,1.465,-8.301
1532373220.534,27.832,24.902,46.875,6.836,25.879
1532373220.538,39.062,29.785,39.551,14.648,33.691
1532373220.542,43.457,37.598,31.250,7.324,5.859
1532373220.546,44.434,40.527,28.809,12.695,15.137
1532373220.550,40.527,42.969,34.668,15.625,38.086
1532373220.554,29.297,37.109,46.387,10.742,38.574
1532373220.557,22.461,32.227,52.246,14.160,16.113
1532373220.561,25.391,33.691,43.945,28.809,-5.371
1532373220.565,25.879,31.738,46.387,36.621,33.203
1532373220.569,12.695,30.762,49.805,23.438,36.621
1532373220.573,-5.371,30.762,47.363,11.719,-1.465
1532373220.577,-9.277,27.344,53.223,10.742,1.953
1532373220.581,-7.324,24.414,57.617,16.602,39.062
1532373220.585,-10.254,23.438,57.617,19.043,64.941
1532373220.589,-9.277,23.438,58.594,13.672,11.719
1532373220.593,0.977,21.484,60.547,15.137,-18.555
1532373220.597,11.230,22.949,59.082,21.973,40.527
1532373220.600,12.695,24.902,56.152,21.973,101.562
1532373220.604,20.996,26.855,53.711,19.043,69.824
1532373220.608,31.250,34.668,47.363,11.719,10.254
1532373220.612,34.668,41.504,38.574,9.277,0.000
1532373220.616,37.598,38.574,41.016,13.184,48.340
1532373220.620,20.996,38.574,49.316,8.789,50.293
1532373220.624,10.742,38.574,52.734,10.254,22.461
1532373220.628,17.090,37.109,53.223,17.578,20.996
1532373220.632,26.367,37.109,47.363,23.926,52.734
1532373220.636,21.973,37.598,43.945,24.414,79.102
1532373220.639,10.742,41.016,49.805,22.949,14.648
1532373220.643,6.348,41.016,56.641,25.391,-14.160
1532373220.647,4.395,40.039,62.500,22.949,40.039
1532373220.651,-2.930,40.039,63.477,21.484,49.316
1532373220.655,-8.789,38.086,59.570,23.438,21.973
1532373220.659,7.324,35.156,61.523,38.086,-1.465
1532373220.663,19.043,39.551,58.594,41.992,5.371
1532373220.667,2.441,41.992,51.758,20.996,51.270
1532373220.671,-0.488,42.480,51.758,14.160,33.203
1532373220.675,1.465,39.062,52.734,16.602,13.672
1532373220.679,6.836,44.434,58.594,19.043,29.785
1532373220.682,25.391,57.617,65.918,31.250,56.152
1532373220.686,29.785,57.129,70.312,28.320,51.758
1532373220.690,18.555,50.781,66.895,15.625,16.602
1532373220.694,19.531,44.922,62.012,14.648,10.742
1532373220.698,38.086,40.039,59.570,17.090,57.617
1532373220.702,42.969,45.898,48.340,14.648,62.012
1532373220.706,31.738,47.363,44.434,-4.883,31.738
1532373220.710,26.367,46.387,51.270,-7.812,13.184
1532373220.714,36.133,44.922,54.199,7.812,31.738
1532373220.718,39.062,39.551,50.293,12.207,85.449
1532373220.722,24.902,42.480,44.434,6.836,78.125
1532373220.725,14.160,40.527,41.504,10.254,23.438
1532373220.729,15.137,36.621,37.109,20.508,1.465
1532373220.733,17.090,37.109,38.086,15.137,39.551
1532373220.737,14.648,41.016,40.527,8.301,42.969
1532373220.741,15.625,46.387,35.645,5.371,6.348
1532373220.745,13.672,47.363,27.832,2.441,22.461
1532373220.749,13.184,43.945,26.367,1.953,62.988
1532373220.753,13.672,44.434,24.902,-0.488,71.289
1532373220.757,8.301,42.480,28.320,-5.371,41.016
1532373220.761,5.371,37.598,34.180,-5.859,12.207
1532373220.764,9.766,36.621,37.109,1.953,32.227
1532373220.768,18.555,35.645,38.574,12.695,41.504
1532373220.772,24.902,32.227,37.109,20.508,-21.973
1532373220.776,29.297,28.809,32.227,32.227,-5.859
1532373220.780,32.715,23.438,34.668,44.922,58.594
1532373220.784,39.551,20.996,34.668,47.363,83.496
1532373220.788,43.945,25.391,30.762,41.504,31.250
1532373220.792,44.434,24.902,32.715,46.875,-10.742
1532373220.796,34.668,26.855,30.273,48.828,34.180
1532373220.800,25.391,31.250,20.020,37.109,71.289
1532373220.804,32.715,28.320,16.602,42.480,60.547
1532373220.807,39.062,27.344,16.602,46.387,-5.371
1532373220.811,35.645,30.273,16.113,38.574,-13.672
1532373220.815,30.273,32.715,10.742,41.016,55.664
1532373220.819,32.227,32.715,6.836,39.551,88.867
1532373220.823,29.785,31.738,9.277,33.691,52.734
1532373220.827,28.320,32.227,7.812,30.762,11.230
1532373220.831,37.109,31.738,13.672,33.203,33.203
1532373220.835,42.480,31.250,18.066,40.039,66.895
1532373220.839,49.805,29.785,19.043,42.480,45.410
1532373220.843,55.664,29.297,19.043,43.457,13.184
1532373220.846,61.035,32.227,15.137,43.457,36.621
1532373220.850,60.059,31.738,16.602,35.156,59.082
1532373220.854,54.199,30.273,20.508,31.250,50.293
1532373220.858,56.641,30.273,20.020,39.551,11.719
1532373220.862,62.500,29.297,21.484,52.734,1.465
1532373220.866,55.176,30.273,21.484,58.105,61.523
1532373220.870,47.363,30.273,21.484,54.199,71.289
1532373220.874,40.039,27.344,21.484,55.176,-19.043
1532373220.878,42.480,26.367,18.555,52.246,-12.695
1532373220.882,43.945,31.250,10.254,41.992,42.480
1532373220.886,37.109,37.598,-0.488,37.598,22.461
1532373220.889,36.133,33.203,6.836,37.109,-21.973
1532373220.893,31.738,31.738,14.648,37.109,-18.555
1532373220.897,30.762,32.227,11.230,40.039,27.832
1532373220.901,33.203,25.879,10.742,41.016,57.129
1532373220.905,33.203,24.902,12.207,38.086,32.227
1532373220.909,30.273,24.414,13.672,29.785,-18.066
1532373220.913,42.480,26.367,11.230,32.227,-2.441
1532373220.917,55.176,27.344,11.719,46.875,48.340
1532373220.921,45.410,25.391,8.301,48.340,31.738
1532373220.925,44.434,26.367,6.348,48.828,1.465
1532373220.929,51.758,28.809,12.695,47.852,-15.137
1532373220.932,50.781,31.250,14.648,45.898,42.969
1532373220.936,48.828,31.250,15.137,49.805,55.176
1532373220.940,51.270,33.203,18.066,45.898,-2.441
1532373220.944,49.316,35.156,17.090,39.551,20.996
1532373220.948,50.293,35.156,16.113,37.598,54.688
1532373220.952,46.875,34.180,18.555,36.133,81.543
1532373220.956,40.039,32.715,14.648,33.203,53.711
1532373220.960,36.133,32.715,15.625,31.250,13.184
1532373220.964,37.109,34.668,20.508,33.203,39.551
1532373220.968,41.016,32.715,18.066,31.738,74.219
1532373220.971,39.062,28.320,19.043,28.320,43.457
1532373220.975,39.551,29.297,20.020,31.738,2.930
1532373220.979,32.715,34.180,17.578,30.273,25.879
1532373220.983,20.996,34.668,13.184,19.531,49.316
1532373220.987,27.344,30.762,12.695,20.020,47.852
1532373220.991,36.621,29.785,16.602,25.879,3.906
1532373220.995,47.363,34.180,16.113,34.668,-5.859
1532373220.999,44.922,34.668,14.648,37.109,21.973
1532373221.003,33.691,30.762,18.066,30.762,24.902
1532373221.007,40.039,28.320,20.020,39.062,13.672
1532373221.011,47.363,26.855,17.578,43.945,12.695
1532373221.014,51.270,26.855,15.137,38.574,41.992
1532373221.018,51.270,30.762,18.066,39.062,79.590
1532373221.022,53.223,32.715,15.137,41.504,68.848
1532373221.026,57.129,29.297,10.254,44.434,23.926
1532373221.030,49.805,30.762,11.719,42.969,11.230
1532373221.034,56.641,33.691,17.578,43.457,66.406
1532373221.038,64.453,31.738,17.578,49.805,39.062
1532373221.042,52.734,33.691,14.160,51.758,-21.973
1532373221.046,49.805,32.715,13.672,47.852,-3.906
1532373221.050,48.340,33.203,13.184,46.387,32.715
1532373221.054,52.246,37.109,11.719,46.875,15.137
1532373221.057,59.570,34.668,7.812,51.270,-19.531
1532373221.061,59.082,34.180,8.789,51.758,-0.977
1532373221.065,57.129,35.645,12.207,47.363,35.156
1532373221.069,57.129,33.203,14.160,41.992,46.387
1532373221.073,55.176,29.785,13.184,38.574,9.766
1532373221.077,54.688,30.762,13.184,40.527,12.695
1532373221.081,52.734,31.250,16.113,42.480,54.688
1532373221.085,53.223,32.715,14.160,41.504,71.777
1532373221.089,56.641,29.785,12.207,35.645,39.551
1532373221.093,57.617,26.367,14.160,26.855,-7.812
1532373221.096,57.129,28.809,16.602,18.066,0.977
1532373221.100,58.105,29.785,18.066,13.672,72.266
1532373221.104,56.641,26.855,16.602,10.742,81.543
1532373221.108,56.152,25.391,17.578,9.277,-4.883
1532373221.112,55.176,26.367,17.578,13.672,-13.672
1532373221.116,45.410,24.902,12.695,10.254,44.922
1532373221.120,43.945,23.926,15.137,-0.488,67.871
1532373221.124,59.082,32.715,25.879,9.277,26.855
1532373221.128,70.312,41.992,31.738,20.508,8.789
1532373221.132,68.359,43.457,35.156,19.531,53.223
1532373221.136,64.941,42.969,37.598,21.484,67.383
1532373221.139,64.941,39.062,30.273,23.438,26.855
1532373221.143,60.547,34.668,25.879,20.020,9.277
1532373221.147,64.453,39.551,35.645,15.137,30.762
1532373221.151,61.523,39.551,36.133,8.301,62.988
1532373221.155,39.551,29.785,23.926,-2.441,79.590
1532373221.159,40.527,29.785,23.926,-3.906,47.852
1532373221.163,47.852,32.227,26.855,-9.277,34.668
1532373221.167,33.203,33.203,27.832,-17.578,48.340
1532373221.171,23.926,32.227,33.203,-21.484,32.715
1532373221.175,34.180,26.855,41.992,-12.207,26.367
1532373221.179,41.992,35.156,35.645,-10.254,23.926
1532373221.182,38.086,46.875,24.414,-16.602,56.152
1532373221.186,28.320,49.316,30.273,-11.230,55.664
1532373221.190,17.578,47.852,31.738,-13.672,1.953
1532373221.194,15.625,41.992,30.273,-12.695,-3.906
1532373221.198,10.742,41.992,32.715,-8.301,41.992
1532373221.202,13.184,41.504,32.715,-9.766,70.312
1532373221.206,20.020,41.992,34.668,-11.230,35.645
1532373221.210,15.625,44.434,37.109,-12.695,-0.977
1532373221.214,12.207,40.527,38.086,-18.555,54.688
1532373221.218,19.043,32.715,35.645,-20.996,94.238
1532373221.221,31.250,32.715,31.250,-15.137,50.781
1532373221.225,27.832,38.086,30.762,-2.930,-11.719
1532373221.229,21.973,34.180,33.691,-7.812,-15.625
1532373221.233,21.484,29.297,33.691,-16.602,29.297
1532373221.237,26.855,34.180,34.180,-5.371,61.035
1532373221.241,34.668,35.156,34.668,0.488,21.973
1532373221.245,38.574,37.598,31.250,-2.441,-19.531
1532373221.249,31.738,42.480,30.762,-11.230,12.695
1532373221.253,30.273,40.039,27.344,-6.348,40.039
1532373221.257,32.227,39.551,25.879,-1.465,11.230
1532373221.261,31.738,41.016,27.344,-4.883,-2.441
1532373221.264,23.438,41.504,29.785,-6.836,31.738
1532373221.268,10.742,38.574,35.156,-13.184,49.316
1532373221.272,0.977,36.133,32.227,-11.719,14.648
1532373221.276,-3.418,35.645,32.715,-12.207,-33.691
1532373221.280,2.441,34.180,39.551,-23.926,1.465
1532373221.284,5.371,33.203,43.457,-24.902,70.312
1532373221.288,5.371,32.227,46.875,-28.320,47.363
1532373221.292,19.043,32.227,43.457,-32.715,0.488
1532373221.296,22.949,30.273,40.039,-32.227,-9.277
1532373221.300,14.648,24.902,39.551,-41.016,33.691
1532373221.304,20.508,21.484,36.133,-36.621,63.477
1532373221.307,23.438,20.020,37.598,-20.020,33.691
1532373221.311,26.367,20.508,43.945,-15.137,0.488
1532373221.315,35.645,25.391,34.180,-9.766,41.016
1532373221.319,32.227,28.320,27.344,-8.301,73.242
1532373221.323,21.973,29.297,26.367,-12.207,15.625
1532373221.327,31.250,30.762,25.391,2.441,-11.230
1532373221.331,36.133,27.832,28.809,8.789,19.531
1532373221.335,33.203,28.809,28.809,6.836,44.434
1532373221.339,36.133,28.320,28.320,14.160,30.762
1532373221.343,35.156,26.855,31.738,20.508,20.508
1532373221.346,30.762,27.832,34.668,20.996,43.945
1532373221.350,30.762,26.367,39.062,17.578,42.969
1532373221.354,28.320,24.902,39.551,17.578,21.973
1532373221.358,30.762,25.391,37.109,15.137,28.320
1532373221.362,40.039,28.809,38.574,15.625,36.621
1532373221.366,34.180,30.273,40.039,12.695,67.383
1532373221.370,29.297,30.762,38.086,1.953,53.223
1532373221.374,33.203,31.250,37.109,6.836,6.348
1532373221.378,33.691,30.762,35.645,6.836,17.578
1532373221.382,33.203,29.785,36.133,0.977,38.086
1532373221.386,33.691,27.344,41.504,5.859,59.082
1532373221.389,27.344,22.461,45.410,11.719,31.250
1532373221.393,22.461,15.137,47.852,6.348,1.465
1532373221.397,31.738,14.648,45.898,1.465,23.926
1532373221.401,33.691,22.949,35.645,-4.883,32.227
1532373221.405,29.785,25.879,28.320,-7.812,52.734
1532373221.409,26.855,23.438,31.250,-13.184,11.230
1532373221.413,24.902,23.438,27.832,-14.160,-2.441
1532373221.417,26.855,25.879,25.879,0.000,62.500
1532373221.421,21.973,26.367,28.320,0.000,49.805
1532373221.425,18.066,22.949,28.809,0.488,23.438
1532373221.428,21.484,20.508,34.668,2.930,15.137
1532373221.432,17.578,18.555,36.621,-1.465,34.668
1532373221.436,35.156,16.602,36.621,8.301,49.805
1532373221.440,57.617,24.414,33.691,16.602,14.648
1532373221.444,51.758,30.273,33.203,15.137,20.020
1532373221.448,41.992,30.273,44.434,8.789,37.598
1532373221.452,46.875,34.668,47.363,7.812,62.012
1532373221.456,45.898,35.156,46.387,9.766,44.922
1532373221.460,29.785,31.738,48.340,7.812,6.348
1532373221.464,35.156,34.180,48.340,3.906,26.855
1532373221.468,42.480,35.645,48.828,12.207,54.688
1532373221.471,39.551,34.180,45.898,19.043,16.113
1532373221.475,36.133,34.180,44.434,12.207,-14.160
1532373221.479,28.809,33.691,45.410,6.348,7.324
1532373221.483,29.297,29.297,48.828,15.625,50.781
1532373221.487,48.340,26.855,47.852,25.391,50.781
1532373221.491,53.223,35.156,42.480,14.648,2.930
1532373221.495,38.574,37.109,40.527,-1.465,5.859
1532373221.499,29.297,32.715,36.621,-6.348,43.945
1532373221.503,25.391,32.227,39.062,-7.812,89.844
1532373221.507,23.926,26.367,43.945,-11.230,45.898
1532373221.511,27.344,24.414,41.504,-8.789,13.672
1532373221.514,26.367,27.344,40.039,-9.277,66.895
1532373221.518,30.762,26.855,41.504,-5.859,82.031
1532373221.522,43.457,23.926,38.574,-5.859,34.668
1532373221.526,48.340,25.391,34.668,0.977,0.488
1532373221.530,47.363,27.832,31.250,3.906,7.324
1532373221.534,44.922,32.715,25.391,0.977,40.527
1532373221.538,44.922,36.133,28.809,16.602,39.062
1532373221.542,42.480,31.250,33.691,22.461,10.742
1532373221.546,32.227,26.367,34.180,18.555,6.836
1532373221.550,30.273,23.438,35.645,21.484,28.809
1532373221.553,27.832,21.973,37.109,20.996,56.641
1532373221.557,30.762,23.438,37.109,15.137,27.344
1532373221.561,32.715,23.926,37.109,15.137,32.715
1532373221.565,20.020,21.484,39.062,9.766,61.035
1532373221.569,19.043,21.484,41.504,1.465,47.852
1532373221.573,21.484,20.508,38.574,0.977,31.738
1532373221.577,19.043,21.484,32.227,5.859,14.648
1532373221.581,24.414,26.367,35.156,10.742,21.973
1532373221.585,26.855,27.344,38.574,10.742,65.918
1532373221.589,30.762,25.391,38.086,15.137,16.602
1532373221.593,33.203,22.949,35.156,20.508,-24.902
1532373221.596,28.320,21.484,33.691,22.949,25.879
1532373221.600,28.320,18.555,38.574,30.762,71.289
1532373221.604,32.715,18.555,40.039,28.809,50.293
1532373221.608,23.438,20.508,33.691,14.160,-23.926
1532373221.612,21.484,19.531,30.273,13.184,-23.438
1532373221.616,33.203,21.973,31.738,13.184,41.992
1532373221.620,27.344,28.809,28.809,15.137,58.594
1532373221.624,35.156,38.086,34.180,28.809,22.461
1532373221.628,45.898,50.781,36.621,24.902,2.930
1532373221.632,47.363,52.246,32.715,28.320,15.137
1532373221.636,46.387,45.410,38.574,37.109,52.734
1532373221.639,40.039,43.945,38.574,30.273,30.273
1532373221.643,35.156,41.504,37.109,27.832,6.348
1532373221.647,33.203,35.645,38.086,31.738,27.832
1532373221.651,39.062,34.668,35.156,35.156,47.852
1532373221.655,37.598,32.715,25.879,30.762,18.555
1532373221.659,25.391,32.227,25.391,21.973,-1.953
1532373221.663,32.227,34.180,35.156,25.879,42.969
1532373221.667,47.363,34.180,35.645,31.738,64.941
1532373221.671,44.434,31.738,30.762,27.344,27.344
1532373221.675,34.668,30.762,32.227,28.320,3.418
1532373221.678,29.297,29.297,27.832,26.367,37.598
1532373221.682,35.156,29.297,25.391,22.461,82.520
1532373221.686,37.598,32.227,30.273,20.508,71.289
1532373221.690,37.109,33.691,35.156,18.066,-2.930
1532373221.694,36.621,31.250,32.715,22.461,-21.973
1532373221.698,36.133,29.785,29.297,20.996,25.391
1532373221.702,35.645,29.785,31.738,20.020,82.031
1532373221.706,27.344,24.414,26.855,19.531,57.129
1532373221.710,29.785,25.391,26.367,13.184,-21.484
1532373221.714,38.086,30.273,26.855,12.695,13.184
1532373221.718,35.156,31.250,25.879,20.508,77.148
1532373221.721,32.227,28.809,25.879,16.113,50.293
1532373221.725,36.133,26.367,21.484,7.324,9.766
1532373221.729,38.086,27.344,19.531,12.207,-5.859
1532373221.733,26.855,24.414,21.484,12.207,26.855
1532373221.737,21.484,23.926,25.391,13.672,53.711
1532373221.741,24.902,26.367,24.902,13.672,17.578
1532373221.745,24.414,25.391,21.973,14.648,14.160
1532373221.749,28.809,25.879,26.855,14.648,42.480
1532373221.753,33.691,23.926,28.320,10.254,44.434
1532373221.757,37.598,21.973,23.926,12.207,25.879
1532373221.761,44.922,24.902,23.438,22.461,8.789
1532373221.764,43.457,23.926,20.996,26.855,31.738
1532373221.768,32.227,22.949,19.531,21.484,59.570
1532373221.772,34.180,25.391,21.484,20.508,24.414
1532373221.776,31.738,26.367,20.996,25.879,3.418
1532373221.780,23.438,28.320,19.043,30.762,35.156
1532373221.784,23.438,26.855,21.484,33.203,78.125
1532373221.788,24.414,24.902,20.508,29.297,47.852
1532373221.792,23.926,25.879,17.090,30.762,2.441
1532373221.796,21.973,24.902,14.160,32.715,25.879
1532373221.800,25.879,27.832,17.090,26.367,73.242
1532373221.803,29.785,28.809,19.531,28.809,68.848
1532373221.807,44.434,27.344,19.531,39.062,2.441
1532373221.811,40.039,29.785,22.461,29.785,-14.160
1532373221.815,23.438,29.297,26.367,22.949,36.621
1532373221.819,28.320,27.344,25.391,31.250,93.262
1532373221.823,25.879,34.668,21.484,24.902,62.012
1532373221.827,21.973,38.086,17.578,14.648,28.320
1532373221.831,20.996,33.691,18.066,10.254,35.645
1532373221.835,16.113,37.109,22.461,13.672,69.824
1532373221.839,14.648,37.109,18.555,15.137,46.875
1532373221.843,20.996,35.645,18.555,16.113,-11.719
1532373221.846,22.949,41.016,24.902,21.484,1.953
1532373221.850,22.461,43.945,25.879,27.832,29.297
1532373221.854,26.855,39.062,29.297,30.273,17.578
1532373221.858,21.484,33.203,35.645,34.180,-0.488
1532373221.862,25.391,30.762,35.645,36.621,13.184
1532373221.866,38.574,37.109,32.715,30.762,53.223
1532373221.870,44.434,45.410,30.273,30.762,71.777
1532373221.874,43.457,43.457,35.645,31.738,23.926
1532373221.878,41.016,37.109,37.598,35.645,-12.207
1532373221.882,42.969,37.109,31.738,32.715,14.648
1532373221.886,44.922,38.086,32.227,21.973,42.480
1532373221.889,50.781,37.598,28.320,25.391,3.906
1532373221.893,57.129,37.109,26.855,30.762,-30.762
1532373221.897,52.734,35.645,30.762,27.832,5.371
1532373221.901,49.316,35.156,32.227,27.344,73.242
1532373221.905,51.758,35.156,31.738,35.156,41.992
1532373221.909,45.898,34.180,28.320,35.156,-13.672
1532373221.913,44.434,33.203,28.320,29.785,30.273
1532373221.917,51.270,31.250,24.414,38.574,76.660
1532373221.921,52.246,30.273,22.949,40.527,71.777
1532373221.925,57.129,31.250,24.902,42.480,19.043
1532373221.928,65.918,32.227,25.879,51.758,4.395
1532373221.932,66.406,33.203,27.344,52.246,40.039
1532373221.936,60.059,36.621,21.484,44.922,61.523
1532373221.940,62.500,37.598,17.578,39.551,9.766
1532373221.944,62.012,34.180,24.414,34.668,-13.184
1532373221.948,58.105,33.203,23.438,32.715,23.926
1532373221.952,58.594,34.180,20.020,33.691,19.531
1532373221.956,59.570,32.227,22.949,35.645,6.836
1532373221.960,61.523,29.297,23.926,39.062,3.418
1532373221.964,62.988,27.832,19.531,33.691,28.320
1532373221.968,50.781,28.320,16.113,25.879,71.777
1532373221.971,41.992,25.391,18.555,25.391,38.086
1532373221.975,45.898,25.391,19.531,30.762,-4.395
1532373221.979,42.480,26.367,20.508,33.203,3.906
1532373221.983,34.668,21.973,19.531,34.668,47.852
1532373221.987,34.180,19.531,15.625,33.203,40.527
1532373221.991,40.039,24.902,13.184,33.203,-2.441
1532373221.995,43.457,26.855,16.113,41.992,3.418
1532373221.999,38.086,22.461,13.672,41.992,47.852
1532373222.003,31.250,19.531,8.301,34.668,58.594
1532373222.007,36.621,20.996,13.184,34.668,25.391
1532373222.010,48.340,20.508,17.578,37.598,24.414
1532373222.014,49.316,20.508,16.113,39.062,34.180
1532373222.018,47.852,19.531,12.207,38.574,65.918
1532373222.022,44.922,18.066,10.254,34.180,62.012
1532373222.026,44.434,21.484,13.184,34.668,0.977
1532373222.030,51.270,21.484,15.137,35.645,1.953
1532373222.034,54.688,23.438,15.137,31.250,65.918
1532373222.038,55.664,24.414,15.137,25.391,56.152
1532373222.042,45.898,20.508,15.137,23.438,12.695
1532373222.046,39.062,17.578,15.137,15.137,52.246
1532373222.050,47.363,21.973,16.602,11.719,52.734
1532373222.053,43.945,24.414,16.602,17.578,10.742
1532373222.057,41.504,21.973,16.602,26.367,8.789
1532373222.061,44.434,24.902,16.602,30.762,32.227
1532373222.065,42.969,27.832,13.184,14.648,61.523
1532373222.069,38.574,26.855,16.602,7.812,83.008
1532373222.073,37.598,25.879,22.461,12.207,49.805
1532373222.077,43.945,25.391,22.949,6.348,40.527
1532373222.081,24.414,23.438,22.949,3.418,72.266
1532373222.085,15.625,22.949,23.438,7.812,75.195
1532373222.089,25.391,25.391,20.020,2.930,21.973
1532373222.093,26.855,24.902,20.996,-1.953,-3.418
1532373222.096,23.438,24.902,26.367,-3.418,37.109
1532373222.100,24.902,20.508,29.297,2.930,79.102
1532373222.104,32.227,18.555,27.344,9.766,53.711
1532373222.108,33.691,20.996,22.461,5.371,-17.578
1532373222.112,27.344,21.973,24.414,-0.977,-1.465
1532373222.116,25.879,29.297,20.020,1.465,63.477
1532373222.120,29.297,28.320,20.508,4.395,72.266
1532373222.124,22.461,20.020,24.414,-5.859,32.715
1532373222.128,6.348,18.066,21.973,-17.090,0.000
1532373222.132,2.930,18.066,22.461,-17.090,3.418
1532373222.135,19.531,20.020,24.414,-6.836,77.148
1532373222.139,28.320,25.391,30.762,-1.465,58.594
1532373222.143,18.555,24.414,30.273,-7.324,26.855
1532373222.147,14.648,25.391,28.809,-13.672,46.387
1532373222.151,26.855,39.062,39.062,-7.324,89.844
1532373222.155,32.227,46.387,46.387,-6.348,68.848
1532373222.159,31.250,41.504,45.898,-7.812,26.855
1532373222.163,33.691,41.016,42.480,-8.301,48.340
1532373222.167,31.250,41.992,40.039,-8.789,48.340
1532373222.171,29.785,41.504,38.086,-10.742,15.625
1532373222.175,28.320,37.109,39.062,-16.113,11.230
1532373222.178,23.438,32.715,39.551,-14.648,35.156
1532373222.182,23.926,30.762,39.551,-10.742,63.965
1532373222.186,23.438,32.715,39.062,-10.254,79.590
1532373222.190,29.297,43.457,34.180,-20.508,22.949
1532373222.194,33.203,49.805,29.297,-22.949,17.090
1532373222.198,21.973,44.434,26.367,-21.484,40.039
1532373222.202,11.719,41.992,30.273,-28.809,48.828
1532373222.206,9.766,40.039,30.762,-32.715,44.434
1532373222.210,17.090,38.086,27.344,-29.785,17.090
1532373222.214,32.227,41.992,29.785,-27.832,3.418
1532373222.218,42.969,41.504,36.133,-22.949,13.184
1532373222.221,38.086,35.645,37.109,-20.020,13.184
1532373222.225,23.438,32.715,33.691,-13.184,4.395
1532373222.229,25.879,29.785,34.180,-2.441,-1.953
1532373222.233,27.832,31.738,36.133,-0.488,14.648
1532373222.237,33.203,34.180,30.762,5.859,38.086
1532373222.241,38.574,32.715,28.809,14.160,0.488
1532373222.245,25.391,32.227,34.180,9.277,-5.371
1532373222.249,23.438,27.344,39.551,8.301,25.879
1532373222.253,30.762,23.926,41.992,10.254,43.945
1532373222.257,32.715,29.785,40.527,7.812,21.484
1532373222.260,39.062,36.133,41.992,9.277,5.371
1532373222.264,43.945,33.691,47.852,15.137,40.039
1532373222.268,35.645,33.203,49.316,17.090,60.059
1532373222.272,26.367,35.156,44.922,10.254,10.254
1532373222.276,30.273,35.645,42.969,16.602,-11.719
1532373222.280,35.645,32.227,45.898,25.879,9.766
1532373222.284,36.133,30.273,46.875,27.832,44.434
1532373222.288,39.551,32.227,44.922,27.344,44.922
1532373222.292,37.598,32.227,42.480,26.367,1.953
1532373222.296,44.434,29.785,43.457,30.273,-17.578
1532373222.300,47.852,26.855,47.363,32.227,25.391
1532373222.303,36.133,24.414,45.898,28.809,47.852
1532373222.307,34.180,27.344,41.504,20.996,23.926
1532373222.311,35.156,28.320,36.621,16.602,18.555
1532373222.315,39.062,25.879,34.668,13.184,30.273
1532373222.319,40.039,26.367,36.621,8.301,36.133
1532373222.323,36.133,27.832,35.645,6.836,7.812
1532373222.327,34.180,26.855,33.203,9.766,0.488
1532373222.331,38.086,26.855,32.227,19.531,24.414
1532373222.335,39.062,26.367,30.762,22.461,58.594
1532373222.339,44.922,25.391,31.250,27.832,55.664
1532373222.343,55.664,24.902,33.691,37.109,14.160
1532373222.346,49.316,25.391,31.250,36.133,11.230
1532373222.350,42.969,29.785,29.297,40.039,13.672
1532373222.354,33.691,27.344,30.273,46.387,-0.488
1532373222.358,28.809,26.367,30.273,39.551,11.230
1532373222.362,37.109,28.320,32.715,39.551,23.926
1532373222.366,40.527,30.273,35.156,40.527,43.945
1532373222.370,39.551,31.738,35.156,30.762,40.039
1532373222.374,35.156,27.832,30.762,23.438,30.762
1532373222.378,39.551,29.785,25.879,19.043,47.363
1532373222.382,38.086,31.738,25.879,17.090,70.801
1532373222.385,33.691,30.762,26.367,18.555,64.941
1532373222.389,34.180,28.809,24.414,13.184,27.832
1532373222.393,31.250,27.832,23.926,9.766,28.320
1532373222.397,33.203,28.809,27.344,15.137,43.457
1532373222.401,35.645,27.832,25.879,12.695,47.363
1532373222.405,36.621,28.320,20.996,11.230,17.578
1532373222.409,43.945,27.832,18.555,11.230,-9.766
1532373222.413,48.340,24.414,22.461,11.719,39.062
1532373222.417,45.898,22.461,23.438,17.578,64.453
1532373222.421,41.504,24.414,20.996,19.531,34.668
1532373222.425,42.480,26.367,22.461,26.367,16.113
1532373222.428,41.504,27.344,27.832,28.320,14.160
1532373222.432,33.203,27.344,27.344,12.695,29.297
1532373222.436,25.391,26.367,27.832,10.742,35.645
1532373222.440,33.203,28.320,29.785,19.043,15.625
1532373222.444,39.062,28.320,28.320,21.484,13.672
1532373222.448,37.109,26.367,31.738,20.020,20.020
1532373222.452,35.156,27.344,35.156,14.648,30.273
1532373222.456,31.738,29.297,31.250,7.812,21.484
1532373222.460,30.762,29.297,30.762,7.812,16.113
1532373222.464,31.250,27.832,35.156,10.742,40.039
1532373222.467,29.297,28.320,37.109,7.812,37.109
1532373222.471,30.762,29.785,37.598,6.348,21.973
1532373222.475,31.738,30.273,38.086,11.719,22.461
1532373222.479,32.715,32.715,38.574,13.184,10.742
1532373222.483,26.367,34.668,39.551,13.184,50.293
1532373222.487,16.602,28.809,42.969,19.531,77.148
1532373222.491,22.461,30.273,36.621,19.043,48.340
1532373222.495,21.973,38.574,34.180,17.090,28.320
1532373222.499,17.090,38.086,41.992,11.230,59.082
1532373222.503,15.137,33.203,44.922,12.207,100.586
1532373222.507,1.465,29.297,47.852,12.695,32.715
1532373222.510,-3.418,25.391,50.293,3.418,-22.949
1532373222.514,5.371,20.996,50.293,7.812,5.371
1532373222.518,9.277,23.926,43.945,8.789,32.715
1532373222.522,10.254,29.785,37.109,4.883,34.668
1532373222.526,6.836,30.762,42.969,0.000,-19.531
1532373222.530,2.441,29.297,46.875,-5.859,-22.461
1532373222.534,5.859,31.738,41.016,-5.371,50.293
1532373222.538,6.836,34.180,38.574,-5.859,50.293
1532373222.542,3.906,33.203,41.016,-5.371,-18.066
1532373222.546,7.324,31.250,41.992,0.000,-4.395
1532373222.550,16.113,33.203,43.457,2.930,37.598
1532373222.553,13.184,33.691,41.016,5.859,9.766
1532373222.557,10.742,36.621,39.062,10.254,22.461
1532373222.561,23.926,46.875,49.805,18.066,44.922
1532373222.565,34.180,51.758,57.129,23.438,48.828
1532373222.569,30.273,46.875,57.617,20.508,61.523
1532373222.573,25.879,40.527,53.711,17.578,43.945
1532373222.577,24.414,41.992,48.828,17.090,41.992
1532373222.581,23.438,41.992,48.828,19.531,42.969
1532373222.585,24.414,38.574,41.504,25.391,77.148
1532373222.589,21.484,39.062,37.109,25.879,46.387
1532373222.592,17.578,39.551,41.016,21.973,-21.484
1532373222.596,12.207,39.551,41.016,27.832,19.531
1532373222.600,10.254,36.621,40.039,33.691,60.547
1532373222.604,9.277,27.344,41.992,36.133,57.617
1532373222.608,15.137,23.438,42.480,36.621,16.113
1532373222.612,21.484,26.855,36.621,35.645,26.855
1532373222.616,20.996,26.855,34.180,42.969,63.965
1532373222.620,27.832,25.879,35.645,52.734,67.871
1532373222.624,38.086,33.203,33.203,51.758,48.340
1532373222.628,40.527,37.109,30.762,51.758,27.344
1532373222.632,38.086,32.715,32.227,56.152,44.922
1532373222.635,37.109,28.320,34.180,60.547,58.594
1532373222.639,37.109,28.809,26.855,55.664,9.766
1532373222.643,32.715,28.320,20.996,42.480,-6.348
1532373222.647,23.926,26.367,23.438,37.598,14.160
1532373222.651,24.414,26.367,23.926,35.156,20.020
1532373222.655,36.133,25.879,24.902,46.875,25.879
1532373222.659,45.898,28.320,28.809,60.547,-0.488
1532373222.663,43.945,33.203,30.762,61.523,-2.441
1532373222.667,41.992,33.203,29.297,53.711,66.895
1532373222.671,44.922,32.227,22.949,56.152,88.867
1532373222.675,47.363,32.227,20.996,62.988,33.691
1532373222.678,43.945,33.203,24.414,63.477,15.625
1532373222.682,43.457,33.691,20.996,65.918,44.922
1532373222.686,49.805,29.785,12.695,71.777,54.199
1532373222.690,50.293,33.203,15.137,72.266,-1.465
1532373222.694,48.828,35.156,21.484,70.801,-29.785
1532373222.698,55.176,32.227,19.043,65.430,23.926
1532373222.702,52.246,31.738,12.207,57.617,85.449
1532373222.706,45.410,30.273,7.812,48.828,51.270
1532373222.710,54.688,31.738,8.301,40.039,0.488
1532373222.714,54.199,33.691,9.277,40.039,29.297
1532373222.717,49.805,32.227,10.742,41.016,70.801
1532373222.721,46.387,30.273,8.789,33.691,62.988
1532373222.725,37.109,29.785,6.836,37.109,32.227
1532373222.729,43.457,28.809,11.719,48.340,16.113
1532373222.733,49.316,29.785,10.254,41.992,47.363
1532373222.737,46.387,31.250,5.859,31.738,91.797
1532373222.741,45.898,33.691,3.906,32.715,47.852
1532373222.745,49.316,30.762,4.395,35.645,13.672
1532373222.749,51.270,29.785,6.836,38.574,28.809
1532373222.753,56.152,28.809,6.836,42.480,39.551
1532373222.757,57.129,27.832,3.906,50.781,25.879
1532373222.760,54.199,31.250,5.371,62.988,4.883
1532373222.764,51.758,30.762,10.254,62.988,23.438
1532373222.768,53.711,29.785,6.836,58.105,60.059
1532373222.772,52.734,29.785,6.348,52.246,39.551
1532373222.776,42.480,29.297,9.766,49.805,10.254
1532373222.780,38.086,29.785,8.301,45.898,12.695
1532373222.784,39.062,29.785,11.719,40.039,47.852
1532373222.788,41.992,28.320,15.137,42.969,42.480
1532373222.792,43.945,25.391,15.137,45.898,5.371
1532373222.796,44.434,25.391,10.254,45.410,4.395
1532373222.800,41.992,26.855,8.789,43.945,20.508
1532373222.803,35.156,24.902,11.719,45.898,48.340
1532373222.807,40.039,27.832,11.719,55.176,21.973
1532373222.811,53.711,30.273,13.184,64.453,-4.395
1532373222.815,53.711,27.832,18.066,69.336,53.711
1532373222.819,47.852,29.785,18.555,68.359,95.215
1532373222.823,45.898,30.762,16.602,59.082,43.945
1532373222.827,46.387,27.344,18.066,53.711,5.371
1532373222.831,34.668,24.902,10.254,48.340,-17.578
1532373222.835,31.738,23.926,11.230,46.387,24.902
1532373222.839,39.062,23.926,20.508,47.852,53.711
1532373222.842,40.527,25.391,17.090,45.898,0.488
1532373222.846,33.691,25.391,13.184,43.457,-1.953
1532373222.850,28.809,23.438,16.602,40.039,41.992
1532373222.854,36.133,22.949,20.020,41.992,52.734
1532373222.858,42.480,23.926,20.508,51.270,21.484
1532373222.862,41.016,23.926,20.020,49.316,8.301
1532373222.866,32.227,22.949,14.648,43.457,42.480
1532373222.870,35.645,23.926,13.184,48.828,70.312
1532373222.874,38.086,27.344,19.043,54.199,11.719
1532373222.878,38.574,28.320,22.461,59.082,-4.883
1532373222.882,42.480,27.344,22.949,64.453,46.387
1532373222.885,36.133,26.855,21.484,61.035,88.867
1532373222.889,28.320,25.879,19.043,48.828,27.344
1532373222.893,37.109,28.320,16.602,38.574,-15.625
1532373222.897,41.016,27.832,17.090,32.227,39.062
1532373222.901,42.969,25.391,15.625,34.668,52.246
1532373222.905,47.852,28.320,14.648,37.598,26.367
1532373222.909,51.270,30.762,17.090,42.480,-1.953
1532373222.913,52.246,29.785,19.531,51.270,19.531
1532373222.917,43.457,28.320,20.020,55.664,49.316
1532373222.921,36.133,26.855,19.043,54.688,34.180
1532373222.925,33.203,23.438,16.113,48.340,29.785
1532373222.928,28.809,21.973,15.625,46.387,-0.977
1532373222.932,29.785,22.461,21.484,50.781,0.000
1532373222.936,34.668,21.484,27.344,60.059,54.688
1532373222.940,33.203,21.973,20.508,57.617,43.945
1532373222.944,30.273,22.461,16.113,42.969,27.344
1532373222.948,33.691,23.926,26.367,41.504,16.113
1532373222.952,29.785,24.414,25.879,40.527,26.855
1532373222.956,20.508,23.438,19.531,28.320,56.641
1532373222.960,22.949,23.438,21.484,29.785,26.855
1532373222.964,30.762,26.367,25.391,39.551,22.949
1532373222.967,33.691,27.344,28.320,41.992,41.016
1532373222.971,34.180,25.391,28.809,38.574,25.391
1532373222.975,45.898,35.156,35.645,49.805,10.254
1532373222.979,50.293,47.363,41.016,61.523,12.695
1532373222.983,47.852,46.387,41.504,50.781,56.641
1532373222.987,50.293,41.504,43.945,46.387,87.402
1532373222.991,53.711,39.551,42.480,46.387,57.129
1532373222.995,47.363,41.504,38.086,40.527,20.508
1532373222.999,43.945,40.039,36.621,39.062,44.922
1532373223.003,41.016,37.109,35.645,35.156,86.914
1532373223.007,36.133,33.691,33.203,26.367,29.785
1532373223.010,35.645,30.273,33.691,31.250,-7.324
1532373223.014,33.203,31.250,33.203,35.156,28.320
1532373223.018,28.320,30.762,29.297,32.715,46.875
1532373223.022,28.809,30.273,25.879,31.250,21.973
1532373223.026,33.203,33.691,29.785,38.086,-12.695
1532373223.030,33.691,31.250,33.691,41.992,-5.859
1532373223.034,36.133,31.250,31.738,46.387,30.273
1532373223.038,31.250,34.180,29.297,47.363,30.762
1532373223.042,30.273,27.832,29.297,47.363,17.578
1532373223.046,38.086,25.879,31.738,53.223,16.602
1532373223.049,35.645,29.297,30.762,46.387,36.621
1532373223.053,35.156,28.320,29.297,44.434,59.082
1532373223.057,28.809,25.879,24.414,42.969,14.160
1532373223.061,23.926,24.902,25.879,36.621,-9.277
1532373223.065,33.691,27.344,30.273,36.133,33.691
1532373223.069,39.062,30.273,29.297,32.227,67.383
1532373223.073,38.086,30.762,29.785,29.785,30.273
1532373223.077,40.039,31.738,28.809,29.785,4.883
1532373223.081,35.645,36.133,27.344,25.391,26.855
1532373223.085,36.621,36.133,25.879,21.973,74.219
1532373223.089,42.969,35.645,24.902,18.555,41.992
1532373223.092,39.062,37.109,26.855,21.484,-5.859
1532373223.096,40.039,40.039,25.391,27.832,26.367
1532373223.100,46.875,42.480,23.926,33.691,61.035
1532373223.104,50.781,41.504,26.367,39.551,53.711
1532373223.108,49.805,38.574,26.855,41.992,-0.488
1532373223.112,51.758,37.109,26.367,43.945,-41.016
1532373223.116,54.199,40.527,26.855,43.945,3.418
1532373223.120,45.410,38.086,23.926,33.203,44.922
1532373223.124,38.086,29.785,23.438,31.738,23.926
1532373223.128,40.039,30.273,28.320,41.016,-15.137
1532373223.132,35.156,30.762,31.250,44.434,33.691
1532373223.135,30.762,29.297,32.227,41.504,73.730
1532373223.139,35.156,26.855,31.250,38.574,41.504
1532373223.143,28.809,24.902,29.297,35.156,29.785
1532373223.147,17.578,23.438,31.250,24.902,6.348
1532373223.151,21.973,24.414,32.715,20.508,24.902
1532373223.155,35.645,27.832,35.156,26.855,40.527
1532373223.159,37.598,30.273,38.574,26.367,1.953
1532373223.163,25.879,30.273,36.621,21.973,-6.836
1532373223.167,24.902,27.344,33.203,19.043,39.551
1532373223.171,33.203,28.809,35.156,17.578,34.180
1532373223.174,28.320,32.227,35.645,19.043,0.488
1532373223.178,22.949,32.715,38.574,19.531,28.809
1532373223.182,26.367,32.227,39.551,18.555,82.031
1532373223.186,22.949,31.738,38.086,19.531,102.051
1532373223.190,10.742,32.227,43.945,20.020,52.734
1532373223.194,7.812,30.273,47.852,12.207,-7.324
1532373223.198,7.812,30.762,45.898,2.930,2.441
1532373223.202,-2.441,33.203,45.410,1.465,37.109
1532373223.206,-6.836,33.203,49.316,-0.488,28.320
1532373223.210,-2.930,32.715,45.410,-4.395,0.000
1532373223.214,-4.883,32.227,41.992,-9.766,12.695
1532373223.217,-6.348,32.715,44.922,-10.742,72.266
1532373223.221,-3.418,31.738,45.898,-5.859,84.961
1532373223.225,3.906,26.855,48.340,3.906,34.668
1532373223.229,7.812,24.414,52.246,6.348,-1.953
1532373223.233,8.301,30.273,46.875,1.465,62.988
1532373223.237,16.113,36.133,41.016,8.301,70.312
1532373223.241,20.020,37.598,45.410,9.277,18.555
1532373223.245,17.578,37.109,43.945,1.953,12.207
1532373223.249,13.672,36.133,42.480,5.859,34.668
1532373223.253,14.160,35.645,44.434,9.766,52.246
1532373223.257,15.137,35.156,41.504,9.277,38.574
1532373223.260,13.184,37.598,41.992,5.859,45.410
1532373223.264,10.254,32.227,46.875,6.348,56.152
1532373223.268,17.578,24.414,51.270,17.090,62.012
1532373223.272,16.602,27.344,45.410,16.113,49.805
1532373223.276,18.066,32.715,33.691,11.230,9.766
1532373223.280,25.391,32.227,31.738,6.348,8.789
1532373223.284,20.508,29.785,32.715,7.812,55.664
1532373223.288,24.902,26.855,35.645,13.184,64.941
1532373223.292,26.367,23.438,35.156,11.230,27.344
1532373223.296,28.320,21.973,30.762,17.090,25.879
1532373223.299,36.621,21.973,29.297,29.297,45.898
1532373223.303,41.992,22.949,31.738,33.203,63.965
1532373223.307,42.969,21.484,30.762,30.273,20.996
1532373223.311,38.574,19.531,30.273,32.227,-13.184
1532373223.315,40.039,21.973,26.855,38.086,12.695
1532373223.319,41.504,20.996,23.438,40.527,54.199
1532373223.323,50.781,25.879,31.250,51.758,52.734
