timestamps,TP9,AF7,AF8,TP10,Right AUX
1532373519.593,98.633,72.266,73.242,109.863,39.062
1532373519.597,104.004,73.242,74.707,113.770,33.203
1532373519.600,104.004,73.242,70.312,114.746,-4.395
1532373519.604,102.539,72.754,69.824,117.676,0.000
1532373519.608,104.492,73.242,74.707,125.000,41.016
1532373519.612,115.234,71.289,72.754,126.465,51.270
1532373519.616,115.234,72.266,72.266,125.488,13.672
1532373519.620,104.004,70.801,69.336,117.188,15.137
1532373519.624,96.680,68.848,67.871,115.723,54.199
1532373519.628,94.238,73.242,66.895,115.234,64.453
1532373519.632,96.680,70.801,63.477,110.352,-8.301
1532373519.636,94.727,68.359,63.965,108.887,-30.273
1532373519.640,92.773,66.895,66.406,110.840,20.020
1532373519.643,92.773,64.941,65.430,113.770,41.016
1532373519.647,92.285,66.895,64.941,113.770,41.016
1532373519.651,91.309,66.895,61.523,109.375,-0.488
1532373519.655,95.215,63.965,61.523,106.934,25.879
1532373519.659,86.914,65.430,65.918,104.492,83.496
1532373519.663,81.543,67.871,63.965,104.980,53.223
1532373519.667,89.844,64.453,65.918,109.863,34.668
1532373519.671,90.820,60.547,70.312,113.770,18.555
1532373519.675,94.238,61.035,66.406,116.211,21.484
1532373519.679,98.145,63.477,61.523,115.723,62.500
1532373519.682,95.215,64.453,58.594,112.305,36.621
1532373519.686,96.680,62.988,59.082,114.746,17.090
1532373519.690,97.168,61.035,60.059,115.234,37.598
1532373519.694,98.145,61.523,58.105,119.629,59.570
1532373519.698,100.586,61.523,56.152,120.605,33.203
1532373519.702,102.539,59.082,58.594,119.141,7.324
1532373519.706,99.609,56.152,55.664,119.141,30.762
1532373519.710,91.797,57.617,52.734,117.676,49.805
1532373519.714,95.703,59.570,59.082,118.652,11.719
1532373519.718,105.957,56.152,61.035,123.535,15.625
1532373519.722,106.934,52.734,58.594,123.535,71.777
1532373519.725,95.215,51.270,57.129,116.699,92.773
1532373519.729,90.820,50.293,57.617,112.305,49.316
1532373519.733,91.797,50.781,59.570,112.305,7.812
1532373519.737,84.473,48.828,53.223,103.516,16.113
1532373519.741,80.078,46.875,43.945,99.609,58.105
1532373519.745,88.379,45.898,45.898,112.793,64.941
1532373519.749,87.402,44.922,49.805,113.770,13.672
1532373519.753,82.031,45.410,50.293,103.027,-18.066
1532373519.757,88.867,48.828,50.781,109.863,34.180
1532373519.761,94.238,45.410,50.293,117.676,63.477
1532373519.764,94.238,41.992,48.340,116.211,34.668
1532373519.768,92.773,43.457,46.387,104.004,25.879
1532373519.772,89.844,43.945,46.387,94.238,-8.789
1532373519.776,96.680,43.457,43.945,102.539,34.180
1532373519.780,99.121,43.945,43.457,109.863,59.082
1532373519.784,96.680,41.016,43.945,108.398,9.766
1532373519.788,92.773,40.527,41.992,103.027,10.742
1532373519.792,89.355,44.922,39.551,100.586,42.969
1532373519.796,92.285,45.898,36.133,96.191,67.871
1532373519.800,89.844,42.480,35.645,95.703,11.719
1532373519.804,85.938,40.527,36.133,99.609,-8.789
1532373519.807,91.309,42.969,36.133,106.445,51.758
1532373519.811,97.656,42.480,35.156,109.863,43.457
1532373519.815,104.004,41.016,35.645,112.305,-3.418
1532373519.819,105.469,41.992,36.621,111.328,7.324
1532373519.823,96.680,40.039,34.180,109.375,39.062
1532373519.827,92.285,40.039,33.203,106.934,53.711
1532373519.831,91.309,39.062,31.250,104.492,45.410
1532373519.835,80.566,36.621,28.809,99.609,36.133
1532373519.839,80.566,38.574,32.715,101.562,51.270
1532373519.843,89.355,38.086,32.715,105.469,71.289
1532373519.847,89.844,40.039,32.227,105.957,54.199
1532373519.850,86.426,40.527,31.250,104.492,4.395
1532373519.854,82.520,39.551,31.250,99.121,-6.348
1532373519.858,80.078,40.039,32.227,97.656,50.781
1532373519.862,83.008,38.574,30.762,100.586,57.129
1532373519.866,82.031,37.109,28.809,100.586,-14.160
1532373519.870,81.055,37.598,29.785,99.609,-29.297
1532373519.874,83.496,40.527,28.320,99.121,38.086
1532373519.878,86.914,40.527,28.320,101.074,74.707
1532373519.882,85.449,38.086,24.902,110.352,37.598
1532373519.886,80.566,34.668,21.973,116.699,14.160
1532373519.889,81.055,35.156,25.879,116.211,28.320
1532373519.893,73.242,35.645,23.926,106.934,47.363
1532373519.897,72.754,32.715,20.996,100.098,21.973
1532373519.901,75.195,33.203,22.949,108.398,13.672
1532373519.905,74.219,33.691,23.926,116.699,54.688
1532373519.909,86.914,34.180,26.367,125.488,61.523
1532373519.913,90.332,38.086,30.762,127.441,23.926
1532373519.917,83.008,38.086,27.344,128.418,6.348
1532373519.921,83.496,36.621,25.879,130.371,20.996
1532373519.925,74.707,35.156,23.438,121.582,48.340
1532373519.929,77.148,37.598,23.926,119.141,64.453
1532373519.932,85.938,38.086,28.320,123.535,-5.859
1532373519.936,81.543,37.109,26.367,122.559,2.441
1532373519.940,82.031,37.598,28.809,127.441,39.551
1532373519.944,81.543,36.133,29.297,125.000,41.992
1532373519.948,78.613,36.133,26.367,110.840,-4.883
1532373519.952,80.078,38.574,24.414,104.980,-46.387
1532373519.956,89.355,41.992,25.391,110.352,6.348
1532373519.960,92.773,41.016,25.391,111.328,63.965
1532373519.964,84.961,39.062,25.391,105.957,41.504
1532373519.968,90.820,41.016,28.809,107.910,21.484
1532373519.972,97.656,41.016,26.855,107.910,42.480
1532373519.975,92.285,38.086,20.020,105.957,74.219
1532373519.979,88.867,39.551,25.391,110.840,58.594
1532373519.983,88.379,39.551,29.297,113.770,13.184
1532373519.987,83.496,37.598,24.414,117.676,30.762
1532373519.991,79.102,38.086,24.902,122.070,27.832
1532373519.995,73.242,39.551,24.902,121.582,26.367
1532373519.999,62.500,38.574,22.949,119.629,28.320
1532373520.003,62.500,36.133,22.949,111.328,14.648
1532373520.007,66.895,33.691,27.344,111.816,36.133
1532373520.011,65.430,34.668,30.273,110.352,62.500
1532373520.014,68.359,34.668,26.367,105.469,38.086
1532373520.018,64.941,34.668,22.461,103.516,-2.441
1532373520.022,62.500,34.180,22.461,102.051,22.949
1532373520.026,69.824,35.156,19.531,109.375,51.758
1532373520.030,73.242,37.598,20.020,111.328,21.973
1532373520.034,71.777,36.621,22.461,106.445,-21.973
1532373520.038,67.871,36.621,16.113,102.051,-2.441
1532373520.042,68.848,40.527,14.648,101.562,51.270
1532373520.046,78.125,39.062,20.020,102.539,73.730
1532373520.050,79.590,36.621,20.508,97.656,20.996
1532373520.054,76.172,39.551,20.020,96.191,-2.441
1532373520.057,73.730,40.039,20.508,97.656,30.273
1532373520.061,74.219,40.039,19.043,91.309,40.039
1532373520.065,72.266,42.480,14.160,84.473,30.273
1532373520.069,73.242,42.480,8.301,84.961,11.719
1532373520.073,75.684,38.086,8.789,84.961,20.020
1532373520.077,72.266,36.621,12.695,85.449,49.805
1532373520.081,72.266,38.574,12.207,88.379,21.973
1532373520.085,70.801,36.621,11.719,85.449,-15.137
1532373520.089,64.453,33.691,10.254,82.520,30.762
1532373520.093,61.523,33.203,7.324,81.055,48.828
1532373520.097,62.988,35.156,7.324,78.125,18.555
1532373520.100,63.477,37.109,7.324,79.102,-16.602
1532373520.104,70.312,39.062,6.836,86.914,16.602
1532373520.108,74.707,38.574,8.301,92.773,44.434
1532373520.112,69.336,36.621,4.395,91.309,20.508
1532373520.116,71.289,35.645,1.465,87.402,11.719
1532373520.120,74.219,35.645,1.953,85.449,26.855
1532373520.124,68.848,34.180,1.465,88.379,52.734
1532373520.128,70.312,34.668,6.348,91.309,59.570
1532373520.132,74.219,35.156,11.719,90.820,-3.906
1532373520.136,67.871,33.203,8.301,86.914,-22.461
1532373520.139,63.477,31.738,1.953,83.496,32.715
1532373520.143,61.035,34.180,2.930,81.543,72.266
1532373520.147,54.199,35.645,2.930,78.613,24.902
1532373520.151,57.617,33.691,2.930,82.520,-9.766
1532373520.155,62.012,34.180,5.371,85.449,41.504
1532373520.159,63.965,33.203,3.906,80.078,63.477
1532373520.163,63.477,30.762,-2.930,78.125,34.180
1532373520.167,58.594,29.297,-1.465,78.125,12.207
1532373520.171,59.570,28.809,5.371,72.754,25.879
1532373520.175,58.594,28.809,1.953,71.777,28.809
1532373520.179,56.152,27.832,1.465,80.566,55.176
1532373520.182,59.082,25.879,0.000,76.660,34.668
1532373520.186,56.152,26.367,-4.395,66.895,-4.883
1532373520.190,44.434,26.367,-5.859,68.359,18.555
1532373520.194,41.504,22.949,-8.301,66.895,43.945
1532373520.198,46.387,20.020,-5.859,67.871,35.645
1532373520.202,49.316,20.020,-5.859,73.730,-1.465
1532373520.206,49.316,19.531,-8.789,80.078,21.973
1532373520.210,42.969,19.043,-10.254,74.707,59.082
1532373520.214,41.016,20.508,-14.160,66.406,42.480
1532373520.218,41.016,20.020,-15.137,65.918,17.090
1532373520.221,35.156,16.602,-13.672,62.012,14.648
1532373520.225,31.738,11.719,-17.578,56.641,50.293
1532373520.229,32.715,11.230,-20.996,56.641,58.594
1532373520.233,27.832,11.230,-18.066,54.688,-21.973
1532373520.237,19.531,7.812,-21.484,45.898,-11.719
1532373520.241,14.648,7.324,-26.855,43.457,69.336
1532373520.245,13.672,5.371,-23.926,48.828,68.359
1532373520.249,17.578,2.441,-23.926,46.875,24.414
1532373520.253,14.648,4.395,-29.297,42.969,26.367
1532373520.257,11.719,0.000,-29.785,43.945,52.246
1532373520.261,6.836,-5.371,-27.832,36.621,68.848
1532373520.264,0.977,-3.906,-32.715,30.762,55.176
1532373520.268,1.465,-4.883,-36.133,31.738,36.621
1532373520.272,-2.441,-7.324,-36.621,28.320,38.086
1532373520.276,-3.906,-6.348,-41.992,21.484,54.688
1532373520.280,-2.441,-7.812,-45.410,23.926,55.176
1532373520.284,-2.930,-11.719,-45.410,25.391,7.812
1532373520.288,0.000,-13.184,-44.434,22.949,32.715
1532373520.292,1.465,-11.719,-44.922,22.461,60.059
1532373520.296,-8.789,-14.648,-50.781,13.672,54.688
1532373520.300,-12.695,-14.648,-50.781,13.184,39.062
1532373520.304,-11.719,-14.160,-43.457,14.648,39.551
1532373520.307,-12.695,-14.648,-41.504,12.207,45.410
1532373520.311,-16.113,-15.625,-45.410,10.742,49.316
1532373520.315,-22.461,-18.066,-51.270,7.324,22.949
1532373520.319,-20.996,-16.602,-50.293,5.859,29.297
1532373520.323,-17.578,-17.090,-43.945,12.695,56.152
1532373520.327,-6.836,-18.555,-45.410,19.531,68.848
1532373520.331,-3.418,-16.113,-47.363,16.602,41.504
1532373520.335,-6.348,-12.207,-45.410,13.184,-1.465
1532373520.339,-7.812,-14.160,-45.410,20.996,31.738
1532373520.343,-9.277,-13.672,-45.898,22.461,81.543
1532373520.346,-13.184,-11.230,-44.434,19.531,71.289
1532373520.350,-13.672,-12.207,-45.410,17.578,19.531
1532373520.354,-10.742,-11.719,-44.922,16.113,28.320
1532373520.358,-10.254,-6.836,-40.039,18.066,59.082
1532373520.362,-13.184,-6.348,-37.598,11.230,39.062
1532373520.366,-12.207,-8.301,-36.621,8.301,0.977
1532373520.370,-10.254,-8.789,-35.645,3.906,-1.465
1532373520.374,-10.742,-5.859,-36.133,0.977,26.367
1532373520.378,-8.789,-3.418,-35.645,6.836,47.852
1532373520.382,-19.043,-6.348,-37.598,7.812,30.762
1532373520.386,-23.438,-7.812,-40.527,1.465,25.391
1532373520.389,-20.508,-7.324,-38.086,1.953,24.902
1532373520.393,-14.160,-6.836,-37.598,2.441,47.852
1532373520.397,-12.207,-6.836,-38.086,-6.836,44.922
1532373520.401,-12.695,-4.883,-36.621,-7.324,-1.953
1532373520.405,-7.812,-4.883,-34.668,0.000,24.902
1532373520.409,-6.348,-4.395,-32.715,0.000,60.059
1532373520.413,-4.395,-2.930,-32.227,-1.465,47.852
1532373520.417,-2.930,-4.883,-31.250,4.395,20.508
1532373520.421,-3.906,-4.883,-33.203,5.371,45.410
1532373520.425,-5.371,-0.977,-37.598,0.000,68.359
1532373520.429,-5.859,0.488,-38.574,1.953,55.176
1532373520.432,-1.953,-1.465,-30.762,7.812,20.020
1532373520.436,4.883,-3.418,-24.414,10.254,-3.418
1532373520.440,6.348,-1.465,-25.879,11.230,22.949
1532373520.444,-3.418,-0.488,-27.832,2.930,57.617
1532373520.448,-4.883,1.953,-30.762,-6.348,24.902
1532373520.452,2.441,2.441,-32.227,-2.930,-16.602
1532373520.456,0.000,0.488,-28.809,3.418,-11.719
1532373520.460,2.441,1.953,-26.855,3.418,31.738
1532373520.464,12.695,3.906,-27.344,2.441,19.043
1532373520.468,11.230,2.930,-25.391,4.883,-7.812
1532373520.471,20.020,3.906,-21.484,0.977,-1.953
1532373520.475,16.113,4.883,-21.973,-1.465,23.438
1532373520.479,0.488,2.930,-24.902,5.371,44.434
1532373520.483,6.348,3.418,-22.949,5.371,11.719
1532373520.487,5.859,6.348,-20.508,6.348,22.461
1532373520.491,2.930,5.859,-19.043,13.184,47.363
1532373520.495,3.906,6.836,-20.508,9.277,46.875
1532373520.499,0.000,6.348,-25.391,3.418,2.930
1532373520.503,-1.953,4.883,-22.949,7.324,-8.789
1532373520.507,8.301,5.371,-18.555,18.555,35.156
1532373520.511,9.277,6.836,-20.020,23.438,30.273
1532373520.514,3.418,5.859,-23.438,13.672,29.785
1532373520.518,0.000,6.348,-27.832,3.418,28.809
1532373520.522,-0.977,6.348,-24.902,4.395,25.879
1532373520.526,2.441,5.859,-20.996,8.301,67.383
1532373520.530,5.859,6.348,-20.508,12.207,44.922
1532373520.534,2.441,6.836,-20.020,13.672,-11.719
1532373520.538,1.465,8.789,-22.949,13.672,26.855
1532373520.542,1.953,7.324,-23.926,15.137,46.387
1532373520.546,2.930,9.766,-22.461,12.207,40.527
1532373520.550,6.836,12.695,-20.996,12.207,13.184
1532373520.554,6.836,9.766,-20.508,12.207,-5.859
1532373520.557,3.418,6.836,-22.461,10.254,0.488
1532373520.561,3.906,9.277,-24.414,11.230,24.414
1532373520.565,6.348,11.230,-25.391,9.277,21.484
1532373520.569,4.883,8.789,-23.926,7.324,-4.883
1532373520.573,1.465,10.254,-20.996,-0.488,19.531
1532373520.577,-1.953,10.742,-23.926,-2.930,43.945
1532373520.581,5.371,14.160,-25.391,2.930,29.785
1532373520.585,11.230,16.113,-20.996,7.812,8.301
1532373520.589,6.836,14.648,-16.602,12.207,13.672
1532373520.593,4.395,16.602,-16.113,15.625,25.391
1532373520.596,7.324,18.066,-18.555,18.555,9.277
1532373520.600,12.207,21.484,-19.531,18.555,-19.531
1532373520.604,6.836,18.555,-24.414,14.648,13.184
1532373520.608,10.254,16.113,-20.508,12.695,59.082
1532373520.612,13.672,19.531,-16.113,14.648,36.133
1532373520.616,14.648,21.484,-19.531,18.066,0.488
1532373520.620,20.996,21.484,-14.648,21.973,24.414
1532373520.624,23.438,19.531,-11.230,14.648,76.660
1532373520.628,19.531,23.438,-14.160,11.230,85.449
1532373520.632,22.461,25.879,-15.137,15.137,25.391
1532373520.636,27.832,22.461,-18.066,16.602,-12.207
1532373520.639,24.414,20.020,-18.555,20.020,21.484
1532373520.643,20.020,20.020,-14.160,20.996,46.875
1532373520.647,19.043,19.043,-15.137,26.367,38.574
1532373520.651,17.090,21.484,-13.672,32.227,-2.930
1532373520.655,10.254,20.508,-10.742,30.762,-28.320
1532373520.659,6.348,20.508,-9.766,37.109,23.926
1532373520.663,5.859,20.996,-6.836,38.574,49.316
1532373520.667,8.301,19.531,-6.836,37.109,15.625
1532373520.671,10.742,20.996,-7.324,32.227,6.348
1532373520.675,8.789,20.996,-3.906,29.785,35.156
1532373520.678,8.789,20.020,-4.883,31.250,37.109
1532373520.682,4.395,21.973,-8.789,21.484,23.926
1532373520.686,-0.488,23.926,-11.230,15.625,41.992
1532373520.690,1.465,23.438,-12.207,17.578,40.039
1532373520.694,2.441,20.996,-10.254,17.090,32.227
1532373520.698,2.930,25.391,-11.719,16.602,31.738
1532373520.702,8.789,30.762,-8.789,21.484,10.742
1532373520.706,12.207,29.297,-2.441,25.391,42.969
1532373520.710,13.672,27.832,-0.488,27.344,57.129
1532373520.714,13.672,27.832,-4.395,25.391,6.348
1532373520.718,12.207,28.809,-5.371,26.367,4.883
1532373520.721,10.254,28.320,-0.977,25.879,47.363
1532373520.725,5.859,26.855,-2.441,22.461,76.660
1532373520.729,8.789,26.367,-2.441,26.855,56.641
1532373520.733,14.160,26.367,0.000,29.297,3.418
1532373520.737,11.719,27.832,-1.465,28.320,1.465
1532373520.741,10.742,30.762,-1.465,27.344,13.672
1532373520.745,10.254,31.250,-0.977,24.414,41.016
1532373520.749,8.301,26.855,-5.859,19.531,56.641
1532373520.753,2.930,26.367,-6.348,20.020,-13.184
1532373520.757,7.812,28.320,-2.441,23.438,13.672
1532373520.761,10.742,26.367,-0.488,23.926,77.148
1532373520.764,4.395,25.391,-2.930,25.391,59.570
1532373520.768,4.883,27.344,-1.465,26.367,27.344
1532373520.772,6.836,29.297,1.953,25.391,36.621
1532373520.776,9.277,31.738,6.348,27.832,68.359
1532373520.780,14.648,32.715,7.324,25.879,46.875
1532373520.784,21.484,34.180,4.883,24.414,8.301
1532373520.788,21.973,32.715,7.324,27.344,30.273
1532373520.792,23.926,31.738,9.766,26.855,45.410
1532373520.796,23.926,33.691,9.766,25.879,49.805
1532373520.800,14.648,33.203,5.859,25.879,41.016
1532373520.803,10.254,34.180,0.977,19.531,28.809
1532373520.807,20.508,35.156,2.930,22.949,61.035
1532373520.811,28.809,33.203,9.766,28.809,52.734
1532373520.815,21.484,32.227,15.137,27.832,33.203
1532373520.819,18.555,31.738,14.648,31.250,36.133
1532373520.823,22.461,31.250,14.648,36.133,49.805
1532373520.827,23.438,32.715,13.672,36.133,45.410
1532373520.831,25.879,32.715,13.184,23.438,7.324
1532373520.835,24.414,36.133,15.137,19.043,-9.277
1532373520.839,16.113,35.645,15.137,27.344,25.879
1532373520.843,21.973,37.598,20.508,37.598,56.152
1532373520.846,29.785,39.551,22.949,42.480,23.438
1532373520.850,27.832,37.598,17.578,37.598,-33.203
1532373520.854,29.297,37.109,13.672,36.133,-18.066
1532373520.858,29.785,36.621,16.113,37.109,39.551
1532373520.862,27.832,36.133,17.578,35.156,62.988
1532373520.866,24.902,37.598,16.113,35.645,36.621
1532373520.870,27.344,41.504,15.625,32.715,-13.672
1532373520.874,33.203,44.434,17.090,32.715,19.043
1532373520.878,32.715,44.922,17.090,34.668,61.035
1532373520.882,35.156,46.875,16.113,36.133,35.156
1532373520.886,33.691,49.316,17.578,38.574,34.668
1532373520.889,41.992,54.688,22.949,47.363,33.203
1532373520.893,52.246,58.105,26.367,59.570,25.391
1532373520.897,43.457,59.082,30.273,61.035,36.621
1532373520.901,32.227,58.594,36.133,53.711,40.527
1532373520.905,38.574,59.570,38.086,56.641,54.199
1532373520.909,50.293,62.500,36.133,63.965,63.965
1532373520.913,42.480,65.918,35.645,58.594,44.922
1532373520.917,45.410,70.801,38.086,62.988,5.859
1532373520.921,51.270,71.289,40.039,72.266,-2.930
1532373520.925,45.410,71.777,38.574,68.848,47.363
1532373520.928,44.434,72.266,38.574,67.871,71.777
1532373520.932,56.152,72.754,46.875,69.824,8.789
1532373520.936,59.570,74.707,46.875,72.754,-25.879
1532373520.940,55.176,72.266,43.945,79.102,28.320
1532373520.944,50.781,71.289,48.340,76.172,78.613
1532373520.948,49.805,75.684,49.316,71.289,50.293
1532373520.952,57.129,78.613,47.852,67.383,8.789
1532373520.956,52.246,78.125,46.875,65.430,22.461
1532373520.960,48.340,75.684,47.363,65.430,41.504
1532373520.964,52.246,76.660,47.852,66.406,53.223
1532373520.968,56.152,77.637,47.852,72.754,29.785
1532373520.971,59.082,75.684,48.828,73.242,-1.465
1532373520.975,53.223,75.195,46.875,69.336,38.574
1532373520.979,53.223,75.195,48.340,65.918,48.828
1532373520.983,54.688,76.172,45.898,57.617,17.578
1532373520.987,54.199,77.148,44.434,59.570,8.789
1532373520.991,58.594,75.195,47.852,59.570,20.508
1532373520.995,62.012,72.266,46.875,57.617,51.758
1532373520.999,59.570,72.266,44.922,57.129,34.180
1532373521.003,57.129,73.242,41.504,52.734,-4.395
1532373521.007,64.453,73.730,45.410,58.594,29.785
1532373521.011,57.617,73.730,51.758,57.617,32.715
1532373521.014,46.875,74.219,52.246,50.293,-0.977
1532373521.018,45.898,72.754,51.758,48.340,0.488
1532373521.022,46.875,71.777,50.293,44.434,22.949
1532373521.026,45.410,70.801,47.363,38.574,59.570
1532373521.030,45.410,72.754,48.340,32.715,38.086
1532373521.034,48.828,75.684,50.293,27.832,-18.555
1532373521.038,48.340,77.637,53.711,26.367,9.277
1532373521.042,47.363,75.684,56.641,24.902,70.312
1532373521.046,50.293,74.219,55.664,29.785,77.148
1532373521.050,47.852,78.125,54.199,36.621,25.391
1532373521.053,47.363,79.590,54.688,34.668,2.441
1532373521.057,49.805,80.566,52.246,34.668,59.082
1532373521.061,49.805,81.055,52.246,37.598,84.961
1532373521.065,45.898,75.684,52.734,38.574,46.875
1532373521.069,46.387,71.777,51.270,37.109,-16.602
1532373521.073,51.270,74.707,52.246,35.156,-17.090
1532373521.077,44.922,74.219,56.641,37.598,38.574
1532373521.081,38.086,73.242,56.152,38.574,25.879
1532373521.085,42.480,71.777,56.152,42.480,15.625
1532373521.089,46.387,69.824,59.570,49.805,24.902
1532373521.093,51.758,69.824,62.012,48.828,57.617
1532373521.096,56.641,69.824,64.453,52.246,46.387
1532373521.100,56.641,71.289,63.965,59.082,4.883
1532373521.104,58.105,69.336,64.453,55.664,23.926
1532373521.108,58.105,70.312,62.988,52.246,58.105
1532373521.112,57.129,71.289,58.105,49.805,42.969
1532373521.116,55.664,70.801,57.129,50.293,9.277
1532373521.120,56.152,70.801,58.105,48.828,20.996
1532373521.124,52.734,69.336,62.012,45.410,48.340
1532373521.128,48.340,69.824,58.105,37.598,60.547
1532373521.132,42.480,68.848,56.152,29.785,24.902
1532373521.135,38.574,65.430,58.105,30.273,6.836
1532373521.139,45.898,66.895,57.129,34.180,23.926
1532373521.143,44.922,69.336,56.641,36.621,55.664
1532373521.147,46.387,70.801,55.664,36.621,28.320
1532373521.151,52.246,70.801,54.688,40.039,3.418
1532373521.155,47.852,68.848,52.734,41.016,37.598
1532373521.159,39.551,69.336,53.223,35.156,60.547
1532373521.163,40.039,70.312,57.129,35.156,40.527
1532373521.167,40.527,68.359,58.594,41.504,3.906
1532373521.171,45.410,67.383,61.523,45.410,18.555
1532373521.175,46.875,64.941,64.941,46.387,61.035
1532373521.178,40.527,62.988,63.965,49.316,83.008
1532373521.182,33.691,61.523,60.547,44.922,48.340
1532373521.186,30.273,63.965,55.176,41.992,2.441
1532373521.190,39.551,68.848,58.105,50.293,12.695
1532373521.194,41.992,66.406,63.477,52.246,46.387
1532373521.198,35.645,67.383,58.105,45.898,29.785
1532373521.202,37.598,70.312,59.570,44.922,2.441
1532373521.206,35.156,64.941,62.012,41.992,28.809
1532373521.210,38.086,63.965,61.035,36.133,74.707
1532373521.214,37.109,68.359,59.570,34.668,46.387
1532373521.218,38.086,69.824,62.500,47.852,-4.883
1532373521.221,41.992,69.336,64.941,50.781,17.578
1532373521.225,35.645,68.848,59.082,43.945,46.875
1532373521.229,41.016,67.871,58.105,48.828,12.695
1532373521.233,43.945,65.918,59.570,51.758,-12.207
1532373521.237,38.574,68.848,56.152,48.340,6.348
1532373521.241,33.203,70.312,56.152,43.945,46.875
1532373521.245,33.203,67.871,64.941,48.340,77.148
1532373521.249,41.992,68.848,64.453,52.734,43.457
1532373521.253,41.992,70.801,58.594,48.828,11.719
1532373521.257,36.621,69.824,61.523,43.457,37.109
1532373521.260,44.434,69.336,61.035,43.457,68.848
1532373521.264,41.992,68.359,56.152,39.551,44.434
1532373521.268,37.109,67.871,60.059,41.992,9.766
1532373521.272,41.016,69.336,62.500,45.898,6.348
1532373521.276,40.039,68.359,57.129,35.645,60.059
1532373521.280,43.945,66.406,55.176,27.344,64.941
1532373521.284,54.688,66.895,57.129,29.785,-1.465
1532373521.288,54.199,66.406,58.105,34.668,19.531
1532373521.292,52.246,65.918,57.617,39.551,74.219
1532373521.296,53.223,65.918,60.547,42.969,70.801
1532373521.300,45.898,63.965,60.547,42.969,27.344
1532373521.303,30.273,61.035,56.641,35.645,40.527
1532373521.307,21.973,63.477,56.152,38.574,77.637
1532373521.311,18.555,62.012,57.129,41.504,48.828
1532373521.315,18.066,59.570,56.641,31.738,11.230
1532373521.319,26.367,62.988,58.105,38.086,27.832
1532373521.323,24.902,61.523,61.035,48.340,41.992
1532373521.327,18.555,57.617,60.059,47.852,45.898
1532373521.331,20.020,62.012,58.105,41.504,8.789
1532373521.335,22.461,64.941,57.617,40.527,-24.414
1532373521.339,21.484,62.988,53.711,36.621,19.531
1532373521.343,22.461,63.965,57.129,33.203,41.016
1532373521.346,26.855,62.012,62.988,35.645,29.785
1532373521.350,30.273,61.035,59.570,30.762,16.113
1532373521.354,24.414,64.941,56.152,26.367,7.812
1532373521.358,22.949,65.430,56.152,30.273,50.781
1532373521.362,21.973,63.965,56.152,28.320,59.082
1532373521.366,24.902,61.523,53.711,25.391,31.738
1532373521.370,30.273,59.570,53.711,29.297,15.625
1532373521.374,30.762,60.547,54.199,31.250,43.457
1532373521.378,32.715,61.035,52.246,29.785,75.195
1532373521.382,27.344,61.035,47.852,28.320,41.504
1532373521.385,25.879,59.082,48.340,33.203,0.000
1532373521.389,32.715,59.082,54.199,32.715,23.438
1532373521.393,29.785,58.594,54.688,28.809,41.016
1532373521.397,27.832,59.082,55.664,33.203,34.668
1532373521.401,33.691,60.059,55.176,38.574,10.742
1532373521.405,29.785,57.129,49.316,38.086,23.438
1532373521.409,34.180,58.594,49.805,39.551,57.617
1532373521.413,35.156,61.523,50.781,36.133,28.809
1532373521.417,28.809,58.594,49.316,39.551,-6.836
1532373521.421,30.273,59.082,51.270,57.129,2.930
1532373521.425,31.250,59.082,52.246,62.500,43.457
1532373521.428,36.133,57.617,55.176,59.570,44.434
1532373521.432,35.156,58.594,57.617,61.035,20.508
1532373521.436,24.902,59.570,54.688,59.082,26.855
1532373521.440,22.461,57.129,51.270,56.152,28.320
1532373521.444,22.461,55.664,51.270,55.664,21.973
1532373521.448,20.996,53.223,49.316,54.199,12.695
1532373521.452,22.461,51.758,51.270,52.246,-20.996
1532373521.456,23.926,50.781,52.734,53.223,10.742
1532373521.460,33.691,50.293,56.641,62.988,62.500
1532373521.464,35.156,52.734,58.105,68.848,57.129
1532373521.468,25.391,52.246,51.270,56.152,38.086
1532373521.471,23.438,54.688,48.340,43.457,30.762
1532373521.475,21.973,54.199,52.246,39.551,65.918
1532373521.479,18.555,54.199,54.688,39.551,62.012
1532373521.483,17.578,56.641,55.176,38.086,24.414
1532373521.487,17.090,53.711,56.152,33.203,25.391
1532373521.491,18.066,55.176,54.199,28.809,28.809
1532373521.495,16.602,58.105,54.688,32.227,28.809
1532373521.499,16.602,55.176,51.270,29.297,41.016
1532373521.503,18.066,53.711,48.340,24.902,26.367
1532373521.507,19.531,50.781,46.387,27.832,35.645
1532373521.510,24.414,49.805,47.363,31.250,61.523
1532373521.514,29.785,52.246,52.734,34.668,48.340
1532373521.518,28.320,51.270,56.641,37.109,0.977
1532373521.522,23.438,50.781,54.688,37.109,24.902
1532373521.526,26.367,51.270,50.293,36.621,68.359
1532373521.530,28.809,51.758,49.316,39.551,15.625
1532373521.534,29.297,52.734,51.270,44.922,-28.320
1532373521.538,35.645,52.734,56.641,50.293,1.465
1532373521.542,34.180,50.781,54.199,44.922,40.039
1532373521.546,23.438,47.852,49.805,37.109,58.594
1532373521.550,21.484,50.293,51.270,34.668,19.043
1532373521.553,28.320,54.199,49.316,35.156,-14.648
1532373521.557,32.715,53.711,48.340,38.574,17.090
1532373521.561,27.344,49.805,50.781,35.645,62.988
1532373521.565,22.949,50.293,52.734,36.621,57.129
1532373521.569,22.461,51.270,53.223,43.945,23.926
1532373521.573,19.531,50.293,52.734,46.387,26.367
1532373521.577,19.531,50.781,53.223,46.875,41.016
1532373521.581,20.020,50.781,55.176,45.898,19.531
1532373521.585,17.090,50.781,55.664,43.457,-9.277
1532373521.589,19.531,51.270,56.152,47.363,-2.930
1532373521.592,17.090,49.316,52.734,41.016,14.648
1532373521.596,10.254,48.340,51.270,37.598,29.297
1532373521.600,10.254,48.828,50.781,40.039,16.113
1532373521.604,9.277,49.316,51.270,31.250,8.301
1532373521.608,6.836,50.293,53.223,35.156,38.086
1532373521.612,10.742,50.781,51.758,42.480,69.336
1532373521.616,19.531,49.805,52.246,42.480,21.973
1532373521.620,16.602,45.410,47.363,40.039,-12.695
1532373521.624,15.625,44.434,45.410,42.480,1.953
1532373521.628,17.578,47.852,49.316,44.922,12.207
1532373521.632,16.113,46.875,50.293,40.527,9.277
1532373521.635,19.531,48.340,49.805,36.621,3.906
1532373521.639,21.973,51.758,52.734,36.621,25.391
1532373521.643,23.438,47.852,58.105,38.086,53.711
1532373521.647,20.020,44.434,55.176,31.738,43.457
1532373521.651,18.066,49.316,52.246,24.902,6.348
1532373521.655,20.020,54.199,54.688,26.855,27.832
1532373521.659,20.020,51.758,56.152,29.785,73.242
1532373521.663,18.066,51.758,52.734,20.996,56.152
1532373521.667,11.230,53.223,52.246,11.719,21.973
1532373521.671,14.160,51.270,55.176,15.625,36.621
1532373521.675,20.508,51.270,54.688,23.438,52.734
1532373521.678,20.996,49.316,54.688,29.785,40.527
1532373521.682,15.625,48.340,52.734,29.785,6.836
1532373521.686,9.277,49.316,53.223,29.785,1.465
1532373521.690,9.277,49.316,58.594,30.273,20.508
1532373521.694,16.113,50.781,62.012,32.715,51.270
1532373521.698,15.625,52.246,56.641,33.691,32.227
1532373521.702,15.625,47.363,53.223,34.668,-25.391
1532373521.706,16.113,46.387,53.223,38.574,-1.465
1532373521.710,13.184,50.781,48.340,35.156,54.688
1532373521.714,20.996,51.758,49.805,35.156,27.832
1532373521.717,23.926,51.270,54.688,40.527,11.719
1532373521.721,20.508,48.828,51.270,41.992,28.809
1532373521.725,27.344,49.805,47.363,47.363,52.734
1532373521.729,27.344,50.293,53.223,46.387,69.824
1532373521.733,20.020,44.922,55.664,36.621,17.090
1532373521.737,19.043,42.480,54.199,34.180,9.277
1532373521.741,20.996,43.457,53.711,36.133,48.340
1532373521.745,25.391,48.828,51.758,29.785,49.316
1532373521.749,22.461,46.875,53.223,25.879,-6.836
1532373521.753,13.672,42.480,52.734,20.996,3.906
1532373521.757,19.531,44.922,51.758,15.625,54.688
1532373521.760,24.414,46.387,52.734,17.578,39.551
1532373521.764,21.973,48.340,49.805,16.113,22.949
1532373521.768,19.043,46.875,50.781,8.789,-5.371
1532373521.772,13.184,45.898,51.758,4.883,-10.254
1532373521.776,12.207,46.875,50.781,6.348,14.648
1532373521.780,16.602,44.922,52.246,5.371,19.043
1532373521.784,15.137,46.387,51.758,-0.977,16.113
1532373521.788,10.254,46.875,44.434,-11.230,14.648
1532373521.792,8.301,44.922,42.969,-11.719,29.785
1532373521.796,17.578,49.316,45.410,-2.441,65.430
1532373521.800,29.297,49.805,47.363,0.488,30.273
1532373521.803,30.762,45.898,50.293,0.488,7.812
1532373521.807,32.227,43.457,53.711,5.371,49.316
1532373521.811,28.320,40.527,57.617,13.672,67.871
1532373521.815,20.020,39.551,52.734,8.301,36.133
1532373521.819,22.461,41.016,51.270,2.930,5.859
1532373521.823,25.879,42.969,53.711,5.371,-8.301
1532373521.827,22.461,43.457,52.734,8.789,34.180
1532373521.831,23.438,41.992,59.082,14.648,23.438
1532373521.835,25.879,39.551,58.594,12.695,-24.902
1532373521.839,31.250,45.410,53.223,18.066,27.344
1532373521.842,31.738,47.852,56.152,26.367,87.891
1532373521.846,26.855,42.969,55.176,20.020,52.734
1532373521.850,24.414,42.969,48.340,10.254,-10.254
1532373521.854,19.043,42.969,46.875,4.395,9.766
1532373521.858,21.484,42.969,50.781,12.695,49.316
1532373521.862,26.367,46.875,53.711,19.531,67.383
1532373521.866,17.090,46.875,51.758,19.043,52.734
1532373521.870,7.324,44.922,48.828,12.695,-5.859
1532373521.874,12.207,48.340,50.781,6.836,0.488
1532373521.878,19.531,46.387,51.758,8.301,49.316
1532373521.882,21.973,46.387,52.734,11.719,28.809
1532373521.885,20.508,50.781,52.734,11.230,11.230
1532373521.889,22.461,50.293,51.270,14.160,34.180
1532373521.893,23.438,47.363,55.176,19.043,74.219
1532373521.897,28.320,48.340,53.711,20.020,67.383
1532373521.901,30.762,47.852,51.270,24.414,20.020
1532373521.905,29.785,48.828,56.641,29.785,22.949
1532373521.909,31.250,50.781,56.152,33.691,32.227
1532373521.913,27.832,48.828,53.223,37.109,31.738
1532373521.917,21.973,48.340,56.641,29.785,18.066
1532373521.921,24.414,48.828,59.082,22.461,7.812
1532373521.925,31.738,48.340,56.641,27.832,32.715
1532373521.928,36.133,50.293,56.152,30.762,54.688
1532373521.932,34.668,52.246,58.594,27.832,-8.789
1532373521.936,35.156,51.758,53.711,20.508,-10.742
1532373521.940,39.551,51.270,54.688,17.090,48.828
1532373521.944,42.480,51.758,55.176,20.020,49.805
1532373521.948,53.711,51.758,52.246,24.414,36.133
1532373521.952,52.734,50.293,54.199,28.809,16.113
1532373521.956,33.691,48.828,51.270,27.832,28.320
1532373521.960,31.738,50.781,55.176,31.738,57.129
1532373521.964,36.133,54.688,67.383,35.156,41.504
1532373521.967,28.809,53.711,68.359,15.625,29.297
1532373521.971,22.949,52.246,67.871,-7.812,24.902
1532373521.975,16.602,52.246,67.383,-21.973,30.762
1532373521.979,14.648,51.758,65.430,-28.809,63.965
1532373521.983,16.113,52.246,63.965,-40.039,26.855
1532373521.987,19.531,53.223,61.035,-44.922,20.020
1532373521.991,28.809,55.664,60.059,-39.062,41.992
1532373521.995,22.461,57.129,59.082,-40.039,40.039
1532373521.999,16.113,54.688,54.688,-42.969,9.277
1532373522.003,21.973,50.781,46.387,-42.969,-12.207
1532373522.007,25.391,49.316,47.363,-37.109,27.344
1532373522.010,24.414,49.316,53.223,-35.156,62.012
1532373522.014,19.531,45.898,52.734,-35.156,38.086
1532373522.018,19.043,43.457,54.688,-25.879,21.484
1532373522.022,23.438,44.434,54.199,-18.555,33.203
1532373522.026,26.855,46.875,51.270,-11.230,59.570
1532373522.030,25.879,45.410,52.734,-11.230,47.852
1532373522.034,21.973,42.480,48.828,-15.137,27.344
1532373522.038,13.672,40.527,47.852,-16.602,30.273
1532373522.042,20.020,42.969,55.176,-10.742,56.641
1532373522.046,32.715,44.434,52.734,-7.812,72.754
1532373522.049,29.297,45.410,50.781,-13.184,2.930
1532373522.053,30.273,50.293,59.570,-11.230,-13.184
1532373522.057,29.785,50.781,59.082,-8.301,31.738
1532373522.061,24.902,49.316,51.758,-9.277,58.594
1532373522.065,28.809,48.340,50.781,-7.324,39.062
1532373522.069,22.461,44.434,51.270,-6.836,5.371
1532373522.073,18.066,44.922,50.781,-1.953,25.879
1532373522.077,27.832,43.457,49.316,15.137,50.781
1532373522.081,31.250,42.969,49.316,24.902,53.711
1532373522.085,32.715,42.480,45.410,29.297,38.086
1532373522.089,34.668,42.480,44.922,33.203,33.691
1532373522.092,33.691,42.480,49.805,30.762,47.852
1532373522.096,36.621,41.016,53.711,35.645,54.199
1532373522.100,30.762,40.039,51.758,40.527,13.184
1532373522.104,25.391,41.016,52.246,34.668,-0.488
1532373522.108,31.250,42.480,54.688,38.574,58.594
1532373522.112,35.156,45.410,53.223,34.180,28.320
1532373522.116,35.156,44.922,52.246,24.414,-35.156
1532373522.120,30.762,46.387,49.805,32.227,-16.602
1532373522.124,31.250,50.781,51.758,40.039,26.855
1532373522.128,35.645,49.805,56.152,42.969,64.453
1532373522.132,36.621,48.828,53.223,40.039,22.949
1532373522.135,37.109,50.781,55.176,38.086,-2.930
1532373522.139,30.762,49.316,57.129,33.203,23.926
1532373522.143,17.578,46.875,49.805,17.090,28.809
1532373522.147,9.766,48.340,48.828,8.789,33.691
1532373522.151,11.719,48.340,51.270,12.207,-7.812
1532373522.155,16.113,47.363,51.758,18.066,4.883
1532373522.159,18.555,48.828,50.781,21.973,71.777
1532373522.163,16.113,50.781,49.316,21.973,35.645
1532373522.167,18.555,49.316,49.316,20.996,13.672
1532373522.171,25.879,49.805,46.387,24.414,18.555
1532373522.174,32.227,49.805,44.922,28.809,35.645
1532373522.178,36.621,51.758,46.875,31.250,49.316
1532373522.182,35.645,51.758,46.875,30.762,41.504
1532373522.186,29.785,49.805,45.410,29.785,23.926
1532373522.190,27.832,50.293,45.898,26.855,15.137
1532373522.194,34.668,48.828,48.828,20.020,21.973
1532373522.198,28.809,46.875,50.293,18.066,1.465
1532373522.202,17.090,44.434,51.270,21.484,-23.438
1532373522.206,18.555,42.480,51.758,25.391,23.926
1532373522.210,21.484,44.922,51.270,25.879,47.363
1532373522.214,19.531,44.922,51.270,22.461,14.648
1532373522.217,20.508,41.016,51.270,23.438,-0.977
1532373522.221,25.391,41.992,50.781,25.391,19.531
1532373522.225,20.996,42.969,52.734,27.832,61.035
1532373522.229,23.926,41.504,51.758,34.180,29.297
1532373522.233,21.973,41.016,49.316,26.855,-8.301
1532373522.237,14.160,40.039,45.410,17.578,2.441
1532373522.241,12.695,36.621,44.922,19.531,17.090
1532373522.245,6.836,34.180,46.875,18.555,31.738
1532373522.249,0.000,32.227,41.016,10.254,8.789
1532373522.253,-2.441,31.250,35.645,5.371,-18.066
1532373522.257,0.000,31.250,36.621,9.766,-5.371
1532373522.260,4.395,28.809,35.156,8.789,42.480
1532373522.264,-0.488,27.832,30.762,-0.977,55.176
1532373522.268,-12.695,25.391,28.809,-13.184,11.719
1532373522.272,-10.742,21.973,24.902,-16.602,22.461
1532373522.276,-9.766,20.020,20.996,-13.672,51.270
1532373522.280,-15.137,19.043,22.461,-16.602,33.203
1532373522.284,-16.602,17.578,23.926,-18.555,-3.418
1532373522.288,-15.625,17.578,24.414,-18.555,11.230
1532373522.292,-13.672,18.066,26.855,-25.391,20.508
1532373522.296,-17.090,19.043,26.367,-26.855,8.301
1532373522.299,-15.137,16.113,25.391,-17.578,6.836
1532373522.303,-7.324,13.672,24.414,-13.672,5.859
1532373522.307,-9.766,17.578,21.484,-19.531,34.180
1532373522.311,-7.812,18.066,23.926,-21.484,49.805
1532373522.315,-8.301,15.625,23.926,-19.043,17.578
1532373522.319,-7.324,14.648,16.602,-27.344,-1.465
1532373522.323,-4.883,14.648,17.090,-24.414,37.109
1532373522.327,-15.137,14.160,20.996,-17.578,58.594
1532373522.331,-19.043,13.672,20.508,-22.461,33.203
1532373522.335,-16.113,11.719,21.484,-19.531,15.625
1532373522.339,-15.137,9.277,22.949,-13.672,17.090
1532373522.342,-8.789,11.719,23.926,-10.254,61.035
1532373522.346,-2.441,14.648,25.879,-7.812,52.734
1532373522.350,-5.859,13.184,27.344,-5.371,-7.324
1532373522.354,-8.301,12.207,26.367,-5.859,-9.277
1532373522.358,-7.324,13.672,22.461,-6.348,29.785
1532373522.362,-3.418,9.766,20.020,-6.348,66.406
1532373522.366,-8.301,8.301,20.508,-0.488,40.039
1532373522.370,-17.090,10.742,21.973,0.000,-5.859
1532373522.374,-13.672,9.277,26.855,-2.441,-3.418
1532373522.378,-11.719,10.254,27.832,2.930,53.711
1532373522.382,-12.207,13.184,25.391,6.836,50.293
1532373522.385,-9.277,10.742,24.414,9.766,16.113
1532373522.389,-10.254,7.812,24.902,9.766,27.344
1532373522.393,-9.277,8.789,21.973,6.348,45.898
1532373522.397,-4.395,13.672,18.555,16.602,27.344
1532373522.401,-9.766,13.184,19.043,13.672,13.184
1532373522.405,-12.207,9.277,19.531,7.812,35.156
1532373522.409,0.000,12.207,20.996,12.207,50.781
1532373522.413,-0.977,14.160,21.484,7.812,37.598
1532373522.417,-7.324,13.672,24.902,8.301,23.438
1532373522.421,-7.324,12.695,23.926,6.348,17.578
1532373522.424,-6.836,9.766,19.043,0.000,38.086
1532373522.428,-1.465,12.695,16.113,0.488,54.199
1532373522.432,-4.883,19.531,17.090,0.977,12.207
1532373522.436,0.977,22.461,21.484,7.812,0.488
1532373522.440,6.348,20.508,23.926,16.113,57.129
1532373522.444,3.906,17.578,21.973,13.672,93.750
1532373522.448,2.930,17.090,18.066,10.742,39.062
1532373522.452,4.883,19.043,19.531,14.160,-6.348
1532373522.456,7.812,19.531,24.902,18.066,32.227
1532373522.460,6.836,21.973,26.367,15.625,60.547
1532373522.464,4.395,24.902,28.809,13.672,66.406
1532373522.467,10.254,21.973,29.785,18.066,17.090
1532373522.471,13.184,20.996,29.785,22.949,0.488
1532373522.475,10.742,23.438,33.203,26.367,29.297
1532373522.479,2.930,22.949,33.203,21.973,69.824
1532373522.483,-0.977,20.996,27.832,16.113,53.711
1532373522.487,0.000,20.020,27.344,14.648,26.367
1532373522.491,-0.977,21.484,27.344,13.672,25.879
1532373522.495,7.324,23.926,23.438,13.672,47.852
1532373522.499,11.719,24.414,24.902,12.207,47.363
1532373522.503,2.441,25.391,27.344,7.324,11.230
1532373522.506,2.441,25.879,27.344,1.465,42.969
1532373522.510,8.301,24.902,27.344,8.789,81.543
1532373522.514,9.766,21.973,24.902,17.578,40.527
1532373522.518,8.301,23.438,23.926,17.090,-21.484
1532373522.522,9.277,25.391,27.832,20.996,-2.441
1532373522.526,12.695,24.414,27.832,25.879,37.109
1532373522.530,7.812,24.902,28.320,26.855,0.488
1532373522.534,3.906,27.344,28.320,22.461,-45.898
1532373522.538,2.930,26.855,24.902,20.508,-3.906
1532373522.542,3.906,25.879,25.879,21.973,61.523
1532373522.546,7.324,25.879,23.926,19.531,69.824
1532373522.549,8.301,25.879,22.949,10.742,29.785
1532373522.553,8.789,26.855,24.414,11.719,15.137
1532373522.557,13.672,27.832,28.320,21.484,44.434
1532373522.561,12.207,25.879,25.879,21.484,68.848
1532373522.565,7.812,25.879,24.414,17.578,54.199
1532373522.569,9.277,26.855,29.297,16.113,-4.883
1532373522.573,14.648,26.855,28.320,27.344,-16.602
1532373522.577,19.043,29.297,27.344,34.668,35.156
1532373522.581,18.555,29.785,32.227,23.926,40.527
1532373522.585,16.113,28.809,32.715,21.484,11.230
1532373522.589,15.137,28.809,27.344,24.902,13.672
1532373522.592,13.672,29.785,26.367,24.902,31.738
1532373522.596,19.531,28.809,26.367,26.367,40.527
1532373522.600,19.043,28.809,24.902,25.879,23.438
1532373522.604,20.996,27.832,26.367,25.879,21.484
1532373522.608,28.320,27.344,30.273,22.949,42.480
1532373522.612,29.297,27.832,34.668,24.902,48.828
1532373522.616,28.809,27.832,35.645,33.691,10.254
1532373522.620,22.461,25.391,32.227,33.203,1.465
1532373522.624,19.043,27.344,32.715,33.203,48.828
1532373522.628,16.113,27.832,33.203,41.504,66.895
1532373522.631,17.090,24.414,32.227,37.598,16.113
1532373522.635,17.090,28.320,30.273,33.691,-30.762
1532373522.639,8.301,31.250,30.273,33.691,1.953
1532373522.643,7.812,25.879,35.645,30.273,46.875
1532373522.647,5.371,22.949,35.156,31.738,30.273
1532373522.651,3.418,22.949,30.762,22.461,-15.137
1532373522.655,3.906,22.949,38.086,19.531,4.395
1532373522.659,7.324,23.926,41.992,26.855,51.758
1532373522.663,10.254,24.902,38.574,27.344,54.199
1532373522.667,10.742,25.879,40.527,26.855,19.531
1532373522.671,14.160,27.832,39.551,20.508,-12.207
1532373522.674,18.066,29.297,39.062,16.602,20.020
1532373522.678,21.484,29.297,39.551,13.184,71.777
1532373522.682,15.625,30.273,39.062,11.230,41.504
1532373522.686,11.230,31.250,39.062,11.719,10.742
1532373522.690,9.766,28.809,36.133,9.277,38.086
1532373522.694,3.906,27.344,35.156,5.371,73.730
1532373522.698,3.906,26.855,39.551,0.977,47.852
1532373522.702,10.742,29.785,42.969,13.672,27.344
1532373522.706,8.789,30.273,41.992,17.090,40.039
1532373522.710,7.812,28.320,35.645,7.812,45.898
1532373522.714,10.254,30.273,34.668,6.836,25.879
1532373522.717,21.973,31.738,37.598,17.578,9.277
1532373522.721,24.414,30.273,38.574,28.320,31.250
1532373522.725,18.066,27.344,36.133,28.809,48.828
1532373522.729,18.066,26.855,35.645,26.855,31.738
1532373522.733,15.137,28.320,36.621,28.320,21.484
1532373522.737,18.555,27.344,36.133,36.133,14.648
1532373522.741,20.996,25.879,37.109,35.156,18.555
1532373522.745,16.113,28.809,32.715,27.832,32.715
1532373522.749,10.254,31.250,31.250,33.691,5.371
1532373522.753,22.949,30.762,34.668,38.574,-18.066
1532373522.756,27.832,30.273,35.645,43.945,26.855
1532373522.760,19.043,29.785,39.062,46.875,70.801
1532373522.764,14.648,29.785,38.574,45.410,21.973
1532373522.768,21.973,33.203,38.574,49.316,3.906
1532373522.772,28.809,39.062,44.922,47.363,12.695
1532373522.776,13.672,38.086,44.922,36.133,21.973
1532373522.780,6.836,34.180,41.992,40.039,35.645
1532373522.784,11.719,35.645,42.480,48.340,8.301
1532373522.788,15.625,35.156,42.480,43.457,15.625
1532373522.792,14.648,35.156,41.992,37.109,31.250
1532373522.796,12.207,37.598,40.039,34.180,32.227
1532373522.799,8.301,35.156,36.621,31.738,-5.371
1532373522.803,9.277,29.785,37.109,33.691,-10.254
1532373522.807,19.531,28.809,38.086,39.551,11.719
1532373522.811,21.973,30.762,37.598,42.969,14.160
1532373522.815,23.438,29.785,38.574,47.363,13.184
1532373522.819,25.391,28.320,40.527,48.340,-27.344
1532373522.823,24.414,28.809,43.457,44.922,-8.301
1532373522.827,20.996,31.250,41.016,46.875,63.965
1532373522.831,16.602,32.715,37.109,39.062,34.180
1532373522.835,14.160,33.203,34.180,28.809,-14.648
1532373522.838,19.531,32.715,31.738,37.598,25.879
1532373522.842,22.461,30.762,41.016,47.852,59.082
1532373522.846,22.461,30.762,47.852,54.199,70.801
1532373522.850,28.320,31.250,47.852,59.570,29.785
1532373522.854,28.809,32.715,47.852,65.918,-21.484
1532373522.858,30.273,34.180,51.270,72.754,40.039
1532373522.862,28.809,33.203,50.781,67.871,92.773
1532373522.866,19.043,26.855,47.363,55.176,51.270
1532373522.870,13.672,27.832,46.875,53.223,13.184
1532373522.874,15.137,31.738,49.805,55.176,63.477
1532373522.878,17.090,32.227,51.270,58.594,83.496
1532373522.881,7.324,33.203,48.340,56.152,24.414
1532373522.885,-1.465,31.738,46.875,52.734,27.344
1532373522.889,-1.465,29.297,46.875,55.176,55.176
1532373522.893,-4.883,29.785,48.828,48.340,59.082
1532373522.897,-10.742,28.809,47.852,41.504,38.086
1532373522.901,-5.859,29.297,43.457,43.945,15.137
1532373522.905,8.301,32.227,46.387,50.781,55.664
1532373522.909,18.555,30.762,49.316,59.082,72.754
1532373522.913,17.090,31.250,44.922,60.547,53.223
1532373522.917,14.160,31.738,45.898,58.594,25.391
1532373522.921,18.066,31.738,46.875,58.105,28.809
1532373522.924,21.484,33.203,44.922,60.059,65.918
1532373522.928,13.184,32.715,44.922,53.223,71.289
1532373522.932,10.254,33.203,40.527,45.898,37.109
1532373522.936,12.695,35.156,38.086,43.457,9.766
1532373522.940,12.695,33.203,41.504,41.016,18.066
1532373522.944,15.625,33.691,44.434,41.504,62.988
1532373522.948,17.578,35.645,46.875,48.340,32.715
1532373522.952,18.066,35.645,46.387,48.340,-22.949
1532373522.956,13.184,37.598,43.945,45.410,2.441
1532373522.960,17.578,35.156,45.898,51.758,53.711
1532373522.963,20.996,33.691,46.387,52.246,77.637
1532373522.967,8.301,33.203,41.504,47.363,30.273
1532373522.971,6.836,32.715,42.480,46.387,7.812
1532373522.975,12.695,34.180,46.387,47.852,54.199
1532373522.979,15.625,37.109,44.922,42.969,82.031
1532373522.983,14.160,38.086,42.480,42.969,31.738
1532373522.987,16.113,34.180,44.922,45.898,-13.672
1532373522.991,10.742,32.227,46.387,45.410,20.508
1532373522.995,13.672,35.156,44.922,48.828,62.500
1532373522.999,31.250,40.039,46.875,54.688,18.066
1532373523.003,25.879,39.062,47.852,60.059,-13.672
1532373523.006,18.555,36.621,46.875,60.547,34.180
1532373523.010,24.902,40.039,44.922,57.129,57.617
1532373523.014,30.273,40.039,43.945,56.641,21.973
1532373523.018,26.855,33.691,41.504,59.082,6.348
1532373523.022,27.344,32.227,42.969,61.035,8.789
1532373523.026,25.879,34.668,41.992,59.570,47.852
1532373523.030,23.438,35.156,40.039,54.199,58.105
1532373523.034,24.902,32.715,42.969,56.641,1.953
1532373523.038,26.855,32.715,44.434,61.035,0.977
1532373523.042,32.227,35.645,47.852,60.547,53.223
1532373523.046,33.203,40.039,42.969,58.105,64.941
1532373523.049,30.762,41.504,37.109,56.641,33.203
1532373523.053,22.949,37.109,39.551,52.246,-7.812
1532373523.057,28.809,38.574,40.039,57.129,16.602
1532373523.061,31.250,41.992,34.668,59.082,43.945
1532373523.065,26.367,40.039,36.133,58.594,14.160
1532373523.069,25.391,39.551,38.086,59.570,-3.418
1532373523.073,23.438,39.551,34.180,56.152,19.531
1532373523.077,21.484,38.086,32.227,55.176,56.152
1532373523.081,27.832,36.621,32.227,58.594,33.203
1532373523.085,29.785,36.133,34.180,56.641,-1.953
1532373523.088,29.297,39.062,33.691,57.129,10.742
1532373523.092,29.297,40.039,33.203,61.523,25.879
1532373523.096,24.902,39.551,29.785,55.664,41.992
1532373523.100,34.668,40.527,31.738,58.105,24.414
1532373523.104,40.527,39.062,33.203,61.523,26.367
1532373523.108,36.621,37.109,34.180,56.641,52.734
1532373523.112,33.203,38.086,34.180,55.664,49.316
1532373523.116,25.391,35.156,34.668,50.293,33.203
1532373523.120,25.391,30.762,34.180,47.852,21.484
1532373523.124,23.438,29.785,29.297,44.922,46.387
1532373523.128,23.438,30.273,31.250,46.387,78.613
1532373523.131,24.414,28.809,34.180,45.410,37.598
1532373523.135,20.996,28.320,34.180,44.922,-23.926
1532373523.139,24.414,31.738,34.668,59.082,-1.953
1532373523.143,29.297,31.250,35.645,63.477,57.129
1532373523.147,25.391,31.250,34.668,60.547,48.340
1532373523.151,17.578,32.715,33.691,58.594,5.371
1532373523.155,18.066,29.297,36.133,60.059,36.133
1532373523.159,18.066,25.879,35.645,60.059,71.289
1532373523.163,16.113,27.832,31.250,54.688,30.762
1532373523.167,21.973,29.785,34.180,61.035,11.230
1532373523.171,22.461,26.367,30.762,62.988,28.809
1532373523.174,20.996,25.879,27.344,55.176,44.434
1532373523.178,18.555,28.809,31.738,55.176,37.598
1532373523.182,21.484,29.297,35.156,62.988,18.555
1532373523.186,25.391,31.250,37.109,66.895,13.672
1532373523.190,24.414,30.273,37.109,65.430,38.574
1532373523.194,25.391,30.762,36.133,63.965,45.410
1532373523.198,25.391,32.227,36.133,63.477,23.926
1532373523.202,20.996,30.273,35.645,62.988,15.625
1532373523.206,21.973,28.809,38.574,63.965,47.852
1532373523.210,31.738,32.227,43.945,70.801,55.176
1532373523.213,28.809,32.715,43.457,69.824,33.203
1532373523.217,21.973,28.809,38.574,67.383,13.184
1532373523.221,19.043,28.320,36.621,61.035,12.207
1532373523.225,18.066,29.785,37.598,55.176,47.363
1532373523.229,16.602,31.738,39.551,55.176,43.457
1532373523.233,20.020,27.832,40.527,54.688,-15.137
1532373523.237,17.090,24.414,35.645,53.223,-8.789
1532373523.241,9.766,28.809,37.598,55.664,54.688
1532373523.245,11.230,29.785,44.434,55.664,81.055
1532373523.249,14.648,25.391,40.039,49.805,51.758
1532373523.253,16.113,23.926,32.715,49.805,34.180
1532373523.256,16.602,24.902,33.691,49.316,43.457
1532373523.260,21.973,28.320,35.156,46.387,65.918
1532373523.264,24.414,28.809,32.715,41.016,42.969
1532373523.268,39.062,31.250,38.086,43.945,-5.859
1532373523.272,51.758,37.598,45.410,52.734,6.348
1532373523.276,41.504,36.621,44.922,56.641,27.832
1532373523.280,31.738,32.227,47.363,60.547,41.992
1532373523.284,24.902,26.855,47.852,61.523,27.344
1532373523.288,17.090,24.414,44.922,59.570,41.016
1532373523.292,14.160,27.832,45.410,63.965,60.059
1532373523.295,18.066,30.762,43.945,68.848,37.109
1532373523.299,17.090,28.320,40.527,63.477,12.207
1532373523.303,18.066,28.809,41.016,60.059,12.207
1532373523.307,19.531,30.273,43.457,62.012,49.805
1532373523.311,19.043,30.762,47.363,61.523,70.801
1532373523.315,22.949,32.715,48.340,60.059,60.547
1532373523.319,25.879,29.297,48.828,58.594,40.039
1532373523.323,23.438,25.879,47.363,51.758,39.551
1532373523.327,23.438,24.414,46.875,44.434,60.059
1532373523.331,29.785,21.484,47.852,41.992,10.254
1532373523.335,26.855,24.902,44.922,42.480,-34.180
1532373523.338,27.832,28.320,44.922,49.805,15.137
1532373523.342,28.320,26.367,48.340,50.781,59.570
1532373523.346,26.855,23.926,43.945,47.363,56.152
1532373523.350,26.855,22.461,40.039,50.781,13.184
1532373523.354,22.949,26.367,41.992,48.828,-12.207
1532373523.358,20.020,25.879,41.504,43.945,10.742
1532373523.362,25.879,21.973,43.945,47.363,50.781
1532373523.366,27.832,21.973,43.945,46.875,28.809
1532373523.370,23.926,22.461,43.457,41.992,-12.695
1532373523.374,36.133,22.949,48.340,42.969,4.883
1532373523.378,45.410,21.973,50.781,47.852,50.293
1532373523.381,35.645,22.949,44.434,48.340,32.227
1532373523.385,29.785,24.414,38.574,49.316,15.625
1532373523.389,32.715,22.461,40.527,48.828,45.410
1532373523.393,34.180,23.926,39.062,42.480,74.219
1532373523.397,33.203,22.949,36.133,37.109,81.543
1532373523.401,34.180,20.508,40.527,37.598,45.410
1532373523.405,32.715,20.996,43.457,40.039,44.922
1532373523.409,28.809,22.461,42.969,42.480,55.176
1532373523.413,24.414,22.461,38.574,35.156,38.574
1532373523.417,24.902,18.555,38.086,25.391,23.438
1532373523.420,30.273,20.020,39.551,27.344,28.320
1532373523.424,36.621,20.020,40.039,32.715,74.219
1532373523.428,36.133,18.555,40.039,39.551,68.359
1532373523.432,31.738,18.066,36.621,35.645,7.324
1532373523.436,31.250,17.578,34.668,30.273,-14.648
1532373523.440,31.250,21.484,34.180,31.250,3.906
1532373523.444,28.809,20.996,33.691,29.297,46.387
1532373523.448,31.738,18.066,34.180,32.715,31.250
1532373523.452,36.133,19.531,33.203,35.645,-3.906
1532373523.456,33.691,21.973,31.250,32.227,9.277
1532373523.460,35.645,20.996,37.109,32.715,40.527
1532373523.463,39.551,20.996,42.480,34.180,54.688
1532373523.467,39.551,23.438,38.574,35.156,14.160
1532373523.471,41.504,24.902,37.109,33.203,-6.836
1532373523.475,37.109,24.414,38.086,29.297,21.484
1532373523.479,34.668,23.438,35.645,29.785,55.664
1532373523.483,42.480,24.902,33.691,33.203,47.852
1532373523.487,45.410,26.855,33.691,34.180,44.922
1532373523.491,47.363,27.344,30.762,31.738,48.828
1532373523.495,49.805,26.855,31.738,41.016,51.270
1532373523.499,45.410,26.855,35.645,44.434,43.457
1532373523.503,39.062,25.391,34.180,32.715,12.695
1532373523.506,36.133,24.902,31.738,31.738,13.672
1532373523.510,40.527,24.414,34.668,35.156,29.785
1532373523.514,39.551,20.020,33.691,32.227,18.066
1532373523.518,30.762,18.555,30.273,37.598,8.789
1532373523.522,34.668,21.973,31.738,46.387,35.156
1532373523.526,41.504,21.973,30.762,48.828,88.379
1532373523.530,40.039,20.996,30.762,49.316,64.453
1532373523.534,37.598,20.020,27.832,46.875,40.527
1532373523.538,39.551,16.602,23.438,45.898,56.152
1532373523.542,42.969,15.625,20.508,44.434,88.379
1532373523.545,42.969,18.066,20.020,49.805,84.473
1532373523.549,41.504,15.625,24.414,54.199,24.902
1532373523.553,42.480,11.230,23.438,50.293,10.254
1532373523.557,40.039,8.301,18.066,45.410,41.016
1532373523.561,30.762,10.742,20.020,46.875,60.547
1532373523.565,34.180,12.695,22.949,50.293,36.621
1532373523.569,42.969,8.789,24.414,48.828,28.320
1532373523.573,43.457,7.324,20.996,41.504,2.930
1532373523.577,34.180,5.859,17.090,36.621,23.926
1532373523.581,25.879,5.371,15.625,32.227,71.289
1532373523.585,30.762,12.207,15.137,30.762,28.320
1532373523.588,38.086,18.555,18.066,38.574,20.508
1532373523.592,43.945,16.113,19.043,43.457,52.734
1532373523.596,41.504,11.719,19.043,42.969,33.691
1532373523.600,37.109,10.742,16.113,41.504,14.160
1532373523.604,37.109,9.766,15.625,39.062,29.297
1532373523.608,32.227,7.812,19.043,39.062,39.062
1532373523.612,28.320,6.836,16.602,32.715,15.137
1532373523.616,24.414,5.371,15.625,23.438,8.789
1532373523.620,24.902,2.441,16.113,26.855,29.785
1532373523.624,27.344,-0.977,13.184,29.297,41.992
1532373523.628,27.344,1.465,11.719,33.691,58.105
1532373523.631,29.785,0.000,11.230,40.039,37.598
1532373523.635,32.715,-5.371,12.695,41.504,13.184
1532373523.639,38.574,-3.418,12.207,43.457,62.500
1532373523.643,39.551,-1.465,5.371,41.992,76.172
1532373523.647,34.668,-1.465,7.812,40.527,41.992
1532373523.651,41.504,4.395,17.090,46.387,-18.066
1532373523.655,46.875,12.207,21.484,52.246,-13.672
1532373523.659,55.176,14.648,27.344,58.594,71.289
1532373523.663,58.594,18.555,31.738,63.477,57.129
1532373523.667,59.570,24.414,33.691,62.500,8.789
1532373523.670,66.895,26.855,34.668,63.965,20.996
1532373523.674,65.918,28.809,35.645,67.383,59.082
1532373523.678,58.105,28.809,33.691,66.895,48.340
1532373523.682,73.242,28.320,41.504,76.660,13.672
1532373523.686,83.984,31.250,51.758,87.891,14.648
1532373523.690,78.125,35.645,50.293,92.285,17.090
1532373523.694,83.008,37.109,48.828,92.285,37.598
1532373523.698,80.566,37.109,49.805,92.285,36.621
1532373523.702,77.637,36.133,52.246,95.703,9.277
1532373523.706,80.566,35.156,55.176,97.656,14.648
1532373523.710,86.426,37.109,53.223,99.121,1.953
1532373523.713,87.402,39.062,50.781,96.191,7.324
1532373523.717,82.031,37.109,51.758,95.215,12.695
1532373523.721,82.031,36.133,53.711,100.586,35.645
1532373523.725,83.008,39.551,50.293,100.098,59.082
1532373523.729,83.496,41.016,47.363,97.656,49.316
1532373523.733,88.379,42.969,45.898,102.051,14.160
1532373523.737,98.145,43.945,43.945,105.469,-19.531
1532373523.741,102.539,40.039,45.410,106.934,31.250
1532373523.745,98.633,37.598,44.434,110.352,88.867
1532373523.749,93.750,39.551,41.992,104.004,27.344
1532373523.752,90.332,39.062,43.945,97.168,-25.391
1532373523.756,85.938,35.156,45.410,96.191,7.812
1532373523.760,91.797,33.691,43.457,97.168,42.969
1532373523.764,100.586,35.645,45.410,104.980,34.668
1532373523.768,99.121,33.691,46.875,107.910,-6.348
1532373523.772,99.121,37.109,47.363,104.004,-30.762
1532373523.776,98.633,40.527,47.363,105.957,24.902
1532373523.780,95.703,36.621,47.852,103.516,30.762
1532373523.784,92.773,35.645,42.480,97.168,-20.996
1532373523.788,91.309,33.203,38.086,96.191,-15.625
1532373523.792,88.379,29.297,44.922,92.773,-5.371
1532373523.795,89.355,31.738,46.875,91.309,9.766
1532373523.799,91.797,33.691,46.387,100.098,22.461
1532373523.803,92.773,31.250,48.828,104.980,16.602
1532373523.807,93.262,31.250,49.316,101.562,21.484
1532373523.811,85.449,31.738,42.969,96.191,21.973
1532373523.815,88.379,29.297,39.551,94.727,0.977
1532373523.819,91.797,27.832,37.109,95.215,-21.973
1532373523.823,89.844,29.785,33.203,95.215,16.113
1532373523.827,97.656,28.320,32.715,102.539,33.203
1532373523.831,104.980,27.344,33.691,104.980,1.465
1532373523.835,107.910,31.250,37.598,104.492,-21.973
1532373523.838,104.980,32.227,35.645,106.934,0.977
1532373523.842,103.516,31.738,31.738,104.004,44.434
1532373523.846,101.074,30.762,27.832,99.121,48.340
1532373523.850,99.609,26.855,21.484,99.609,-0.977
1532373523.854,105.469,27.344,21.484,101.074,-13.184
1532373523.858,108.398,30.762,24.414,101.074,34.668
1532373523.862,100.098,30.273,20.996,100.098,44.434
1532373523.866,97.168,25.391,19.531,96.680,43.457
1532373523.870,99.121,21.484,21.484,95.215,22.949
1532373523.874,101.074,22.949,24.414,99.121,22.461
1532373523.877,96.191,24.414,22.949,101.562,50.293
1532373523.881,94.238,23.438,18.066,99.609,26.367
1532373523.885,100.586,21.484,15.137,99.609,-18.066
1532373523.889,96.680,20.020,19.531,92.773,19.043
1532373523.893,89.355,19.531,21.973,82.031,28.320
1532373523.897,89.355,18.555,18.555,82.520,20.508
1532373523.901,88.379,20.020,16.113,85.449,5.859
1532373523.905,84.961,20.508,12.207,82.031,8.789
1532373523.909,84.961,20.020,9.766,82.031,51.270
1532373523.913,89.355,20.020,9.766,83.008,36.133
1532373523.917,100.098,18.555,8.301,83.496,26.367
1532373523.920,109.375,19.531,5.371,89.844,34.180
1532373523.924,105.957,19.043,1.953,88.379,43.945
1532373523.928,108.887,18.555,0.488,87.402,49.316
1532373523.932,110.840,20.020,2.930,85.449,2.930
1532373523.936,110.840,18.555,4.883,84.961,-32.715
1532373523.940,109.863,17.578,3.418,94.727,40.527
1532373523.944,104.980,15.137,2.930,104.980,67.871
1532373523.948,99.609,15.625,5.371,109.375,19.531
1532373523.952,92.773,15.625,7.324,105.957,12.695
1532373523.956,93.262,13.184,2.441,104.492,40.039
1532373523.960,97.168,14.160,1.953,102.539,42.969
1532373523.963,84.961,13.672,2.441,99.609,37.109
1532373523.967,76.172,10.742,-1.465,94.727,1.953
1532373523.971,78.613,9.277,2.441,97.168,-10.742
1532373523.975,75.684,8.789,3.418,95.215,49.316
1532373523.979,78.125,11.230,-1.465,87.402,51.758
1532373523.983,79.102,12.695,-3.418,79.590,9.277
1532373523.987,75.684,14.160,-2.441,75.684,20.020
1532373523.991,83.984,16.602,-1.465,77.637,16.113
1532373523.995,89.355,13.672,-2.441,78.613,34.180
1532373523.999,89.355,14.648,-0.977,81.543,66.406
1532373524.002,86.426,17.578,-2.441,81.543,20.996
1532373524.006,83.496,13.184,-5.859,84.473,-11.719
1532373524.010,85.938,9.766,-7.812,86.426,23.438
1532373524.014,88.867,11.719,-9.277,88.379,19.043
1532373524.018,86.426,13.672,-8.301,87.891,-6.836
1532373524.022,86.426,15.137,-10.254,89.844,10.254
1532373524.026,87.891,13.672,-13.184,95.215,55.664
1532373524.030,93.750,12.207,-8.301,94.727,61.035
1532373524.034,97.656,14.648,-8.301,93.750,-14.160
1532373524.038,91.309,11.719,-13.184,100.098,-12.207
1532373524.042,96.680,12.207,-11.719,106.934,42.480
1532373524.045,101.074,14.160,-11.719,106.445,42.480
1532373524.049,96.191,12.207,-14.648,104.492,10.742
1532373524.053,96.680,12.695,-16.602,103.516,-1.953
1532373524.057,97.656,12.207,-11.719,105.957,24.414
1532373524.061,97.168,9.277,-7.812,103.516,70.801
1532373524.065,93.750,10.742,-6.348,99.121,51.270
1532373524.069,87.402,11.230,-7.812,93.262,-2.441
1532373524.073,78.613,10.254,-15.137,84.961,0.977
1532373524.077,82.031,11.719,-15.137,93.750,30.273
1532373524.081,90.332,11.230,-13.672,100.586,48.340
1532373524.085,87.402,9.766,-15.137,97.656,12.207
1532373524.088,89.355,9.766,-14.160,96.191,-1.465
1532373524.092,90.332,12.695,-10.254,99.121,33.691
1532373524.096,85.449,15.625,-13.184,96.680,64.941
1532373524.100,87.891,14.648,-14.648,93.750,23.926
1532373524.104,90.820,12.207,-11.230,93.750,5.371
1532373524.108,88.867,12.207,-11.230,91.797,48.340
1532373524.112,90.332,12.695,-11.230,96.191,54.688
1532373524.116,87.891,13.184,-13.672,98.145,33.203
1532373524.120,82.520,13.672,-16.602,91.797,15.137
1532373524.124,82.520,14.648,-19.531,87.891,18.066
1532373524.127,86.426,15.137,-20.508,89.355,31.250
1532373524.131,91.309,15.625,-17.090,96.191,-11.230
1532373524.135,94.727,15.625,-16.602,98.145,-36.621
1532373524.139,90.820,12.695,-17.090,95.215,22.949
1532373524.143,91.797,11.230,-13.672,95.703,66.406
1532373524.147,90.820,13.184,-12.695,90.332,50.781
1532373524.151,83.984,13.184,-15.137,82.031,3.906
1532373524.155,83.008,10.742,-18.555,81.543,14.648
1532373524.159,83.496,13.184,-20.020,82.520,67.383
1532373524.163,80.078,14.160,-21.973,81.055,56.641
1532373524.167,77.637,9.766,-25.391,80.078,38.086
1532373524.170,82.520,12.695,-20.508,89.844,12.695
1532373524.174,92.773,14.648,-17.578,99.121,31.738
1532373524.178,90.332,16.602,-18.555,102.051,78.613
1532373524.182,80.566,16.113,-18.066,94.727,29.785
1532373524.186,76.660,13.672,-21.973,84.961,1.953
1532373524.190,78.613,14.160,-21.973,87.891,19.043
1532373524.194,81.543,16.602,-20.508,94.727,22.949
1532373524.198,79.590,14.648,-17.578,97.656,37.109
1532373524.202,76.660,11.719,-16.602,91.797,3.906
1532373524.206,76.172,9.277,-20.996,88.379,7.812
1532373524.209,73.730,9.766,-25.391,89.355,45.898
1532373524.213,67.871,11.719,-24.902,85.938,38.574
1532373524.217,75.195,10.254,-17.578,94.727,38.086
1532373524.221,86.426,12.207,-19.043,104.492,34.180
1532373524.225,87.402,13.672,-22.949,108.398,55.664
1532373524.229,83.984,12.695,-20.508,107.910,67.383
1532373524.233,85.449,14.648,-22.461,102.539,43.457
1532373524.237,84.473,15.137,-23.438,103.027,39.062
1532373524.241,80.078,11.230,-18.066,104.004,67.383
1532373524.245,74.219,9.277,-18.555,98.145,75.195
1532373524.249,66.895,11.230,-21.973,93.262,37.109
1532373524.252,65.430,10.742,-23.438,93.750,-14.648
1532373524.256,60.059,7.324,-24.902,95.215,47.852
1532373524.260,65.918,9.766,-23.438,99.121,93.262
1532373524.264,81.055,12.207,-20.508,102.539,63.477
1532373524.268,73.242,7.812,-21.973,100.586,8.301
1532373524.272,69.336,11.719,-22.949,99.121,-4.395
1532373524.276,74.219,17.578,-22.461,98.633,60.547
1532373524.280,71.289,10.254,-22.949,94.238,81.055
1532373524.284,69.336,8.301,-25.879,90.332,9.766
1532373524.288,79.590,13.184,-25.879,94.238,16.602
1532373524.292,89.844,13.672,-19.531,100.586,48.828
1532373524.295,82.031,14.648,-18.066,101.562,38.086
1532373524.299,71.289,17.578,-19.043,96.191,23.926
1532373524.303,68.848,15.625,-23.438,90.820,-13.184
1532373524.307,70.312,12.207,-25.391,86.914,24.902
1532373524.311,71.777,14.648,-21.973,83.008,60.547
1532373524.315,63.965,18.066,-26.367,75.195,17.090
1532373524.319,67.871,19.043,-29.785,75.195,24.414
1532373524.323,70.312,20.996,-27.344,76.172,29.785
1532373524.327,61.035,20.508,-23.926,77.148,20.996
1532373524.331,64.941,18.555,-22.461,80.566,30.762
1532373524.334,69.824,17.090,-23.926,83.496,42.480
1532373524.338,67.871,16.602,-23.926,80.078,41.992
1532373524.342,63.965,13.672,-22.949,68.359,44.922
1532373524.346,62.012,12.207,-24.414,70.312,59.570
1532373524.350,62.988,13.184,-25.879,70.312,11.230
1532373524.354,70.801,16.113,-26.367,66.406,-13.184
1532373524.358,77.637,20.996,-23.438,78.613,40.039
1532373524.362,73.730,20.020,-20.996,78.613,52.734
1532373524.366,64.453,20.508,-17.090,73.730,38.086
1532373524.370,62.012,20.996,-21.484,68.848,15.137
1532373524.374,66.895,20.996,-20.996,73.730,14.648
1532373524.377,70.801,20.996,-17.090,82.031,56.152
1532373524.381,68.848,19.531,-16.113,79.590,21.973
1532373524.385,66.406,18.066,-12.207,82.031,-18.555
1532373524.389,66.406,18.066,-13.672,88.867,21.973
1532373524.393,64.941,20.508,-14.160,86.426,57.617
1532373524.397,63.477,22.461,-13.184,87.891,28.809
1532373524.401,67.871,20.020,-16.602,85.449,-8.301
1532373524.405,62.500,18.066,-18.555,77.148,17.090
1532373524.409,59.082,24.414,-12.695,83.984,31.250
1532373524.413,66.895,24.414,-7.324,81.543,20.996
1532373524.417,62.012,20.020,-5.859,74.219,6.836
1532373524.420,60.059,23.438,-13.184,74.707,-24.414
1532373524.424,62.988,25.879,-15.625,75.684,11.719
1532373524.428,66.895,26.855,-13.184,80.078,48.340
1532373524.432,72.266,23.926,-9.277,87.891,2.441
1532373524.436,73.242,25.879,-5.371,86.914,-15.137
1532373524.440,77.637,30.273,-8.789,82.031,3.906
1532373524.444,75.684,25.879,-9.766,83.496,36.621
1532373524.448,68.359,26.367,-8.301,77.148,29.785
1532373524.452,64.453,29.297,-6.348,75.195,-11.230
1532373524.456,69.336,26.855,-2.930,78.125,-6.836
1532373524.459,73.242,25.879,-1.953,81.055,26.367
1532373524.463,74.219,30.762,-4.395,80.078,35.645
1532373524.467,73.730,32.715,-3.418,78.125,11.230
1532373524.471,77.637,34.180,-2.441,81.055,22.461
1532373524.475,73.730,35.156,-6.348,81.055,34.180
1532373524.479,65.430,33.691,-10.254,78.613,17.578
1532373524.483,65.918,32.227,-11.719,77.148,9.277
1532373524.487,60.547,28.320,-13.184,73.730,-5.371
1532373524.491,57.617,24.902,-20.020,62.988,8.789
1532373524.495,57.129,22.949,-23.926,55.664,12.695
1532373524.499,49.805,17.090,-26.855,49.316,4.883
1532373524.502,50.781,12.695,-31.250,49.805,-5.859
1532373524.506,48.828,10.742,-34.668,52.734,2.441
1532373524.510,45.898,8.789,-35.156,49.805,23.926
1532373524.514,47.363,9.766,-39.062,51.758,37.598
1532373524.518,41.504,6.836,-45.898,45.410,-0.488
1532373524.522,41.016,8.789,-41.016,49.805,22.461
1532373524.526,46.387,10.742,-37.109,56.152,47.363
1532373524.530,50.293,8.789,-38.574,50.781,9.766
1532373524.534,41.992,5.859,-40.527,47.852,2.441
1532373524.538,36.133,2.930,-44.434,47.363,6.348
1532373524.542,41.504,6.836,-43.945,44.922,17.090
1532373524.545,37.598,5.371,-45.410,43.457,66.895
1532373524.549,31.738,2.441,-46.875,40.039,46.387
1532373524.553,39.062,5.371,-45.898,36.133,-17.578
1532373524.557,35.645,5.371,-45.410,39.062,7.812
1532373524.561,30.273,3.418,-46.387,34.668,48.340
1532373524.565,31.738,3.418,-50.293,39.062,52.734
1532373524.569,30.273,1.465,-50.293,39.062,26.855
1532373524.573,24.414,1.465,-47.363,26.367,22.461
1532373524.577,28.320,3.906,-50.781,30.762,47.852
1532373524.581,36.621,3.418,-56.152,26.367,32.715
1532373524.584,39.062,2.441,-55.176,21.973,-15.625
1532373524.588,40.039,3.906,-51.270,23.438,1.465
1532373524.592,45.410,7.324,-52.246,21.484,26.367
1532373524.596,53.223,8.301,-48.340,24.902,7.324
1532373524.600,45.898,6.836,-46.875,31.738,8.301
1532373524.604,30.273,7.812,-46.875,40.527,36.133
1532373524.608,28.320,7.812,-45.410,48.340,59.082
1532373524.612,29.785,2.441,-41.016,48.340,70.801
1532373524.616,24.414,0.977,-38.086,51.270,48.828
1532373524.620,30.273,4.883,-41.016,61.035,16.602
1532373524.624,32.227,4.883,-42.480,60.547,38.086
1532373524.627,34.180,5.371,-39.062,62.500,59.082
1532373524.631,36.621,7.812,-37.109,54.199,29.297
1532373524.635,38.086,7.812,-40.527,42.480,10.742
1532373524.639,31.738,4.883,-45.410,42.969,46.875
1532373524.643,29.297,6.348,-43.945,35.645,61.035
1532373524.647,33.203,8.789,-39.551,35.645,46.875
1532373524.651,28.809,5.859,-34.668,42.969,19.531
1532373524.655,34.668,6.348,-36.133,47.363,14.160
1532373524.659,38.086,8.301,-38.086,45.410,29.297
1532373524.663,40.039,6.836,-38.574,39.551,52.734
1532373524.666,40.039,5.859,-44.434,35.645,48.828
1532373524.670,36.133,9.277,-43.457,30.762,-12.695
1532373524.674,42.969,9.277,-40.039,33.203,-8.789
1532373524.678,37.109,7.812,-37.598,38.086,40.527
1532373524.682,27.832,15.137,-38.086,40.527,37.598
1532373524.686,30.762,14.648,-36.133,38.574,26.367
1532373524.690,30.762,9.277,-38.086,34.668,18.066
1532373524.694,36.621,10.254,-40.527,34.668,36.621
1532373524.698,37.109,14.160,-37.109,39.551,50.293
1532373524.702,35.156,14.648,-35.156,43.457,12.207
1532373524.706,36.133,12.695,-33.691,46.875,14.160
1532373524.709,40.039,12.695,-33.203,45.898,39.551
1532373524.713,40.527,15.137,-36.133,41.016,44.922
1532373524.717,35.156,17.090,-39.551,36.621,36.621
1532373524.721,36.621,17.578,-39.551,38.574,22.949
1532373524.725,38.086,18.555,-41.504,31.738,-1.465
1532373524.729,38.574,20.020,-42.969,24.902,20.508
1532373524.733,38.574,22.949,-42.969,22.949,10.254
1532373524.737,43.457,22.949,-44.922,22.949,3.418
1532373524.741,43.457,19.043,-47.363,27.832,41.992
1532373524.745,43.457,18.555,-45.410,26.367,53.711
1532373524.749,42.480,16.602,-41.016,20.996,28.809
1532373524.752,36.621,13.672,-45.898,16.113,-3.906
1532373524.756,39.551,17.090,-50.781,18.555,30.273
1532373524.760,51.270,21.973,-49.805,29.785,81.543
1532373524.764,54.199,22.461,-52.246,30.273,74.707
1532373524.768,44.922,20.996,-54.199,21.484,12.207
1532373524.772,46.875,21.973,-50.781,18.066,-26.855
1532373524.776,49.316,21.973,-48.828,22.461,-5.371
1532373524.780,54.688,22.949,-51.270,34.180,36.133
1532373524.784,51.758,23.926,-51.758,40.527,43.945
1532373524.788,47.852,21.484,-49.316,33.691,39.062
1532373524.791,53.711,21.484,-48.340,31.738,49.316
1532373524.795,48.340,20.508,-57.129,32.715,51.758
1532373524.799,42.480,18.555,-59.570,27.344,42.480
1532373524.803,41.992,19.043,-54.688,25.391,33.691
1532373524.807,43.457,21.484,-54.199,25.879,29.785
1532373524.811,38.574,18.555,-59.082,24.414,40.039
1532373524.815,39.551,17.090,-59.082,23.438,46.387
1532373524.819,43.945,17.090,-60.059,23.926,34.180
1532373524.823,46.387,17.578,-60.059,32.227,53.711
1532373524.827,56.152,20.508,-58.105,39.551,81.543
1532373524.831,55.664,19.531,-62.500,36.133,41.504
1532373524.834,47.363,18.555,-62.500,32.715,-11.230
1532373524.838,38.574,15.137,-62.012,29.297,24.414
1532373524.842,34.180,13.184,-61.035,27.832,74.707
1532373524.846,41.992,13.672,-64.453,30.273,63.965
1532373524.850,46.875,16.113,-68.848,38.086,-0.488
1532373524.854,39.551,12.695,-69.824,43.457,-0.488
1532373524.858,45.898,9.277,-65.918,46.387,30.273
1532373524.862,56.641,14.648,-60.059,53.711,37.598
1532373524.866,52.734,17.090,-61.523,50.781,43.457
1532373524.870,41.992,12.207,-65.918,45.898,26.855
1532373524.874,45.898,7.812,-65.918,48.340,24.902
1532373524.877,54.199,9.766,-66.895,52.734,53.223
1532373524.881,54.199,13.184,-69.824,56.641,44.434
1532373524.885,56.152,14.160,-69.824,54.199,21.973
1532373524.889,54.199,15.137,-69.824,47.363,27.344
1532373524.893,47.852,13.672,-68.359,43.945,48.340
1532373524.897,41.992,9.766,-74.707,38.086,45.898
1532373524.901,46.387,15.137,-76.172,39.062,20.996
1532373524.905,51.758,19.531,-69.824,44.922,28.320
1532373524.909,54.199,17.090,-63.477,46.387,48.828
1532373524.913,59.082,16.602,-62.988,41.992,34.180
1532373524.916,56.152,15.137,-65.918,40.039,2.930
1532373524.920,52.734,13.672,-68.359,41.504,11.230
1532373524.924,54.688,15.137,-71.777,40.039,38.086
1532373524.928,50.781,13.672,-71.289,45.898,46.387
1532373524.932,53.223,14.160,-71.289,48.828,32.715
1532373524.936,56.641,14.160,-71.289,47.363,33.203
1532373524.940,54.688,12.695,-68.359,52.734,36.133
1532373524.944,55.176,12.695,-72.266,59.082,45.410
1532373524.948,56.152,11.719,-77.637,57.617,56.641
1532373524.952,57.129,10.254,-77.148,61.035,4.883
1532373524.956,54.199,9.766,-74.707,63.477,0.488
1532373524.959,59.082,11.719,-72.266,65.918,42.969
1532373524.963,59.082,11.719,-79.590,68.848,49.805
1532373524.967,53.223,7.324,-85.938,56.152,28.809
1532373524.971,49.316,4.883,-84.473,54.199,-13.184
1532373524.975,62.988,10.254,-79.590,63.965,-8.301
1532373524.979,65.430,8.789,-83.496,63.965,35.645
1532373524.983,52.246,4.395,-86.914,64.453,5.371
1532373524.987,55.176,6.348,-84.473,66.895,-10.254
1532373524.991,52.734,6.348,-88.867,56.152,41.016
1532373524.995,39.062,1.465,-93.262,46.387,62.012
1532373524.999,40.527,0.977,-90.332,51.270,32.715
1532373525.002,51.758,5.371,-87.402,59.082,-9.277
1532373525.006,51.270,6.836,-86.426,61.035,24.902
1532373525.010,51.758,7.812,-87.891,54.199,42.480
1532373525.014,44.922,3.418,-91.797,43.457,11.719
1532373525.018,33.203,-1.953,-93.750,35.156,16.602
1532373525.022,30.762,0.000,-94.238,34.668,6.836
1532373525.026,33.203,4.883,-92.285,36.621,50.781
1532373525.030,39.062,7.812,-90.820,39.551,50.293
1532373525.034,36.133,4.883,-99.609,38.574,-22.461
1532373525.038,34.180,3.418,-98.145,42.969,-5.859
1532373525.041,45.898,3.418,-93.750,49.805,49.316
1532373525.045,52.246,1.953,-99.121,53.711,67.383
1532373525.049,55.664,1.465,-95.703,53.223,16.602
1532373525.053,61.523,3.906,-91.797,48.340,-4.883
1532373525.057,54.688,2.930,-102.051,45.898,35.645
1532373525.061,50.293,0.977,-103.516,43.457,49.805
1532373525.065,55.664,0.977,-96.680,47.852,45.898
1532373525.069,48.340,2.441,-100.098,43.945,16.113
1532373525.073,47.363,2.441,-97.656,41.504,-4.883
1532373525.077,57.617,3.418,-91.309,55.176,57.129
1532373525.081,57.617,4.883,-96.191,56.641,94.238
1532373525.084,51.758,2.930,-101.074,44.922,60.547
1532373525.088,46.875,4.395,-100.586,40.527,41.992
1532373525.092,44.922,8.789,-99.609,43.945,42.480
1532373525.096,42.969,4.883,-100.586,41.504,63.477
1532373525.100,41.504,1.953,-97.656,35.645,43.945
1532373525.104,47.852,5.859,-94.727,40.039,23.438
1532373525.108,52.734,4.395,-92.773,49.316,39.551
1532373525.112,50.781,4.883,-94.727,45.410,38.574
1532373525.116,51.758,9.277,-95.215,40.527,38.574
1532373525.120,57.129,12.207,-94.238,45.898,23.438
1532373525.123,53.223,11.230,-97.656,46.387,45.898
1532373525.127,49.316,10.254,-101.074,45.410,67.383
1532373525.131,53.223,10.742,-97.656,49.316,44.922
1532373525.135,46.875,10.742,-95.703,46.387,30.762
1532373525.139,42.969,10.254,-98.633,45.898,44.434
1532373525.143,50.293,10.742,-97.168,56.641,67.383
1532373525.147,57.129,13.184,-93.262,63.477,54.688
1532373525.151,63.965,16.113,-91.797,62.988,7.324
1532373525.155,67.871,16.113,-91.797,63.965,-13.184
1532373525.159,59.570,16.113,-88.867,64.941,45.898
1532373525.163,43.457,14.160,-90.820,56.641,69.336
1532373525.166,41.992,12.695,-93.262,49.805,12.207
1532373525.170,53.223,14.160,-90.332,52.734,4.883
1532373525.174,51.270,14.648,-86.426,56.152,41.992
1532373525.178,49.805,18.066,-86.914,55.176,67.871
1532373525.182,52.246,18.066,-88.379,59.082,67.383
1532373525.186,50.781,16.602,-85.449,60.547,28.320
1532373525.190,56.641,17.578,-84.473,55.176,31.250
1532373525.194,55.664,20.020,-86.914,56.641,62.500
1532373525.198,49.316,21.973,-82.031,61.035,60.547
1532373525.202,51.270,20.996,-76.172,54.688,31.738
1532373525.206,48.828,24.414,-75.684,49.316,29.297
1532373525.209,51.270,27.344,-74.707,46.875,78.613
1532373525.213,52.246,26.855,-75.195,43.457,80.078
1532373525.217,52.734,29.297,-76.660,50.293,48.340
1532373525.221,62.500,34.180,-75.195,57.129,37.598
1532373525.225,62.988,34.180,-71.777,60.547,51.270
1532373525.229,65.430,35.156,-69.824,59.570,74.219
1532373525.233,68.848,37.598,-69.824,56.641,37.598
1532373525.237,63.477,37.109,-72.266,52.246,0.488
1532373525.241,66.406,41.016,-71.289,54.688,33.203
1532373525.245,72.754,43.945,-66.895,55.664,86.426
1532373525.248,72.754,40.527,-69.824,51.270,52.246
1532373525.252,75.684,40.527,-68.359,55.176,-28.320
1532373525.256,83.984,43.457,-62.500,51.270,-5.371
1532373525.260,81.055,42.480,-66.406,42.480,59.570
1532373525.264,79.590,42.969,-67.383,39.062,42.480
1532373525.268,81.055,46.387,-63.965,45.898,10.254
1532373525.272,79.102,49.316,-60.547,53.223,7.324
1532373525.276,79.590,51.270,-59.082,52.246,36.621
1532373525.280,72.266,54.199,-53.223,54.199,57.617
1532373525.284,67.383,57.617,-47.363,60.547,29.297
1532373525.288,74.219,62.988,-44.922,64.941,35.645
1532373525.291,76.660,65.918,-38.086,63.477,24.414
1532373525.295,74.219,68.848,-35.156,62.500,12.695
1532373525.299,72.266,71.289,-36.133,63.965,38.086
1532373525.303,76.172,75.195,-33.203,64.453,19.531
1532373525.307,80.566,78.613,-23.438,71.777,38.574
1532373525.311,80.566,78.125,-20.508,76.172,74.707
1532373525.315,83.984,83.496,-22.461,73.730,55.664
1532373525.319,88.379,87.402,-17.578,77.148,8.789
1532373525.323,93.262,88.867,-14.160,86.426,6.348
1532373525.327,92.285,89.844,-17.578,90.332,46.387
1532373525.331,93.750,89.355,-20.508,84.961,43.945
1532373525.334,96.680,89.355,-18.555,83.984,7.324
1532373525.338,90.820,87.891,-20.508,78.125,16.602
1532373525.342,87.402,90.332,-20.508,78.125,43.457
1532373525.346,88.379,89.355,-16.602,83.984,35.645
1532373525.350,83.984,88.867,-18.066,73.730,9.277
1532373525.354,87.891,92.773,-18.066,75.684,-8.301
1532373525.358,84.473,92.773,-18.066,74.707,27.344
1532373525.362,76.660,89.355,-17.578,62.988,69.336
1532373525.366,80.078,89.355,-15.625,69.824,21.484
1532373525.370,84.473,93.750,-14.160,72.754,-20.020
1532373525.373,87.402,94.238,-14.648,69.824,0.488
1532373525.377,82.520,89.355,-14.160,71.289,38.086
1532373525.381,83.496,89.844,-11.230,70.312,64.941
1532373525.385,85.449,90.820,-12.695,67.383,51.270
1532373525.389,85.449,90.332,-11.719,70.801,4.883
1532373525.393,89.844,86.914,-12.207,67.383,0.977
1532373525.397,82.520,84.961,-15.625,62.012,40.039
1532373525.401,79.102,87.891,-12.695,64.453,34.180
1532373525.405,87.402,85.938,-13.672,68.359,37.109
1532373525.409,85.938,81.543,-20.020,67.383,65.430
1532373525.413,84.961,79.102,-15.625,68.359,54.688
1532373525.416,83.984,77.637,-11.230,71.777,32.715
1532373525.420,82.031,78.125,-9.766,70.801,18.555
1532373525.424,77.148,76.172,-9.277,67.383,31.738
1532373525.428,69.336,74.707,-12.207,61.523,61.523
1532373525.432,69.824,76.172,-11.230,60.059,14.648
1532373525.436,71.289,77.148,-11.719,60.059,-19.531
1532373525.440,69.824,74.219,-17.090,51.270,39.062
1532373525.444,69.824,77.148,-17.090,51.270,73.242
1532373525.448,66.406,80.566,-15.137,54.688,41.504
1532373525.452,66.895,75.684,-12.695,48.340,14.648
1532373525.456,72.266,74.707,-9.766,51.270,25.879
1532373525.459,77.637,79.102,-12.695,55.176,72.266
1532373525.463,75.684,78.613,-11.230,50.781,76.172
1532373525.467,70.312,80.566,-10.254,47.363,32.227
1532373525.471,62.988,81.543,-18.066,46.875,27.832
1532373525.475,62.012,79.590,-20.508,43.457,68.848
1532373525.479,57.129,77.148,-18.555,38.574,85.449
1532373525.483,49.316,73.242,-23.926,35.156,26.367
1532373525.487,55.176,72.754,-23.926,35.645,25.391
1532373525.491,58.105,72.754,-20.996,39.062,35.645
1532373525.495,53.223,68.848,-24.902,34.668,22.949
1532373525.498,51.270,64.453,-34.180,24.902,11.719
1532373525.502,56.152,64.453,-33.203,21.973,-5.859
1532373525.506,44.922,62.012,-35.645,16.113,6.836
1532373525.510,28.320,56.152,-39.062,7.812,38.574
1532373525.514,30.762,53.223,-32.227,8.301,35.645
1532373525.518,30.273,54.199,-40.527,6.348,-5.371
1532373525.522,24.902,54.199,-49.805,-0.977,7.812
1532373525.526,20.508,53.711,-53.711,-6.836,38.574
1532373525.530,20.996,54.199,-55.176,-6.348,42.969
1532373525.534,28.320,53.711,-50.781,-1.953,5.371
1532373525.538,38.086,50.781,-45.410,3.906,11.230
1532373525.541,33.691,50.781,-45.898,4.395,35.156
1532373525.545,20.508,51.270,-48.828,0.488,44.922
1532373525.549,23.438,52.734,-48.828,1.953,9.766
1532373525.553,23.926,52.734,-55.176,0.488,6.836
1532373525.557,23.438,52.246,-55.176,3.418,47.363
1532373525.561,24.902,50.293,-49.805,7.324,53.223
1532373525.565,15.137,45.898,-48.340,0.977,42.480
1532373525.569,7.324,45.898,-51.758,-5.371,6.348
1532373525.573,8.789,47.363,-54.199,-4.395,-14.160
1532373525.577,13.672,49.316,-47.852,6.348,30.762
1532373525.580,19.043,50.781,-40.039,14.648,60.059
1532373525.584,17.090,51.270,-42.480,4.883,8.301
1532373525.588,11.719,54.199,-45.898,0.000,0.488
1532373525.592,13.184,54.688,-44.922,3.906,42.969
1532373525.596,11.230,56.641,-45.898,6.348,54.688
1532373525.600,10.742,57.617,-48.340,4.395,16.602
1532373525.604,13.184,56.152,-46.387,0.000,-8.789
1532373525.608,6.348,54.688,-41.992,-0.488,32.715
1532373525.612,10.254,54.688,-39.062,-2.441,52.246
1532373525.616,18.066,56.641,-39.062,0.488,47.852
1532373525.620,13.672,56.641,-39.551,2.930,16.113
1532373525.623,6.836,59.570,-42.969,-3.906,35.156
1532373525.627,0.977,61.035,-45.898,-6.348,87.891
1532373525.631,5.371,62.988,-34.668,-5.859,55.176
1532373525.635,8.301,64.941,-33.203,-7.324,-2.441
1532373525.639,11.719,63.965,-39.062,-6.348,16.602
1532373525.643,13.672,62.012,-35.156,-5.859,43.457
1532373525.647,11.230,62.500,-38.574,-12.695,40.527
1532373525.651,15.137,62.988,-44.434,-16.113,22.949
1532373525.655,11.719,61.035,-41.992,-9.277,7.324
1532373525.659,0.977,61.523,-39.551,-13.672,36.133
1532373525.663,0.977,64.453,-40.527,-17.090,63.477
1532373525.666,9.277,63.965,-41.016,-16.113,33.203
1532373525.670,0.977,64.453,-44.434,-25.391,-10.742
1532373525.674,-2.441,67.383,-42.480,-26.367,7.324
1532373525.678,7.812,65.918,-35.645,-12.695,51.270
1532373525.682,6.348,64.941,-37.109,-10.254,34.668
1532373525.686,5.371,67.383,-37.109,-14.648,5.859
1532373525.690,12.207,69.336,-35.645,-9.766,35.645
1532373525.694,13.672,73.730,-32.715,-7.324,69.824
1532373525.698,12.695,75.195,-34.668,-14.648,66.406
1532373525.702,9.766,69.824,-40.527,-17.090,17.578
1532373525.705,16.113,70.312,-33.691,-7.324,13.184
1532373525.709,21.484,77.637,-27.344,-0.977,48.828
1532373525.713,18.066,82.031,-26.855,-1.953,29.785
1532373525.717,11.230,78.613,-29.785,-0.488,-8.789
1532373525.721,8.301,73.242,-34.180,3.418,-7.812
1532373525.725,9.766,69.824,-30.762,3.418,42.480
1532373525.729,6.348,70.801,-28.809,-1.953,42.969
1532373525.733,6.348,78.125,-26.855,-4.395,6.836
1532373525.737,14.160,83.008,-21.973,0.977,16.602
1532373525.741,24.414,83.008,-19.531,4.883,30.762
1532373525.745,20.508,78.613,-19.043,0.000,39.551
1532373525.748,12.207,81.543,-20.020,-9.277,59.570
1532373525.752,15.625,86.914,-23.438,-5.859,20.020
1532373525.756,18.555,81.055,-32.227,-6.348,2.930
1532373525.760,11.719,75.684,-35.645,-10.742,42.969
1532373525.764,16.602,78.125,-23.926,1.465,38.574
1532373525.768,26.855,84.473,-14.160,9.277,31.738
1532373525.772,27.832,87.891,-16.113,7.324,6.836
1532373525.776,23.926,85.938,-17.578,2.930,11.230
1532373525.780,13.672,83.984,-19.531,-7.324,49.316
1532373525.784,7.324,85.449,-25.879,-14.648,20.996
1532373525.788,10.742,83.496,-23.926,-10.254,0.000
1532373525.791,11.719,81.055,-20.996,-12.695,30.762
1532373525.795,6.836,81.055,-20.508,-14.160,45.410
1532373525.799,5.859,80.566,-20.996,-11.719,29.297
1532373525.803,4.883,80.566,-25.879,-14.648,8.301
1532373525.807,5.859,81.543,-22.461,-10.254,27.344
1532373525.811,13.672,81.543,-18.066,-9.766,50.293
1532373525.815,13.184,78.613,-25.391,-17.090,37.109
1532373525.819,4.883,77.148,-27.344,-16.602,9.277
1532373525.823,3.418,77.148,-28.809,-16.602,9.766
1532373525.827,1.953,74.219,-31.250,-14.160,51.270
1532373525.830,0.488,72.754,-26.855,-10.254,41.992
1532373525.834,1.953,77.637,-24.902,-8.301,30.762
1532373525.838,7.324,80.566,-28.320,-5.859,34.180
1532373525.842,11.230,80.078,-25.879,-1.465,29.297
1532373525.846,7.812,78.613,-21.973,2.441,57.617
1532373525.850,7.812,81.543,-25.391,-5.371,37.598
1532373525.854,4.883,81.055,-27.344,-17.090,-4.883
1532373525.858,-0.977,76.660,-28.809,-10.254,7.812
1532373525.862,1.465,78.125,-29.785,-5.859,71.289
1532373525.866,0.000,78.613,-29.297,-9.766,82.031
1532373525.870,-6.836,75.195,-28.809,-10.742,38.574
1532373525.873,-8.301,73.730,-29.297,-15.137,51.270
1532373525.877,-4.883,72.266,-27.832,-10.254,50.293
1532373525.881,-1.953,72.266,-26.367,-8.301,23.926
1532373525.885,-10.254,74.219,-29.297,-15.137,-7.324
1532373525.889,-8.301,74.219,-23.438,-1.465,-13.672
1532373525.893,3.418,75.684,-16.602,9.766,41.504
1532373525.897,6.836,78.125,-21.973,10.742,80.078
1532373525.901,4.395,75.195,-23.926,10.254,30.273
1532373525.905,4.395,72.266,-18.555,4.395,9.766
1532373525.909,1.465,71.289,-22.461,-6.348,36.621
1532373525.913,0.977,75.195,-24.902,-13.184,38.086
1532373525.916,6.348,78.125,-28.809,-10.742,8.789
1532373525.920,3.906,76.172,-29.297,-11.719,-5.859
1532373525.924,0.977,74.219,-24.902,-16.602,39.551
1532373525.928,8.789,75.195,-24.414,-14.160,56.641
1532373525.932,11.719,75.684,-28.320,-15.625,11.719
1532373525.936,7.812,75.195,-26.855,-20.996,-38.086
1532373525.940,15.137,77.148,-24.414,-17.578,-3.906
1532373525.944,18.066,77.637,-22.949,-20.508,65.918
1532373525.948,12.207,76.660,-23.926,-18.555,49.805
1532373525.952,8.789,74.219,-23.926,-14.648,-16.113
1532373525.955,0.977,75.684,-20.508,-17.578,-21.973
1532373525.959,-0.977,77.637,-16.602,-10.254,56.152
1532373525.963,-1.953,76.172,-16.113,-6.348,74.219
1532373525.967,-12.207,80.078,-16.113,-7.324,31.250
1532373525.971,-14.160,80.566,-12.207,-5.371,13.672
1532373525.975,-19.043,73.242,-12.695,-5.859,32.227
1532373525.979,-18.555,78.125,-16.602,-7.812,73.242
1532373525.983,-16.113,83.984,-17.090,-7.324,54.199
1532373525.987,-16.602,77.148,-13.672,-4.395,22.949
1532373525.991,-16.602,71.777,-14.160,-11.719,22.949
1532373525.995,-14.648,72.266,-14.160,-12.695,36.621
1532373525.998,-10.742,72.754,-13.672,-7.324,50.293
1532373526.002,-6.836,76.660,-14.160,-8.789,17.578
1532373526.006,-3.906,78.613,-10.742,-1.465,31.738
1532373526.010,-0.977,75.195,-9.766,2.930,62.500
1532373526.014,2.441,76.660,-10.254,-4.395,41.016
1532373526.018,-1.465,79.590,-13.672,-12.695,5.859
1532373526.022,0.488,78.125,-15.625,-16.113,20.996
1532373526.026,2.441,77.637,-9.766,-11.719,69.824
1532373526.030,-2.930,81.543,-7.324,1.465,54.199
1532373526.034,3.906,83.496,-7.324,0.977,15.137
1532373526.037,2.930,81.543,-5.859,-7.324,6.348
1532373526.041,-0.488,80.566,-5.371,-10.254,45.898
1532373526.045,3.906,81.543,-9.277,-7.812,76.660
1532373526.049,0.000,79.102,-9.766,-14.648,28.320
1532373526.053,-2.930,74.219,-5.371,-23.926,-20.508
1532373526.057,5.859,76.660,-3.906,-20.508,-3.906
1532373526.061,3.418,78.613,-5.371,-20.020,38.574
1532373526.065,-1.953,77.637,-5.371,-15.137,30.273
1532373526.069,1.465,79.102,-4.883,-14.648,25.879
1532373526.073,3.906,81.543,-2.930,-12.207,43.457
1532373526.077,3.418,82.031,-3.418,1.465,61.523
1532373526.080,5.371,79.590,-6.348,6.348,61.035
1532373526.084,3.906,82.520,-5.859,2.441,25.391
1532373526.088,2.930,84.961,-1.953,0.488,20.996
1532373526.092,13.672,87.402,-0.977,-0.977,29.297
1532373526.096,15.625,87.891,-0.488,-2.441,42.969
1532373526.100,11.719,84.961,0.977,0.000,0.977
1532373526.104,11.230,82.031,-1.465,3.418,-4.395
1532373526.108,7.812,83.496,-3.418,2.930,35.156
1532373526.112,4.883,83.008,-0.977,3.418,46.875
1532373526.116,7.324,79.590,0.488,8.301,29.785
1532373526.120,7.812,77.148,-1.465,11.719,29.785
1532373526.123,7.324,80.566,-2.441,9.766,61.035
1532373526.127,7.812,83.496,-2.441,8.789,55.176
1532373526.131,9.766,84.961,0.488,3.906,21.484
1532373526.135,6.836,85.449,-0.977,-0.488,-26.367
1532373526.139,2.930,84.473,-1.465,0.977,4.883
1532373526.143,8.301,87.891,6.836,4.883,61.523
1532373526.147,8.789,86.426,8.301,2.930,68.848
1532373526.151,3.418,82.031,4.395,-0.488,8.301
1532373526.155,3.418,76.660,4.395,1.953,18.066
1532373526.159,5.371,78.613,5.371,6.836,62.988
1532373526.162,5.371,82.520,9.277,9.277,48.340
1532373526.166,6.836,80.566,11.719,3.906,15.625
1532373526.170,6.836,79.590,7.324,1.953,6.348
1532373526.174,8.301,81.055,4.395,-0.488,17.578
1532373526.178,10.254,83.008,2.441,0.488,27.832
1532373526.182,18.066,83.008,2.930,10.254,24.902
1532373526.186,21.973,82.031,0.977,16.113,-15.137
1532373526.190,13.672,81.543,-1.953,4.883,-21.973
1532373526.194,0.488,82.031,0.000,-8.301,15.625
1532373526.198,0.000,81.055,5.859,-5.859,35.156
1532373526.202,8.301,77.637,7.812,-0.977,0.488
1532373526.205,6.836,78.125,8.301,-3.418,14.648
1532373526.209,2.441,79.102,7.324,-7.812,33.203
1532373526.213,-5.371,76.660,3.906,-16.602,6.348
1532373526.217,-6.348,78.125,7.324,-18.555,23.926
1532373526.221,2.441,77.148,5.859,-13.184,27.344
1532373526.225,3.418,75.684,4.395,-11.230,23.438
1532373526.229,0.488,78.125,3.906,-12.207,54.688
1532373526.233,-0.488,78.125,-1.465,-20.508,12.207
1532373526.237,-2.930,72.754,3.418,-20.508,-5.371
1532373526.241,3.418,73.730,8.789,-14.160,20.508
1532373526.245,11.719,80.566,9.277,-9.766,41.992
1532373526.248,11.230,81.543,5.859,-9.277,50.293
1532373526.252,2.441,76.172,0.977,-13.184,-22.949
1532373526.256,7.324,77.148,7.324,-4.395,-27.832
1532373526.260,8.789,77.148,3.906,-5.371,50.781
1532373526.264,1.465,73.242,-3.418,-11.719,70.801
1532373526.268,5.371,76.172,1.953,-12.695,26.855
1532373526.272,6.836,79.590,5.371,-14.648,11.719
1532373526.276,7.324,79.590,7.324,-13.672,43.457
1532373526.280,8.789,78.613,6.836,-10.254,65.430
1532373526.284,4.883,78.125,7.324,-9.277,26.367
1532373526.287,2.441,78.613,10.742,-9.277,-6.348
1532373526.291,-0.977,77.148,14.160,-9.277,26.367
1532373526.295,0.488,76.660,14.160,-10.742,42.969
1532373526.299,4.395,73.242,6.836,-8.301,33.691
1532373526.303,4.883,71.289,8.789,-7.812,8.789
1532373526.307,1.465,76.172,10.742,-8.789,37.109
1532373526.311,6.348,74.219,10.254,-4.395,64.453
1532373526.315,9.277,69.336,9.766,-5.371,30.273
1532373526.319,3.906,72.266,7.324,-13.184,17.578
1532373526.323,-1.953,72.266,13.184,-17.578,26.367
1532373526.327,-2.930,70.312,13.672,-12.207,53.223
1532373526.330,1.465,72.266,12.207,-7.324,38.574
1532373526.334,5.371,73.242,11.230,-13.184,-23.438
1532373526.338,6.348,68.359,10.742,-12.695,-19.043
1532373526.342,-1.465,65.918,11.719,-14.648,25.879
1532373526.346,-2.930,69.336,7.812,-15.137,55.176
1532373526.350,8.789,70.801,10.742,-2.930,22.949
1532373526.354,8.789,69.336,16.113,5.859,-12.207
1532373526.358,13.672,69.824,18.555,12.207,19.531
1532373526.362,15.137,68.359,19.531,12.695,48.340
1532373526.366,5.859,65.918,16.602,4.883,34.180
1532373526.370,8.789,65.918,17.578,0.977,-1.953
1532373526.373,11.230,67.871,21.484,-3.418,-11.719
1532373526.377,11.719,70.801,20.020,1.953,37.598
1532373526.381,9.277,67.383,16.113,13.184,39.062
1532373526.385,12.207,64.941,17.090,12.207,28.809
1532373526.389,13.184,64.453,19.043,2.441,39.062
1532373526.393,7.324,63.965,16.602,-4.395,48.828
1532373526.397,7.324,63.965,16.602,-3.906,76.172
1532373526.401,11.719,67.383,17.090,-0.977,41.016
1532373526.405,17.090,69.336,16.602,0.977,5.371
1532373526.409,19.531,67.383,17.090,2.930,26.367
1532373526.412,8.789,66.895,18.555,-3.906,33.691
1532373526.416,2.441,62.500,19.043,-8.789,17.578
1532373526.420,2.441,60.059,16.113,-9.277,21.973
1532373526.424,5.371,63.477,15.137,-7.324,51.270
1532373526.428,12.207,64.941,18.555,-0.488,67.383
1532373526.432,7.324,62.500,16.602,-6.348,57.129
1532373526.436,2.930,60.547,15.137,-10.742,30.762
1532373526.440,7.324,62.500,21.484,-2.930,6.836
1532373526.444,8.301,61.523,23.926,3.418,39.062
1532373526.448,8.301,58.105,21.484,4.883,70.801
1532373526.452,5.859,56.152,21.484,11.230,26.367
1532373526.455,-0.488,54.688,18.555,13.672,-4.395
1532373526.459,-0.488,53.223,20.020,10.742,60.547
1532373526.463,3.906,53.711,20.996,16.113,93.750
1532373526.467,6.836,52.246,20.020,17.578,41.504
1532373526.471,12.695,55.664,25.879,10.254,-12.695
1532373526.475,16.602,59.570,26.367,6.348,8.789
1532373526.479,13.184,57.129,19.043,-0.977,52.734
1532373526.483,6.836,56.152,19.531,-12.695,46.875
1532373526.487,3.418,56.152,25.879,-9.766,28.809
1532373526.491,4.395,55.176,23.438,-4.395,12.695
1532373526.494,4.395,53.223,22.949,-1.465,41.016
1532373526.498,7.324,50.781,28.320,2.441,71.777
1532373526.502,10.254,51.270,23.926,4.883,23.926
1532373526.506,9.766,54.199,23.438,5.859,10.254
1532373526.510,9.277,58.105,28.809,5.859,38.574
1532373526.514,10.254,56.641,28.809,0.000,29.297
1532373526.518,4.883,52.246,28.320,-11.230,14.160
1532373526.522,-3.418,53.711,28.809,-10.254,0.977
1532373526.526,5.859,58.105,27.832,0.488,46.387
1532373526.530,12.207,57.129,24.414,0.488,62.988
1532373526.534,0.977,54.199,21.973,-11.230,21.484
1532373526.537,-0.488,56.641,27.344,-7.812,0.488
1532373526.541,8.789,55.664,27.832,8.301,38.086
1532373526.545,8.789,52.246,29.297,19.531,77.637
1532373526.549,8.789,50.293,37.109,16.113,42.480
1532373526.553,9.766,50.293,36.621,6.348,-3.906
1532373526.557,1.953,50.781,29.785,4.883,18.066
1532373526.561,1.953,50.781,27.832,2.441,65.430
1532373526.565,5.371,52.734,30.762,5.859,68.848
1532373526.569,3.906,51.758,30.762,8.789,-5.859
1532373526.573,-0.977,50.781,29.297,7.324,-31.738
1532373526.577,-0.488,49.316,27.344,11.719,35.156
1532373526.580,1.953,45.410,27.832,21.484,80.078
1532373526.584,6.348,47.363,26.367,31.738,67.383
1532373526.588,14.648,51.270,27.832,37.109,25.391
1532373526.592,11.230,49.805,32.227,36.133,38.574
1532373526.596,11.230,45.898,28.809,33.203,73.242
1532373526.600,15.137,46.387,29.785,29.785,45.410
1532373526.604,9.766,45.410,26.367,23.926,15.625
1532373526.608,8.301,42.480,23.926,21.484,29.785
1532373526.612,16.113,44.922,27.832,26.855,23.438
1532373526.616,13.672,42.969,25.879,37.109,13.184
1532373526.619,6.348,39.551,29.297,44.434,13.184
1532373526.623,3.906,42.480,29.297,44.922,21.973
1532373526.627,-0.977,42.969,24.902,45.898,41.016
1532373526.631,-1.953,43.457,24.902,44.922,23.926
1532373526.635,-4.883,49.316,31.738,39.062,-13.184
1532373526.639,6.348,54.688,39.551,42.969,-16.113
1532373526.643,17.090,52.734,40.527,46.387,28.320
1532373526.647,11.719,48.340,42.480,29.297,72.266
1532373526.651,3.418,46.387,40.527,11.230,27.344
1532373526.655,1.953,43.945,32.715,4.883,17.578
1532373526.659,4.395,42.480,30.762,0.977,74.219
1532373526.662,2.441,42.480,31.250,-3.906,86.426
1532373526.666,4.883,43.945,33.203,-3.418,34.668
1532373526.670,4.883,44.922,36.133,-2.930,-38.574
1532373526.674,-1.465,41.504,34.180,-1.953,-3.906
1532373526.678,-0.488,40.527,34.180,-0.488,58.594
1532373526.682,-11.719,37.109,32.227,-16.113,59.082
1532373526.686,-16.602,32.715,31.250,-13.184,41.992
1532373526.690,-2.441,40.527,36.621,-0.977,1.465
1532373526.694,4.883,41.016,42.480,-8.789,33.691
1532373526.698,4.395,35.645,40.527,-6.348,66.406
1532373526.702,1.953,34.180,37.598,-11.230,26.367
1532373526.705,-3.418,32.227,39.062,-9.766,9.277
1532373526.709,-9.766,29.297,38.574,-9.766,-7.812
1532373526.713,-9.277,28.809,37.598,-16.602,9.277
1532373526.717,-3.906,30.273,34.180,-19.043,31.250
1532373526.721,-10.254,28.809,33.691,-26.367,11.230
1532373526.725,-10.742,28.320,37.109,-26.855,10.742
1532373526.729,-3.906,30.762,38.086,-25.391,37.109
1532373526.733,-4.395,31.738,39.062,-28.320,54.688
1532373526.737,-4.395,28.809,37.598,-32.227,6.836
1532373526.741,0.977,29.297,36.621,-25.879,-3.906
1532373526.744,1.465,31.250,36.621,-7.812,53.711
1532373526.748,-6.836,29.785,39.062,1.953,40.039
1532373526.752,0.977,30.762,47.852,7.812,-10.742
1532373526.756,9.766,31.250,45.898,12.207,-3.418
1532373526.760,10.742,28.320,39.062,6.836,41.504
1532373526.764,11.230,28.320,38.574,4.395,53.711
1532373526.768,3.906,27.832,36.621,6.836,9.766
1532373526.772,7.812,27.832,41.992,11.230,-6.348
1532373526.776,5.859,23.926,41.016,19.043,20.996
1532373526.780,3.418,23.438,40.527,19.043,48.340
1532373526.784,11.230,28.320,48.828,24.414,19.531
1532373526.787,6.348,24.902,48.340,31.738,-11.230
1532373526.791,5.859,23.926,46.875,37.109,5.859
1532373526.795,9.277,25.391,48.828,43.457,37.109
1532373526.799,0.000,22.461,44.922,40.039,26.855
1532373526.803,-10.254,18.555,42.480,35.645,3.418
1532373526.807,-6.348,17.578,44.434,34.668,7.812
1532373526.811,1.465,23.926,43.457,40.039,60.059
1532373526.815,6.348,25.879,46.387,42.480,79.102
1532373526.819,9.766,25.391,49.316,43.457,19.043
1532373526.823,6.836,26.855,49.316,46.875,36.621
1532373526.826,6.348,22.949,50.781,51.270,59.570
1532373526.830,13.184,22.461,54.199,48.340,41.504
1532373526.834,10.742,23.438,50.781,40.039,13.184
1532373526.838,1.465,25.879,45.410,52.246,3.418
1532373526.842,2.441,28.320,49.316,72.266,37.598
1532373526.846,10.254,25.391,53.711,87.402,36.621
1532373526.850,11.719,24.414,53.711,101.562,-6.836
1532373526.854,7.812,25.391,50.293,93.750,-32.227
1532373526.858,5.371,24.414,50.781,72.266,5.371
1532373526.862,4.883,30.273,54.688,71.289,57.129
1532373526.866,3.906,33.691,55.176,75.684,49.316
1532373526.869,7.324,25.879,60.059,74.219,-10.254
1532373526.873,9.766,22.949,61.035,82.520,-17.090
1532373526.877,11.719,27.344,58.594,90.820,47.363
1532373526.881,9.766,26.855,58.594,90.332,35.156
1532373526.885,2.441,24.414,54.688,78.125,-14.648
1532373526.889,0.977,25.391,52.734,69.824,0.000
1532373526.893,6.348,27.344,59.570,83.496,32.715
1532373526.897,4.883,24.902,61.035,90.820,69.336
1532373526.901,1.953,22.461,63.477,89.355,41.504
1532373526.905,3.906,21.973,63.965,93.750,19.043
1532373526.909,2.930,24.414,59.570,97.656,68.359
1532373526.912,2.441,24.902,60.547,97.656,64.941
1532373526.916,0.977,22.461,59.570,97.656,12.207
1532373526.920,-4.395,22.949,57.617,91.797,23.926
1532373526.924,-0.977,24.414,62.500,91.797,48.340
1532373526.928,7.324,27.344,66.895,97.656,67.871
1532373526.932,7.324,26.367,64.941,91.309,53.223
1532373526.936,0.000,20.508,57.617,80.078,11.230
1532373526.940,-2.441,20.508,55.176,80.078,33.203
1532373526.944,6.348,24.902,62.988,88.867,66.406
1532373526.948,11.230,25.879,63.965,96.680,68.359
1532373526.951,2.441,20.996,57.129,88.867,-11.719
1532373526.955,6.348,19.531,58.594,83.008,-26.367
1532373526.959,12.695,22.949,63.477,90.332,55.664
1532373526.963,9.766,21.973,65.430,93.262,80.566
1532373526.967,12.695,20.996,65.430,94.727,32.227
1532373526.971,13.672,23.438,60.059,87.891,-16.602
1532373526.975,9.766,23.926,56.152,82.520,9.766
1532373526.979,10.254,24.902,58.105,92.773,89.355
1532373526.983,11.719,23.926,57.617,91.309,78.125
1532373526.987,10.254,25.391,57.129,90.332,9.277
1532373526.991,12.695,30.273,64.941,98.145,17.090
1532373526.994,12.207,30.273,67.383,100.098,54.199
1532373526.998,11.230,26.855,66.895,99.121,45.898
1532373527.002,8.301,25.391,62.500,87.891,33.691
1532373527.006,-0.488,23.438,59.570,74.707,23.926
1532373527.010,-3.906,22.461,60.547,67.383,38.086
1532373527.014,0.977,22.461,57.617,62.500,52.734
1532373527.018,4.395,20.996,59.570,62.988,14.160
1532373527.022,5.859,20.996,59.570,65.918,21.973
1532373527.026,8.301,22.949,64.453,75.684,53.223
1532373527.030,15.625,24.414,68.359,69.336,47.852
1532373527.034,11.230,22.949,66.406,57.617,-15.137
1532373527.037,1.953,20.020,62.500,57.617,9.277
1532373527.041,4.395,17.578,61.035,53.223,66.406
1532373527.045,5.859,20.020,64.941,49.316,65.918
1532373527.049,10.254,23.438,63.477,50.293,46.387
1532373527.053,2.441,20.020,54.688,43.457,18.066
1532373527.057,-2.930,16.602,53.711,37.109,45.898
1532373527.061,8.789,20.508,62.012,42.480,72.266
1532373527.065,8.301,20.508,63.965,38.574,39.551
1532373527.069,0.000,19.043,58.594,35.645,-19.531
1532373527.073,-0.977,23.438,57.129,40.039,11.719
1532373527.076,0.488,18.555,60.059,43.457,83.008
1532373527.080,4.395,17.090,58.594,44.922,84.961
1532373527.084,6.836,21.973,57.617,43.945,26.367
1532373527.088,1.953,22.949,59.570,38.574,13.672
1532373527.092,-1.465,23.438,59.570,29.785,4.883
1532373527.096,4.883,27.832,57.617,30.273,12.695
1532373527.100,5.859,26.367,56.152,28.809,22.461
1532373527.104,1.953,22.949,54.688,19.531,-17.090
1532373527.108,-4.883,25.879,56.152,9.766,0.977
1532373527.112,-7.812,25.879,52.246,6.836,29.785
1532373527.116,-0.488,24.902,50.781,13.184,25.879
1532373527.119,7.324,22.949,51.758,21.484,-8.301
1532373527.123,5.859,24.902,53.223,24.902,8.789
1532373527.127,3.906,24.902,55.664,21.484,58.105
1532373527.131,10.254,25.391,57.617,23.438,17.578
1532373527.135,11.719,24.414,55.664,29.785,-7.324
1532373527.139,18.555,23.926,54.688,37.598,24.414
1532373527.143,23.926,27.344,58.105,41.016,61.035
1532373527.147,12.695,26.367,51.758,33.203,68.848
1532373527.151,5.859,26.367,49.316,27.344,5.859
1532373527.155,14.160,23.926,54.688,31.738,-6.348
1532373527.159,15.625,21.973,56.152,36.621,28.320
1532373527.162,13.672,23.926,57.129,35.156,74.707
1532373527.166,14.160,23.438,50.781,26.367,37.109
1532373527.170,15.137,23.438,50.781,26.367,-16.113
1532373527.174,9.277,20.508,55.664,29.297,24.902
1532373527.178,6.836,20.020,54.199,34.668,76.172
1532373527.182,12.695,23.926,60.547,43.945,83.496
1532373527.186,15.625,22.461,59.570,45.898,31.250
1532373527.190,15.625,22.949,58.594,45.410,20.020
1532373527.194,14.648,26.855,60.547,51.270,68.359
1532373527.198,9.766,25.879,57.129,50.293,61.523
1532373527.201,5.859,25.391,55.664,42.480,28.320
1532373527.205,4.395,24.414,53.711,39.551,49.316
1532373527.209,2.930,24.414,56.641,42.480,45.898
1532373527.213,4.395,26.367,58.594,45.898,14.648
1532373527.217,9.766,25.879,61.035,47.363,-17.578
1532373527.221,13.184,27.832,63.965,55.176,-8.301
1532373527.225,12.207,26.367,63.477,61.523,49.805
1532373527.229,10.742,25.391,62.988,61.523,53.223
1532373527.233,12.695,26.367,62.012,59.570,50.781
1532373527.237,11.230,23.438,61.523,57.617,51.758
1532373527.241,5.371,20.508,59.082,53.223,47.363
1532373527.244,1.953,18.066,58.594,46.387,74.219
1532373527.248,2.441,19.531,59.082,45.410,58.105
1532373527.252,8.301,23.926,60.059,47.852,3.906
1532373527.256,15.137,25.879,60.059,47.363,3.418
1532373527.260,13.672,23.438,59.570,45.898,20.508
1532373527.264,15.625,25.879,61.035,42.480,16.602
1532373527.268,17.578,28.320,58.594,42.480,30.762
1532373527.272,14.160,26.367,55.176,34.668,-9.766
1532373527.276,14.648,27.344,53.711,28.809,9.766
1532373527.280,16.113,26.855,54.688,38.086,49.316
1532373527.283,20.508,27.832,56.641,38.086,22.949
1532373527.287,20.996,25.391,55.176,32.715,-4.883
1532373527.291,19.043,23.438,56.152,28.809,14.160
1532373527.295,23.926,24.902,58.105,35.645,60.547
1532373527.299,26.855,24.902,59.082,46.875,28.320
1532373527.303,23.438,22.949,63.477,53.711,-12.695
1532373527.307,15.625,23.438,61.523,57.617,17.578
1532373527.311,14.648,25.391,56.152,53.711,43.457
1532373527.315,13.184,22.949,54.199,51.270,34.668
1532373527.319,5.371,23.926,56.152,54.688,12.207
1532373527.323,3.418,24.414,58.105,55.176,16.602
1532373527.326,5.859,20.996,59.082,57.129,39.062
1532373527.330,7.324,19.531,61.035,53.711,22.949
1532373527.334,5.859,19.043,59.082,43.945,14.648
1532373527.338,9.766,22.461,57.617,41.016,19.531
1532373527.342,10.254,25.879,61.523,40.527,38.086
1532373527.346,-1.953,25.879,60.059,32.227,53.223
1532373527.350,-2.930,28.320,56.641,28.320,8.789
1532373527.354,12.695,28.809,61.523,38.574,-0.977
1532373527.358,19.531,30.762,69.336,53.223,49.316
1532373527.362,15.137,35.645,73.730,50.293,62.500
1532373527.366,17.578,36.621,75.684,49.316,24.902
1532373527.369,17.578,39.551,70.312,56.152,-8.301
1532373527.373,29.785,49.316,74.219,63.477,19.531
1532373527.377,41.504,52.246,86.914,72.754,76.172
1532373527.381,35.156,49.316,85.938,71.777,68.848
1532373527.385,28.320,50.781,84.961,63.965,16.602
1532373527.389,25.391,50.293,85.449,58.105,23.438
1532373527.393,21.973,48.828,84.473,54.688,47.363
1532373527.397,22.949,50.293,86.914,59.082,59.570
1532373527.401,29.297,51.758,86.426,65.430,34.180
1532373527.405,29.785,51.270,84.961,64.453,1.465
1532373527.408,31.738,52.734,86.426,62.988,29.785
1532373527.412,36.621,52.246,88.867,61.523,46.875
1532373527.416,35.156,50.293,91.797,65.918,29.785
1532373527.420,31.738,50.781,91.309,68.359,-8.789
1532373527.424,33.691,51.270,90.820,70.801,1.953
1532373527.428,38.574,54.199,96.191,77.148,48.340
1532373527.432,42.969,56.152,98.145,75.195,39.062
1532373527.436,35.645,53.223,87.402,67.383,9.277
1532373527.440,29.785,53.223,85.938,60.059,-10.742
1532373527.444,34.668,53.711,87.402,58.594,3.418
1532373527.448,37.598,53.223,85.449,54.688,39.062
1532373527.451,33.691,52.734,88.867,48.340,17.578
1532373527.455,34.180,57.617,90.332,49.805,-13.672
1532373527.459,37.598,59.082,92.773,53.711,37.109
1532373527.463,36.133,54.199,90.820,53.711,72.266
1532373527.467,31.250,54.688,84.961,41.504,20.996
1532373527.471,18.555,57.129,86.914,34.180,2.441
1532373527.475,20.508,59.570,93.750,38.574,23.926
1532373527.479,13.672,61.035,93.750,35.645,40.039
1532373527.483,11.230,61.523,89.355,31.250,36.133
1532373527.487,14.160,60.547,90.332,35.156,16.113
1532373527.491,7.812,59.570,95.703,36.133,9.766
1532373527.494,10.742,58.105,98.145,35.645,43.457
1532373527.498,9.766,61.035,93.750,30.273,37.598
1532373527.502,0.000,64.453,92.773,26.367,7.324
1532373527.506,-5.859,62.500,97.656,25.879,41.016
1532373527.510,-1.953,59.082,101.074,25.879,35.156
1532373527.514,0.488,61.035,102.051,30.273,16.602
1532373527.518,-4.395,60.547,101.074,28.809,13.184
1532373527.522,-3.906,55.176,98.633,27.344,18.555
1532373527.526,0.000,56.152,99.609,28.320,27.344
1532373527.530,6.836,56.152,99.609,31.250,42.480
1532373527.533,0.977,49.805,100.098,32.715,17.090
1532373527.537,-1.465,43.945,99.609,30.762,-11.719
1532373527.541,6.348,43.457,92.773,36.621,26.855
1532373527.545,9.277,46.875,90.332,42.480,55.176
1532373527.549,13.672,47.852,88.867,43.945,41.504
1532373527.553,11.230,42.480,86.426,43.457,-16.113
1532373527.557,13.672,45.410,82.031,48.340,11.230
1532373527.561,22.461,54.199,78.613,52.246,60.059
1532373527.565,25.879,55.176,75.195,49.316,33.691
1532373527.569,22.461,49.805,77.148,47.852,2.441
1532373527.573,19.043,47.852,85.449,50.293,-15.625
1532373527.576,17.578,49.805,83.496,51.758,27.344
1532373527.580,21.484,55.664,85.938,57.129,47.363
1532373527.584,24.902,64.453,88.867,56.641,32.227
1532373527.588,20.020,65.430,87.402,56.152,32.715
1532373527.592,16.602,61.035,92.285,54.688,16.113
1532373527.596,17.090,56.641,93.262,52.734,51.270
1532373527.600,21.484,59.082,86.426,57.129,71.289
1532373527.604,23.438,60.059,84.961,51.270,28.320
1532373527.608,17.578,57.617,85.938,46.387,31.738
1532373527.612,13.672,57.129,81.055,43.457,43.457
1532373527.616,12.207,55.176,83.984,40.527,33.691
1532373527.619,7.324,52.734,89.355,39.551,10.742
1532373527.623,5.371,54.199,92.285,37.109,2.930
1532373527.627,-3.418,52.246,89.844,35.156,63.477
1532373527.631,0.000,51.758,86.426,33.203,46.387
1532373527.635,8.301,50.293,87.891,35.645,-25.879
1532373527.639,8.789,47.363,87.402,41.016,19.531
1532373527.643,8.789,46.387,86.426,41.992,71.289
1532373527.647,9.277,45.898,83.984,45.898,78.125
1532373527.651,20.020,45.898,80.078,50.293,38.086
1532373527.655,24.414,51.270,77.637,52.246,-3.418
1532373527.658,22.949,50.781,79.102,53.223,9.277
1532373527.662,20.508,47.852,77.637,53.711,36.621
1532373527.666,19.043,43.457,69.824,51.758,33.203
1532373527.670,23.438,45.410,66.406,46.387,13.184
1532373527.674,30.762,51.758,70.801,55.664,38.574
1532373527.678,38.574,48.340,73.730,69.824,66.895
1532373527.682,39.551,45.410,74.219,71.289,50.293
1532373527.686,30.273,41.504,74.219,68.848,28.320
1532373527.690,29.785,40.039,70.312,66.895,9.277
1532373527.694,37.598,42.969,66.895,68.359,9.277
1532373527.698,41.504,44.434,64.941,77.148,25.391
1532373527.701,40.039,42.480,64.453,80.078,14.160
1532373527.705,34.668,38.574,67.383,78.613,38.574
1532373527.709,38.086,40.527,72.754,82.031,77.148
1532373527.713,41.992,42.969,73.242,74.219,87.891
1532373527.717,41.504,41.504,65.430,67.383,31.738
1532373527.721,38.574,43.457,60.059,65.430,-13.184
1532373527.725,33.691,41.504,59.570,59.570,21.973
1532373527.729,37.109,39.551,59.570,63.965,58.594
1532373527.733,41.992,43.945,61.035,61.523,42.969
1532373527.737,38.086,42.969,60.547,54.199,19.531
1532373527.740,45.410,41.016,57.129,67.383,19.531
1532373527.744,48.340,41.992,56.641,73.242,49.316
1532373527.748,41.016,40.527,59.082,62.988,50.293
1532373527.752,41.992,40.039,57.129,66.406,22.949
1532373527.756,40.527,43.457,56.152,76.172,40.527
1532373527.760,36.133,37.109,57.617,73.730,65.918
1532373527.764,33.691,32.715,57.129,67.871,69.336
1532373527.768,36.133,38.574,62.012,73.242,32.227
1532373527.772,40.039,41.504,67.871,77.148,18.066
1532373527.776,53.223,41.504,68.848,74.219,35.645
1532373527.780,50.781,40.039,67.871,71.777,65.918
1532373527.783,37.109,38.086,61.035,71.289,59.082
1532373527.787,30.762,36.133,60.059,74.707,15.137
1532373527.791,26.367,34.180,64.453,72.266,22.461
1532373527.795,24.902,33.691,62.012,62.500,61.523
1532373527.799,32.715,37.109,62.012,68.359,34.668
1532373527.803,43.945,39.062,65.430,80.566,7.812
1532373527.807,43.945,39.062,64.453,79.102,42.480
1532373527.811,39.062,40.039,66.406,77.148,48.340
1532373527.815,38.086,35.645,64.941,74.707,16.602
1532373527.819,37.598,36.133,62.012,68.359,-8.301
1532373527.823,31.250,40.527,60.547,60.547,18.555
1532373527.826,31.738,40.527,60.059,59.570,64.453
1532373527.830,35.645,42.480,64.453,59.082,56.641
1532373527.834,35.156,38.574,65.918,57.617,1.465
1532373527.838,37.109,36.133,64.941,62.012,8.301
1532373527.842,36.621,38.574,64.453,59.082,37.109
1532373527.846,32.227,39.062,62.500,55.664,53.223
1532373527.850,32.715,38.086,64.941,58.105,27.832
1532373527.854,29.297,37.109,63.477,57.129,0.488
1532373527.858,41.016,38.086,65.430,62.012,46.875
1532373527.862,43.457,41.992,67.871,61.523,66.406
1532373527.865,34.180,40.039,63.477,60.547,46.875
1532373527.869,33.691,35.645,68.359,60.059,-11.230
1532373527.873,32.227,37.598,66.406,57.129,-10.742
1532373527.877,38.086,38.086,62.988,62.012,61.035
1532373527.881,36.621,35.645,64.941,63.477,50.781
1532373527.885,34.180,34.180,64.941,62.500,15.137
1532373527.889,38.574,33.691,64.453,59.570,32.715
1532373527.893,31.250,33.691,64.453,54.688,64.453
1532373527.897,26.367,36.133,62.500,51.758,80.078
1532373527.901,25.391,31.738,64.941,49.805,30.762
1532373527.905,26.367,26.367,65.918,48.828,18.066
1532373527.908,36.133,29.297,65.918,47.852,67.383
1532373527.912,31.250,33.691,69.824,48.340,51.270
1532373527.916,17.578,32.227,66.406,49.316,8.301
1532373527.920,17.578,31.250,56.152,53.223,25.879
1532373527.924,17.090,32.715,56.152,53.711,57.617
1532373527.928,18.555,32.715,66.406,56.152,68.848
1532373527.932,21.973,32.715,68.848,61.523,22.949
1532373527.936,25.879,33.203,67.383,63.965,-6.348
1532373527.940,31.738,33.203,64.453,62.012,18.066
1532373527.944,20.020,30.762,60.547,56.152,50.293
1532373527.948,8.789,28.320,60.547,53.223,83.496
1532373527.951,16.113,28.809,61.035,61.035,28.320
1532373527.955,29.785,28.320,62.012,70.312,-9.277
1532373527.959,34.180,29.785,61.523,72.754,51.270
1532373527.963,32.227,32.227,60.547,68.848,69.824
1532373527.967,29.785,29.297,60.059,57.617,8.301
1532373527.971,22.949,28.320,59.570,45.410,-16.113
1532373527.975,34.180,31.738,66.406,51.270,11.719
1532373527.979,50.781,33.203,70.801,62.500,52.734
1532373527.983,47.852,33.691,68.848,63.965,46.387
1532373527.987,39.551,32.227,67.383,70.312,10.742
1532373527.990,31.250,29.297,63.965,75.195,11.230
1532373527.994,26.855,29.785,62.012,75.684,63.477
1532373527.998,19.043,30.762,61.035,68.359,61.035
1532373528.002,10.742,27.832,60.547,56.152,-13.184
1532373528.006,17.090,30.273,60.059,57.129,21.973
1532373528.010,17.090,33.203,65.430,58.594,35.645
1532373528.014,13.184,30.273,69.824,58.105,6.348
1532373528.018,14.160,29.785,64.453,56.152,21.973
1532373528.022,14.648,33.203,65.918,51.270,6.348
1532373528.026,19.043,31.738,69.824,53.711,34.180
1532373528.030,20.996,33.203,64.453,49.805,75.195
1532373528.033,15.137,37.598,56.641,40.527,26.855
1532373528.037,18.066,34.668,56.152,45.898,12.207
1532373528.041,24.414,32.715,58.105,56.641,30.273
1532373528.045,22.949,34.668,60.547,62.988,42.480
1532373528.049,23.438,32.715,64.941,64.941,12.207
1532373528.053,24.902,34.180,65.430,62.012,-14.648
1532373528.057,22.949,35.156,70.312,65.430,19.531
1532373528.061,21.484,34.180,68.848,61.035,64.941
1532373528.065,19.043,33.691,60.059,52.734,83.008
1532373528.069,24.414,34.180,60.059,57.129,9.277
1532373528.073,24.902,34.180,62.012,62.012,-14.648
1532373528.076,22.461,33.691,62.988,62.988,55.176
1532373528.080,24.902,35.156,63.477,60.059,66.406
1532373528.084,21.973,34.668,63.965,59.082,21.973
1532373528.088,17.578,32.715,59.082,50.781,27.344
1532373528.092,21.484,29.785,57.617,43.945,29.297
1532373528.096,22.461,28.320,64.941,50.293,30.273
1532373528.100,10.254,26.367,63.477,45.898,34.668
1532373528.104,9.766,24.902,54.688,37.109,7.324
1532373528.108,19.531,25.391,51.270,40.527,22.461
1532373528.112,16.113,23.438,49.805,37.109,29.297
1532373528.115,10.254,24.902,49.316,36.133,11.230
1532373528.119,7.812,25.391,45.898,41.016,-2.930
1532373528.123,6.348,22.461,46.387,40.527,26.367
1532373528.127,0.977,21.484,43.945,36.133,60.547
1532373528.131,2.930,17.578,41.992,38.086,52.734
1532373528.135,10.254,14.160,47.852,43.945,37.109
1532373528.139,13.672,17.578,44.922,41.992,-18.555
1532373528.143,19.043,19.531,42.969,43.457,-2.930
1532373528.147,12.207,18.066,41.016,40.039,47.363
1532373528.151,3.418,15.137,37.598,31.250,12.207
1532373528.155,0.000,12.207,40.039,20.996,-33.203
1532373528.158,2.930,17.090,41.016,21.484,31.250
1532373528.162,20.508,22.949,44.434,44.922,75.195
1532373528.166,22.461,19.043,43.945,42.969,30.762
1532373528.170,19.043,15.625,38.086,33.691,10.742
1532373528.174,16.602,15.137,36.621,38.086,17.090
1532373528.178,8.789,12.207,37.109,31.250,49.805
1532373528.182,0.977,16.113,38.574,25.391,66.895
1532373528.186,3.418,20.020,41.016,28.809,32.227
1532373528.190,9.766,21.484,43.457,28.809,0.488
1532373528.194,13.672,24.902,44.434,29.297,29.785
1532373528.197,10.742,23.438,44.434,33.203,27.832
1532373528.201,-1.465,20.020,43.945,30.762,2.930
1532373528.205,-2.930,17.090,41.992,26.367,33.203
1532373528.209,1.953,17.578,40.527,25.879,43.457
1532373528.213,-0.488,18.066,42.969,26.367,40.039
1532373528.217,-0.488,15.625,47.852,28.809,48.340
1532373528.221,-0.488,14.160,46.875,29.297,24.414
1532373528.225,-2.930,15.137,39.062,24.902,52.734
1532373528.229,2.441,15.137,38.574,28.809,77.637
1532373528.233,16.602,16.113,43.945,35.156,44.922
1532373528.237,4.883,17.090,41.992,28.809,6.348
1532373528.240,-3.418,16.113,40.039,22.949,15.625
1532373528.244,13.184,17.578,47.363,34.180,46.875
1532373528.248,20.020,20.508,47.363,44.922,-0.488
1532373528.252,16.113,20.020,43.457,40.039,-66.895
1532373528.256,9.766,17.090,46.875,33.691,-37.109
1532373528.260,-2.930,12.695,46.875,33.691,31.738
1532373528.264,-9.277,15.137,44.434,29.785,18.555
1532373528.268,-9.277,16.113,44.434,27.832,-7.812
1532373528.272,-3.418,15.625,47.852,34.180,-0.488
1532373528.276,2.441,19.043,47.852,43.457,31.738
1532373528.280,5.371,17.578,48.828,46.387,52.246
1532373528.283,7.324,16.602,47.363,48.340,25.879
1532373528.287,0.488,16.602,41.016,44.434,-5.859
1532373528.291,-3.906,16.602,41.016,39.551,-3.418
1532373528.295,2.441,15.137,42.969,45.898,41.504
1532373528.299,2.930,13.184,43.945,43.945,71.777
1532373528.303,-0.977,12.207,49.805,39.551,22.949
1532373528.307,-1.465,15.137,50.781,38.086,2.930
1532373528.311,3.906,18.555,47.363,37.109,60.059
1532373528.315,6.836,17.578,49.805,41.016,47.852
1532373528.319,5.371,19.531,51.758,41.992,-18.555
1532373528.322,4.883,18.555,45.410,35.645,-23.926
1532373528.326,9.766,16.602,41.016,34.668,27.344
1532373528.330,15.625,21.484,46.387,33.691,21.484
1532373528.334,9.766,21.973,47.852,27.344,-15.137
1532373528.338,10.254,19.043,46.387,35.645,0.977
1532373528.342,14.648,20.020,50.293,43.457,46.387
1532373528.346,15.137,20.020,52.734,40.527,92.285
1532373528.350,9.277,20.996,51.270,34.668,53.223
1532373528.354,3.418,20.996,45.898,29.297,23.926
1532373528.358,4.883,20.020,45.410,30.762,30.273
1532373528.362,6.836,23.926,47.363,36.133,62.500
1532373528.365,5.371,23.438,46.387,37.598,54.199
1532373528.369,3.418,20.996,46.875,33.203,13.184
1532373528.373,3.418,21.973,45.410,33.203,32.227
1532373528.377,14.648,24.902,45.898,42.969,59.082
1532373528.381,19.043,28.320,45.898,43.945,48.828
1532373528.385,11.719,25.879,44.922,39.062,-3.418
1532373528.389,13.184,21.484,51.758,37.109,-7.812
1532373528.393,10.742,21.484,51.758,32.715,-0.977
1532373528.397,6.348,25.391,46.387,33.691,29.297
1532373528.401,0.000,23.926,47.852,31.738,43.945
1532373528.405,-2.930,22.461,48.828,34.180,23.926
1532373528.408,7.324,21.973,47.852,48.340,32.715
1532373528.412,12.207,25.391,49.316,51.758,47.852
1532373528.416,13.672,29.297,52.734,49.805,42.480
1532373528.420,13.184,26.367,48.828,46.875,22.461
1532373528.424,16.602,26.367,46.387,47.363,2.930
1532373528.428,13.672,27.344,47.363,45.410,26.367
1532373528.432,1.465,22.949,48.340,32.715,24.902
1532373528.436,3.418,20.996,49.805,32.715,-11.719
1532373528.440,14.160,23.438,54.199,43.457,-0.488
1532373528.444,17.578,26.367,51.270,53.223,20.508
1532373528.447,18.555,27.832,49.805,55.176,1.465
1532373528.451,15.137,28.320,50.781,50.293,-18.066
1532373528.455,11.719,26.855,44.434,46.387,19.043
1532373528.459,6.836,24.414,44.434,44.434,55.176
1532373528.463,4.883,24.902,45.410,41.992,58.594
1532373528.467,16.602,25.879,43.945,45.898,7.324
1532373528.471,23.926,27.832,49.805,49.316,-12.695
1532373528.475,18.066,27.832,52.246,47.363,10.742
1532373528.479,13.184,26.855,51.270,47.852,47.852
1532373528.483,12.207,31.250,55.664,51.270,56.641
1532373528.487,19.043,37.109,57.129,53.711,29.297
1532373528.490,24.902,37.109,55.176,49.805,18.555
1532373528.494,17.090,34.180,55.176,44.434,40.039
1532373528.498,11.719,35.156,52.246,42.969,41.504
1532373528.502,18.066,33.691,50.781,48.340,0.000
1532373528.506,20.996,32.715,56.641,53.711,1.953
1532373528.510,24.414,34.180,52.734,50.293,52.734
1532373528.514,17.578,31.250,46.875,49.805,60.547
1532373528.518,6.348,24.902,53.711,43.945,26.855
1532373528.522,14.648,25.391,59.082,44.434,-9.277
1532373528.526,22.461,29.785,55.664,55.664,37.109
1532373528.530,20.508,29.297,52.734,52.734,73.730
1532373528.533,16.113,26.855,52.246,41.992,28.809
1532373528.537,9.277,27.832,54.199,33.691,22.461
1532373528.541,13.184,27.344,56.641,32.227,36.133
1532373528.545,14.648,26.855,57.129,30.273,41.992
1532373528.549,7.812,26.855,55.664,21.973,52.246
1532373528.553,14.160,27.832,56.152,23.438,30.273
1532373528.557,17.578,27.344,57.617,32.227,24.414
1532373528.561,14.160,25.879,57.617,33.203,44.434
1532373528.565,11.719,23.926,57.129,38.086,35.645
1532373528.569,9.277,26.367,56.641,41.992,-5.859
1532373528.572,4.395,30.273,58.594,34.668,0.977
1532373528.576,4.395,27.344,52.246,38.086,51.270
1532373528.580,11.719,23.438,50.293,44.434,72.266
1532373528.584,10.742,22.949,51.270,42.969,30.273
1532373528.588,8.789,27.344,52.734,49.805,-6.836
1532373528.592,14.160,27.344,55.664,57.129,2.930
1532373528.596,18.555,26.367,56.152,57.617,65.430
1532373528.600,22.949,27.832,58.105,59.082,48.828
1532373528.604,20.020,27.344,54.688,56.641,-10.254
1532373528.608,19.531,28.320,54.688,55.176,9.766
1532373528.612,20.508,24.414,56.641,53.711,54.199
1532373528.615,16.113,25.391,57.129,45.898,39.062
1532373528.619,22.461,30.273,53.223,41.504,-5.859
1532373528.623,24.902,26.855,53.711,45.410,7.324
1532373528.627,17.578,26.367,59.082,49.316,51.270
1532373528.631,17.578,29.785,60.059,46.875,51.758
1532373528.635,25.391,31.738,60.547,43.457,-8.789
1532373528.639,23.926,28.809,55.176,44.922,-12.207
1532373528.643,14.160,24.902,50.293,42.969,42.969
1532373528.647,3.418,26.367,51.758,30.273,80.078
1532373528.651,10.254,29.785,56.152,37.109,41.992
1532373528.654,26.367,31.250,59.082,51.758,22.461
1532373528.658,35.645,31.738,56.641,58.105,57.617
1532373528.662,37.109,32.227,58.105,61.523,60.059
1532373528.666,34.668,29.785,58.594,58.105,26.367
1532373528.670,34.668,25.879,51.758,43.945,-4.395
1532373528.674,33.691,26.855,53.711,40.039,8.301
1532373528.678,28.320,25.879,58.594,51.270,49.805
1532373528.682,23.438,25.879,52.246,52.246,47.852
1532373528.686,16.602,24.414,47.852,53.711,13.672
1532373528.690,20.508,25.391,55.664,63.477,1.465
1532373528.694,27.344,29.297,61.035,70.801,63.477
1532373528.697,18.555,26.367,60.059,70.801,62.988
1532373528.701,13.672,25.879,61.523,68.848,2.930
1532373528.705,14.160,25.391,59.570,64.453,22.461
1532373528.709,17.578,27.344,61.035,59.570,45.410
1532373528.713,23.438,29.785,59.082,55.176,48.340
1532373528.717,17.090,27.344,53.223,47.852,43.945
1532373528.721,12.207,26.367,53.711,42.969,18.555
1532373528.725,13.184,24.902,55.176,48.340,26.367
1532373528.729,11.230,24.414,50.781,49.805,78.125
1532373528.733,16.113,27.832,48.828,45.898,40.527
1532373528.737,17.090,25.879,54.688,42.969,-27.832
1532373528.740,17.090,20.020,58.594,43.945,-17.090
1532373528.744,22.461,22.949,57.617,48.828,48.340
1532373528.748,19.531,26.367,57.617,51.270,72.266
1532373528.752,17.090,24.902,54.199,44.434,7.324
1532373528.756,16.113,23.926,49.805,41.016,-1.953
1532373528.760,16.602,22.949,52.734,48.828,52.734
1532373528.764,12.695,26.855,56.641,52.246,51.758
1532373528.768,26.367,32.227,60.059,56.641,-0.977
