timestamps,TP9,AF7,AF8,TP10,Right AUX
1532371580.332,47.363,35.156,28.320,39.062,-12.207
1532371580.336,40.527,30.762,22.949,34.180,-19.043
1532371580.340,41.504,29.297,25.391,33.203,48.340
1532371580.344,45.898,32.227,26.367,38.086,91.309
1532371580.348,45.410,31.250,26.367,36.133,43.457
1532371580.352,44.922,29.785,29.297,32.715,-29.785
1532371580.356,45.410,28.809,31.250,40.527,-1.465
1532371580.360,41.504,26.367,31.250,43.457,64.453
1532371580.363,39.551,26.855,32.227,40.039,78.125
1532371580.367,37.598,25.391,31.250,38.086,5.371
1532371580.371,35.156,23.438,29.785,35.156,-16.602
1532371580.375,31.738,22.949,30.762,31.738,76.660
1532371580.379,25.879,21.484,31.250,28.320,83.984
1532371580.383,27.344,21.973,30.273,30.273,7.324
1532371580.387,25.879,22.461,30.762,31.250,8.789
1532371580.391,22.949,21.484,33.203,31.738,43.457
1532371580.395,26.855,19.531,36.621,34.668,84.473
1532371580.399,27.344,17.578,34.180,33.691,18.066
1532371580.402,24.414,18.555,29.785,30.762,-28.809
1532371580.406,24.902,20.996,31.250,31.738,33.691
1532371580.410,27.344,20.508,33.203,29.785,59.570
1532371580.414,27.832,20.020,32.227,28.809,44.922
1532371580.418,27.832,21.484,32.227,31.250,5.371
1532371580.422,33.203,22.949,31.738,34.668,23.926
1532371580.426,32.715,21.973,27.832,34.180,78.125
1532371580.430,25.391,17.090,25.391,29.785,57.617
1532371580.434,30.273,16.602,26.367,30.273,4.395
1532371580.437,36.621,19.043,26.855,31.250,9.277
1532371580.441,41.992,22.461,25.879,33.203,73.730
1532371580.445,46.387,23.926,24.902,39.062,69.336
1532371580.449,37.598,25.391,23.926,33.691,-32.227
1532371580.453,28.809,27.832,22.949,31.250,-32.227
1532371580.457,30.762,25.391,22.949,39.551,55.176
1532371580.461,38.086,21.484,28.809,50.293,76.660
1532371580.465,39.551,19.531,30.762,52.734,40.527
1532371580.469,43.945,24.902,27.344,50.293,-9.277
1532371580.473,54.688,30.273,26.367,48.340,-36.133
1532371580.476,59.082,28.809,26.367,49.316,22.461
1532371580.480,56.641,26.367,20.996,49.316,49.805
1532371580.484,52.734,21.484,20.508,48.828,0.488
1532371580.488,54.199,18.066,25.391,50.781,-14.160
1532371580.492,51.270,17.578,25.879,46.875,44.922
1532371580.496,49.316,18.066,23.926,41.992,63.965
1532371580.500,48.828,18.555,22.949,45.898,-4.883
1532371580.504,48.340,20.996,23.438,45.410,-3.906
1532371580.508,45.410,21.484,24.902,40.527,51.270
1532371580.511,42.480,19.531,27.344,41.016,69.336
1532371580.515,45.898,20.508,29.785,44.434,25.391
1532371580.519,44.434,23.438,26.855,47.363,14.160
1532371580.523,47.363,22.949,27.832,51.758,57.617
1532371580.527,44.922,23.926,30.762,50.781,86.914
1532371580.531,41.016,25.879,29.785,48.340,54.199
1532371580.535,47.852,23.438,29.785,51.758,-7.812
1532371580.539,49.316,23.438,30.273,52.734,0.488
1532371580.543,48.340,25.391,32.227,51.758,61.035
1532371580.547,45.410,26.367,32.227,47.852,55.664
1532371580.550,45.898,27.344,28.809,41.016,-24.902
1532371580.554,50.781,24.902,27.832,43.945,-6.348
1532371580.558,52.246,25.391,28.809,48.828,79.102
1532371580.562,44.922,26.367,28.320,41.992,81.543
1532371580.566,38.086,23.438,21.973,38.086,12.207
1532371580.570,37.598,23.438,21.484,42.480,7.324
1532371580.574,43.945,24.902,27.832,49.316,70.312
1532371580.578,42.969,26.367,29.785,50.293,81.543
1532371580.582,35.156,25.391,27.344,41.504,32.715
1532371580.585,37.109,25.391,27.832,39.551,-5.859
1532371580.589,46.875,28.809,30.762,47.852,19.531
1532371580.593,52.246,28.320,33.691,52.246,69.824
1532371580.597,47.363,24.414,31.250,47.852,57.617
1532371580.601,44.922,20.996,27.832,41.504,-21.484
1532371580.605,44.434,22.949,28.809,40.039,8.301
1532371580.609,41.992,25.391,27.344,36.621,62.012
1532371580.613,37.109,23.438,29.297,34.180,50.781
1532371580.617,39.062,25.879,34.668,38.086,10.742
1532371580.621,47.852,31.250,35.156,42.480,3.906
1532371580.624,50.781,34.180,37.109,46.875,61.035
1532371580.628,49.316,34.180,35.156,45.898,73.730
1532371580.632,46.875,32.715,34.668,46.387,12.695
1532371580.636,46.387,34.668,35.645,48.340,-1.953
1532371580.640,46.387,36.133,35.156,48.340,43.457
1532371580.644,53.711,36.133,38.086,57.129,98.145
1532371580.648,50.781,34.668,38.574,53.711,18.555
1532371580.652,41.016,32.715,39.551,44.434,-54.199
1532371580.656,41.016,30.273,39.062,50.781,-2.441
1532371580.659,44.922,28.809,34.668,55.664,51.758
1532371580.663,47.363,28.809,32.227,54.199,53.711
1532371580.667,45.898,31.738,35.156,55.176,1.953
1532371580.671,50.293,34.180,39.551,57.129,28.809
1532371580.675,52.734,34.668,40.527,57.617,98.633
1532371580.679,53.711,34.668,37.598,54.199,64.453
1532371580.683,49.316,31.738,36.133,52.734,-9.277
1532371580.687,49.805,32.227,34.668,49.316,-16.113
1532371580.691,50.293,33.203,33.203,45.898,14.160
1532371580.695,54.199,33.691,37.109,57.617,54.199
1532371580.698,52.246,33.691,40.039,62.012,33.691
1532371580.702,50.781,31.738,34.668,57.129,13.672
1532371580.706,58.594,34.180,35.156,54.688,29.297
1532371580.710,49.316,35.156,37.109,53.223,75.684
1532371580.714,42.480,31.738,35.645,48.828,58.105
1532371580.718,43.945,32.227,35.156,45.898,-14.160
1532371580.722,43.457,34.668,34.668,48.340,35.645
1532371580.726,47.852,32.227,35.645,47.852,72.754
1532371580.730,42.969,30.273,35.645,40.039,38.574
1532371580.733,40.039,29.785,34.180,39.551,-25.879
1532371580.737,50.781,29.297,37.598,43.945,-0.488
1532371580.741,54.199,30.273,37.109,44.434,87.402
1532371580.745,53.223,33.691,35.645,40.527,86.914
1532371580.749,56.152,33.691,33.691,37.109,5.859
1532371580.753,60.059,32.715,29.785,41.016,-22.949
1532371580.757,61.035,34.668,29.785,39.551,46.875
1532371580.761,66.895,34.180,31.738,41.992,76.660
1532371580.765,71.777,34.668,33.203,49.805,2.930
1532371580.769,64.453,34.180,32.715,50.781,-38.086
1532371580.772,52.734,32.227,30.762,50.293,19.531
1532371580.776,44.922,29.297,33.691,50.781,62.012
1532371580.780,46.387,28.809,36.133,52.734,51.270
1532371580.784,44.922,27.344,31.738,49.805,-19.531
1532371580.788,38.086,29.297,31.250,45.898,-36.621
1532371580.792,41.016,29.785,33.691,48.828,54.199
1532371580.796,46.387,28.320,34.180,55.176,59.570
1532371580.800,45.898,32.227,36.133,55.176,1.465
1532371580.804,44.434,32.715,35.156,49.805,6.348
1532371580.807,44.922,32.227,34.668,49.316,31.250
1532371580.811,41.504,34.180,33.691,49.316,41.992
1532371580.815,39.062,33.691,31.250,46.387,4.883
1532371580.819,41.016,32.227,30.273,43.457,-27.344
1532371580.823,42.480,31.738,29.297,41.504,10.254
1532371580.827,48.828,33.203,31.250,41.992,34.668
1532371580.831,51.758,34.180,35.645,42.969,-3.906
1532371580.835,53.223,33.203,35.156,47.852,-16.113
1532371580.839,51.758,34.668,30.273,48.828,12.207
1532371580.843,47.363,33.691,28.320,45.898,66.895
1532371580.846,42.969,29.785,32.227,47.363,48.340
1532371580.850,41.016,29.297,28.320,44.434,-26.367
1532371580.854,40.527,33.203,26.855,42.480,-5.859
1532371580.858,40.039,33.691,30.273,38.574,71.777
1532371580.862,42.480,33.691,31.738,40.527,84.961
1532371580.866,45.410,35.156,31.250,46.387,-0.977
1532371580.870,43.457,33.203,30.273,45.410,-37.109
1532371580.874,43.457,33.691,32.715,48.340,27.344
1532371580.878,45.898,34.180,32.715,45.410,65.918
1532371580.881,43.945,32.715,31.738,42.480,14.160
1532371580.885,42.480,32.227,34.180,47.852,-16.602
1532371580.889,38.086,32.227,30.762,45.410,16.113
1532371580.893,34.668,31.250,27.832,38.574,78.125
1532371580.897,34.180,32.227,31.738,31.738,26.855
1532371580.901,33.691,33.691,32.715,32.715,-13.672
1532371580.905,42.969,36.621,39.062,40.527,35.156
1532371580.909,50.293,43.457,42.969,43.945,53.223
1532371580.913,47.852,41.992,39.062,38.574,33.691
1532371580.917,49.805,39.551,41.504,41.992,10.742
1532371580.920,51.758,39.551,43.457,51.758,35.645
1532371580.924,48.828,39.062,43.457,48.340,50.781
1532371580.928,51.758,41.504,44.434,45.898,35.156
1532371580.932,60.059,41.504,41.016,48.828,-13.184
1532371580.936,57.129,41.016,39.062,49.805,21.484
1532371580.940,53.711,40.527,42.480,52.734,79.102
1532371580.944,58.105,41.016,47.363,55.664,64.941
1532371580.948,63.477,42.969,41.992,54.199,6.348
1532371580.952,54.199,38.086,34.180,50.293,-4.395
1532371580.955,48.340,36.621,28.320,46.875,38.574
1532371580.959,54.688,39.551,25.879,49.316,77.637
1532371580.963,51.270,40.039,27.344,53.223,38.086
1532371580.967,45.410,38.574,26.855,42.480,-20.020
1532371580.971,52.734,39.062,20.996,35.645,3.906
1532371580.975,60.547,42.969,16.602,46.875,73.730
1532371580.979,47.852,39.062,21.973,44.922,83.984
1532371580.983,43.945,35.645,27.832,44.922,-2.930
1532371580.987,45.410,37.598,25.391,41.992,-18.066
1532371580.991,41.016,38.574,20.508,31.250,45.898
1532371580.994,30.762,41.504,19.531,31.250,65.430
1532371580.998,24.414,34.668,26.367,32.227,39.551
1532371581.002,32.715,26.367,35.156,39.062,29.297
1532371581.006,32.715,34.180,35.156,33.203,31.250
1532371581.010,26.367,41.992,28.320,19.531,67.383
1532371581.014,27.832,38.574,26.367,28.809,35.156
1532371581.018,36.621,34.180,28.809,41.016,4.883
1532371581.022,33.203,34.180,26.855,31.250,50.293
1532371581.026,27.344,41.992,18.555,13.184,76.172
1532371581.030,31.250,43.945,14.648,13.672,37.598
1532371581.033,26.855,35.645,18.555,22.949,-15.625
1532371581.037,20.020,30.273,25.391,29.785,9.766
1532371581.041,28.320,30.273,31.250,38.574,70.801
1532371581.045,37.598,31.738,33.691,37.598,68.848
1532371581.049,43.945,39.062,32.227,39.062,-21.973
1532371581.053,45.410,41.504,32.715,40.527,-2.930
1532371581.057,39.551,36.621,38.574,34.668,62.500
1532371581.061,33.203,30.273,45.410,40.039,69.336
1532371581.065,36.621,29.297,50.293,45.410,0.000
1532371581.068,31.738,39.551,41.016,28.320,-40.039
1532371581.072,20.020,40.527,32.715,19.043,49.316
1532371581.076,18.066,29.785,41.016,29.297,93.750
1532371581.080,18.555,25.391,47.363,27.344,17.090
1532371581.084,18.555,34.180,45.410,16.113,-19.531
1532371581.088,7.324,40.039,42.969,5.859,25.879
1532371581.092,7.324,41.992,46.875,3.906,76.660
1532371581.096,7.812,42.969,51.270,1.953,59.082
1532371581.100,4.883,40.527,50.293,2.930,-9.277
1532371581.104,7.324,41.016,42.480,0.000,9.766
1532371581.107,11.719,45.410,36.621,-1.465,50.781
1532371581.111,15.625,45.410,42.969,3.906,50.781
1532371581.115,17.090,41.504,43.945,5.859,26.855
1532371581.119,18.555,40.039,40.039,15.625,11.719
1532371581.123,23.438,36.621,41.016,20.508,58.105
1532371581.127,28.809,35.645,43.457,20.508,92.285
1532371581.131,23.926,34.180,45.898,29.297,34.180
1532371581.135,24.414,30.273,44.922,33.203,-10.742
1532371581.139,33.203,27.344,43.457,39.062,37.598
1532371581.142,41.016,26.855,43.457,46.875,73.242
1532371581.146,43.457,25.391,41.504,43.945,7.812
1532371581.150,39.062,24.902,39.062,36.621,-33.691
1532371581.154,39.551,26.367,38.574,40.039,28.320
1532371581.158,44.434,26.855,38.574,48.828,49.805
1532371581.162,41.504,27.344,40.527,46.875,34.180
1532371581.166,40.039,25.391,40.039,40.039,-12.695
1532371581.170,39.062,24.414,39.551,40.527,-23.926
1532371581.174,37.109,22.949,41.504,45.898,82.520
1532371581.178,41.016,21.973,37.109,43.945,109.375
1532371581.181,45.898,27.832,27.832,37.598,20.996
1532371581.185,47.852,29.785,30.273,38.574,-5.371
1532371581.189,44.922,24.414,38.574,41.504,57.617
1532371581.193,46.875,27.344,37.598,44.434,94.238
1532371581.197,56.152,31.250,38.574,53.223,39.551
1532371581.201,61.523,31.738,41.016,60.059,20.996
1532371581.205,66.406,35.645,40.039,62.500,55.664
1532371581.209,65.918,35.156,38.086,61.035,56.152
1532371581.213,61.035,33.203,36.133,56.641,27.344
1532371581.216,65.430,33.691,33.691,57.617,-18.555
1532371581.220,64.941,32.227,33.203,60.547,-9.766
1532371581.224,67.383,32.227,35.156,63.477,55.176
1532371581.228,65.918,30.273,34.668,61.035,15.625
1532371581.232,60.059,29.297,32.715,57.617,-25.391
1532371581.236,63.965,28.809,28.809,54.199,6.836
1532371581.240,62.988,28.809,27.344,53.711,41.504
1532371581.244,58.594,30.273,27.832,54.199,52.246
1532371581.248,56.152,29.785,27.344,50.293,-15.137
1532371581.252,60.059,30.273,28.320,56.641,-14.648
1532371581.255,64.941,31.738,32.715,63.477,58.594
1532371581.259,58.105,28.809,27.344,55.176,94.727
1532371581.263,50.781,24.414,23.438,50.293,32.227
1532371581.267,53.711,25.391,23.438,49.316,-14.648
1532371581.271,60.059,28.809,23.926,50.781,32.715
1532371581.275,61.523,28.809,26.367,55.664,59.570
1532371581.279,62.500,28.320,27.832,52.734,42.969
1532371581.283,62.988,30.273,29.785,55.176,8.789
1532371581.287,62.012,32.227,29.297,53.223,-0.977
1532371581.290,62.500,33.691,32.715,51.270,49.316
1532371581.294,54.199,31.738,35.156,53.711,61.523
1532371581.298,52.246,32.715,33.691,49.805,0.000
1532371581.302,48.828,33.203,29.297,47.363,2.930
1532371581.306,45.410,31.738,26.367,46.387,56.152
1532371581.310,54.688,30.762,32.227,48.828,73.242
1532371581.314,55.176,30.273,32.715,52.246,20.020
1532371581.318,48.340,30.273,29.297,51.758,-12.207
1532371581.322,53.223,27.832,31.250,51.758,50.293
1532371581.326,52.734,26.367,34.180,53.223,79.102
1532371581.329,44.922,26.367,30.762,49.316,24.902
1532371581.333,45.410,28.320,28.320,49.316,-6.836
1532371581.337,44.434,28.809,28.320,49.805,37.109
1532371581.341,43.457,29.297,30.273,48.340,94.727
1532371581.345,40.527,31.738,31.250,40.527,56.641
1532371581.349,41.504,32.227,28.320,35.645,-27.832
1532371581.353,43.945,31.250,28.320,40.039,-10.742
1532371581.357,41.016,32.715,32.715,47.852,51.270
1532371581.361,45.410,31.738,32.715,52.246,65.918
1532371581.364,46.875,28.809,30.273,50.781,-3.418
1532371581.368,49.805,27.832,31.738,50.293,-27.832
1532371581.372,50.293,28.809,29.297,52.246,42.480
1532371581.376,46.387,32.227,29.297,49.805,69.336
1532371581.380,49.316,33.203,32.715,47.852,29.785
1532371581.384,56.152,31.250,30.762,45.410,-19.043
1532371581.388,56.641,32.227,28.809,41.016,-4.395
1532371581.392,52.734,32.715,28.320,42.480,60.547
1532371581.396,51.758,30.762,30.762,39.551,18.555
1532371581.400,52.734,31.250,30.762,37.598,-10.742
1532371581.403,52.246,34.668,20.020,35.156,39.062
1532371581.407,54.199,34.668,22.949,31.738,72.754
1532371581.411,60.547,31.738,27.832,37.598,83.496
1532371581.415,67.871,33.691,22.461,41.016,11.230
1532371581.419,68.359,30.273,24.902,40.039,2.930
1532371581.423,63.965,28.320,27.832,43.945,70.312
1532371581.427,57.129,29.785,26.855,45.898,58.594
1532371581.431,47.852,26.367,27.344,44.922,-0.488
1532371581.435,44.434,24.902,29.785,52.246,10.742
1532371581.438,40.039,26.367,31.250,55.664,55.664
1532371581.442,43.945,28.809,33.203,58.105,69.336
1532371581.446,43.945,30.273,28.809,50.781,-28.320
1532371581.450,38.086,27.344,26.367,43.945,-58.594
1532371581.454,41.016,28.320,30.273,51.270,44.922
1532371581.458,47.363,33.203,27.832,55.176,64.941
1532371581.462,47.363,32.715,26.367,56.152,20.508
1532371581.466,49.316,33.691,30.273,52.246,-24.902
1532371581.470,52.246,33.691,31.250,50.293,12.207
1532371581.474,47.363,31.250,32.715,50.781,85.938
1532371581.477,43.945,31.738,35.645,49.805,77.148
1532371581.481,43.457,31.738,34.180,49.805,8.301
1532371581.485,44.434,32.715,32.715,45.898,-27.344
1532371581.489,42.480,32.715,32.715,41.504,24.414
1532371581.493,40.039,31.250,29.785,41.016,60.059
1532371581.497,42.969,29.785,27.832,38.574,-17.578
1532371581.501,45.898,28.809,30.273,37.598,-30.762
1532371581.505,46.387,31.250,32.227,42.969,31.250
1532371581.509,47.363,35.156,31.250,47.363,60.059
1532371581.512,47.852,36.621,34.180,49.805,-2.930
1532371581.516,49.316,36.133,35.645,51.270,-29.785
1532371581.520,46.387,37.598,35.645,51.758,41.504
1532371581.524,44.922,38.574,35.156,49.805,73.242
1532371581.528,47.852,38.574,36.621,44.922,7.812
1532371581.532,46.387,39.551,38.086,43.457,-49.316
1532371581.536,41.992,37.109,38.574,42.480,-7.812
1532371581.540,40.527,37.598,38.574,41.992,64.941
1532371581.544,41.504,37.109,35.156,38.086,65.430
1532371581.548,41.016,33.691,31.250,29.785,-1.953
1532371581.551,39.551,31.250,30.273,29.297,-17.578
1532371581.555,41.992,31.738,32.715,35.645,46.875
1532371581.559,46.875,30.762,32.715,38.086,65.918
1532371581.563,47.852,28.320,32.227,38.574,-1.465
1532371581.567,43.457,26.855,33.691,42.480,9.766
1532371581.571,41.504,27.344,34.180,45.410,47.852
1532371581.575,44.922,25.879,33.203,45.410,53.711
1532371581.579,45.898,24.414,35.645,48.340,20.508
1532371581.583,47.852,24.414,36.133,52.246,-31.738
1532371581.586,49.316,26.855,34.180,42.969,-16.602
1532371581.590,39.551,28.809,29.785,32.715,56.152
1532371581.594,34.668,24.902,27.344,29.785,61.035
1532371581.598,38.086,24.414,30.273,34.180,-5.371
1532371581.602,38.086,24.902,27.832,34.668,9.277
1532371581.606,37.109,26.367,27.832,33.203,41.992
1532371581.610,37.598,32.715,31.738,40.527,50.293
1532371581.614,38.574,32.715,33.691,39.551,-10.254
1532371581.618,46.875,31.250,32.227,37.109,-12.207
1532371581.622,50.293,31.738,34.668,43.457,67.871
1532371581.625,45.410,31.250,35.156,42.480,54.199
1532371581.629,45.898,32.715,33.203,38.086,-27.832
1532371581.633,47.363,34.180,33.203,42.480,-16.113
1532371581.637,46.875,35.156,35.645,49.316,43.945
1532371581.641,44.434,36.621,39.062,46.387,60.547
1532371581.645,41.504,36.133,36.133,37.109,42.480
1532371581.649,38.574,32.715,33.203,38.574,19.043
1532371581.653,38.086,29.785,32.227,35.156,39.551
1532371581.657,37.598,31.250,35.156,27.832,56.152
1532371581.660,46.387,33.691,37.109,34.180,32.227
1532371581.664,52.246,33.691,33.691,38.574,-20.020
1532371581.668,47.852,33.691,32.715,34.668,-38.574
1532371581.672,50.293,36.621,33.691,39.551,25.879
1532371581.676,50.781,37.109,34.180,44.922,68.848
1532371581.680,49.316,35.645,32.715,46.875,-2.930
1532371581.684,50.293,35.156,31.738,44.922,-16.113
1532371581.688,49.316,36.133,29.297,42.969,41.992
1532371581.692,48.340,34.668,29.785,41.992,62.500
1532371581.696,47.363,30.762,29.785,45.410,18.066
1532371581.699,46.387,30.273,26.367,48.340,-14.160
1532371581.703,49.316,30.273,23.926,44.922,43.945
1532371581.707,48.340,29.297,20.996,47.852,88.867
1532371581.711,50.781,29.785,25.391,56.152,38.086
1532371581.715,54.199,28.320,28.809,56.641,-19.043
1532371581.719,53.223,31.250,23.438,55.664,31.250
1532371581.723,49.805,34.668,24.902,51.270,73.242
1532371581.727,46.875,31.250,25.879,41.992,52.246
1532371581.731,41.992,32.227,23.438,39.551,-4.883
1532371581.734,43.945,31.738,23.926,34.668,-26.367
1532371581.738,41.992,29.785,26.855,34.180,38.574
1532371581.742,31.738,33.691,26.367,35.645,51.758
1532371581.746,26.367,33.691,26.367,27.832,-23.926
1532371581.750,24.902,30.762,27.832,26.855,-22.461
1532371581.754,23.438,30.762,29.297,29.785,34.668
1532371581.758,18.066,34.180,31.738,32.227,68.848
1532371581.762,18.555,35.156,30.762,31.250,44.434
1532371581.766,32.715,36.621,32.715,25.879,-1.465
1532371581.770,35.645,38.574,33.691,22.461,12.695
1532371581.773,27.344,39.551,33.691,28.320,60.547
1532371581.777,33.691,38.086,30.273,37.598,39.551
1532371581.781,29.297,38.086,30.273,38.086,-5.859
1532371581.785,16.113,34.180,34.668,26.367,4.883
1532371581.789,17.578,30.273,39.551,27.344,48.828
1532371581.793,21.484,29.785,41.504,32.715,60.059
1532371581.797,30.762,29.297,39.551,30.762,24.902
1532371581.801,32.227,27.832,36.133,29.785,0.977
1532371581.805,25.879,27.344,32.227,27.344,10.254
1532371581.808,29.785,25.391,33.203,27.344,24.902
1532371581.812,32.715,21.973,35.156,32.227,5.371
1532371581.816,40.039,22.949,34.668,44.434,-20.020
1532371581.820,45.898,26.855,36.621,53.223,7.812
1532371581.824,48.340,26.855,42.480,54.688,35.156
1532371581.828,57.129,31.250,45.410,59.082,20.508
1532371581.832,53.711,36.133,40.527,56.641,-15.137
1532371581.836,52.246,36.621,36.621,54.688,19.531
1532371581.840,52.246,37.598,37.598,56.152,83.008
1532371581.844,45.898,35.156,37.598,54.688,41.016
1532371581.847,50.781,32.715,41.992,52.246,-19.043
1532371581.851,49.805,32.715,41.992,50.781,10.254
1532371581.855,49.805,31.738,40.039,49.805,59.082
1532371581.859,56.641,32.715,41.992,45.898,61.523
1532371581.863,56.152,31.738,41.504,44.434,-26.855
1532371581.867,55.176,32.227,44.434,47.363,-55.664
1532371581.871,56.152,33.691,42.969,49.316,37.598
1532371581.875,51.758,35.156,36.621,48.828,64.941
1532371581.879,50.293,36.621,30.762,45.898,33.203
1532371581.883,56.641,34.668,30.762,44.434,20.996
1532371581.886,61.523,33.691,33.691,50.781,42.969
1532371581.890,60.059,34.668,34.180,59.082,90.332
1532371581.894,57.617,33.203,33.203,56.641,37.598
1532371581.898,59.570,32.227,33.691,50.781,-10.742
1532371581.902,61.523,33.203,36.133,55.176,13.184
1532371581.906,58.594,34.180,34.668,49.805,33.691
1532371581.910,63.477,37.598,32.715,43.945,26.367
1532371581.914,61.523,33.203,31.738,47.363,-17.090
1532371581.918,50.293,28.809,27.832,43.945,14.160
1532371581.921,54.199,31.250,26.367,50.781,98.633
1532371581.925,58.105,32.227,31.250,57.617,81.055
1532371581.929,56.641,33.203,32.227,54.199,3.906
1532371581.933,55.664,31.250,32.715,56.152,0.000
1532371581.937,59.082,30.762,35.156,61.523,42.969
1532371581.941,63.477,32.715,35.645,62.500,72.754
1532371581.945,61.035,36.133,38.086,57.129,9.766
1532371581.949,59.570,38.086,42.480,56.152,-46.387
1532371581.953,60.059,38.574,40.039,55.176,21.973
1532371581.957,50.293,37.109,32.227,47.363,83.008
1532371581.960,43.457,35.156,32.715,43.945,62.012
1532371581.964,46.875,33.203,32.715,44.922,2.930
1532371581.968,45.410,31.250,32.715,47.363,17.090
1532371581.972,47.363,35.645,35.156,48.828,86.426
1532371581.976,49.316,38.574,35.156,47.852,66.406
1532371581.980,44.434,36.133,33.691,49.316,-11.230
1532371581.984,42.480,35.156,31.738,50.781,-9.766
1532371581.988,47.852,35.156,34.668,52.734,39.551
1532371581.992,51.270,36.133,35.156,54.199,85.449
1532371581.995,45.898,36.133,28.320,45.410,41.504
1532371581.999,47.363,38.574,28.320,46.387,2.441
1532371582.003,50.781,37.598,32.227,52.734,33.203
1532371582.007,48.340,34.180,31.738,45.410,21.484
1532371582.011,50.781,33.203,32.715,42.480,-18.066
1532371582.015,52.246,32.715,31.738,46.875,-45.410
1532371582.019,47.852,33.691,29.785,47.852,-0.977
1532371582.023,43.457,32.227,30.762,42.480,47.852
1532371582.027,43.945,32.227,33.691,38.574,28.320
1532371582.031,50.293,34.668,35.645,39.551,-7.324
1532371582.034,47.363,32.715,35.156,39.551,20.020
1532371582.038,39.062,30.273,33.691,38.574,76.660
1532371582.042,42.480,33.203,36.621,38.086,66.406
1532371582.046,47.363,37.109,39.551,33.203,-15.625
1532371582.050,44.922,36.133,35.645,39.551,-1.465
1532371582.054,40.527,31.250,31.738,43.457,78.613
1532371582.058,42.480,30.762,33.691,37.598,87.402
1532371582.062,41.992,33.203,33.691,37.109,11.230
1532371582.066,38.086,35.645,30.762,36.133,-31.250
1532371582.069,42.480,37.109,30.273,37.109,32.227
1532371582.073,45.898,37.598,30.273,36.133,82.031
1532371582.077,44.434,33.203,30.273,30.273,56.641
1532371582.081,51.270,30.762,29.785,27.344,0.977
1532371582.085,57.617,32.715,27.832,24.902,-12.695
1532371582.089,58.594,34.668,28.320,23.438,49.316
1532371582.093,55.664,35.645,33.203,31.250,77.148
1532371582.097,52.734,32.715,34.668,40.527,15.137
1532371582.101,48.828,32.227,34.668,44.922,23.926
1532371582.105,41.992,37.109,38.086,48.340,68.848
1532371582.108,39.062,36.133,37.598,50.293,57.617
1532371582.112,36.133,33.691,37.598,49.316,9.766
1532371582.116,35.156,36.133,37.598,50.293,8.301
1532371582.120,39.551,38.086,39.062,53.223,58.105
1532371582.124,43.457,36.621,41.992,58.105,75.684
1532371582.128,46.875,39.062,38.574,60.059,0.977
1532371582.132,42.480,40.039,34.668,57.617,-31.250
1532371582.136,35.156,38.086,35.156,51.758,13.184
1532371582.140,38.574,40.527,34.668,47.852,65.430
1532371582.143,41.992,38.574,29.297,42.969,15.137
1532371582.147,42.480,37.109,31.738,41.016,-43.945
1532371582.151,46.875,37.109,37.109,48.340,0.977
1532371582.155,50.293,38.086,33.691,45.898,60.547
1532371582.159,47.363,40.527,32.227,45.410,61.523
1532371582.163,45.410,38.574,32.227,38.086,-31.250
1532371582.167,46.387,38.086,27.832,34.668,-25.879
1532371582.171,47.852,41.016,24.414,41.992,51.270
1532371582.175,50.293,41.992,24.902,38.086,43.945
1532371582.179,48.340,38.574,26.367,39.062,-4.395
1532371582.182,47.852,37.598,29.297,40.039,-41.992
1532371582.186,49.805,38.574,32.227,39.062,-0.488
1532371582.190,50.781,32.715,28.809,44.922,55.176
1532371582.194,49.805,30.762,28.809,47.852,3.418
1532371582.198,56.152,35.156,31.250,49.805,-35.645
1532371582.202,54.199,36.133,33.203,50.293,1.465
1532371582.206,43.945,34.668,34.668,47.852,61.035
1532371582.210,47.363,33.203,34.180,51.270,42.480
1532371582.214,49.805,31.738,36.621,49.805,-26.855
1532371582.217,41.992,31.738,32.227,38.574,6.836
1532371582.221,40.039,31.250,31.250,35.156,61.523
1532371582.225,44.922,32.715,34.668,34.180,33.203
1532371582.229,45.898,33.203,30.762,30.762,-27.344
1532371582.233,43.457,32.715,30.273,35.645,-9.766
1532371582.237,42.969,31.738,32.715,40.527,62.988
1532371582.241,42.969,33.203,29.785,40.039,81.543
1532371582.245,38.574,34.180,28.320,38.086,30.273
1532371582.249,36.621,34.668,29.785,37.109,-5.859
1532371582.253,36.133,38.086,31.250,38.086,45.898
1532371582.256,29.297,40.527,33.691,36.133,91.309
1532371582.260,34.668,41.504,34.180,35.156,27.832
1532371582.264,38.086,38.574,33.691,32.715,-37.598
1532371582.268,35.156,40.527,35.645,30.762,-21.973
1532371582.272,39.551,42.480,37.598,31.738,33.691
1532371582.276,41.504,39.551,36.621,32.715,46.875
1532371582.280,43.945,36.621,33.691,33.203,-2.441
1532371582.284,42.480,37.598,31.738,31.250,-8.789
1532371582.288,39.062,41.504,30.273,32.227,33.691
1532371582.291,35.156,40.039,31.250,31.250,55.176
1532371582.295,30.762,32.227,35.156,37.598,43.457
1532371582.299,46.387,29.785,37.109,48.340,17.578
1532371582.303,59.570,39.062,30.273,48.828,48.340
1532371582.307,52.734,42.969,23.926,40.527,89.355
1532371582.311,47.363,41.504,25.879,38.574,35.645
1532371582.315,35.156,38.574,28.320,32.715,-8.789
1532371582.319,28.320,33.691,33.203,33.691,24.902
1532371582.323,40.527,34.180,36.133,41.504,44.434
1532371582.327,45.410,34.180,30.762,37.598,7.812
1532371582.330,43.457,37.109,29.785,38.086,-9.277
1532371582.334,38.086,35.156,29.297,39.062,35.645
1532371582.338,39.551,35.156,26.367,38.574,83.496
1532371582.342,45.898,37.109,30.273,42.480,77.148
1532371582.346,43.457,36.133,31.250,42.480,9.766
1532371582.350,44.434,36.133,31.250,44.434,3.418
1532371582.354,46.875,35.156,33.203,47.363,60.059
1532371582.358,43.945,32.227,32.227,42.480,64.453
1532371582.362,42.480,31.250,29.297,41.016,-8.301
1532371582.365,43.945,33.691,29.297,44.434,-43.945
1532371582.369,47.363,30.762,31.738,46.875,14.648
1532371582.373,49.805,31.738,26.855,49.805,64.453
1532371582.377,45.410,33.691,23.438,51.758,30.762
1532371582.381,42.480,32.227,27.832,51.758,2.930
1532371582.385,40.039,31.738,28.320,56.152,19.043
1532371582.389,36.133,31.250,26.855,57.129,66.406
1532371582.393,36.621,28.809,27.832,51.758,38.574
1532371582.397,39.062,27.344,31.250,51.270,-33.203
1532371582.401,40.039,27.344,32.227,54.688,-12.695
1532371582.404,32.227,30.762,32.227,49.805,59.570
1532371582.408,35.156,34.180,32.715,48.828,58.105
1532371582.412,42.969,34.668,29.785,48.340,-19.043
1532371582.416,44.922,32.715,31.250,47.852,-34.180
1532371582.420,46.875,33.203,34.668,51.270,51.270
1532371582.424,47.852,33.691,37.109,45.410,50.781
1532371582.428,47.852,32.715,37.598,40.039,-22.461
1532371582.432,46.875,32.715,36.133,42.480,0.000
1532371582.436,55.664,37.109,35.156,44.922,52.246
1532371582.439,60.547,38.086,36.621,47.363,69.824
1532371582.443,52.246,36.133,40.039,46.875,21.484
1532371582.447,46.387,36.133,38.574,42.480,-31.250
1532371582.451,47.852,36.621,34.180,44.434,16.602
1532371582.455,49.316,38.574,34.668,44.434,76.660
1532371582.459,43.945,37.109,35.645,38.574,53.223
1532371582.463,38.574,34.668,35.645,30.762,-30.762
1532371582.467,41.504,36.621,32.715,27.832,-32.715
1532371582.471,41.992,41.016,32.715,35.645,47.363
1532371582.475,44.434,36.621,30.273,37.598,38.086
1532371582.478,43.457,31.738,32.227,35.156,-21.973
1532371582.482,41.992,33.691,33.691,35.645,-17.090
1532371582.486,45.898,37.109,33.203,36.133,47.852
1532371582.490,48.828,36.133,33.203,38.086,90.332
1532371582.494,52.246,36.621,31.250,41.504,40.039
1532371582.498,51.758,36.621,31.250,39.062,0.488
1532371582.502,50.781,35.645,31.250,41.992,29.297
1532371582.506,58.594,37.598,32.227,48.828,66.406
1532371582.510,62.988,40.039,34.668,47.363,52.734
1532371582.513,55.664,40.039,34.180,48.340,9.766
1532371582.517,50.781,40.039,29.297,51.758,24.902
1532371582.521,54.688,41.016,26.367,48.340,68.848
1532371582.525,54.688,41.992,26.855,42.480,37.598
1532371582.529,51.758,43.457,26.855,40.527,-17.090
1532371582.533,47.363,41.016,25.391,37.598,-3.418
1532371582.537,47.363,37.109,24.414,36.621,54.688
1532371582.541,46.875,35.645,23.438,38.574,62.988
1532371582.545,44.434,34.180,24.414,39.062,-24.414
1532371582.549,42.480,31.738,26.367,34.180,-12.695
1532371582.552,42.480,30.762,25.879,34.180,42.480
1532371582.556,44.434,31.738,24.414,40.039,43.457
1532371582.560,41.016,33.203,24.902,37.598,-14.648
1532371582.564,40.527,33.203,23.438,37.109,-55.176
1532371582.568,42.969,32.715,22.461,41.016,35.645
1532371582.572,41.016,32.715,23.438,41.992,106.445
1532371582.576,41.504,34.668,24.414,42.480,43.945
1532371582.580,43.945,35.156,24.902,45.410,-6.348
1532371582.584,45.410,36.621,22.461,45.898,25.391
1532371582.587,44.922,34.180,19.531,43.457,62.500
1532371582.591,48.340,28.809,19.043,40.039,57.129
1532371582.595,43.945,30.762,16.602,39.062,11.719
1532371582.599,39.551,31.250,16.602,41.016,15.625
1532371582.603,50.293,33.203,20.996,42.969,55.664
1532371582.607,48.828,35.645,17.578,40.039,96.191
1532371582.611,50.781,33.691,20.508,45.898,63.965
1532371582.615,51.270,31.738,24.414,44.434,12.695
1532371582.619,36.133,29.785,21.484,30.762,50.293
1532371582.623,36.133,33.203,21.973,34.668,85.449
1532371582.626,39.062,34.180,24.902,37.598,25.391
1532371582.630,38.086,32.715,24.414,35.156,-15.625
1532371582.634,36.133,32.227,23.926,35.156,8.789
1532371582.638,33.691,32.227,29.297,40.527,56.641
1532371582.642,35.156,32.715,30.762,35.156,30.273
1532371582.646,32.227,32.227,27.832,28.320,-29.297
1532371582.650,29.785,32.227,27.832,36.133,16.602
1532371582.654,30.273,31.738,28.320,41.016,59.082
1532371582.658,33.203,30.762,28.809,42.969,47.852
1532371582.662,39.062,30.762,30.273,44.922,1.465
1532371582.665,40.039,31.250,27.832,47.363,-5.859
1532371582.669,34.668,31.738,30.762,43.945,56.641
1532371582.673,33.203,30.273,30.273,37.109,83.008
1532371582.677,39.062,31.738,25.391,38.086,7.812
1532371582.681,39.551,33.203,23.926,37.109,-19.531
1532371582.685,44.922,35.156,20.996,31.738,33.203
1532371582.689,45.898,37.598,25.391,32.227,49.316
1532371582.693,45.410,39.551,32.715,41.504,8.789
1532371582.697,47.852,39.062,33.691,46.875,-10.742
1532371582.700,46.875,37.598,34.180,49.316,30.273
1532371582.704,48.828,40.039,34.180,45.898,66.406
1532371582.708,49.805,38.574,35.156,49.805,45.898
1532371582.712,50.781,35.156,36.133,55.664,-0.977
1532371582.716,47.852,37.109,33.691,51.758,39.062
1532371582.720,47.852,38.574,34.180,49.805,69.336
1532371582.724,51.270,38.574,34.180,45.898,54.688
1532371582.728,48.340,38.086,31.250,40.039,20.020
1532371582.732,42.969,38.574,31.738,36.621,1.465
1532371582.736,44.922,42.480,35.645,37.598,44.922
1532371582.739,49.316,41.992,35.645,37.109,66.406
1532371582.743,50.293,36.621,33.203,34.668,-5.859
1532371582.747,54.688,36.133,31.738,34.668,-29.297
1532371582.751,57.617,40.039,29.297,40.527,46.387
1532371582.755,50.781,40.527,29.297,42.480,80.566
1532371582.759,46.875,37.109,30.273,43.457,36.621
1532371582.763,44.434,32.715,29.785,46.387,5.859
1532371582.767,40.039,31.738,27.344,49.316,23.926
1532371582.771,40.527,32.227,25.879,53.223,79.590
1532371582.774,42.480,32.227,26.855,52.246,73.242
1532371582.778,35.645,30.762,27.344,46.387,0.000
1532371582.782,31.738,26.367,27.344,46.387,14.160
1532371582.786,36.133,28.809,25.391,47.363,67.383
1532371582.790,41.504,31.738,23.926,43.945,77.148
1532371582.794,46.387,29.785,23.438,45.410,16.602
1532371582.798,48.340,28.809,23.926,43.945,5.859
1532371582.802,45.410,28.320,24.902,37.109,23.926
1532371582.806,44.434,30.273,25.879,38.086,39.062
1532371582.810,40.039,30.273,24.902,39.551,22.949
1532371582.813,35.156,30.273,22.949,34.668,-25.391
1532371582.817,36.133,31.738,22.949,39.551,16.602
1532371582.821,36.133,32.715,20.996,38.086,53.223
1532371582.825,38.086,31.738,20.996,36.133,8.301
1532371582.829,39.551,29.297,22.461,37.109,-43.945
1532371582.833,39.062,30.762,18.555,40.527,-10.742
1532371582.837,37.598,32.715,19.531,45.898,81.543
1532371582.841,39.551,32.715,24.414,43.945,22.461
1532371582.845,45.410,33.691,22.949,44.434,-54.688
1532371582.848,41.016,33.203,20.020,49.805,0.977
1532371582.852,37.598,30.273,23.438,49.805,52.734
1532371582.856,40.039,28.809,22.949,46.387,77.637
1532371582.860,39.551,28.809,20.508,41.504,-12.207
1532371582.864,39.551,28.809,20.508,37.598,-49.805
1532371582.868,38.574,26.855,21.973,39.551,36.621
1532371582.872,39.062,26.367,21.973,41.016,84.961
1532371582.876,41.504,28.809,20.020,41.992,20.020
1532371582.880,45.410,26.855,20.996,42.480,-28.809
1532371582.884,44.922,28.320,21.973,36.621,7.324
1532371582.887,42.969,31.250,19.043,36.133,63.477
1532371582.891,46.387,31.250,19.043,42.969,70.801
1532371582.895,50.781,31.738,18.555,39.551,9.766
1532371582.899,47.852,31.738,18.066,36.133,3.418
1532371582.903,45.898,31.738,18.066,38.574,66.895
1532371582.907,45.898,31.250,18.555,38.086,79.590
1532371582.911,49.316,33.203,21.484,38.574,8.789
1532371582.915,45.410,30.762,21.484,40.039,-1.465
1532371582.919,38.086,29.785,17.090,35.645,53.711
1532371582.922,38.574,32.227,18.555,37.109,66.895
1532371582.926,39.062,31.738,20.020,38.086,23.926
1532371582.930,39.551,29.785,20.508,35.645,2.441
1532371582.934,41.016,32.227,22.461,36.133,43.945
1532371582.938,42.969,36.621,22.461,37.598,79.590
1532371582.942,43.457,34.180,21.484,33.203,4.395
1532371582.946,39.551,32.227,21.973,29.297,-60.547
1532371582.950,41.016,33.203,22.949,35.156,3.906
1532371582.954,44.434,32.227,23.926,41.992,73.730
1532371582.958,41.992,30.762,22.461,40.527,48.828
1532371582.961,41.992,30.273,23.438,38.086,-24.902
1532371582.965,42.480,34.180,26.855,41.504,6.348
1532371582.969,41.016,33.691,28.809,44.434,67.383
1532371582.973,40.527,32.715,27.832,42.969,54.199
1532371582.977,36.621,32.715,26.855,41.016,-12.695
1532371582.981,38.086,33.203,27.344,41.992,-26.367
1532371582.985,47.852,36.133,31.250,46.875,25.879
1532371582.989,49.805,34.668,32.715,47.852,45.898
1532371582.993,44.922,33.203,29.297,46.387,-3.418
1532371582.996,43.457,32.227,24.902,47.852,-25.879
1532371583.000,42.969,31.738,22.949,42.480,29.297
1532371583.004,43.945,33.691,27.344,41.992,65.918
1532371583.008,51.270,34.180,29.785,47.363,31.738
1532371583.012,54.688,33.691,27.344,45.898,-19.043
1532371583.016,57.129,35.645,28.320,51.270,-9.766
1532371583.020,56.641,36.133,32.227,50.293,57.129
1532371583.024,52.734,35.645,30.762,43.457,73.730
1532371583.028,49.805,36.133,28.320,45.898,11.719
1532371583.032,45.898,36.133,28.809,46.387,5.371
1532371583.035,41.504,34.668,32.715,38.574,47.363
1532371583.039,38.086,34.180,29.297,33.691,48.828
1532371583.043,38.086,34.180,26.855,36.621,-4.883
1532371583.047,38.574,33.691,30.273,38.574,-0.488
1532371583.051,34.668,34.180,27.832,34.180,28.320
1532371583.055,34.180,33.691,26.855,30.273,63.477
1532371583.059,32.227,30.762,26.855,30.273,40.039
1532371583.063,26.367,31.738,27.344,24.414,-38.574
1532371583.067,26.367,34.180,25.391,24.414,-11.719
1532371583.070,23.438,33.203,25.879,31.738,44.922
1532371583.074,24.902,29.785,27.832,31.250,36.621
1532371583.078,28.320,28.320,27.344,30.273,-8.789
1532371583.082,34.668,32.227,30.762,37.109,3.906
1532371583.086,39.062,30.762,33.203,37.598,62.500
1532371583.090,33.203,29.297,28.809,32.227,66.406
1532371583.094,34.668,33.203,27.832,35.645,-3.906
1532371583.098,29.785,31.738,28.320,35.645,-29.785
1532371583.102,27.344,30.762,29.297,35.156,48.828
1532371583.106,31.738,32.227,29.785,41.016,89.355
1532371583.109,31.250,31.250,27.344,37.598,1.953
1532371583.113,31.738,28.809,26.855,35.156,-41.504
1532371583.117,33.203,28.809,26.367,40.527,20.996
1532371583.121,39.062,28.320,31.250,37.109,47.363
1532371583.125,38.574,27.832,31.250,31.738,-18.555
1532371583.129,39.551,28.320,28.320,41.016,-29.785
1532371583.133,46.387,28.809,30.273,46.875,34.180
1532371583.137,44.434,29.785,27.832,40.039,70.312
1532371583.141,44.922,29.785,25.879,39.062,35.156
1532371583.144,45.410,27.832,28.320,35.156,-31.738
1532371583.148,44.922,27.344,27.344,30.762,9.277
1532371583.152,47.363,30.762,25.391,35.156,79.102
1532371583.156,42.480,31.250,21.484,30.273,58.105
1532371583.160,40.039,32.715,20.508,28.320,-30.762
1532371583.164,47.852,35.156,24.902,33.203,-44.434
1532371583.168,44.922,31.738,23.926,33.691,23.438
1532371583.172,42.480,28.809,23.438,34.668,75.195
1532371583.176,47.852,29.297,23.438,37.109,51.270
1532371583.180,44.434,31.250,22.461,39.062,-13.672
1532371583.183,44.434,31.738,23.438,38.086,33.203
1532371583.187,46.875,29.785,21.484,36.133,90.820
1532371583.191,45.410,28.320,19.043,35.645,37.109
1532371583.195,46.387,28.320,19.043,37.598,-17.090
1532371583.199,46.387,29.785,21.484,40.039,8.301
1532371583.203,42.480,28.809,23.438,39.062,67.871
1532371583.207,44.434,26.855,21.484,36.621,58.105
1532371583.211,45.898,31.738,20.020,36.133,-18.555
1532371583.215,44.434,32.715,21.484,36.621,8.789
1532371583.218,48.340,31.250,26.367,40.039,87.891
1532371583.222,55.176,33.691,30.762,38.574,42.480
1532371583.226,51.270,37.598,28.809,34.668,-50.293
1532371583.230,48.828,36.133,27.832,36.133,-18.555
1532371583.234,52.734,34.180,33.203,41.016,42.969
1532371583.238,47.363,31.738,31.250,40.527,38.574
1532371583.242,42.480,31.250,26.367,36.133,2.441
1532371583.246,45.410,33.691,27.344,34.180,-6.348
1532371583.250,49.805,34.668,29.297,36.133,9.766
1532371583.254,51.270,34.668,31.738,37.598,45.898
1532371583.257,49.805,33.691,32.227,38.574,27.344
1532371583.261,46.387,32.715,29.297,33.203,-45.410
1532371583.265,43.945,30.762,30.762,32.227,-14.160
1532371583.269,50.293,36.133,35.645,40.039,65.430
1532371583.273,56.641,39.062,37.109,41.504,53.711
1532371583.277,57.129,38.086,36.621,46.875,-29.297
1532371583.281,61.523,40.527,38.086,47.363,-25.879
1532371583.285,62.500,41.504,38.574,50.781,38.086
1532371583.289,64.453,40.527,38.574,55.176,56.641
1532371583.292,60.547,41.504,38.086,49.805,-1.465
1532371583.296,59.082,41.992,37.109,48.828,-28.809
1532371583.300,58.594,37.598,37.598,49.805,25.879
1532371583.304,52.734,35.156,37.598,46.387,42.480
1532371583.308,53.711,36.133,38.574,49.316,13.184
1532371583.312,51.758,35.156,37.109,50.781,-8.301
1532371583.316,46.875,35.645,35.645,45.898,36.621
1532371583.320,50.293,36.133,38.086,47.852,92.285
1532371583.324,47.363,31.738,34.180,46.387,44.922
1532371583.328,37.598,30.273,31.738,43.457,-27.344
1532371583.331,39.551,31.738,36.621,48.828,5.859
1532371583.335,41.016,31.738,37.598,46.387,86.426
1532371583.339,38.574,31.738,34.180,39.551,87.891
1532371583.343,37.598,29.785,34.668,39.062,6.348
1532371583.347,42.969,30.762,38.574,43.457,-5.371
1532371583.351,41.504,30.762,35.156,41.016,54.199
1532371583.355,38.574,29.785,31.738,36.621,102.051
1532371583.359,45.898,33.691,34.180,33.203,10.742
1532371583.363,44.922,35.645,33.203,24.414,-83.984
1532371583.366,41.016,35.156,29.297,23.926,6.348
1532371583.370,44.434,33.691,29.297,28.809,61.035
1532371583.374,41.992,33.203,30.762,24.414,20.020
1532371583.378,32.715,31.250,30.762,22.461,-1.465
1532371583.382,33.203,30.762,32.715,22.461,26.367
1532371583.386,36.621,31.250,35.645,22.949,50.781
1532371583.390,41.504,31.738,36.133,22.949,16.113
1532371583.394,38.574,35.645,31.738,20.508,-17.578
1532371583.398,37.109,32.227,27.344,20.020,7.324
1532371583.402,36.133,28.320,27.344,12.207,13.672
1532371583.405,34.180,30.762,29.785,8.301,-3.418
1532371583.409,47.363,32.715,26.855,13.184,-31.250
1532371583.413,51.270,35.156,22.949,17.578,-29.297
1532371583.417,43.457,34.180,25.391,21.973,39.062
1532371583.421,37.598,33.203,26.367,20.996,53.711
1532371583.425,38.574,34.180,25.879,21.484,-4.395
1532371583.429,37.109,32.227,26.367,26.855,-10.742
1532371583.433,26.855,32.227,28.320,32.227,13.672
1532371583.437,18.555,33.691,28.809,25.879,41.504
1532371583.440,19.043,30.762,30.762,20.996,-10.254
1532371583.444,21.973,28.809,33.691,27.832,-58.105
1532371583.448,20.996,30.762,31.250,28.320,22.461
1532371583.452,14.648,30.273,28.320,16.113,68.359
1532371583.456,13.672,27.344,27.832,17.090,40.039
1532371583.460,24.414,25.879,23.926,20.020,3.906
1532371583.464,30.273,25.391,24.414,15.625,15.137
1532371583.468,25.391,27.832,26.855,15.137,67.383
1532371583.472,24.414,28.809,24.902,13.672,93.262
1532371583.476,26.367,23.926,27.832,17.090,32.715
1532371583.479,31.250,20.996,28.809,24.902,-4.883
1532371583.483,44.434,23.926,26.855,34.668,46.875
1532371583.487,50.293,25.391,26.855,38.086,84.961
1532371583.491,48.828,24.414,28.320,35.645,34.668
1532371583.495,42.969,21.484,26.367,35.156,0.488
1532371583.499,40.527,22.949,25.391,33.691,16.113
1532371583.503,46.387,26.367,25.879,33.203,34.180
1532371583.507,51.270,26.855,21.973,41.016,29.297
1532371583.511,51.270,24.902,20.996,41.992,-20.508
1532371583.515,49.316,22.461,20.020,40.039,14.160
1532371583.518,51.270,20.508,17.090,40.039,70.801
1532371583.522,56.641,20.020,16.113,41.016,41.504
1532371583.526,57.129,20.996,17.578,45.898,-15.137
1532371583.530,52.246,21.484,19.043,45.410,-3.906
1532371583.534,49.805,22.949,21.484,43.457,65.430
1532371583.538,52.246,23.926,23.438,43.945,58.105
1532371583.542,47.363,23.438,23.438,38.574,-21.484
1532371583.546,41.504,23.438,22.461,37.598,-26.367
1532371583.550,47.363,21.484,24.414,41.016,36.621
1532371583.553,45.898,20.996,22.949,37.598,67.871
1532371583.557,40.527,22.949,22.949,42.480,32.715
1532371583.561,43.945,25.879,24.902,44.922,-8.301
1532371583.565,47.363,27.344,23.438,40.527,45.898
1532371583.569,48.828,23.438,22.949,41.016,103.027
1532371583.573,50.781,22.461,20.996,41.504,34.180
1532371583.577,51.270,26.367,20.996,43.945,-33.203
1532371583.581,57.129,27.344,25.391,48.340,-14.160
1532371583.585,56.641,30.273,27.832,45.898,50.781
1532371583.589,51.270,31.250,23.926,42.480,58.594
1532371583.592,55.176,29.785,24.902,43.457,4.395
1532371583.596,59.570,29.297,26.367,47.852,17.090
1532371583.600,54.688,30.273,25.879,44.922,66.895
1532371583.604,50.293,34.180,28.320,44.922,75.684
1532371583.608,50.293,31.738,28.809,48.828,13.184
1532371583.612,55.664,28.320,27.344,47.363,14.160
1532371583.616,60.059,30.762,28.320,50.781,58.105
1532371583.620,58.105,29.785,31.738,53.223,74.707
1532371583.624,56.641,28.809,31.250,53.711,-1.953
1532371583.627,51.758,30.273,27.344,45.410,-39.062
1532371583.631,49.805,31.250,26.855,37.598,32.715
1532371583.635,50.781,33.691,27.832,42.480,66.406
1532371583.639,55.176,32.715,28.320,40.527,10.742
1532371583.643,59.082,32.715,29.297,35.645,-45.410
1532371583.647,56.641,32.227,30.273,40.039,-19.043
1532371583.651,53.711,31.250,28.809,44.434,59.082
1532371583.655,52.734,31.738,26.367,41.016,68.359
1532371583.659,45.898,29.297,24.902,37.598,1.465
1532371583.663,42.969,26.855,24.902,38.086,-11.230
1532371583.666,42.969,27.344,24.414,38.574,25.391
1532371583.670,41.016,24.902,23.438,40.039,52.246
1532371583.674,46.875,24.902,22.461,43.945,-5.371
1532371583.678,50.293,26.367,19.531,42.480,-41.016
1532371583.682,47.363,28.320,21.973,40.527,3.418
1532371583.686,45.898,30.762,21.484,45.410,61.523
1532371583.690,47.363,30.273,22.949,44.922,32.715
1532371583.694,52.246,30.273,23.926,42.480,-9.766
1532371583.698,55.664,28.320,21.484,41.504,6.348
1532371583.701,48.340,26.367,20.020,33.203,42.969
1532371583.705,43.457,27.832,21.484,31.738,64.941
1532371583.709,52.734,30.273,26.367,44.434,7.812
1532371583.713,55.664,29.785,28.809,50.781,11.230
1532371583.717,55.176,31.738,31.250,48.340,77.148
1532371583.721,56.152,32.227,32.227,44.922,45.410
1532371583.725,53.711,30.762,31.738,39.062,-20.996
1532371583.729,51.270,30.762,29.785,34.180,11.230
1532371583.733,43.457,29.297,27.344,26.855,53.711
1532371583.737,39.551,28.809,25.391,23.926,52.246
1532371583.740,38.086,29.297,23.438,26.367,13.672
1532371583.744,41.016,29.297,23.926,30.762,-5.859
1532371583.748,45.410,30.273,26.855,33.203,39.062
1532371583.752,43.457,26.855,27.344,30.762,70.801
1532371583.756,45.410,26.855,26.367,35.156,20.508
1532371583.760,41.016,26.855,22.949,30.273,-18.555
1532371583.764,38.086,23.438,21.973,28.320,2.441
1532371583.768,41.504,23.926,22.949,37.109,82.031
1532371583.772,39.551,26.855,19.043,32.227,114.258
1532371583.775,37.109,24.902,15.625,28.809,19.531
1532371583.779,45.898,27.344,21.484,38.086,-22.461
1532371583.783,48.340,29.785,24.414,41.504,46.875
1532371583.787,46.875,28.320,19.531,42.969,81.055
1532371583.791,48.828,26.367,18.066,41.016,-5.859
1532371583.795,48.828,25.391,19.043,40.527,-20.996
1532371583.799,45.410,23.438,22.461,41.504,29.785
1532371583.803,50.293,24.902,22.949,36.133,55.664
1532371583.807,49.316,25.879,21.484,37.109,19.531
1532371583.811,47.363,24.414,24.414,40.527,-22.461
1532371583.814,51.758,22.949,25.391,39.062,32.715
1532371583.818,47.852,21.484,22.949,35.645,55.176
1532371583.822,48.340,25.391,24.414,31.738,-6.348
1532371583.826,51.270,25.879,28.320,43.945,-29.785
1532371583.830,49.805,25.879,27.344,52.734,20.996
1532371583.834,49.316,27.344,23.926,49.316,98.633
1532371583.838,49.316,28.320,24.902,43.945,82.031
1532371583.842,47.852,27.344,24.414,37.598,8.789
1532371583.846,48.340,27.344,20.996,38.086,9.766
1532371583.849,50.293,29.297,22.461,39.551,51.270
1532371583.853,46.387,29.785,22.949,37.598,87.891
1532371583.857,44.922,28.809,20.020,31.738,8.301
1532371583.861,43.457,28.320,19.531,29.785,-45.410
1532371583.865,41.504,29.297,18.555,36.133,24.414
1532371583.869,41.016,30.762,16.602,35.156,88.867
1532371583.873,41.016,29.785,18.555,30.762,65.918
1532371583.877,46.875,26.855,20.996,35.156,-8.301
1532371583.881,51.758,29.785,22.461,42.969,-2.930
1532371583.885,49.316,35.156,23.926,42.969,60.059
1532371583.888,53.223,36.621,28.320,46.875,46.387
1532371583.892,61.523,38.086,28.809,50.293,-16.113
1532371583.896,61.523,37.109,23.926,46.875,-5.859
1532371583.900,60.547,39.551,25.879,47.363,61.523
1532371583.904,67.383,41.992,28.320,49.805,73.730
1532371583.908,73.242,43.945,27.832,51.758,-8.301
1532371583.912,69.336,43.945,26.367,50.293,-12.695
1532371583.916,62.012,41.016,24.902,43.945,70.312
1532371583.920,52.246,39.551,24.414,37.109,70.801
1532371583.923,46.875,37.109,23.438,28.809,-7.324
1532371583.927,48.340,37.598,26.367,27.344,-11.230
1532371583.931,43.457,41.016,27.344,26.855,52.734
1532371583.935,43.945,38.574,22.461,27.344,73.730
1532371583.939,43.457,35.156,22.949,24.414,26.367
1532371583.943,43.457,35.645,23.926,20.996,-34.668
1532371583.947,43.945,35.156,22.461,26.855,-10.254
1532371583.951,37.598,35.156,20.020,30.273,45.410
1532371583.955,34.668,34.668,19.043,30.273,49.316
1532371583.959,37.109,35.645,22.949,29.785,-18.555
1532371583.962,39.551,35.156,22.461,31.250,-24.902
1532371583.966,38.574,32.227,20.020,38.574,59.082
1532371583.970,36.133,33.203,22.461,40.527,71.289
1532371583.974,38.086,35.156,23.926,39.062,6.836
1532371583.978,39.551,34.668,23.438,36.621,-11.719
1532371583.982,39.062,32.227,24.414,33.691,42.480
1532371583.986,38.086,32.227,23.926,34.180,85.449
1532371583.990,38.574,34.668,23.926,36.133,41.504
1532371583.994,41.504,35.156,25.879,34.180,-0.977
1532371583.997,50.781,34.180,27.344,34.180,20.508
1532371584.001,46.875,36.621,25.879,32.715,54.199
1532371584.005,43.945,38.086,23.926,34.180,40.527
1532371584.009,50.293,36.133,24.902,40.039,-21.484
1532371584.013,46.387,35.156,24.414,35.645,27.832
1532371584.017,44.922,33.203,22.461,32.715,83.496
1532371584.021,46.875,34.180,24.414,37.598,49.805
1532371584.025,49.316,34.668,27.344,40.527,-14.648
1532371584.029,49.316,32.227,27.344,41.992,-15.137
1532371584.033,48.828,32.715,26.855,44.434,45.410
1532371584.036,44.434,33.203,27.344,40.527,43.945
1532371584.040,47.363,31.738,28.320,38.574,-12.695
1532371584.044,46.875,31.738,23.926,33.203,-9.277
1532371584.048,39.062,32.227,20.020,26.367,43.457
1532371584.052,35.645,29.297,23.438,32.227,63.965
1532371584.056,38.574,30.273,26.367,34.180,24.414
1532371584.060,41.504,31.250,23.926,29.297,-31.250
1532371584.064,41.504,28.809,22.461,31.738,-2.441
1532371584.068,44.922,29.297,23.926,34.668,68.848
1532371584.071,45.410,31.250,23.438,34.180,60.059
1532371584.075,42.969,31.250,19.043,30.762,3.418
1532371584.079,46.387,31.250,19.043,22.949,9.277
1532371584.083,52.246,32.227,22.461,31.250,68.359
1532371584.087,52.246,32.227,22.949,40.527,70.312
1532371584.091,50.293,30.273,24.902,40.039,-6.348
1532371584.095,48.340,25.879,26.367,45.410,-17.578
1532371584.099,45.898,27.344,26.367,43.457,42.480
1532371584.103,49.316,31.250,26.855,41.504,75.684
1532371584.107,44.922,28.809,27.344,45.410,22.949
1532371584.110,39.551,27.344,29.297,43.945,-15.137
1532371584.114,43.945,30.762,29.297,41.992,47.852
1532371584.118,45.898,29.297,31.250,40.527,61.523
1532371584.122,45.410,30.273,31.250,39.551,2.441
1532371584.126,47.363,30.762,27.832,39.551,-20.996
1532371584.130,46.387,27.832,25.879,41.016,5.859
1532371584.134,49.805,29.297,28.320,42.480,64.453
1532371584.138,54.199,32.715,30.273,39.062,39.551
1532371584.142,48.828,29.785,24.414,34.668,-17.090
1532371584.145,46.387,27.344,22.461,35.156,13.672
1532371584.149,56.152,29.297,24.902,44.434,59.570
1532371584.153,53.223,30.762,24.414,42.969,58.105
1532371584.157,42.480,31.250,24.414,41.504,-36.621
1532371584.161,43.457,29.785,27.344,46.875,-49.316
1532371584.165,45.410,28.320,27.344,44.434,52.734
1532371584.169,44.922,30.273,24.414,43.457,82.031
1532371584.173,46.875,32.715,20.996,46.387,15.625
1532371584.177,51.270,32.227,25.879,45.898,-34.180
1532371584.181,53.711,33.203,27.832,47.363,15.137
1532371584.184,49.805,36.133,25.391,50.781,81.543
1532371584.188,52.734,36.133,28.809,50.781,46.875
1532371584.192,55.176,34.668,26.855,51.270,-13.184
1532371584.196,51.758,35.645,25.879,52.246,15.137
1532371584.200,51.758,36.133,27.344,51.270,62.500
1532371584.204,48.828,31.738,27.832,49.316,81.543
1532371584.208,49.316,31.250,27.832,46.875,-3.906
1532371584.212,51.270,32.227,27.344,47.852,-17.578
1532371584.216,49.316,29.785,25.879,46.387,29.785
1532371584.219,50.293,32.715,26.367,42.480,29.785
1532371584.223,50.781,33.203,27.344,43.945,-5.859
1532371584.227,49.805,28.809,23.926,40.527,-23.926
1532371584.231,50.781,31.250,24.902,43.945,14.160
1532371584.235,54.199,33.203,27.832,47.852,58.594
1532371584.239,50.293,31.250,29.297,44.922,24.902
1532371584.243,53.711,30.762,27.832,43.945,-13.184
1532371584.247,52.246,29.297,27.344,41.016,32.715
1532371584.251,42.480,28.320,27.832,37.598,71.777
1532371584.255,46.387,27.344,30.762,37.598,42.480
1532371584.258,49.805,29.785,34.668,36.621,-56.641
1532371584.262,41.016,32.715,32.715,31.250,-27.832
1532371584.266,38.086,30.762,31.738,32.715,67.383
1532371584.270,39.551,30.273,32.227,33.691,64.453
1532371584.274,40.039,30.762,27.344,33.203,-0.977
1532371584.278,32.227,30.273,22.949,26.367,3.418
1532371584.282,34.180,28.809,24.902,24.902,40.527
1532371584.286,41.992,28.320,29.297,32.715,24.414
1532371584.290,38.574,29.785,28.809,30.762,-8.301
1532371584.294,39.551,27.832,26.855,30.273,-27.832
1532371584.297,43.457,28.320,30.762,33.203,6.348
1532371584.301,47.363,31.738,28.809,36.133,45.898
1532371584.305,50.293,30.762,21.973,38.086,11.230
1532371584.309,48.828,28.809,21.973,39.551,-43.945
1532371584.313,45.898,26.855,23.926,42.480,5.371
1532371584.317,48.340,23.926,26.855,43.457,59.570
1532371584.321,51.270,25.879,27.344,43.457,57.617
1532371584.325,51.270,26.855,27.832,41.992,0.488
1532371584.329,49.805,22.949,24.414,36.133,-8.789
1532371584.332,50.293,23.438,21.484,39.551,54.688
1532371584.336,60.547,28.809,24.902,45.410,63.965
1532371584.340,60.059,31.250,23.926,40.527,-13.184
1532371584.344,50.781,30.762,22.949,39.062,-27.832
1532371584.348,50.293,31.250,22.949,43.457,45.898
1532371584.352,48.340,29.785,22.461,44.434,76.172
1532371584.356,46.387,28.320,22.461,40.527,29.785
1532371584.360,44.434,25.391,22.949,38.086,-15.625
1532371584.364,44.922,26.855,28.320,42.480,32.227
1532371584.368,46.875,28.320,26.367,42.969,60.547
1532371584.371,46.387,26.367,20.020,38.574,13.184
1532371584.375,45.898,26.367,22.949,41.016,-9.766
1532371584.379,46.387,28.320,26.855,38.086,9.766
1532371584.383,49.316,30.762,25.879,36.133,64.453
1532371584.387,50.293,28.809,25.391,40.527,50.781
1532371584.391,53.711,29.785,25.879,39.551,-15.625
1532371584.395,52.246,28.809,23.438,36.133,-6.348
1532371584.399,47.363,26.367,25.391,35.156,58.105
1532371584.403,48.340,26.367,24.902,37.109,65.430
1532371584.406,48.340,26.367,23.438,39.062,10.254
1532371584.410,41.992,24.902,23.438,37.598,15.137
1532371584.414,39.551,26.855,21.484,43.945,74.219
1532371584.418,41.016,27.832,16.602,41.016,64.941
1532371584.422,39.551,24.902,12.695,35.645,-14.160
1532371584.426,43.945,24.902,15.625,44.922,-14.160
1532371584.430,46.387,27.344,17.578,50.293,46.875
1532371584.434,48.828,26.855,17.578,48.828,89.844
1532371584.438,58.105,24.414,20.020,51.758,29.297
1532371584.442,53.223,21.484,17.578,48.340,-21.973
1532371584.445,46.387,21.973,14.648,40.527,28.809
1532371584.449,52.734,24.902,20.020,45.898,67.871
1532371584.453,58.105,24.414,20.996,52.734,62.012
1532371584.457,54.688,23.926,18.555,43.457,-2.930
1532371584.461,40.527,22.949,18.066,31.738,-8.789
1532371584.465,35.645,22.949,22.461,31.250,54.199
1532371584.469,43.457,23.926,27.344,38.086,49.316
1532371584.473,52.734,28.809,22.949,50.781,-5.371
1532371584.477,56.152,32.715,20.020,49.316,-26.367
1532371584.480,51.758,33.691,25.391,47.363,-0.977
1532371584.484,48.340,32.227,27.832,50.293,62.988
1532371584.488,50.293,31.738,27.832,35.645,54.688
1532371584.492,44.434,34.180,29.785,37.109,-11.719
1532371584.496,38.574,34.668,30.273,43.457,13.184
1532371584.500,42.969,34.668,27.344,32.227,88.379
1532371584.504,33.691,33.203,24.414,30.762,67.383
1532371584.508,22.461,31.250,26.855,24.902,7.812
1532371584.512,23.926,33.203,29.785,18.555,8.789
1532371584.516,30.273,34.180,35.156,23.438,57.129
1532371584.519,33.203,34.180,42.480,24.902,37.598
1532371584.523,38.574,36.621,42.480,34.668,-33.691
1532371584.527,50.293,39.551,46.875,46.387,-8.789
1532371584.531,45.898,41.504,47.852,43.945,78.125
1532371584.535,41.992,41.016,50.293,38.574,84.473
1532371584.539,50.293,43.457,49.316,39.062,2.930
1532371584.543,52.246,44.922,44.434,42.480,-12.695
1532371584.547,43.945,41.992,44.922,38.086,19.043
1532371584.551,39.551,38.086,50.293,38.574,62.500
1532371584.554,43.457,36.133,50.293,40.527,49.805
1532371584.558,46.387,39.062,41.992,31.738,-5.859
1532371584.562,47.363,41.504,38.574,32.227,43.945
1532371584.566,54.688,38.574,39.551,44.434,103.027
1532371584.570,53.223,37.109,32.715,41.016,36.133
1532371584.574,51.758,40.039,27.344,35.645,-17.090
1532371584.578,50.781,41.016,28.809,34.668,-9.766
1532371584.582,48.828,39.551,27.344,36.621,31.250
1532371584.586,57.129,37.598,27.832,46.875,73.242
1532371584.590,55.176,32.715,27.344,49.805,8.789
1532371584.593,54.199,29.785,25.391,52.246,20.020
1532371584.597,56.641,31.250,27.344,55.664,55.664
1532371584.601,53.223,31.250,27.344,54.688,71.289
1532371584.605,56.152,30.273,23.926,56.152,28.320
1532371584.609,59.082,30.273,21.973,49.805,-22.461
1532371584.613,58.594,27.832,24.414,49.316,29.297
1532371584.617,54.199,26.367,25.879,48.828,70.801
1532371584.621,50.781,27.832,22.949,42.969,40.039
1532371584.625,51.758,27.832,22.461,43.457,11.230
1532371584.628,49.805,28.320,23.926,46.387,42.480
1532371584.632,49.316,24.902,21.484,44.922,88.379
1532371584.636,52.246,25.391,19.531,45.898,83.496
1532371584.640,50.781,27.344,20.508,46.875,41.016
1532371584.644,51.758,26.855,24.902,47.852,27.344
1532371584.648,54.199,28.320,29.297,52.246,44.922
1532371584.652,48.340,23.438,27.344,48.828,64.453
1532371584.656,48.828,20.020,22.461,41.992,20.508
1532371584.660,48.340,20.996,22.461,35.156,-26.367
1532371584.664,46.875,21.973,20.020,38.574,22.461
1532371584.667,47.363,21.973,18.066,40.039,73.730
1532371584.671,39.551,23.438,21.484,32.715,39.551
1532371584.675,44.922,26.855,24.902,34.668,-9.277
1532371584.679,46.387,25.391,27.832,36.621,4.883
1532371584.683,39.062,25.879,25.391,35.156,59.082
1532371584.687,40.039,29.785,20.996,37.109,30.273
1532371584.691,42.969,27.832,20.996,36.621,-12.695
1532371584.695,41.992,26.855,22.949,33.691,31.738
1532371584.699,37.598,27.832,24.414,33.203,78.125
1532371584.702,35.156,29.297,23.438,31.738,35.645
1532371584.706,35.156,25.879,21.484,33.691,-13.672
1532371584.710,40.527,25.391,22.461,36.621,25.391
1532371584.714,49.316,29.297,23.926,39.062,69.336
1532371584.718,50.293,26.855,22.949,33.691,57.617
1532371584.722,46.875,26.367,23.438,30.273,-2.930
1532371584.726,45.898,26.855,23.438,29.297,-4.883
1532371584.730,51.270,25.879,24.414,30.273,50.781
1532371584.734,55.176,25.879,26.855,31.250,78.613
1532371584.738,58.594,29.785,23.438,28.809,48.828
1532371584.741,63.965,32.227,19.043,34.668,6.836
1532371584.745,61.523,30.273,20.020,40.527,26.367
1532371584.749,57.129,28.809,20.020,43.945,98.633
1532371584.753,51.758,27.344,18.066,44.434,91.797
1532371584.757,51.270,27.832,20.996,44.922,-12.207
1532371584.761,58.105,30.762,23.926,48.828,-46.387
1532371584.765,56.152,31.250,25.879,56.641,42.969
1532371584.769,48.828,26.855,24.902,52.246,84.961
1532371584.773,42.969,27.344,20.996,41.992,25.391
1532371584.776,40.527,28.809,21.484,40.039,8.301
1532371584.780,41.504,28.809,22.949,41.016,55.664
1532371584.784,41.992,27.344,20.020,40.527,69.824
1532371584.788,40.039,26.855,19.531,36.133,40.527
1532371584.792,45.898,27.344,22.949,38.086,11.719
1532371584.796,47.363,24.414,23.438,41.504,26.855
1532371584.800,43.945,25.879,21.484,36.621,48.828
1532371584.804,42.969,26.855,18.555,34.668,41.016
1532371584.808,44.922,26.367,19.531,36.621,8.789
1532371584.812,50.781,28.809,23.438,39.062,20.020
1532371584.815,46.387,28.320,21.484,39.551,41.504
1532371584.819,44.434,28.320,20.508,39.551,21.484
1532371584.823,51.270,28.320,21.973,40.527,-17.090
1532371584.827,52.246,27.344,20.996,40.527,-11.719
1532371584.831,48.340,28.320,19.043,36.621,54.199
1532371584.835,47.363,29.785,18.066,30.273,66.406
1532371584.839,47.363,31.250,17.090,27.832,8.301
1532371584.843,46.387,29.297,18.066,32.227,-3.418
1532371584.847,50.293,31.250,24.414,43.945,19.531
1532371584.850,51.758,32.715,23.926,45.410,59.570
1532371584.854,55.664,34.668,21.484,40.527,17.578
1532371584.858,56.641,35.645,22.949,37.109,-38.574
1532371584.862,48.828,37.109,21.973,40.039,33.203
1532371584.866,54.688,40.039,24.902,45.898,88.867
1532371584.870,58.594,41.504,29.785,46.387,47.363
1532371584.874,55.664,41.504,30.273,46.875,-8.789
1532371584.878,55.176,42.969,31.738,43.945,19.531
1532371584.882,51.758,42.969,30.762,44.434,85.449
1532371584.886,51.270,40.527,29.297,45.410,50.293
1532371584.889,48.828,39.551,30.273,41.016,-8.301
1532371584.893,56.641,41.016,31.250,42.480,-4.883
1532371584.897,62.012,40.039,32.227,42.969,34.180
1532371584.901,55.176,38.086,30.762,41.016,47.852
1532371584.905,53.711,39.062,26.367,40.039,-2.930
1532371584.909,55.664,39.551,24.902,43.457,-18.066
1532371584.913,58.594,38.086,24.902,50.781,44.922
1532371584.917,59.570,40.527,25.391,52.734,70.312
1532371584.921,55.176,40.039,24.414,47.363,16.602
1532371584.924,51.758,36.133,20.508,39.062,-4.883
1532371584.928,57.129,36.133,17.090,38.086,19.531
1532371584.932,46.875,34.180,16.113,36.133,64.453
1532371584.936,44.922,37.109,19.531,37.598,21.973
1532371584.940,55.176,41.016,21.484,41.504,-54.199
1532371584.944,54.199,40.039,22.461,45.898,-5.859
1532371584.948,53.711,37.598,25.879,51.270,47.363
1532371584.952,46.875,35.156,25.391,47.852,53.223
1532371584.956,44.922,35.156,25.879,46.387,-12.695
1532371584.960,47.363,38.086,25.879,43.457,-18.066
1532371584.963,42.969,39.062,24.414,34.668,58.594
1532371584.967,36.133,38.086,24.414,35.645,78.613
1532371584.971,36.621,37.109,22.949,34.668,3.906
1532371584.975,44.434,39.062,24.902,34.180,-29.785
1532371584.979,49.316,39.062,26.855,36.621,27.344
1532371584.983,46.875,34.668,28.320,41.016,60.059
1532371584.987,40.527,31.250,28.809,39.062,20.508
1532371584.991,44.434,31.250,25.391,37.109,-30.762
1532371584.995,44.922,33.203,20.996,39.062,0.488
1532371584.998,43.457,33.691,23.438,34.180,30.762
1532371585.002,47.363,31.738,28.809,39.062,16.602
1532371585.006,44.434,30.273,25.879,42.969,-18.555
1532371585.010,41.992,32.227,25.879,43.945,2.441
1532371585.014,43.457,32.715,30.273,50.781,51.758
1532371585.018,44.922,30.762,30.273,49.805,50.293
1532371585.022,46.875,29.785,29.297,48.828,13.672
1532371585.026,48.828,31.250,30.273,49.805,-3.418
1532371585.030,48.340,31.250,28.809,46.387,46.875
1532371585.034,37.109,30.273,23.926,36.621,66.406
1532371585.037,33.203,27.832,22.461,26.855,-8.301
1532371585.041,39.062,29.297,24.414,29.785,-42.480
1532371585.045,40.527,32.715,25.391,36.621,31.738
1532371585.049,41.016,32.715,27.344,39.062,84.473
1532371585.053,41.504,33.203,29.297,39.551,16.602
1532371585.057,42.969,32.227,28.320,39.062,-46.387
1532371585.061,41.504,32.227,28.809,34.180,-2.930
1532371585.065,35.645,32.227,29.297,33.203,81.055
1532371585.069,29.297,30.273,26.367,34.180,94.238
1532371585.073,34.180,29.297,29.297,37.109,-3.418
1532371585.076,38.574,29.785,31.250,40.527,-51.270
1532371585.080,45.898,33.203,27.832,38.574,28.320
1532371585.084,47.852,33.203,26.855,37.109,84.473
1532371585.088,43.945,33.203,26.367,36.133,17.578
1532371585.092,50.293,33.691,23.926,40.527,-32.227
1532371585.096,50.781,33.691,22.461,39.551,10.742
1532371585.100,40.039,35.645,21.484,36.621,62.500
1532371585.104,36.621,31.738,20.996,36.621,34.180
1532371585.108,40.527,29.785,23.438,35.156,17.578
1532371585.111,41.992,28.809,25.391,35.156,51.758
1532371585.115,46.875,28.320,26.367,37.598,66.895
1532371585.119,51.758,31.250,25.391,44.922,36.621
1532371585.123,44.434,29.785,22.461,44.922,3.906
1532371585.127,42.969,29.297,21.973,41.992,22.461
1532371585.131,47.852,30.273,23.926,50.293,61.523
1532371585.135,46.387,30.273,25.391,44.922,40.527
1532371585.139,40.527,31.738,20.508,29.785,-27.344
1532371585.143,48.828,30.273,21.484,39.062,-6.348
1532371585.147,59.570,30.273,29.785,52.246,86.426
1532371585.150,52.734,31.738,30.762,49.805,108.398
1532371585.154,52.246,31.738,27.344,44.434,13.184
1532371585.158,53.223,32.227,26.855,44.434,-14.648
1532371585.162,54.199,33.691,32.715,49.316,40.039
1532371585.166,54.688,36.621,38.574,52.246,83.496
1532371585.170,46.875,37.109,36.621,44.434,23.438
1532371585.174,43.945,36.133,37.109,37.109,-32.715
1532371585.178,45.410,37.598,39.551,31.250,-0.977
1532371585.182,39.062,39.551,37.109,26.855,47.363
1532371585.185,39.551,41.016,38.086,30.273,60.059
1532371585.189,40.039,41.992,41.992,29.785,2.441
1532371585.193,30.762,43.945,42.480,26.855,38.086
1532371585.197,26.855,43.457,42.969,20.020,109.863
1532371585.201,28.809,41.016,42.480,20.020,77.148
1532371585.205,28.809,41.504,42.969,25.391,9.277
1532371585.209,30.273,41.016,46.387,22.949,17.090
1532371585.213,30.762,39.062,44.922,22.949,73.730
1532371585.217,37.598,40.039,42.480,25.391,79.590
1532371585.221,40.527,39.551,41.504,26.367,23.926
1532371585.224,38.086,36.133,41.504,30.273,29.297
1532371585.228,37.598,34.668,41.016,25.879,78.125
1532371585.232,32.715,35.645,38.086,22.461,68.848
1532371585.236,30.762,33.203,37.598,27.832,-10.742
1532371585.240,34.180,32.715,34.668,31.250,-32.715
1532371585.244,44.434,34.180,35.645,36.621,25.879
1532371585.248,43.945,34.180,33.203,36.133,71.777
1532371585.252,39.062,34.668,28.320,26.367,22.461
1532371585.256,44.922,35.645,30.762,23.926,-46.387
1532371585.259,47.363,30.762,29.785,29.297,5.859
1532371585.263,56.641,32.227,30.273,33.691,60.059
1532371585.267,60.059,35.645,29.785,30.273,58.105
1532371585.271,51.270,33.691,28.320,26.855,23.438
1532371585.275,47.363,33.691,29.297,23.926,-10.254
1532371585.279,46.387,31.738,30.273,19.531,23.926
1532371585.283,44.434,29.785,29.297,20.996,101.074
1532371585.287,47.852,30.762,31.250,24.414,41.016
1532371585.291,55.664,30.762,32.715,29.297,-12.207
1532371585.295,54.688,32.227,29.785,29.297,27.344
1532371585.298,52.246,32.715,25.879,31.738,58.594
1532371585.302,54.688,29.297,22.461,32.715,29.785
1532371585.306,55.176,28.320,26.367,34.180,-48.340
1532371585.310,58.105,32.715,29.297,40.527,10.742
1532371585.314,56.152,31.738,27.344,33.203,57.129
1532371585.318,52.246,28.809,25.879,28.320,38.574
1532371585.322,48.340,30.762,23.438,27.344,30.273
1532371585.326,47.852,31.738,22.949,26.367,28.809
1532371585.330,56.641,29.785,23.438,36.133,69.336
1532371585.333,51.758,27.832,22.461,36.621,57.129
1532371585.337,47.852,27.832,18.555,29.297,5.859
1532371585.341,53.711,27.832,15.137,32.227,13.672
1532371585.345,52.246,26.855,15.625,35.645,55.176
1532371585.349,51.270,27.832,18.066,33.691,61.523
1532371585.353,53.711,30.762,20.020,32.715,18.555
1532371585.357,55.664,33.203,24.414,34.180,-31.738
1532371585.361,56.152,29.785,28.320,33.691,8.301
1532371585.365,56.152,27.832,25.879,34.668,83.496
1532371585.369,51.270,28.809,19.531,36.133,41.992
1532371585.372,50.781,27.344,25.391,36.621,-12.207
1532371585.376,50.781,27.832,33.203,32.227,6.836
1532371585.380,51.758,28.809,28.320,33.691,47.852
1532371585.384,55.664,28.320,24.414,33.691,42.969
1532371585.388,62.988,32.227,26.367,28.320,13.184
1532371585.392,68.848,34.180,30.762,31.250,37.109
1532371585.396,75.195,32.227,31.250,40.039,78.125
1532371585.400,66.895,32.227,27.344,42.969,72.266
1532371585.404,57.129,32.227,29.297,45.410,15.625
1532371585.407,56.641,28.809,32.715,46.875,17.578
1532371585.411,45.410,30.273,34.180,46.875,49.805
1532371585.415,34.668,32.715,35.156,40.039,35.645
1532371585.419,29.785,29.785,33.691,31.250,-8.789
1532371585.423,27.832,28.809,32.227,34.180,-6.348
1532371585.427,29.297,32.227,29.785,34.180,27.344
1532371585.431,32.715,32.227,30.762,36.133,49.316
1532371585.435,33.203,24.414,30.762,31.738,34.668
1532371585.439,28.809,22.949,25.391,27.344,-2.441
1532371585.443,28.320,25.391,22.949,27.344,25.879
1532371585.446,33.203,26.855,23.926,29.785,65.430
1532371585.450,36.621,26.855,27.344,37.109,47.852
1532371585.454,39.062,29.297,27.832,35.645,-26.855
1532371585.458,41.992,33.691,23.926,31.250,-29.785
1532371585.462,49.316,33.203,27.344,45.898,63.477
1532371585.466,54.688,33.203,28.809,50.293,54.688
1532371585.470,53.223,35.645,18.066,40.527,-15.625
1532371585.474,51.758,37.109,16.113,41.992,-40.527
1532371585.478,53.223,38.086,18.066,46.875,36.133
1532371585.481,57.617,40.039,16.113,47.363,95.703
1532371585.485,55.176,36.133,16.113,45.898,18.555
1532371585.489,54.688,33.691,17.090,42.969,-32.715
1532371585.493,55.176,35.156,17.578,41.992,-3.418
1532371585.497,56.152,35.645,16.602,44.434,55.176
1532371585.501,51.270,34.180,17.090,46.875,38.574
1532371585.505,46.387,32.715,17.578,47.363,-17.090
1532371585.509,46.875,32.227,17.578,47.363,25.879
1532371585.513,55.176,34.668,21.973,50.781,41.016
1532371585.517,62.500,34.668,24.902,56.152,24.902
1532371585.520,58.594,31.250,25.391,52.246,13.184
1532371585.524,58.105,31.250,26.367,50.293,7.812
1532371585.528,58.105,33.691,24.414,49.316,47.852
1532371585.532,61.035,34.180,21.484,49.805,65.430
1532371585.536,61.035,36.621,18.066,48.828,2.930
1532371585.540,59.570,36.133,14.648,44.922,-12.695
1532371585.544,62.500,30.762,17.090,51.270,22.461
1532371585.548,65.430,31.250,20.996,55.664,66.895
1532371585.552,64.941,30.273,23.438,52.246,47.852
1532371585.555,60.547,30.273,20.508,46.387,-28.320
1532371585.559,64.941,31.738,20.020,53.711,14.648
1532371585.563,72.754,31.738,21.973,58.594,82.520
1532371585.567,64.941,33.203,20.020,49.316,59.570
1532371585.571,55.664,29.785,23.438,46.387,4.883
1532371585.575,58.594,29.785,27.832,49.805,0.977
1532371585.579,53.223,30.762,26.855,51.270,49.316
1532371585.583,45.410,27.344,23.926,46.387,56.152
1532371585.587,41.992,24.414,20.508,36.133,-29.297
1532371585.591,44.922,22.461,20.996,38.574,-35.156
1532371585.594,41.992,23.438,26.367,40.527,5.859
1532371585.598,41.504,25.879,30.273,37.598,10.742
1532371585.602,52.246,26.855,32.715,44.922,-2.930
1532371585.606,49.805,27.832,31.738,44.922,-43.457
1532371585.610,41.016,25.879,29.297,40.527,-10.254
1532371585.614,43.457,22.461,29.297,39.551,76.660
1532371585.618,44.922,26.367,31.738,42.969,59.570
1532371585.622,50.293,31.738,32.227,44.434,-6.348
1532371585.626,47.363,26.367,29.297,40.039,-4.395
1532371585.629,49.805,23.438,26.855,37.598,61.523
1532371585.633,52.246,24.902,25.391,36.133,43.457
1532371585.637,40.039,24.414,25.391,30.273,-49.316
1532371585.641,37.598,26.367,23.926,26.855,-19.043
1532371585.645,41.992,28.320,24.902,31.738,44.922
1532371585.649,41.504,25.879,26.367,38.086,58.105
1532371585.653,48.828,26.367,27.344,38.086,-16.113
1532371585.657,54.199,26.855,28.320,37.598,-55.664
1532371585.661,49.316,31.250,28.809,37.598,11.230
1532371585.665,44.434,29.785,27.832,37.109,77.637
1532371585.668,41.504,24.902,23.926,38.574,48.340
1532371585.672,41.504,25.879,22.949,39.551,10.742
1532371585.676,43.457,25.879,25.879,43.457,48.340
1532371585.680,48.828,24.902,28.809,44.434,56.152
1532371585.684,48.828,27.344,28.809,44.922,23.438
1532371585.688,43.457,30.273,26.855,45.410,-0.977
1532371585.692,41.992,28.809,27.344,42.969,10.742
1532371585.696,43.457,29.297,31.250,41.992,58.594
1532371585.700,42.480,29.297,31.250,40.039,57.129
1532371585.703,41.504,26.367,26.855,34.180,-19.531
1532371585.707,41.016,28.320,25.391,31.250,5.859
1532371585.711,39.551,29.785,25.879,31.250,84.473
1532371585.715,34.668,28.320,25.391,29.785,65.918
1532371585.719,40.039,27.832,25.391,35.645,13.184
1532371585.723,44.922,27.344,28.320,39.062,8.789
1532371585.727,44.434,30.762,29.785,40.039,44.922
1532371585.731,43.457,30.273,26.855,39.551,67.871
1532371585.735,41.992,24.902,25.879,32.227,45.898
1532371585.739,43.945,29.785,23.926,33.203,25.391
1532371585.742,42.480,31.250,22.949,37.109,52.246
1532371585.746,41.504,30.762,24.902,38.086,77.148
1532371585.750,41.504,29.297,25.391,39.551,49.805
1532371585.754,43.945,25.391,29.297,41.992,-17.090
1532371585.758,44.434,26.367,31.250,41.992,5.371
1532371585.762,34.668,27.832,27.832,41.016,71.289
1532371585.766,32.715,26.855,29.297,36.621,56.152
1532371585.770,38.574,27.344,30.762,41.016,-20.996
1532371585.774,45.410,32.715,34.180,49.805,-42.480
1532371585.777,47.852,34.180,34.668,47.363,18.555
1532371585.781,44.922,31.738,28.320,41.504,83.984
1532371585.785,44.434,29.297,30.273,44.922,57.617
1532371585.789,48.828,30.273,33.691,47.852,12.207
1532371585.793,53.223,34.668,33.203,44.434,38.086
1532371585.797,52.734,35.156,33.691,46.875,91.309
1532371585.801,49.316,34.668,33.691,42.969,60.547
1532371585.805,47.363,33.203,32.715,38.574,4.883
1532371585.809,50.781,34.180,33.691,42.969,47.363
1532371585.813,54.688,36.133,34.668,45.410,95.215
1532371585.816,54.688,34.668,32.227,47.852,51.270
1532371585.820,48.340,37.109,28.320,45.898,-31.738
1532371585.824,44.922,38.574,25.391,41.504,-24.902
1532371585.828,49.316,32.227,25.391,47.363,23.926
1532371585.832,50.293,28.320,25.391,49.316,37.598
1532371585.836,43.945,29.785,23.926,39.551,-28.320
1532371585.840,41.992,28.809,22.461,39.062,-11.719
1532371585.844,55.176,31.738,24.902,50.293,66.406
1532371585.848,48.828,36.133,21.973,43.945,72.754
1532371585.851,46.387,34.668,20.996,43.457,24.414
1532371585.855,60.059,31.250,24.902,53.223,-4.395
1532371585.859,56.641,29.297,22.949,49.805,37.598
1532371585.863,55.176,29.785,20.020,48.828,80.078
1532371585.867,57.129,32.227,19.531,49.805,27.832
1532371585.871,50.293,34.668,18.066,41.016,-48.340
1532371585.875,40.039,32.227,17.578,27.344,-21.484
1532371585.879,42.969,31.738,19.043,36.133,35.645
1532371585.883,54.199,34.668,21.484,52.246,46.387
1532371585.887,55.176,34.668,23.438,55.664,-6.348
1532371585.890,49.316,31.738,19.531,53.223,8.789
1532371585.894,47.363,32.715,16.113,44.434,73.242
1532371585.898,53.223,32.715,17.578,47.363,66.406
1532371585.902,58.594,31.250,20.508,53.711,4.883
1532371585.906,55.664,31.738,19.531,50.293,-5.859
1532371585.910,50.781,31.738,18.555,44.434,51.270
1532371585.914,45.410,33.203,19.531,39.062,89.844
1532371585.918,42.969,31.250,21.973,35.156,67.383
1532371585.922,44.922,32.715,23.438,41.016,-8.789
1532371585.926,52.246,35.156,24.414,47.852,13.672
1532371585.929,54.688,34.180,27.832,48.828,76.172
1532371585.933,52.246,33.691,23.926,45.410,35.645
1532371585.937,50.781,33.203,18.555,35.645,-49.316
1532371585.941,48.828,31.250,19.531,33.691,-9.766
1532371585.945,47.363,34.668,20.020,36.133,69.336
1532371585.949,51.758,38.086,21.484,39.551,57.617
1532371585.953,58.594,33.691,24.902,43.945,-15.137
1532371585.957,54.199,32.715,22.461,41.992,-20.020
1532371585.961,50.293,33.691,21.484,43.945,30.762
1532371585.964,48.828,31.738,25.879,44.434,45.410
1532371585.968,53.711,31.738,28.320,44.434,11.230
1532371585.972,49.316,29.297,26.367,37.109,-38.574
1532371585.976,38.574,30.273,23.926,30.762,-3.418
1532371585.980,45.898,32.715,26.855,37.598,59.570
1532371585.984,53.223,29.297,30.762,40.527,-1.465
1532371585.988,57.129,33.203,34.668,47.852,-22.949
1532371585.992,55.664,32.715,34.668,46.875,28.809
1532371585.996,55.664,32.715,35.645,44.922,29.297
1532371586.000,58.594,37.109,31.250,47.852,28.809
1532371586.003,52.734,35.645,26.855,42.480,-15.137
1532371586.007,49.316,33.691,28.320,40.039,-32.227
1532371586.011,49.805,33.203,32.715,37.598,38.086
1532371586.015,48.828,35.645,35.645,26.855,31.250
1532371586.019,49.805,36.133,34.668,26.855,-33.203
1532371586.023,47.363,33.203,32.227,30.762,-13.184
1532371586.027,47.852,33.203,32.227,29.297,64.941
1532371586.031,50.293,36.621,32.715,28.809,80.078
1532371586.035,50.293,38.574,30.762,22.949,14.160
1532371586.038,56.641,34.180,28.809,20.020,-24.902
1532371586.042,65.918,31.738,29.785,27.832,37.598
1532371586.046,69.824,36.133,31.250,37.598,84.473
1532371586.050,67.383,34.180,32.227,41.016,20.996
1532371586.054,62.012,32.227,30.762,42.969,-35.645
1532371586.058,57.129,34.180,28.809,49.316,-9.766
1532371586.062,56.152,29.297,30.273,53.223,60.059
1532371586.066,54.199,27.832,28.320,54.199,80.566
1532371586.070,50.293,28.809,27.344,53.711,17.090
1532371586.074,47.363,29.785,28.809,47.852,-5.859
1532371586.077,44.434,29.297,29.785,44.922,35.156
1532371586.081,44.922,25.391,26.367,43.457,53.223
1532371586.085,43.457,24.902,21.973,39.062,6.348
1532371586.089,42.969,26.855,22.461,39.551,12.207
1532371586.093,45.898,29.297,26.367,43.457,36.621
1532371586.097,46.387,29.297,28.809,39.062,46.387
1532371586.101,49.805,28.809,27.344,40.527,39.551
1532371586.105,57.617,31.250,27.344,48.340,-15.625
1532371586.109,57.617,32.715,25.391,46.875,9.277
1532371586.112,58.594,32.715,20.996,42.480,56.641
1532371586.116,60.547,32.715,24.414,41.992,27.344
1532371586.120,60.059,33.203,30.762,46.875,-4.883
1532371586.124,64.453,34.180,32.715,47.363,19.531
1532371586.128,68.359,36.133,32.227,50.293,69.824
1532371586.132,62.500,37.109,32.227,48.340,54.688
1532371586.136,59.570,34.668,31.250,42.480,-22.461
1532371586.140,62.500,33.691,29.785,44.922,-11.230
1532371586.144,61.523,36.621,33.691,54.199,40.527
1532371586.148,62.500,35.645,35.645,57.617,44.434
1532371586.151,65.430,32.227,30.273,52.734,8.789
1532371586.155,64.453,31.250,29.297,50.781,-45.410
1532371586.159,59.570,31.738,29.297,52.734,0.000
1532371586.163,53.711,29.297,28.809,44.434,41.992
1532371586.167,54.688,24.414,29.785,44.922,25.391
1532371586.171,62.988,25.391,32.715,45.898,-20.996
1532371586.175,64.941,29.297,37.598,41.504,-31.250
1532371586.179,58.594,28.809,31.738,45.898,77.637
1532371586.183,50.781,27.832,25.879,45.410,77.148
1532371586.186,51.758,28.809,26.367,41.992,-21.484
1532371586.190,54.199,28.320,27.832,42.480,-22.461
1532371586.194,55.664,29.785,35.156,48.828,41.016
1532371586.198,54.688,28.320,37.598,46.875,52.246
1532371586.202,52.246,26.367,34.180,41.016,-2.930
1532371586.206,51.270,24.414,35.156,46.875,5.371
1532371586.210,51.758,25.391,34.180,46.387,73.730
1532371586.214,54.199,27.832,33.203,37.109,66.406
1532371586.218,51.758,26.367,32.227,36.133,6.348
1532371586.222,52.246,27.832,34.668,42.969,-29.297
1532371586.225,52.734,30.762,34.668,42.969,10.742
1532371586.229,48.828,28.809,34.668,41.504,97.168
1532371586.233,47.363,27.832,36.133,34.180,44.434
1532371586.237,45.410,28.809,37.109,32.227,-25.391
1532371586.241,42.480,29.297,35.156,33.691,-0.488
1532371586.245,46.387,31.738,32.715,32.227,56.641
1532371586.249,47.852,30.273,37.109,36.621,60.059
1532371586.253,49.316,27.344,35.645,36.621,-47.363
1532371586.257,53.223,28.320,28.320,32.715,-70.312
1532371586.260,50.293,31.738,27.344,36.133,13.672
1532371586.264,47.852,30.273,28.320,38.086,42.969
1532371586.268,50.293,28.809,28.320,38.086,33.691
1532371586.272,49.805,26.855,25.879,40.527,25.391
1532371586.276,52.246,25.879,27.344,46.387,43.945
1532371586.280,52.734,28.809,33.691,47.852,88.867
1532371586.284,50.781,27.832,32.715,47.363,47.852
1532371586.288,57.129,24.902,28.320,50.293,-9.766
1532371586.292,53.223,24.902,27.832,44.922,6.836
1532371586.296,48.828,25.391,27.344,41.016,54.688
1532371586.299,46.875,22.461,24.414,39.551,53.223
1532371586.303,42.480,25.391,23.438,33.691,12.207
1532371586.307,47.363,29.297,28.320,42.480,26.855
1532371586.311,49.316,28.809,29.297,47.852,40.039
1532371586.315,43.945,27.832,23.438,41.992,45.410
1532371586.319,42.480,26.855,26.367,40.039,15.625
1532371586.323,40.527,31.250,28.809,36.133,17.090
1532371586.327,39.062,34.180,28.809,33.691,59.570
1532371586.331,38.574,33.203,30.273,31.738,60.547
1532371586.334,32.715,35.645,28.320,28.809,20.508
1532371586.338,34.180,37.109,29.297,27.344,-5.371
1532371586.342,36.133,36.133,32.227,26.367,57.617
1532371586.346,38.574,37.598,30.762,25.391,104.492
1532371586.350,35.156,37.598,33.691,22.949,33.691
1532371586.354,35.156,38.086,38.086,20.996,-35.156
1532371586.358,35.645,39.551,39.551,20.508,12.207
1532371586.362,26.855,42.480,36.133,17.578,82.520
1532371586.366,21.973,41.504,34.180,16.602,64.453
1532371586.370,20.020,35.645,36.133,18.066,-13.184
1532371586.373,13.184,35.156,33.691,13.672,-5.371
1532371586.377,9.766,38.574,33.691,11.230,77.148
1532371586.381,19.043,35.156,38.574,18.066,61.035
1532371586.385,23.926,31.250,38.574,21.484,-16.113
1532371586.389,29.785,33.691,37.598,21.484,-6.348
1532371586.393,35.645,34.668,40.039,22.949,50.781
1532371586.397,41.992,33.691,42.969,24.414,83.008
1532371586.401,46.875,33.203,37.109,25.879,45.898
1532371586.405,46.875,37.598,29.297,26.855,9.766
1532371586.408,46.387,41.992,34.180,26.855,40.527
1532371586.412,45.410,45.898,38.574,28.809,67.871
1532371586.416,52.246,46.387,39.551,33.691,29.297
1532371586.420,52.734,41.016,43.945,34.180,-7.324
1532371586.424,51.270,37.598,46.387,38.086,14.648
1532371586.428,57.129,40.039,47.852,45.898,72.754
1532371586.432,62.012,42.969,50.293,43.945,59.082
1532371586.436,65.918,42.969,46.875,44.922,-39.551
1532371586.440,66.406,39.551,46.387,52.734,-1.953
1532371586.444,62.012,37.109,47.852,52.246,99.121
1532371586.447,61.523,35.645,46.387,49.805,85.938
1532371586.451,70.801,38.086,46.387,52.734,-0.488
1532371586.455,76.660,37.598,47.852,61.035,-4.395
1532371586.459,70.801,36.133,45.898,61.523,66.895
1532371586.463,63.477,34.668,45.410,52.734,87.402
1532371586.467,53.711,30.762,45.410,51.270,11.230
1532371586.471,48.340,28.320,41.504,48.828,-28.809
1532371586.475,54.688,29.785,42.969,49.805,28.320
1532371586.479,55.664,30.273,41.992,53.223,55.664
1532371586.482,54.199,29.785,39.551,51.270,-10.742
1532371586.486,53.711,32.715,40.527,49.805,-30.762
1532371586.490,52.734,30.273,36.133,44.922,10.254
1532371586.494,50.293,26.855,35.156,37.598,19.043
1532371586.498,50.781,27.344,38.086,39.551,34.180
1532371586.502,57.129,28.809,36.621,43.457,-4.395
1532371586.506,57.617,26.367,33.691,41.992,-12.695
1532371586.510,59.082,25.391,36.133,44.922,46.875
1532371586.514,63.965,29.297,40.039,49.805,42.480
1532371586.518,59.082,28.320,38.574,47.852,-32.227
1532371586.521,50.781,24.902,36.133,44.922,-25.391
1532371586.525,51.758,23.438,39.062,47.363,39.062
1532371586.529,56.152,23.438,40.039,49.805,32.715
1532371586.533,55.176,23.438,38.086,48.828,-39.062
1532371586.537,49.316,22.949,36.621,48.828,-28.809
1532371586.541,49.805,25.879,38.086,49.316,42.969
1532371586.545,55.664,27.832,36.621,49.805,65.430
1532371586.549,60.547,26.855,36.621,51.758,34.180
1532371586.553,62.500,29.785,37.598,48.340,-21.484
1532371586.556,60.547,33.203,35.645,41.504,19.043
1532371586.560,60.547,33.691,35.156,41.016,73.242
1532371586.564,59.570,34.180,34.668,36.133,48.340
1532371586.568,58.594,32.227,36.133,37.109,-20.020
1532371586.572,54.688,28.809,36.133,40.039,-25.391
1532371586.576,49.316,27.832,34.668,36.133,32.715
1532371586.580,50.293,27.344,36.133,37.109,58.594
1532371586.584,46.875,24.414,35.156,32.227,-9.766
1532371586.588,44.434,22.461,35.156,33.203,-32.227
1532371586.592,50.293,29.297,36.621,39.062,31.738
1532371586.595,52.734,30.273,38.574,40.039,80.078
1532371586.599,51.270,26.855,37.109,43.457,27.832
1532371586.603,50.781,26.367,35.645,46.387,-26.367
1532371586.607,49.805,26.367,35.156,46.875,30.273
1532371586.611,51.758,29.785,34.668,46.875,77.148
1532371586.615,54.688,28.320,29.785,43.457,42.480
1532371586.619,54.199,27.832,27.832,39.551,-14.648
1532371586.623,56.641,27.832,29.785,41.504,2.441
1532371586.627,58.105,26.855,30.762,47.363,57.129
1532371586.630,58.594,28.320,34.668,42.969,54.199
1532371586.634,59.570,30.762,31.738,37.109,-4.395
1532371586.638,63.477,29.297,27.344,42.969,20.996
1532371586.642,58.594,26.855,24.414,42.480,53.711
1532371586.646,49.805,28.809,23.438,40.527,54.688
1532371586.650,46.387,27.344,24.902,38.086,-1.465
1532371586.654,42.480,24.414,20.996,34.668,-31.250
1532371586.658,51.270,26.855,20.996,44.434,26.367
1532371586.662,56.152,28.809,23.926,46.875,42.969
1532371586.666,54.688,26.855,21.484,40.039,14.160
1532371586.669,50.293,27.832,19.531,37.109,-12.695
1532371586.673,47.363,29.297,18.555,33.203,10.254
1532371586.677,52.734,27.344,18.555,32.715,56.152
1532371586.681,55.664,27.344,18.555,33.203,32.715
1532371586.685,61.523,27.832,17.578,35.156,-5.859
1532371586.689,69.824,28.320,17.578,31.738,25.391
1532371586.693,69.336,30.762,15.137,24.414,55.176
1532371586.697,67.871,31.250,16.602,33.691,41.016
1532371586.701,66.895,32.715,21.973,45.898,-6.348
1532371586.705,65.918,34.668,28.320,52.734,-7.324
1532371586.708,61.523,33.203,31.250,56.152,25.879
1532371586.712,57.617,32.227,29.785,55.664,13.184
1532371586.716,59.570,33.691,30.762,51.270,-8.789
1532371586.720,53.223,32.715,29.297,48.828,21.973
1532371586.724,44.922,29.785,28.809,47.363,55.176
1532371586.728,44.434,30.273,30.762,41.992,52.734
1532371586.732,44.922,32.227,32.227,39.551,-2.930
1532371586.736,46.875,32.227,30.273,36.621,-7.324
1532371586.740,48.340,31.250,31.738,34.180,41.992
1532371586.743,49.805,29.297,37.598,33.691,62.988
1532371586.747,47.363,30.273,38.086,29.297,23.926
1532371586.751,45.898,33.203,39.062,28.320,-19.043
1532371586.755,43.945,30.273,36.133,23.438,-0.488
1532371586.759,40.039,27.344,35.645,22.461,44.922
1532371586.763,37.598,25.879,38.574,26.367,50.781
1532371586.767,37.598,26.367,39.062,28.809,1.465
1532371586.771,38.086,26.367,40.039,22.461,1.465
1532371586.775,41.504,29.297,39.062,22.949,28.320
1532371586.779,47.363,31.250,38.574,35.645,45.410
1532371586.782,47.363,27.344,40.039,35.645,5.371
1532371586.786,49.316,27.344,38.086,32.227,-1.465
1532371586.790,46.875,23.926,38.574,35.156,53.711
1532371586.794,45.410,25.879,39.062,39.062,80.566
1532371586.798,49.805,27.832,40.527,40.527,24.902
1532371586.802,50.781,25.391,42.969,40.039,-26.367
1532371586.806,50.293,25.391,41.504,39.551,30.762
1532371586.810,48.828,24.414,40.039,37.109,71.289
1532371586.814,45.898,25.879,37.109,30.273,26.855
1532371586.817,40.039,26.855,31.738,25.391,12.207
1532371586.821,36.133,29.297,31.738,22.949,31.738
1532371586.825,44.434,29.785,37.109,28.320,46.875
1532371586.829,51.758,27.832,37.109,33.691,39.551
1532371586.833,49.316,28.320,37.598,37.109,-8.301
1532371586.837,51.758,29.785,37.598,38.574,7.812
1532371586.841,51.270,30.273,37.109,38.086,59.570
1532371586.845,49.805,29.785,35.156,36.621,64.453
1532371586.849,49.316,29.297,34.180,34.180,26.855
1532371586.853,48.828,26.367,33.203,32.227,-26.855
1532371586.856,52.734,27.832,31.738,34.180,11.230
1532371586.860,51.758,29.785,34.180,38.086,82.520
1532371586.864,49.316,26.367,35.645,40.527,35.645
1532371586.868,50.293,25.391,35.156,41.992,-15.625
1532371586.872,48.828,25.391,33.691,40.527,4.395
1532371586.876,48.340,23.438,33.203,42.969,72.754
1532371586.880,48.828,21.484,33.691,44.922,46.875
1532371586.884,45.898,21.973,29.785,39.062,-6.836
1532371586.888,53.711,22.949,31.738,47.852,29.297
1532371586.891,58.594,25.391,39.551,51.270,53.223
1532371586.895,57.617,25.879,38.086,42.480,63.965
1532371586.899,54.199,23.438,35.645,38.574,23.438
1532371586.903,45.898,21.484,34.180,34.180,-2.930
1532371586.907,43.457,21.973,29.785,36.133,42.480
1532371586.911,41.504,20.508,33.691,30.762,48.828
1532371586.915,44.922,23.438,37.598,28.320,-3.906
1532371586.919,58.105,29.785,39.062,44.434,-14.648
1532371586.923,57.617,23.438,37.598,51.270,16.113
1532371586.927,53.223,21.973,37.598,43.457,74.219
1532371586.930,48.340,28.320,40.527,37.109,63.965
1532371586.934,46.875,28.809,39.551,35.156,-2.441
1532371586.938,45.410,25.391,37.109,40.039,-0.488
1532371586.942,45.898,26.855,38.574,41.992,48.828
1532371586.946,47.852,29.785,36.621,39.551,53.711
1532371586.950,47.852,25.391,33.203,34.180,-19.531
1532371586.954,47.852,23.926,32.227,26.855,-44.434
1532371586.958,40.039,23.926,27.344,26.367,23.438
1532371586.962,31.250,24.902,28.320,28.320,82.520
1532371586.965,38.086,24.902,32.715,30.762,37.598
1532371586.969,41.016,22.949,33.203,31.250,-5.859
1532371586.973,39.551,26.855,36.133,35.156,30.273
1532371586.977,44.434,29.297,39.551,37.598,102.051
1532371586.981,47.852,25.879,35.645,39.062,53.711
1532371586.985,48.340,21.484,29.785,42.480,-16.602
1532371586.989,43.945,20.508,30.273,40.039,22.949
1532371586.993,49.805,26.367,33.203,41.504,64.453
1532371586.997,55.176,27.344,33.691,44.434,61.035
1532371587.001,50.293,24.902,35.645,39.551,-11.230
1532371587.004,51.270,24.902,37.598,39.551,5.371
1532371587.008,49.805,26.855,43.457,41.504,85.938
1532371587.012,44.434,26.367,47.363,37.109,92.285
1532371587.016,41.992,25.879,43.945,36.133,35.645
1532371587.020,47.363,24.902,42.969,40.527,22.461
1532371587.024,48.828,23.438,43.457,37.598,63.965
1532371587.028,42.480,26.367,41.016,34.668,61.523
1532371587.032,41.992,26.855,41.992,38.574,21.973
1532371587.036,50.293,24.414,43.945,42.969,1.465
1532371587.039,57.129,24.902,41.992,44.922,37.598
1532371587.043,54.688,24.902,41.016,43.945,62.012
1532371587.047,55.664,24.902,41.504,39.551,28.809
1532371587.051,52.246,25.391,39.551,28.809,-35.645
1532371587.055,48.340,26.367,38.086,24.902,-7.324
1532371587.059,46.875,30.762,40.527,25.879,92.773
1532371587.063,36.133,31.738,38.574,22.949,84.961
1532371587.067,34.668,30.273,39.062,22.949,-4.395
1532371587.071,40.039,32.227,43.457,22.461,-2.930
1532371587.075,35.156,30.762,42.480,26.367,62.500
1532371587.078,35.156,27.832,44.922,31.250,52.734
1532371587.082,34.180,27.344,43.945,25.391,-29.785
1532371587.086,32.227,27.344,40.039,24.414,-34.668
1532371587.090,35.156,27.344,41.992,25.391,6.348
1532371587.094,36.621,32.227,43.945,21.484,45.898
1532371587.098,35.645,32.227,42.969,24.414,28.809
1532371587.102,29.785,26.367,43.945,25.391,-4.395
1532371587.106,27.344,25.391,49.805,25.391,17.090
1532371587.110,35.156,29.297,51.270,31.250,50.781
1532371587.113,27.344,42.969,41.504,13.672,48.828
1532371587.117,16.113,44.922,38.574,-6.348,-24.414
1532371587.121,16.113,38.086,43.945,1.465,-19.531
1532371587.125,17.578,43.945,43.945,0.977,54.199
1532371587.129,16.113,50.781,42.969,-8.301,17.578
1532371587.133,7.324,54.199,44.922,-11.230,-63.965
1532371587.137,3.418,52.246,45.898,-8.789,-27.344
1532371587.141,2.930,52.734,43.457,-11.230,46.387
1532371587.145,4.883,59.570,41.504,-15.137,73.730
1532371587.149,10.254,62.500,37.598,-15.625,10.254
1532371587.152,13.184,58.105,38.574,-10.742,-18.555
1532371587.156,10.254,54.688,40.527,-5.371,19.531
1532371587.160,15.137,57.617,37.109,-2.930,57.129
1532371587.164,13.672,58.105,40.039,-4.395,26.855
1532371587.168,9.766,46.387,45.410,1.953,-28.320
1532371587.172,19.531,44.434,42.480,10.254,15.625
1532371587.176,20.508,48.828,37.109,4.395,57.129
1532371587.180,20.020,49.805,34.180,3.418,38.574
1532371587.184,29.297,48.340,32.715,10.254,14.160
1532371587.187,28.320,44.922,35.156,14.648,16.602
1532371587.191,23.926,44.922,37.598,12.207,46.875
1532371587.195,26.367,43.945,39.062,16.113,65.430
1532371587.199,21.484,40.527,39.551,16.602,8.789
1532371587.203,20.996,35.645,37.109,11.719,-0.488
1532371587.207,33.691,36.621,29.785,20.020,48.828
1532371587.211,36.621,35.645,28.320,16.602,52.734
1532371587.215,31.738,28.809,29.785,13.672,-20.508
1532371587.219,38.086,27.344,27.344,29.785,-44.434
1532371587.223,38.574,27.832,27.344,33.203,38.086
1532371587.226,36.133,26.855,28.809,31.738,87.402
1532371587.230,41.504,24.902,32.227,38.086,14.648
1532371587.234,49.805,24.414,29.297,42.969,-40.527
1532371587.238,53.711,21.484,30.273,48.828,16.602
1532371587.242,49.805,19.531,34.180,49.316,59.082
1532371587.246,41.504,20.020,27.832,45.410,49.316
1532371587.250,46.387,18.555,25.879,43.945,-0.977
1532371587.254,58.594,14.648,28.320,50.293,-9.277
1532371587.258,61.035,13.672,29.297,50.781,63.477
1532371587.261,62.012,15.625,27.344,51.758,64.453
1532371587.265,64.941,19.043,28.809,55.664,23.926
1532371587.269,61.035,20.508,30.762,53.711,12.695
1532371587.273,60.059,20.508,26.855,52.734,42.480
1532371587.277,63.965,22.461,30.273,51.758,67.383
1532371587.281,66.406,21.973,32.715,53.711,1.465
1532371587.285,64.941,20.020,32.715,55.664,-21.484
1532371587.289,67.383,20.020,35.645,50.781,16.113
1532371587.293,61.035,22.461,35.645,45.410,47.363
1532371587.297,55.176,20.996,31.738,41.992,42.480
1532371587.300,55.664,17.578,31.250,44.922,-2.930
1532371587.304,57.129,18.555,35.156,50.293,7.812
1532371587.308,65.430,21.973,35.645,55.176,39.062
1532371587.312,68.848,24.414,33.691,58.105,16.602
1532371587.316,64.941,22.461,29.785,51.270,-13.184
1532371587.320,62.012,25.391,29.785,49.316,-12.207
1532371587.324,66.406,28.809,31.250,58.594,64.941
1532371587.328,66.895,25.391,33.203,58.594,38.574
1532371587.332,66.895,27.344,32.227,44.922,-48.340
1532371587.335,72.754,30.273,31.738,42.480,-42.969
1532371587.339,79.102,27.832,32.227,43.945,34.668
1532371587.343,79.590,29.297,29.785,42.969,95.215
1532371587.347,80.078,30.273,29.297,44.922,19.043
1532371587.351,78.613,23.926,29.297,49.805,-51.758
1532371587.355,66.406,22.461,30.273,57.129,-23.438
1532371587.359,58.594,25.879,34.180,60.059,42.480
1532371587.363,53.711,24.414,34.180,56.641,35.156
1532371587.367,48.828,20.508,29.297,53.711,-14.160
1532371587.371,49.805,21.973,30.762,49.805,-29.785
1532371587.374,49.805,25.879,34.180,48.828,26.855
1532371587.378,45.410,25.879,33.203,50.781,53.711
1532371587.382,43.945,26.367,31.738,44.922,-19.043
1532371587.386,45.410,29.785,29.297,40.039,-22.949
1532371587.390,50.293,28.320,28.320,42.480,35.156
1532371587.394,46.387,25.391,28.809,40.039,54.688
1532371587.398,45.898,22.949,27.832,39.062,-7.324
1532371587.402,47.363,21.484,27.344,39.551,-17.578
1532371587.406,50.293,24.414,29.785,38.086,23.438
1532371587.409,55.664,26.855,31.738,43.945,63.477
1532371587.413,57.129,24.902,28.809,44.434,35.645
1532371587.417,50.781,23.438,25.879,36.621,-47.363
1532371587.421,43.457,24.902,28.320,33.203,11.719
1532371587.425,45.898,28.320,31.250,37.598,80.078
1532371587.429,49.316,26.855,30.273,36.621,46.387
1532371587.433,46.387,21.484,28.320,28.809,-11.230
1532371587.437,45.410,21.973,28.320,29.297,14.648
1532371587.441,49.805,24.414,29.297,34.668,79.102
1532371587.445,52.246,22.461,27.832,36.133,98.145
1532371587.448,51.758,22.461,26.855,34.668,14.648
1532371587.452,47.363,23.926,24.902,32.715,-9.277
1532371587.456,46.387,25.879,23.926,39.551,41.016
1532371587.460,49.805,27.344,23.438,43.945,45.898
1532371587.464,47.852,25.879,25.391,42.480,21.973
1532371587.468,46.387,24.414,27.832,39.551,-17.090
1532371587.472,46.875,24.902,24.414,38.086,4.395
1532371587.476,45.410,24.414,25.879,43.457,71.289
1532371587.480,51.270,22.949,27.344,45.410,44.922
1532371587.483,56.152,24.414,24.414,45.410,-16.602
1532371587.487,56.152,24.902,25.391,43.945,2.930
1532371587.491,53.223,23.438,28.320,42.969,35.156
1532371587.495,52.734,25.391,27.832,46.875,32.227
1532371587.499,55.176,25.391,25.391,41.992,-13.672
1532371587.503,51.270,23.438,22.949,37.109,-0.488
1532371587.507,54.199,23.926,26.367,37.109,51.758
1532371587.511,54.688,24.902,28.320,30.762,67.383
1532371587.515,50.293,23.438,26.367,30.273,21.484
1532371587.519,50.293,22.949,27.832,34.668,-5.371
1532371587.522,49.316,22.461,30.273,37.109,43.945
1532371587.526,52.246,24.902,31.250,33.691,60.059
1532371587.530,49.805,24.902,28.809,31.738,22.949
1532371587.534,42.480,23.438,30.273,36.621,-1.953
1532371587.538,42.969,21.973,35.645,41.016,25.391
1532371587.542,42.969,22.461,39.551,44.434,65.430
1532371587.546,40.527,25.879,38.574,41.504,53.223
1532371587.550,36.621,26.367,36.621,37.598,-20.996
1532371587.554,35.156,24.902,37.598,39.062,10.254
1532371587.558,36.133,27.344,37.109,37.109,80.566
1532371587.561,41.992,32.715,40.039,35.645,60.547
1532371587.565,42.969,32.715,37.598,30.273,18.555
1532371587.569,34.180,30.762,35.645,21.484,-6.836
1532371587.573,37.109,29.297,41.016,27.344,62.500
1532371587.577,42.969,31.738,41.016,33.691,108.398
1532371587.581,42.480,30.762,39.062,31.250,26.367
1532371587.585,46.387,26.367,42.969,34.668,-12.695
1532371587.589,46.875,30.273,40.527,35.645,45.898
1532371587.593,41.504,34.180,36.133,33.691,92.285
1532371587.596,39.062,30.762,36.133,37.109,20.020
1532371587.600,40.039,29.297,36.621,43.457,-24.902
1532371587.604,35.156,28.809,35.156,43.945,20.020
1532371587.608,36.621,31.250,31.738,38.086,47.363
1532371587.612,42.969,33.691,32.715,39.551,9.766
1532371587.616,38.574,31.250,32.227,39.551,-25.391
1532371587.620,36.621,29.297,29.785,35.645,3.906
1532371587.624,41.992,26.855,29.297,43.457,64.453
1532371587.628,50.293,28.320,28.320,51.758,63.477
1532371587.632,60.059,32.715,26.367,45.898,4.883
1532371587.635,60.059,33.203,25.879,44.434,18.066
1532371587.639,61.035,34.668,26.855,52.246,80.078
1532371587.643,65.918,38.086,29.785,55.176,81.543
1532371587.647,68.848,38.086,32.715,54.688,-10.254
1532371587.651,73.730,39.062,35.645,53.223,-50.781
1532371587.655,71.289,41.016,37.598,61.035,27.344
1532371587.659,71.289,41.016,39.062,71.777,64.941
1532371587.663,70.801,41.016,41.504,73.730,40.527
1532371587.667,64.453,41.504,41.016,71.289,0.000
1532371587.670,64.941,41.504,41.504,67.871,-3.418
1532371587.674,68.359,42.480,41.016,63.965,37.109
1532371587.678,63.965,41.016,34.668,58.594,51.758
1532371587.682,58.105,34.668,31.738,55.176,22.949
1532371587.686,58.594,33.691,33.691,55.176,0.488
1532371587.690,66.895,36.621,36.133,60.059,43.457
1532371587.694,68.359,35.156,37.598,64.453,65.430
1532371587.698,66.895,32.227,34.668,61.523,8.789
1532371587.702,66.895,34.180,28.320,59.570,2.930
1532371587.706,67.383,33.691,25.879,62.012,41.992
1532371587.709,69.824,32.715,26.367,61.035,29.785
1532371587.713,68.359,34.180,26.367,56.641,-25.879
1532371587.717,66.895,31.250,25.391,58.105,-46.875
1532371587.721,69.336,30.762,24.902,59.570,9.766
1532371587.725,65.430,31.738,25.879,54.199,41.992
1532371587.729,59.082,29.785,26.855,51.270,13.672
1532371587.733,55.664,28.809,26.855,52.246,-5.859
1532371587.737,53.711,29.297,30.273,48.340,-12.695
1532371587.741,50.781,28.320,33.203,49.805,32.227
1532371587.744,53.223,26.367,34.180,51.270,71.289
1532371587.748,52.734,27.832,36.133,48.828,-12.695
1532371587.752,49.316,29.785,34.180,43.945,-35.156
1532371587.756,45.898,28.320,34.180,45.410,46.387
1532371587.760,43.945,25.391,36.621,48.340,67.871
1532371587.764,42.480,23.926,37.109,48.828,2.441
1532371587.768,42.480,22.461,36.621,50.293,-5.371
1532371587.772,48.340,19.531,38.086,51.758,45.410
1532371587.776,55.176,20.508,42.480,54.688,68.848
1532371587.780,56.152,25.879,41.992,56.152,30.762
1532371587.783,56.641,24.902,40.039,53.223,-9.766
1532371587.787,57.129,26.367,40.039,46.875,16.602
1532371587.791,62.988,31.738,41.992,44.922,54.688
1532371587.795,64.453,32.715,43.457,49.805,57.129
1532371587.799,54.199,31.738,42.480,49.805,-3.418
1532371587.803,52.734,31.738,41.504,42.969,-16.602
1532371587.807,52.734,30.273,41.016,38.086,29.785
1532371587.811,56.152,28.809,41.504,42.480,33.203
1532371587.815,56.152,30.273,41.504,45.898,-7.324
1532371587.818,58.105,29.297,40.527,41.016,-15.137
1532371587.822,51.270,29.297,39.551,31.250,71.289
1532371587.826,44.922,34.180,37.109,24.902,95.215
1532371587.830,50.293,36.133,38.086,23.438,1.465
1532371587.834,53.711,35.156,40.527,25.391,-18.066
1532371587.838,45.898,35.645,42.969,21.484,43.945
1532371587.842,38.086,36.621,40.039,13.184,91.797
1532371587.846,38.086,35.645,37.109,10.742,45.410
1532371587.850,32.227,34.180,39.062,10.742,-6.836
1532371587.854,28.320,34.180,38.086,6.836,33.691
1532371587.857,39.551,33.691,37.598,16.602,93.750
1532371587.861,46.875,34.180,40.039,36.621,78.613
1532371587.865,32.227,30.762,43.945,29.297,-16.113
1532371587.869,13.672,28.320,46.387,15.137,-21.973
1532371587.873,14.648,30.273,43.945,17.090,38.574
1532371587.877,18.066,30.762,43.457,20.508,64.453
1532371587.881,18.555,29.297,44.922,20.020,-1.953
1532371587.885,29.785,32.715,44.922,20.996,-58.105
1532371587.889,34.180,40.039,44.434,18.555,-2.930
1532371587.892,21.484,37.598,44.434,5.859,41.016
1532371587.896,13.184,32.715,45.410,2.441,7.324
1532371587.900,13.184,32.227,45.898,7.324,-6.836
1532371587.904,11.230,30.273,47.852,4.883,29.297
1532371587.908,12.207,29.785,47.363,1.953,69.824
1532371587.912,12.695,30.762,43.457,-0.488,56.641
1532371587.916,5.859,31.738,46.387,-5.371,-2.441
1532371587.920,3.906,34.668,47.852,-2.930,8.789
1532371587.924,6.836,33.203,46.875,2.441,66.895
1532371587.928,3.418,27.344,48.340,-3.906,34.668
1532371587.931,2.441,29.785,43.945,-10.254,-41.016
1532371587.935,3.418,31.738,43.945,-4.883,-23.926
1532371587.939,3.906,29.297,48.828,0.488,58.594
1532371587.943,4.883,24.414,51.758,8.789,66.895
1532371587.947,5.859,18.066,58.594,15.137,-31.250
1532371587.951,13.672,22.949,59.570,16.113,-56.641
1532371587.955,16.602,35.156,52.246,10.742,26.367
1532371587.959,14.160,40.039,51.270,6.348,83.496
1532371587.963,13.184,38.574,52.734,7.812,45.898
1532371587.966,9.277,37.109,49.805,10.254,-0.977
1532371587.970,8.789,37.109,45.898,10.742,26.367
1532371587.974,11.719,35.645,48.828,11.230,62.988
1532371587.978,17.578,33.691,50.781,10.742,59.570
1532371587.982,21.973,32.227,48.828,12.207,13.672
1532371587.986,36.621,33.203,44.434,15.137,-1.465
1532371587.990,46.875,32.715,43.457,14.648,28.320
1532371587.994,46.387,30.762,44.922,18.066,59.082
1532371587.998,44.434,27.832,44.922,23.926,30.762
1532371588.002,48.828,25.879,43.457,31.738,-0.977
1532371588.005,52.734,26.367,41.016,37.598,34.668
1532371588.009,50.293,28.809,39.062,41.504,70.801
1532371588.013,45.410,24.902,39.062,48.828,37.109
1532371588.017,43.457,18.555,42.969,54.199,-2.930
1532371588.021,47.363,19.043,44.434,56.152,44.922
1532371588.025,46.875,22.461,42.480,55.176,90.820
1532371588.029,47.363,24.902,37.109,48.340,26.855
1532371588.033,48.340,26.855,33.691,48.828,-6.836
1532371588.037,42.480,23.438,33.691,50.781,44.922
1532371588.040,41.016,22.949,32.227,42.480,81.055
1532371588.044,46.387,29.785,30.273,39.551,53.223
1532371588.048,48.340,27.832,30.762,39.551,-18.555
1532371588.052,42.969,21.973,34.180,36.621,-12.207
1532371588.056,43.945,23.438,36.621,37.598,63.965
1532371588.060,55.176,25.879,34.668,39.062,78.613
1532371588.064,56.152,23.926,30.273,37.598,22.949
1532371588.068,52.734,21.484,29.785,40.039,1.953
1532371588.072,57.617,22.461,30.762,47.852,55.664
1532371588.076,64.941,26.855,33.203,54.199,94.238
1532371588.079,64.453,24.902,35.645,52.246,54.199
1532371588.083,61.035,23.438,34.668,46.875,25.879
1532371588.087,63.477,24.902,33.203,41.992,31.738
1532371588.091,63.477,23.926,33.203,44.434,57.129
1532371588.095,59.570,23.926,34.180,46.387,49.316
1532371588.099,60.547,24.414,29.785,41.504,0.488
1532371588.103,59.570,25.879,24.414,39.551,12.695
1532371588.107,62.988,28.809,25.391,39.551,52.246
1532371588.111,68.848,29.785,27.832,41.504,58.594
1532371588.114,65.918,26.367,28.320,41.504,8.301
1532371588.118,60.059,24.414,23.438,40.039,-10.742
1532371588.122,58.594,27.344,22.461,36.133,43.457
1532371588.126,59.570,27.832,25.879,31.738,79.102
1532371588.130,59.082,26.367,28.320,30.273,-9.277
1532371588.134,58.594,25.879,28.809,32.715,-49.316
1532371588.138,59.082,27.832,29.297,39.551,34.668
1532371588.142,57.617,30.762,31.250,45.898,103.027
1532371588.146,57.617,29.297,31.250,42.480,51.758
1532371588.150,58.105,25.879,33.203,40.039,-12.207
1532371588.153,57.617,28.320,33.203,41.992,18.066
1532371588.157,57.617,31.738,32.227,43.945,61.035
1532371588.161,57.129,29.785,32.715,44.434,49.316
1532371588.165,55.664,28.320,32.715,41.016,-18.555
1532371588.169,54.688,29.785,36.621,40.039,-31.738
1532371588.173,50.293,28.809,37.598,45.410,61.035
1532371588.177,48.340,27.344,38.086,45.898,58.105
1532371588.181,53.711,30.762,40.527,43.457,-4.395
1532371588.185,46.387,30.273,39.062,42.480,4.395
1532371588.188,40.527,27.344,40.527,39.551,38.086
1532371588.192,41.016,29.297,41.504,39.062,76.660
1532371588.196,39.062,29.297,37.109,37.598,38.086
1532371588.200,45.410,28.809,37.598,40.527,2.441
1532371588.204,53.711,28.320,44.922,47.852,4.883
1532371588.208,55.176,27.832,46.387,48.828,15.137
1532371588.212,56.152,27.344,40.527,47.363,0.977
1532371588.216,55.176,26.855,37.109,47.363,-25.391
1532371588.220,50.781,28.320,39.062,47.363,21.484
1532371588.224,55.664,29.785,41.016,49.805,53.711
1532371588.227,62.012,31.738,37.109,48.828,18.555
1532371588.231,58.105,33.203,31.738,42.969,5.859
1532371588.235,57.129,31.738,28.320,43.945,23.926
1532371588.239,59.570,31.738,27.344,45.410,63.965
1532371588.243,58.105,31.738,29.785,41.992,73.730
1532371588.247,52.734,26.855,29.785,35.156,-12.695
1532371588.251,62.500,24.902,30.762,41.992,-38.086
1532371588.255,67.871,26.855,30.273,52.246,34.668
1532371588.259,60.547,28.320,27.344,47.852,50.781
1532371588.262,58.105,28.320,25.391,47.852,3.418
1532371588.266,57.617,25.391,28.320,46.387,-35.645
1532371588.270,61.035,28.809,30.762,45.898,-1.953
1532371588.274,62.500,33.691,33.691,50.781,53.711
1532371588.278,65.430,34.668,37.109,58.594,17.090
1532371588.282,66.895,33.691,39.062,64.453,-34.668
1532371588.286,64.941,33.203,40.039,62.500,-6.836
1532371588.290,74.219,37.109,43.945,65.918,52.246
1532371588.294,77.637,37.598,41.992,61.035,47.852
1532371588.298,66.895,34.180,36.621,56.641,-2.441
1532371588.301,65.430,33.203,38.086,59.570,13.184
1532371588.305,69.824,33.203,38.086,59.082,81.543
1532371588.309,64.941,34.180,36.133,53.223,58.594
1532371588.313,59.570,32.715,33.691,50.781,-14.648
1532371588.317,57.129,32.227,29.785,48.828,-15.625
1532371588.321,58.594,33.691,30.273,48.828,38.574
1532371588.325,62.500,32.227,36.621,44.922,66.406
1532371588.329,59.082,30.762,35.645,40.527,20.020
1532371588.333,55.664,31.738,32.715,42.969,-31.250
1532371588.337,58.594,31.738,33.203,43.945,13.184
1532371588.340,58.594,30.273,34.668,47.852,69.824
1532371588.344,58.105,27.344,35.156,49.316,48.340
1532371588.348,59.082,27.344,35.645,44.922,-31.738
1532371588.352,55.664,27.344,35.156,42.480,-9.766
1532371588.356,57.617,26.855,35.156,43.945,67.383
1532371588.360,61.035,28.809,37.598,41.992,27.344
1532371588.364,60.059,29.297,36.621,39.551,-23.926
1532371588.368,57.129,29.297,33.691,30.273,-28.320
1532371588.372,49.316,27.344,33.691,24.902,43.457
1532371588.375,48.828,27.344,33.691,27.832,90.820
1532371588.379,48.340,29.785,36.621,26.367,23.438
1532371588.383,49.805,29.785,39.062,28.809,-14.160
1532371588.387,48.828,28.320,36.133,32.715,13.672
1532371588.391,41.504,27.832,32.227,26.367,71.289
1532371588.395,41.992,27.832,30.762,22.461,43.457
1532371588.399,46.387,27.832,32.227,27.344,-8.789
1532371588.403,48.340,26.367,35.645,29.297,47.363
1532371588.407,46.387,25.879,35.645,27.344,56.641
1532371588.411,49.805,27.344,35.645,29.297,0.977
1532371588.414,57.129,29.785,38.086,41.016,-17.578
1532371588.418,58.105,29.297,41.016,45.898,21.484
1532371588.422,54.688,27.832,44.922,37.109,79.590
1532371588.426,49.316,27.832,48.340,30.762,70.801
1532371588.430,44.922,25.879,50.781,29.297,-1.953
1532371588.434,44.434,31.738,43.457,22.949,-14.160
1532371588.438,41.504,36.621,37.598,23.926,46.875
1532371588.442,26.855,34.180,44.434,20.996,67.383
1532371588.446,18.555,28.320,47.852,12.207,-11.719
1532371588.449,23.926,26.367,47.852,14.648,-38.574
1532371588.453,35.645,30.273,44.922,21.973,45.410
1532371588.457,45.410,35.645,42.480,24.414,73.730
1532371588.461,39.551,33.203,45.410,19.043,26.855
1532371588.465,37.598,26.855,47.363,18.066,-21.484
1532371588.469,49.316,30.762,50.293,29.785,7.812
1532371588.473,53.711,36.133,49.805,34.668,59.082
1532371588.477,47.363,34.668,47.363,29.297,18.066
1532371588.481,44.922,32.715,49.316,32.227,-36.621
1532371588.485,47.363,31.738,47.363,37.109,-12.207
1532371588.488,44.922,27.832,46.875,28.809,11.719
1532371588.492,39.551,27.832,48.340,21.973,34.668
1532371588.496,39.551,27.344,47.852,25.391,5.859
1532371588.500,48.340,26.367,45.898,31.250,-17.578
1532371588.504,53.711,29.785,43.945,38.574,36.621
1532371588.508,45.410,31.738,41.992,31.738,89.844
1532371588.512,38.574,31.250,39.062,20.508,39.062
1532371588.516,26.367,25.391,41.016,17.578,-20.996
1532371588.520,25.391,20.996,43.457,18.066,25.391
1532371588.523,33.203,25.879,40.527,18.555,59.570
1532371588.527,37.598,36.133,34.668,15.625,27.832
1532371588.531,32.715,36.621,32.715,16.602,-18.066
1532371588.535,15.625,32.715,36.133,9.766,-14.648
1532371588.539,5.859,32.715,35.156,-0.488,37.109
1532371588.543,10.742,32.715,37.598,4.395,39.062
1532371588.547,12.695,30.273,42.969,7.812,-40.039
1532371588.551,15.137,28.320,41.504,9.277,-44.434
1532371588.555,14.160,29.297,40.527,13.672,44.434
1532371588.559,3.418,27.832,43.945,8.301,66.406
1532371588.562,4.883,21.973,44.434,2.930,5.859
1532371588.566,11.719,20.996,41.992,5.371,14.160
1532371588.570,11.719,28.809,39.062,2.930,83.984
1532371588.574,6.836,31.250,35.156,-0.977,84.961
1532371588.578,11.230,28.809,30.273,0.488,19.043
1532371588.582,10.742,26.367,31.250,0.000,-1.465
1532371588.586,4.883,24.414,36.621,-5.371,26.855
1532371588.590,18.555,26.367,42.969,-3.418,61.523
1532371588.594,28.809,30.762,44.922,13.184,43.457
1532371588.597,29.785,34.180,42.969,21.973,-18.066
1532371588.601,30.762,34.180,41.016,14.648,2.930
1532371588.605,32.715,37.109,40.039,8.789,57.617
1532371588.609,39.062,40.039,38.086,8.789,56.641
1532371588.613,34.668,37.109,36.133,11.230,4.395
1532371588.617,23.438,33.203,40.527,10.742,5.859
1532371588.621,27.344,30.273,42.480,16.113,72.266
1532371588.625,41.016,31.250,38.086,21.973,73.242
1532371588.629,41.992,37.109,35.156,20.996,9.277
1532371588.633,40.527,34.180,37.598,18.066,6.348
1532371588.636,45.898,31.250,38.574,19.043,46.387
1532371588.640,53.223,35.645,44.922,25.879,90.332
1532371588.644,53.223,34.668,51.270,15.137,63.965
1532371588.648,45.898,29.297,48.340,4.883,1.465
1532371588.652,50.781,28.809,46.387,6.836,27.344
1532371588.656,58.105,32.227,45.898,14.160,87.891
1532371588.660,47.363,28.809,47.363,22.461,92.773
1532371588.664,35.645,21.484,54.199,27.832,13.184
1532371588.668,39.551,22.949,54.199,37.598,21.973
1532371588.671,33.203,31.738,48.340,34.180,92.285
1532371588.675,29.297,36.621,44.922,28.320,81.055
1532371588.679,37.598,34.180,47.363,36.133,30.762
1532371588.683,27.832,27.832,50.293,28.320,11.719
1532371588.687,22.461,29.297,49.805,18.066,28.809
1532371588.691,27.344,32.715,46.875,19.531,42.969
1532371588.695,24.902,28.320,49.316,18.555,-4.395
1532371588.699,29.297,25.391,53.711,20.996,-17.090
1532371588.703,31.250,27.344,51.758,18.555,46.387
1532371588.707,37.598,31.250,49.805,20.020,77.637
1532371588.710,41.992,39.551,41.504,16.602,58.594
1532371588.714,34.668,37.598,39.551,10.742,9.277
1532371588.718,25.879,29.297,44.922,9.766,-19.043
1532371588.722,31.250,29.785,43.945,14.648,48.340
1532371588.726,42.480,34.180,40.039,16.602,47.363
1532371588.730,42.969,34.180,39.062,11.719,-59.570
1532371588.734,33.203,32.227,43.457,16.602,-33.691
1532371588.738,21.973,27.832,45.898,13.672,54.199
1532371588.742,29.297,24.414,46.387,17.090,54.688
1532371588.745,36.133,24.414,44.922,23.926,8.301
1532371588.749,30.762,24.902,43.945,19.531,-0.977
1532371588.753,30.273,26.367,43.457,12.695,48.828
1532371588.757,33.691,33.203,37.109,10.742,78.613
1532371588.761,41.504,39.062,34.668,18.555,28.809
1532371588.765,34.180,33.203,37.109,15.625,-30.273
1532371588.769,24.414,28.320,37.598,11.719,-0.977
1532371588.773,22.949,25.391,41.016,20.508,53.223
1532371588.777,22.949,24.414,41.504,23.438,53.711
1532371588.781,31.738,24.902,38.574,23.926,4.395
1532371588.784,30.273,29.297,33.203,21.973,-4.395
1532371588.788,30.762,33.203,32.715,18.066,33.203
1532371588.792,28.320,30.273,41.016,17.090,56.152
1532371588.796,21.484,25.879,39.551,16.113,4.395
1532371588.800,34.180,28.809,46.875,33.691,-17.578
1532371588.804,44.922,33.203,58.594,47.363,29.297
1532371588.808,42.480,21.484,47.852,37.109,64.453
1532371588.812,39.551,18.066,40.527,29.785,-2.930
1532371588.816,40.039,21.484,36.133,24.414,-26.855
1532371588.819,54.688,28.320,35.156,32.715,24.902
1532371588.823,68.359,38.574,48.340,49.316,49.805
1532371588.827,59.082,33.203,45.410,33.691,35.645
1532371588.831,54.199,34.180,34.668,28.320,-20.020
1532371588.835,48.828,31.738,34.180,31.250,-0.977
1532371588.839,39.551,17.578,30.762,19.531,44.434
1532371588.843,44.434,17.578,30.762,23.438,35.645
1532371588.847,55.176,21.973,32.227,30.273,-20.508
1532371588.851,56.641,20.020,33.691,31.738,-15.625
1532371588.855,53.711,25.391,39.551,32.715,63.965
1532371588.858,52.246,31.250,33.691,31.250,78.125
1532371588.862,52.734,27.344,22.461,29.785,16.113
1532371588.866,57.617,27.832,29.297,28.809,-31.250
1532371588.870,59.082,29.785,37.598,34.180,18.555
1532371588.874,54.688,25.879,36.621,39.551,96.680
1532371588.878,49.805,22.949,36.133,38.574,41.016
1532371588.882,48.828,25.879,38.574,35.156,-17.578
1532371588.886,48.828,25.879,39.062,37.598,10.742
1532371588.890,54.199,25.391,38.086,41.504,46.875
1532371588.893,58.594,25.391,41.504,41.016,38.574
1532371588.897,56.641,23.926,39.062,36.133,-19.043
1532371588.901,51.758,26.367,35.156,29.297,-18.066
1532371588.905,49.316,29.785,36.133,27.344,33.203
1532371588.909,43.457,30.273,39.062,32.227,19.531
1532371588.913,42.969,27.832,40.527,38.086,-35.156
1532371588.917,47.852,31.250,41.992,38.574,-37.109
1532371588.921,45.898,34.180,43.457,41.504,10.742
1532371588.925,49.316,31.250,44.922,48.340,41.504
1532371588.929,50.781,28.809,47.852,50.293,9.766
1532371588.932,53.711,29.785,45.410,47.363,-33.691
1532371588.936,52.246,32.227,44.922,48.340,12.695
1532371588.940,50.293,34.668,46.387,49.316,76.172
1532371588.944,54.688,36.133,41.016,46.875,56.641
1532371588.948,51.758,34.180,37.598,44.434,7.324
1532371588.952,48.828,29.297,41.992,43.945,13.184
1532371588.956,51.758,26.855,42.480,47.852,44.922
1532371588.960,56.641,29.785,43.945,51.758,39.551
1532371588.964,61.035,29.785,43.945,51.758,-6.348
1532371588.967,61.523,30.273,39.062,45.898,-23.926
1532371588.971,60.059,34.180,35.645,42.969,38.574
1532371588.975,57.617,31.738,32.715,44.922,70.312
1532371588.979,51.270,27.344,36.133,47.852,14.648
1532371588.983,53.223,28.320,39.551,53.711,-14.160
1532371588.987,56.641,30.762,36.133,53.223,35.156
1532371588.991,60.547,34.668,31.738,49.316,62.500
1532371588.995,60.547,35.645,29.785,47.852,25.879
1532371588.999,50.293,30.273,36.621,46.875,-17.090
1532371589.003,43.945,29.785,41.992,45.898,7.324
1532371589.006,43.945,30.273,39.551,42.480,33.203
1532371589.010,49.316,29.297,41.992,45.410,2.930
1532371589.014,55.176,30.273,41.992,50.293,-20.020
1532371589.018,50.293,31.738,39.551,47.363,21.484
1532371589.022,48.828,31.738,38.574,44.434,77.637
1532371589.026,50.781,33.691,38.086,44.434,41.992
1532371589.030,43.457,31.738,40.527,43.457,-43.945
1532371589.034,43.945,22.461,45.898,46.387,-18.555
1532371589.038,55.664,21.484,47.852,49.316,70.312
1532371589.041,62.012,29.785,43.457,50.781,108.887
1532371589.045,62.012,33.203,39.551,49.805,14.160
1532371589.049,55.664,31.250,39.062,47.363,-34.668
1532371589.053,56.641,32.715,39.551,51.758,17.578
1532371589.057,62.500,33.203,41.504,54.688,53.223
1532371589.061,67.383,34.180,38.086,55.176,39.551
1532371589.065,66.406,32.227,37.109,49.316,-39.551
1532371589.069,58.594,30.273,42.480,46.387,-19.043
1532371589.073,56.641,32.715,42.480,53.223,77.148
1532371589.077,61.035,32.227,40.527,51.270,66.895
1532371589.080,59.570,33.203,37.598,46.875,-5.371
1532371589.084,62.988,32.715,36.133,46.387,-9.766
1532371589.088,66.406,31.738,35.156,44.922,50.781
1532371589.092,59.570,33.691,34.180,41.016,52.246
1532371589.096,56.152,33.691,34.180,39.062,-5.371
1532371589.100,61.035,33.691,33.203,42.969,13.184
1532371589.104,62.012,30.273,35.645,41.504,21.973
1532371589.108,59.082,29.785,36.133,37.598,40.527
1532371589.112,62.012,30.762,34.668,42.480,52.246
1532371589.116,64.941,32.227,35.645,45.410,1.953
1532371589.119,67.383,35.156,36.621,46.875,46.387
1532371589.123,65.430,35.645,36.133,43.457,62.012
1532371589.127,59.082,32.227,36.621,40.039,8.301
1532371589.131,59.570,30.273,36.133,44.434,-27.832
1532371589.135,61.035,29.785,38.574,46.387,-16.113
1532371589.139,64.453,30.762,39.551,42.480,44.434
1532371589.143,66.406,31.738,40.039,38.086,39.551
1532371589.147,60.547,31.250,40.039,33.203,-41.504
1532371589.151,67.383,31.738,38.086,41.016,-14.648
1532371589.154,73.242,35.156,38.086,46.875,33.691
1532371589.158,62.500,39.062,36.621,36.621,83.984
1532371589.162,62.012,37.598,35.156,32.227,41.992
1532371589.166,62.012,34.180,38.574,35.645,-25.879
1532371589.170,48.340,31.250,43.457,35.645,26.855
1532371589.174,41.504,27.832,48.340,32.227,77.148
1532371589.178,39.062,20.996,50.293,32.227,29.297
1532371589.182,43.945,20.508,45.410,33.691,-11.230
1532371589.186,47.363,28.320,43.457,30.273,5.859
1532371589.190,41.504,31.738,41.504,30.273,38.086
1532371589.193,42.480,28.809,35.645,32.715,73.730
1532371589.197,44.922,27.344,37.109,34.668,7.812
1532371589.201,43.945,29.297,38.574,38.086,-25.879
1532371589.205,43.457,28.809,37.598,36.621,24.414
1532371589.209,41.992,26.855,43.457,38.086,51.758
1532371589.213,41.992,25.879,44.434,43.945,31.250
1532371589.217,44.922,24.902,39.551,44.922,-0.488
1532371589.221,50.293,26.367,40.527,44.922,45.410
1532371589.225,53.223,29.785,41.016,43.945,67.383
1532371589.228,50.293,28.320,39.551,41.504,12.695
1532371589.232,52.246,26.367,42.480,41.504,-9.277
1532371589.236,53.711,26.855,45.898,44.434,28.320
1532371589.240,50.781,28.809,44.434,43.945,90.332
1532371589.244,55.176,31.738,44.434,46.387,31.250
1532371589.248,56.152,33.203,44.922,46.875,-58.105
1532371589.252,58.594,35.645,43.457,48.340,-1.465
1532371589.256,62.988,40.039,46.875,55.664,63.477
1532371589.260,71.289,39.062,45.898,57.617,45.898
1532371589.264,69.336,39.551,42.480,53.223,-28.320
1532371589.267,55.664,40.039,39.062,49.805,-5.859
1532371589.271,52.246,36.621,37.598,46.875,70.801
1532371589.275,53.711,36.133,36.621,43.945,88.379
1532371589.279,55.176,36.133,33.691,45.898,26.367
1532371589.283,61.035,34.668,33.691,47.852,-33.203
1532371589.287,62.500,35.645,34.668,46.387,33.203
1532371589.291,56.641,34.180,34.180,47.852,84.473
1532371589.295,60.059,29.785,34.668,44.434,20.508
1532371589.299,58.594,28.809,33.691,46.387,-26.367
1532371589.302,57.129,32.227,34.180,45.410,0.000
1532371589.306,64.941,30.273,38.086,45.410,39.551
1532371589.310,58.105,27.832,39.062,46.387,45.410
1532371589.314,56.641,28.809,35.156,41.992,10.254
1532371589.318,61.523,29.297,32.227,44.922,17.578
1532371589.322,62.012,27.832,33.691,44.922,44.922
1532371589.326,58.594,27.832,34.180,39.062,57.129
1532371589.330,58.594,26.855,31.250,40.039,11.719
1532371589.334,65.430,25.391,33.203,47.363,8.789
1532371589.338,73.730,28.809,37.109,47.852,60.547
1532371589.341,73.242,29.785,37.109,41.504,59.082
1532371589.345,70.801,26.367,37.109,44.922,2.441
1532371589.349,61.035,27.344,38.086,52.246,-14.160
1532371589.353,52.246,28.320,38.086,55.664,42.480
1532371589.357,52.246,28.809,38.574,54.199,75.684
1532371589.361,51.758,29.785,41.016,51.270,39.062
1532371589.365,52.734,32.227,41.504,41.992,-48.828
1532371589.369,46.387,35.156,41.504,37.598,-33.203
1532371589.373,41.016,33.203,41.992,43.457,48.828
1532371589.376,41.504,33.203,41.504,41.992,34.668
1532371589.380,41.016,33.203,41.016,38.086,0.000
1532371589.384,42.969,35.156,42.480,37.109,-20.996
1532371589.388,46.875,36.133,46.387,34.668,27.344
1532371589.392,47.363,34.668,46.875,34.180,78.613
1532371589.396,48.340,35.645,46.875,35.645,-3.906
1532371589.400,47.852,34.668,46.875,34.180,-40.527
1532371589.404,48.340,35.645,48.340,33.691,0.000
1532371589.408,58.105,37.598,47.363,40.039,38.574
1532371589.412,62.988,39.062,49.316,46.387,16.602
1532371589.415,59.082,38.574,58.594,46.875,-17.578
1532371589.419,50.293,30.273,59.570,39.551,40.039
1532371589.423,42.969,28.320,55.664,26.855,73.730
1532371589.427,40.039,29.297,53.223,23.926,22.949
1532371589.431,43.457,30.762,58.594,33.691,-9.766
1532371589.435,48.828,38.086,60.059,42.480,20.996
1532371589.439,39.062,34.180,53.223,32.227,60.059
1532371589.443,28.320,27.832,59.570,17.090,26.367
1532371589.447,28.809,25.391,65.918,13.184,-59.082
1532371589.450,33.203,23.438,60.547,21.484,-26.855
1532371589.454,45.410,29.297,62.500,32.227,63.477
1532371589.458,44.922,30.273,60.059,26.855,61.523
1532371589.462,35.156,27.344,58.105,23.438,-8.789
1532371589.466,35.645,22.949,58.594,27.344,-34.668
1532371589.470,35.645,21.484,57.129,27.344,13.672
1532371589.474,37.109,23.438,59.082,30.762,73.730
