timestamps,TP9,AF7,AF8,TP10,Right AUX
1532278845.756,-9.766,34.668,29.785,60.059,-0.977
1532278845.760,-11.230,31.250,30.273,57.129,-234.863
1532278845.763,-5.859,24.414,23.438,71.777,-1.465
1532278845.767,-0.977,25.391,19.043,68.848,256.348
1532278845.771,2.930,35.156,16.602,65.430,110.840
1532278845.775,-1.953,35.645,19.531,58.594,-186.523
1532278845.779,2.930,38.574,16.602,51.758,-110.352
1532278845.783,-3.418,29.297,14.160,49.805,221.191
1532278845.787,0.977,24.902,16.602,48.340,198.242
1532278845.791,-7.324,33.203,23.926,53.711,-120.605
1532278845.795,-12.207,30.762,11.719,40.039,-180.664
1532278845.799,23.438,26.855,14.648,58.594,135.742
1532278845.803,31.738,30.762,23.926,55.176,258.301
1532278845.806,16.602,27.344,19.043,35.156,-34.180
1532278845.810,3.418,29.785,15.625,50.781,-207.031
1532278845.814,-8.789,28.320,17.578,53.223,41.504
1532278845.818,-22.949,22.949,25.391,55.664,235.352
1532278845.822,-7.324,21.973,21.973,58.105,10.254
1532278845.826,9.277,21.484,26.367,44.434,-229.492
1532278845.830,-3.418,16.113,21.484,37.598,-38.086
1532278845.834,29.297,25.879,10.254,53.711,245.605
1532278845.838,40.039,19.043,29.785,64.453,89.355
1532278845.842,35.156,18.066,25.391,49.316,-231.445
1532278845.846,39.062,25.391,16.602,41.016,-135.254
1532278845.849,58.594,22.949,21.973,62.012,200.195
1532278845.853,65.918,27.832,17.578,62.988,198.242
1532278845.857,50.781,29.297,18.555,46.387,-116.211
1532278845.861,52.246,28.320,15.137,41.504,-166.504
1532278845.865,59.570,25.391,13.184,52.734,152.832
1532278845.869,62.988,26.367,21.484,57.617,283.691
1532278845.873,67.871,27.344,23.926,37.109,-0.977
1532278845.877,62.012,30.762,15.625,23.438,-213.867
1532278845.881,42.969,26.855,16.602,20.020,14.648
1532278845.885,66.406,29.297,10.254,18.066,242.188
1532278845.889,86.426,33.203,10.742,47.363,51.270
1532278845.892,71.777,27.832,20.020,69.336,-207.031
1532278845.896,72.266,30.273,16.602,49.805,-55.664
1532278845.900,74.707,28.809,16.113,41.992,268.066
1532278845.904,63.477,27.832,14.160,53.223,145.996
1532278845.908,60.547,29.785,23.926,50.781,-194.824
1532278845.912,71.777,31.738,24.414,58.105,-144.531
1532278845.916,69.336,27.832,17.090,53.223,185.059
1532278845.920,73.242,28.320,16.113,45.898,215.820
1532278845.924,68.359,33.203,17.090,50.781,-91.309
1532278845.928,74.707,31.250,20.508,56.152,-214.355
1532278845.932,82.031,29.297,17.090,54.199,79.102
1532278845.935,66.406,32.227,15.137,55.176,247.070
1532278845.939,55.664,28.809,21.973,20.020,-20.996
1532278845.943,54.688,18.555,16.113,7.812,-205.566
1532278845.947,50.781,22.461,14.648,58.594,15.625
1532278845.951,65.918,31.250,20.508,55.664,263.184
1532278845.955,80.078,37.109,18.555,52.734,91.309
1532278845.959,62.988,35.645,15.625,43.945,-199.707
1532278845.963,65.430,26.855,17.090,43.457,-75.684
1532278845.967,65.918,28.809,17.090,45.410,253.906
1532278845.971,51.758,28.320,23.438,17.578,197.266
1532278845.975,57.129,32.227,13.672,20.508,-155.762
1532278845.978,56.641,44.434,-0.977,28.809,-184.082
1532278845.982,56.641,32.227,24.902,23.438,155.273
1532278845.986,84.961,24.414,30.762,52.246,251.953
1532278845.990,85.449,31.250,26.367,50.781,-57.129
1532278845.994,72.266,27.832,20.508,25.391,-211.426
1532278845.998,59.570,23.438,21.484,25.391,76.172
1532278846.002,59.570,24.414,18.066,-6.836,284.180
1532278846.006,68.848,29.785,16.113,-8.301,40.527
1532278846.010,61.523,32.715,22.461,36.133,-215.820
1532278846.014,80.078,30.762,22.461,48.340,-29.785
1532278846.018,86.914,27.344,21.973,44.434,266.113
1532278846.021,94.727,31.738,21.973,51.758,137.207
1532278846.025,96.680,32.715,24.902,43.457,-152.832
1532278846.029,95.215,27.832,21.484,26.855,-61.523
1532278846.033,103.516,30.762,16.602,56.641,241.699
1532278846.037,119.629,29.785,19.043,70.801,198.242
1532278846.041,116.699,31.738,14.648,45.410,-152.832
1532278846.045,109.863,31.738,14.160,49.805,-175.781
1532278846.049,145.996,33.203,17.578,64.453,174.805
1532278846.053,141.602,33.691,19.531,82.520,280.273
1532278846.057,136.230,30.273,20.996,74.707,-42.480
1532278846.061,162.109,33.691,17.090,56.152,-246.094
1532278846.064,154.785,34.180,14.160,60.059,22.461
1532278846.068,135.254,32.227,16.602,57.617,263.672
1532278846.072,113.281,27.344,12.695,57.617,47.852
1532278846.076,123.047,30.273,11.719,60.059,-222.656
1532278846.080,139.160,30.762,18.066,69.336,-29.297
1532278846.084,123.047,30.273,17.578,76.660,284.668
1532278846.088,112.305,34.668,12.695,39.551,121.582
1532278846.092,119.141,33.691,8.301,21.973,-189.941
1532278846.096,135.254,32.227,16.113,94.727,-129.395
1532278846.100,109.375,27.832,21.484,110.352,198.730
1532278846.104,90.332,29.297,20.996,103.516,215.332
1532278846.107,89.844,31.738,25.879,84.961,-142.090
1532278846.111,100.586,26.855,25.391,64.941,-222.168
1532278846.115,97.656,25.391,22.461,68.848,117.188
1532278846.119,92.773,32.227,20.996,50.781,233.887
1532278846.123,94.727,32.227,24.414,61.523,-64.453
1532278846.127,90.820,31.738,26.855,80.566,-238.281
1532278846.131,68.359,29.785,25.879,80.078,45.898
1532278846.135,38.574,25.879,23.438,96.680,294.922
1532278846.139,44.922,24.414,26.855,109.375,41.992
1532278846.143,74.219,28.809,31.250,83.008,-234.375
1532278846.147,54.688,27.344,30.762,78.125,-55.664
1532278846.150,52.734,23.926,31.250,88.379,244.141
1532278846.154,79.102,28.320,31.250,73.730,137.207
1532278846.158,45.898,28.809,31.738,66.895,-193.848
1532278846.162,52.246,26.367,33.691,83.496,-153.809
1532278846.166,87.402,30.273,33.691,85.938,184.570
1532278846.170,82.031,34.180,31.250,64.941,229.980
1532278846.174,46.875,30.273,30.273,55.176,-99.609
1532278846.178,45.410,29.785,30.762,59.570,-221.191
1532278846.182,60.547,35.645,30.762,70.801,113.281
1532278846.186,24.414,28.809,32.715,68.359,252.930
1532278846.190,25.879,28.809,31.250,46.875,-29.297
1532278846.193,68.848,41.992,26.855,33.203,-226.074
1532278846.197,53.711,39.551,32.715,46.387,-9.766
1532278846.201,21.973,36.133,36.621,58.594,251.465
1532278846.205,24.902,38.574,36.133,41.992,84.961
1532278846.209,28.809,39.062,37.109,45.898,-190.918
1532278846.213,22.461,39.551,38.574,49.316,-75.684
1532278846.217,11.719,40.039,32.227,20.508,200.195
1532278846.221,12.695,40.039,32.227,32.227,143.555
1532278846.225,6.836,38.574,41.992,45.410,-157.227
1532278846.229,-0.488,37.598,42.969,42.969,-175.293
1532278846.233,2.930,38.086,41.992,56.641,158.203
1532278846.236,4.395,38.086,42.969,52.246,236.328
1532278846.240,-10.742,37.598,39.551,26.367,-90.332
1532278846.244,-0.977,39.062,37.598,25.879,-207.520
1532278846.248,15.625,40.527,39.551,50.781,104.004
1532278846.252,-9.766,33.691,41.016,58.594,295.898
1532278846.256,-33.691,30.273,42.969,44.434,11.230
1532278846.260,-4.395,35.645,42.480,35.156,-257.812
1532278846.264,22.949,37.109,39.062,46.387,-46.875
1532278846.268,1.465,35.156,41.992,42.969,229.004
1532278846.272,-15.625,32.715,43.457,35.645,100.586
1532278846.276,0.488,34.180,39.551,18.555,-206.055
1532278846.279,-5.371,36.621,41.016,17.578,-121.582
1532278846.283,-16.602,32.715,44.922,31.250,207.520
1532278846.287,1.953,30.762,45.410,36.621,186.523
1532278846.291,14.160,33.691,43.457,30.762,-145.508
1532278846.295,4.883,35.156,38.574,24.902,-210.938
1532278846.299,-13.184,29.785,41.504,11.230,68.848
1532278846.303,2.441,30.273,43.457,10.742,202.148
1532278846.307,10.254,35.645,35.645,25.879,-63.965
1532278846.311,12.207,32.715,38.086,24.902,-217.285
1532278846.315,13.672,30.762,41.992,52.734,52.734
1532278846.319,11.719,33.691,40.039,36.621,270.020
1532278846.323,7.812,35.156,40.527,11.719,40.527
1532278846.326,25.879,32.227,43.457,40.039,-218.750
1532278846.330,16.602,33.691,38.086,25.391,-33.203
1532278846.334,9.277,30.273,37.109,34.180,236.816
1532278846.338,14.648,25.391,41.504,59.082,110.352
1532278846.342,5.371,23.926,42.969,48.340,-190.918
1532278846.346,17.090,25.391,40.039,45.410,-110.840
1532278846.350,30.273,27.832,35.156,39.551,218.750
1532278846.354,28.320,24.902,36.621,43.945,221.191
1532278846.358,31.250,24.414,36.133,42.480,-137.207
1532278846.362,32.715,23.438,34.180,37.109,-224.609
1532278846.366,37.109,22.461,33.203,44.434,97.656
1532278846.369,43.457,21.973,33.203,43.945,247.070
1532278846.373,38.574,19.531,35.156,46.387,-17.090
1532278846.377,31.738,18.555,35.645,58.594,-197.266
1532278846.381,38.574,20.996,30.273,51.758,35.645
1532278846.385,44.434,20.508,30.762,59.082,253.906
1532278846.389,43.457,20.020,34.668,55.664,53.711
1532278846.393,43.457,22.949,30.762,37.109,-206.055
1532278846.397,46.875,23.438,31.250,36.621,-61.035
1532278846.401,51.270,21.973,32.715,39.551,208.008
1532278846.405,46.387,24.902,33.691,49.316,165.039
1532278846.409,20.508,6.836,19.531,40.039,-133.301
1532278846.412,-1.465,-20.508,-6.836,8.789,-132.812
1532278846.416,3.418,-17.090,-9.766,8.789,201.172
1532278846.420,2.930,-10.742,-0.488,18.555,244.141
1532278846.424,2.930,-6.348,3.906,13.672,-51.270
1532278846.428,11.230,2.441,2.930,10.254,-178.223
1532278846.432,17.090,7.324,6.836,14.160,77.637
1532278846.436,22.461,11.719,15.137,18.555,246.582
1532278846.440,25.879,16.113,20.508,25.879,4.395
1532278846.444,22.461,19.531,20.996,29.785,-192.383
1532278846.448,27.832,20.996,23.438,32.715,35.156
1532278846.452,27.832,21.484,25.391,36.621,300.293
1532278846.455,27.344,23.926,25.391,27.344,112.305
1532278846.459,31.738,23.926,27.832,20.508,-176.270
1532278846.463,34.668,23.438,28.320,23.438,-65.430
1532278846.467,36.621,26.855,30.273,33.203,239.746
1532278846.471,38.086,30.273,25.391,35.156,203.125
1532278846.475,32.227,25.879,19.531,24.414,-123.535
1532278846.479,28.320,22.949,20.508,23.926,-158.691
1532278846.483,22.949,18.555,23.438,19.531,163.574
1532278846.487,28.320,20.996,25.879,24.902,260.254
1532278846.491,36.621,26.367,27.344,37.598,-59.082
1532278846.495,29.785,25.391,28.320,33.691,-183.594
1532278846.498,23.438,25.391,27.344,23.926,77.148
1532278846.502,22.461,29.785,28.809,21.484,250.000
1532278846.506,33.691,29.297,31.250,30.762,24.902
1532278846.510,38.086,27.832,33.203,36.133,-196.289
1532278846.514,36.621,29.785,36.621,41.992,-0.977
1532278846.518,42.480,29.297,36.133,45.898,245.117
1532278846.522,45.898,32.227,32.227,39.551,115.234
1532278846.526,46.875,37.109,31.250,27.832,-184.082
1532278846.530,44.922,38.086,31.738,18.066,-124.512
1532278846.534,40.039,37.598,30.273,20.996,212.891
1532278846.538,38.574,37.109,32.715,20.508,196.289
1532278846.541,42.969,37.598,33.691,16.602,-161.621
1532278846.545,50.781,38.574,32.227,22.949,-192.871
1532278846.549,54.688,36.133,33.203,20.996,135.254
1532278846.553,52.246,34.668,37.109,22.949,227.051
1532278846.557,50.293,35.156,35.645,26.855,-52.734
1532278846.561,49.805,34.668,29.297,28.809,-217.285
1532278846.565,41.992,31.738,28.320,34.180,25.391
1532278846.569,37.598,29.297,34.180,36.621,262.695
1532278846.573,39.062,32.227,37.598,36.621,50.781
1532278846.577,41.504,36.133,33.691,30.273,-204.102
1532278846.581,47.363,33.203,34.668,31.250,-34.180
1532278846.584,38.086,30.273,34.180,36.621,256.836
1532278846.588,33.203,33.691,33.691,31.738,134.277
1532278846.592,42.480,35.645,34.668,32.715,-194.824
1532278846.596,41.016,30.273,33.203,33.203,-145.020
1532278846.600,46.387,30.273,31.738,29.785,144.531
1532278846.604,50.781,33.203,31.738,35.645,172.852
1532278846.608,49.316,32.715,33.691,34.180,-88.867
1532278846.612,53.223,34.668,31.250,36.133,-168.457
1532278846.616,48.828,35.156,28.809,41.504,87.891
1532278846.620,33.691,32.715,30.273,31.738,212.891
1532278846.624,35.156,30.273,32.715,24.902,-20.020
1532278846.627,31.250,27.344,34.180,32.227,-204.102
1532278846.631,24.414,24.414,35.645,40.039,45.410
1532278846.635,34.180,23.926,38.086,41.504,302.734
1532278846.639,44.922,31.250,32.227,21.973,55.664
1532278846.643,56.152,38.086,23.926,18.555,-227.051
1532278846.647,60.059,37.109,26.367,31.738,-70.801
1532278846.651,50.781,34.668,27.832,27.832,235.352
1532278846.655,45.410,33.203,25.391,18.555,158.691
1532278846.659,43.945,31.250,26.367,20.020,-155.273
1532278846.663,44.434,26.855,29.297,7.324,-114.746
1532278846.667,42.480,24.414,30.273,-21.484,209.473
1532278846.670,40.039,21.973,32.227,-35.645,249.512
1532278846.674,43.457,20.508,30.273,-45.410,-67.383
1532278846.678,53.711,25.391,22.949,-48.828,-202.637
1532278846.682,52.734,28.809,17.578,-45.898,74.219
1532278846.686,40.527,25.879,21.484,-42.969,272.461
1532278846.690,39.062,22.461,24.414,-46.387,33.691
1532278846.694,48.340,23.438,22.461,-40.039,-200.195
1532278846.698,54.199,22.461,21.484,-22.949,-30.762
1532278846.702,54.199,19.043,24.414,-12.207,239.258
1532278846.706,57.129,20.020,27.832,-20.020,127.441
1532278846.710,59.082,21.973,24.902,-25.879,-169.434
1532278846.713,55.176,22.461,22.461,-14.648,-86.426
1532278846.717,58.105,26.855,20.996,-18.555,194.336
1532278846.721,58.594,27.832,21.973,-29.297,149.414
1532278846.725,55.664,24.414,23.926,-22.461,-147.949
1532278846.729,56.152,21.973,22.949,-16.602,-167.480
1532278846.733,57.617,21.973,21.484,-4.883,157.227
1532278846.737,55.664,23.438,24.414,-5.371,224.609
1532278846.741,57.617,22.461,27.344,-12.207,-89.355
1532278846.745,53.711,20.996,23.438,-14.160,-210.938
1532278846.749,51.758,21.484,22.461,-8.301,86.426
1532278846.753,56.152,21.484,25.879,-0.488,287.598
1532278846.756,57.129,20.020,27.344,-8.789,36.133
1532278846.760,54.688,21.484,23.926,-15.625,-210.938
1532278846.764,48.828,27.344,21.973,-10.254,-22.949
1532278846.768,53.711,26.855,23.438,-6.348,256.836
1532278846.772,55.664,25.391,24.902,-9.766,133.789
1532278846.776,52.246,29.297,20.996,-20.508,-166.992
1532278846.780,59.570,30.762,17.090,-21.484,-132.324
1532278846.784,61.523,30.762,19.531,-6.348,195.801
1532278846.788,62.012,28.809,22.949,-1.953,220.703
1532278846.792,61.523,28.320,23.438,-9.277,-115.723
1532278846.796,50.781,28.320,21.973,-4.883,-202.637
1532278846.799,54.199,28.809,23.438,5.859,117.188
1532278846.803,54.688,30.273,22.949,2.441,265.137
1532278846.807,51.270,29.785,20.996,-3.418,-33.203
1532278846.811,48.828,31.738,22.949,3.418,-205.566
1532278846.815,50.293,31.250,27.344,14.160,56.641
1532278846.819,47.852,28.809,29.297,8.301,239.258
1532278846.823,42.480,28.320,29.297,4.395,29.297
1532278846.827,49.805,27.344,30.273,7.324,-212.891
1532278846.831,52.734,28.809,26.367,11.230,-37.598
1532278846.835,52.246,32.227,23.926,19.531,277.344
1532278846.839,51.758,34.668,20.508,15.625,163.574
1532278846.842,51.758,32.715,22.461,17.090,-161.621
1532278846.846,46.387,28.809,30.273,24.902,-118.652
1532278846.850,48.340,29.297,28.809,19.531,201.660
1532278846.854,49.805,32.715,26.855,19.043,209.473
1532278846.858,39.062,34.180,25.391,8.301,-119.141
1532278846.862,39.551,31.250,24.414,3.418,-208.008
1532278846.866,42.480,27.344,26.855,20.020,95.703
1532278846.870,42.480,27.344,28.320,19.043,241.699
1532278846.874,38.574,27.344,30.273,12.207,9.277
1532278846.878,41.016,24.902,29.785,16.113,-187.988
1532278846.882,44.434,23.438,28.320,22.461,13.184
1532278846.885,46.387,27.344,27.344,21.484,270.996
1532278846.889,47.363,28.809,25.391,13.672,93.750
1532278846.893,47.363,28.320,23.438,11.230,-167.969
1532278846.897,50.293,29.297,22.949,16.113,-62.988
1532278846.901,39.551,28.809,25.391,18.066,221.680
1532278846.905,34.668,28.320,27.344,12.695,163.574
1532278846.909,42.969,28.809,23.926,8.301,-164.551
1532278846.913,54.199,28.809,24.902,25.391,-130.371
1532278846.917,50.293,28.320,28.320,30.273,172.363
1532278846.921,40.039,27.832,27.344,20.020,206.543
1532278846.925,39.551,27.832,26.855,15.137,-51.270
1532278846.928,50.781,28.320,27.344,15.625,-175.781
1532278846.932,56.641,29.297,24.902,19.531,88.867
1532278846.936,58.594,33.691,21.973,16.113,260.254
1532278846.940,56.152,36.133,19.531,10.254,-12.695
1532278846.944,43.945,32.227,20.020,12.207,-229.004
1532278846.948,42.480,27.344,22.461,12.695,-13.184
1532278846.952,42.969,27.832,20.996,10.742,272.461
1532278846.956,43.457,29.785,19.043,10.254,114.746
1532278846.960,47.363,29.297,20.020,3.418,-210.449
1532278846.964,43.945,29.785,19.531,5.371,-85.449
1532278846.968,39.062,30.762,17.578,14.648,245.117
1532278846.971,41.992,30.273,18.066,11.230,215.820
1532278846.975,41.016,29.297,20.020,9.766,-118.164
1532278846.979,44.922,28.809,20.020,9.766,-171.387
1532278846.983,40.527,26.367,23.926,18.066,173.340
1532278846.987,42.480,23.926,28.809,27.832,280.273
1532278846.991,54.199,22.461,28.809,24.902,-24.902
1532278846.995,51.270,25.879,25.391,24.902,-194.336
1532278846.999,53.711,30.273,20.508,18.066,55.176
1532278847.003,53.711,30.273,19.531,14.160,247.070
1532278847.007,51.758,29.297,21.484,19.043,54.199
1532278847.011,51.758,27.832,23.926,16.602,-181.152
1532278847.014,56.152,27.832,23.926,23.438,-14.648
1532278847.018,63.965,30.273,21.484,31.250,270.020
1532278847.022,64.941,28.809,20.996,27.344,132.324
1532278847.026,67.383,28.809,22.461,25.391,-171.875
1532278847.030,68.848,27.832,21.973,34.180,-114.258
1532278847.034,68.359,27.832,22.461,42.969,195.801
1532278847.038,65.918,27.832,27.344,41.504,187.988
1532278847.042,58.594,23.926,30.762,36.133,-127.930
1532278847.046,51.758,20.020,32.227,41.504,-184.570
1532278847.050,58.594,20.996,32.227,50.781,125.977
1532278847.054,61.035,22.949,31.250,48.828,252.930
1532278847.057,56.152,25.879,29.785,38.086,-49.805
1532278847.061,62.012,29.297,25.879,35.156,-225.098
1532278847.065,56.641,28.320,25.879,42.969,32.227
1532278847.069,45.898,25.879,29.785,42.480,254.395
1532278847.073,41.992,24.414,30.762,34.180,62.012
1532278847.077,46.875,23.438,31.250,33.691,-202.148
1532278847.081,52.246,23.926,30.762,40.527,-54.688
1532278847.085,52.734,25.391,30.762,41.016,229.492
1532278847.089,45.410,27.832,28.320,26.367,131.836
1532278847.093,41.016,27.832,26.367,21.973,-167.480
1532278847.097,40.527,25.879,28.320,24.414,-157.227
1532278847.100,39.062,27.344,26.855,25.391,150.879
1532278847.104,38.574,26.855,25.879,21.484,205.566
1532278847.108,38.086,25.879,27.344,13.184,-80.078
1532278847.112,38.574,25.391,24.902,16.113,-179.688
1532278847.116,40.039,26.855,23.926,23.438,102.539
1532278847.120,41.992,28.809,26.367,23.438,259.766
1532278847.124,34.668,26.855,30.273,15.137,13.672
1532278847.128,31.738,27.832,28.320,9.766,-176.270
1532278847.132,36.621,31.250,26.367,19.043,33.203
1532278847.136,41.016,26.855,28.320,26.367,256.836
1532278847.140,41.016,27.344,30.273,15.137,67.383
1532278847.143,37.598,27.832,32.227,11.719,-208.496
1532278847.147,31.250,23.926,31.738,17.090,-85.938
1532278847.151,31.250,24.414,29.297,20.508,243.164
1532278847.155,39.062,25.879,27.832,19.043,200.684
1532278847.159,33.691,24.902,30.273,12.695,-134.766
1532278847.163,30.273,26.367,30.273,17.578,-170.410
1532278847.167,33.203,28.809,29.297,25.879,151.855
1532278847.171,31.738,27.344,30.273,20.996,231.934
1532278847.175,31.738,28.320,28.809,19.043,-68.848
1532278847.179,36.621,27.832,26.367,19.531,-209.473
1532278847.183,29.785,25.879,29.297,23.438,77.148
1532278847.187,25.879,26.855,31.250,22.461,269.531
1532278847.190,31.738,28.320,28.809,15.625,10.742
1532278847.194,36.621,27.344,27.344,15.625,-189.453
1532278847.198,35.645,23.926,26.855,19.043,-12.695
1532278847.202,30.273,23.438,30.273,24.902,218.262
1532278847.206,30.762,23.926,32.715,25.879,114.258
1532278847.210,38.086,26.855,32.715,25.391,-184.570
1532278847.214,42.969,28.320,32.227,38.574,-85.938
1532278847.218,41.504,29.297,29.785,40.527,241.699
1532278847.222,42.480,30.762,27.832,26.855,188.477
1532278847.226,36.621,27.344,30.762,25.879,-129.883
1532278847.230,33.203,25.879,31.738,30.273,-186.035
1532278847.233,37.598,27.344,28.809,32.227,137.695
1532278847.237,39.062,30.762,27.832,32.715,221.191
1532278847.241,43.945,33.691,28.320,22.949,-100.098
1532278847.245,48.340,33.691,28.320,24.414,-211.914
1532278847.249,40.527,32.715,25.391,32.715,39.062
1532278847.253,38.574,33.691,27.832,31.738,245.605
1532278847.257,41.992,34.180,27.344,22.949,26.367
1532278847.261,41.992,33.203,24.902,20.020,-226.074
1532278847.265,41.504,33.203,27.344,25.879,-32.715
1532278847.269,45.898,34.180,27.344,25.391,251.953
1532278847.273,48.340,33.203,23.926,20.996,125.488
1532278847.276,43.945,30.273,23.438,15.137,-183.594
1532278847.280,46.387,28.809,27.344,14.160,-160.156
1532278847.284,48.340,26.855,26.367,19.531,172.363
1532278847.288,45.410,24.414,27.832,23.926,227.539
1532278847.292,47.852,23.926,29.297,27.344,-114.258
1532278847.296,48.340,24.902,28.320,32.227,-213.379
1532278847.300,44.434,24.414,28.320,39.062,97.656
1532278847.304,45.410,24.902,27.344,43.457,225.098
1532278847.308,44.434,26.855,25.879,34.668,-31.250
1532278847.312,50.293,26.855,24.414,34.668,-194.824
1532278847.316,58.105,25.879,25.391,45.410,30.273
1532278847.319,52.734,24.902,26.367,43.457,269.531
1532278847.323,41.992,23.926,27.344,30.762,105.957
1532278847.327,39.551,23.438,28.320,24.902,-162.598
1532278847.331,47.363,24.902,27.832,35.645,-50.293
1532278847.335,51.758,21.484,25.391,43.457,237.305
1532278847.339,52.246,20.996,25.391,28.809,119.141
1532278847.343,52.246,25.879,25.879,22.461,-216.797
1532278847.347,61.035,26.855,26.855,30.762,-162.598
1532278847.351,56.152,24.414,29.297,32.715,176.758
1532278847.355,49.316,22.949,28.809,23.926,224.609
1532278847.359,49.316,24.902,27.832,18.066,-103.516
1532278847.362,45.898,23.438,27.344,22.949,-218.262
1532278847.366,45.410,21.484,27.344,27.344,91.797
1532278847.370,44.922,21.973,28.809,27.344,249.023
1532278847.374,47.363,22.949,29.785,28.809,-7.324
1532278847.378,53.223,22.949,28.320,25.879,-219.238
1532278847.382,53.711,21.973,27.344,30.273,-27.832
1532278847.386,55.176,20.996,24.902,30.762,261.719
1532278847.390,49.805,21.973,24.902,17.578,124.023
1532278847.394,47.852,25.391,25.879,23.926,-167.480
1532278847.398,55.664,27.344,23.438,35.156,-68.848
1532278847.402,55.664,26.367,20.996,35.156,244.629
1532278847.405,53.223,25.879,21.484,25.879,196.289
1532278847.409,54.199,25.879,25.391,17.090,-157.227
1532278847.413,52.734,23.926,25.391,23.438,-176.758
1532278847.417,48.828,22.949,24.414,29.297,142.578
1532278847.421,47.363,25.879,24.414,22.461,193.848
1532278847.425,45.898,26.367,25.879,16.602,-113.770
1532278847.429,53.223,23.926,24.902,18.555,-255.859
1532278847.433,60.059,24.902,29.297,26.855,42.969
1532278847.437,56.641,25.391,32.227,25.879,242.676
1532278847.441,53.711,25.391,30.273,15.137,-3.906
1532278847.445,48.828,26.855,28.320,18.066,-229.980
1532278847.448,45.898,27.832,25.391,25.879,-34.180
1532278847.452,41.504,26.367,24.902,23.926,247.070
1532278847.456,39.551,26.855,27.344,15.625,108.887
1532278847.460,45.410,26.367,27.832,13.184,-177.734
1532278847.464,44.922,25.391,26.855,20.020,-109.863
1532278847.468,44.922,25.879,28.320,26.367,188.477
1532278847.472,44.434,22.461,27.832,20.020,192.383
1532278847.476,37.598,21.484,24.902,12.207,-113.770
1532278847.480,37.109,26.367,21.484,9.766,-182.129
1532278847.484,37.109,25.879,20.020,10.742,119.141
1532278847.488,32.715,25.879,20.996,10.254,256.348
1532278847.491,32.715,27.832,22.949,4.395,-44.434
1532278847.495,36.621,25.391,23.438,9.277,-217.773
1532278847.499,36.133,28.320,22.461,15.625,47.363
1532278847.503,41.504,32.227,19.531,10.254,274.414
1532278847.507,43.945,33.691,17.090,6.348,77.637
1532278847.511,41.504,32.715,18.066,5.371,-187.012
1532278847.515,42.480,31.738,21.973,13.672,-44.434
1532278847.519,41.016,31.250,23.926,19.043,219.727
1532278847.523,41.016,29.297,24.902,9.766,128.906
1532278847.527,37.598,28.320,27.832,8.301,-166.016
1532278847.531,29.785,27.832,27.832,11.719,-135.742
1532278847.534,28.809,27.344,24.902,14.160,177.734
1532278847.538,30.273,26.855,25.391,9.766,205.566
1532278847.542,29.297,25.879,27.344,7.812,-98.145
1532278847.546,26.367,22.949,24.902,10.254,-153.809
1532278847.550,25.391,21.973,22.461,16.113,152.832
1532278847.554,24.902,21.973,21.484,13.184,283.691
1532278847.558,21.484,21.973,19.043,-0.488,-35.156
1532278847.562,22.949,22.461,20.508,-0.488,-238.281
1532278847.566,30.273,21.973,22.949,14.648,16.113
1532278847.570,28.320,23.926,21.484,13.672,224.609
1532278847.574,25.391,25.391,22.949,1.465,37.109
1532278847.577,33.691,25.879,22.949,4.395,-242.676
1532278847.581,38.086,25.391,21.973,11.230,-109.863
1532278847.585,34.668,22.461,21.973,10.742,211.914
1532278847.589,36.133,24.414,23.438,8.789,150.879
1532278847.593,41.016,26.367,22.949,9.766,-158.691
1532278847.597,38.574,23.926,20.996,10.742,-156.250
1532278847.601,32.715,24.902,21.973,11.719,193.848
1532278847.605,29.785,24.414,23.438,16.602,273.438
1532278847.609,34.668,23.438,25.879,18.555,-48.340
1532278847.613,36.621,27.344,23.926,16.602,-171.875
1532278847.617,35.156,30.273,22.461,15.625,100.586
1532278847.620,36.621,32.227,26.855,12.207,244.629
1532278847.624,35.645,30.762,26.855,9.277,0.488
1532278847.628,33.691,29.297,23.926,8.789,-201.172
1532278847.632,33.203,29.297,25.391,17.090,17.578
1532278847.636,34.668,30.273,25.879,22.461,257.812
1532278847.640,34.180,33.203,23.926,11.719,91.797
1532278847.644,33.691,30.762,26.367,9.766,-187.500
1532278847.648,31.250,27.344,27.832,15.625,-102.539
1532278847.652,28.809,29.785,27.344,13.672,191.406
1532278847.656,31.738,28.809,30.762,15.137,149.902
1532278847.660,39.062,28.320,32.715,14.160,-158.203
1532278847.663,43.457,32.227,30.273,18.555,-159.668
1532278847.667,41.016,33.691,28.320,30.273,166.992
1532278847.671,35.156,30.762,29.785,25.879,242.676
1532278847.675,36.133,30.762,34.180,21.973,-69.336
1532278847.679,28.809,21.484,27.344,17.090,-201.172
1532278847.683,17.090,8.789,9.766,9.766,78.613
1532278847.687,21.484,12.695,9.277,14.160,271.973
1532278847.691,29.297,18.066,14.648,14.160,33.691
1532278847.695,29.297,20.996,17.578,12.207,-207.520
1532278847.699,32.715,23.438,17.578,22.949,-11.230
1532278847.703,39.551,25.879,17.578,25.879,251.953
1532278847.706,33.691,25.391,20.508,16.602,108.887
1532278847.710,31.738,26.367,23.926,12.207,-207.031
1532278847.714,38.574,29.297,23.926,20.996,-145.020
1532278847.718,48.828,29.785,23.926,27.344,178.711
1532278847.722,52.246,31.250,24.414,21.973,196.289
1532278847.726,48.340,29.297,24.414,19.531,-100.098
1532278847.730,52.246,28.809,25.879,27.344,-171.387
1532278847.734,51.270,31.738,27.832,30.762,147.461
1532278847.738,46.387,34.180,29.297,29.785,246.582
1532278847.742,44.922,35.156,30.273,23.438,-23.926
1532278847.746,44.434,32.227,29.785,22.461,-192.383
1532278847.749,45.410,32.227,29.785,29.785,35.156
1532278847.753,43.945,30.762,29.785,26.367,268.066
1532278847.757,42.480,29.785,31.738,17.090,60.547
1532278847.761,46.387,30.762,34.180,15.625,-199.707
1532278847.765,52.734,29.297,33.691,30.273,-32.715
1532278847.769,53.711,27.832,33.691,35.645,255.859
1532278847.773,55.664,31.250,34.668,29.785,160.156
1532278847.777,58.594,32.715,35.645,27.832,-149.902
1532278847.781,54.688,32.227,30.762,25.879,-130.859
1532278847.785,53.711,32.715,27.832,30.273,183.105
1532278847.789,51.270,28.809,28.320,28.809,251.465
1532278847.792,50.293,26.855,27.832,21.973,-59.570
1532278847.796,54.199,29.297,28.809,28.320,-187.012
1532278847.800,62.012,29.785,28.320,27.832,95.703
1532278847.804,60.059,27.344,27.344,25.391,252.441
1532278847.808,51.270,27.344,27.344,24.902,-2.441
1532278847.812,57.129,28.320,27.832,27.344,-200.195
1532278847.816,65.430,28.809,28.320,36.621,19.043
1532278847.820,66.406,31.250,28.320,42.480,258.789
1532278847.824,62.500,30.273,27.344,36.133,81.543
1532278847.828,59.570,27.832,27.344,29.785,-210.449
1532278847.832,58.594,28.809,28.320,35.645,-67.383
1532278847.835,57.617,27.344,29.785,38.574,256.836
1532278847.839,56.641,26.367,31.738,26.367,152.344
1532278847.843,51.270,27.344,32.715,20.996,-151.855
1532278847.847,44.434,26.855,33.203,31.250,-132.324
1532278847.851,41.016,27.832,32.227,33.691,176.270
1532278847.855,43.945,28.809,32.227,25.879,262.695
1532278847.859,52.246,29.785,31.738,17.090,-44.922
1532278847.863,54.199,29.785,31.250,20.020,-189.941
1532278847.867,52.246,31.250,30.762,25.879,90.820
1532278847.871,51.270,32.715,28.809,22.949,268.066
1532278847.875,50.781,32.227,27.344,16.602,37.598
1532278847.878,56.152,35.156,28.809,21.973,-205.078
1532278847.882,61.035,35.645,28.320,32.227,-12.695
1532278847.886,64.453,34.668,26.855,36.133,261.719
1532278847.890,62.988,34.668,26.855,30.762,79.590
1532278847.894,61.035,34.668,24.902,28.320,-194.824
1532278847.898,58.105,32.715,23.926,27.832,-139.648
1532278847.902,55.176,32.227,24.414,21.484,145.996
1532278847.906,52.734,29.297,25.391,20.996,170.898
1532278847.910,53.711,28.320,26.367,22.949,-157.715
1532278847.914,55.176,28.809,27.344,29.785,-188.477
1532278847.918,58.105,26.367,28.320,40.039,136.719
1532278847.921,59.570,27.344,27.832,39.551,225.098
1532278847.925,54.199,29.297,29.785,32.227,-65.430
1532278847.929,53.711,27.344,29.785,33.203,-212.402
1532278847.933,56.152,26.367,27.344,40.039,49.805
1532278847.937,52.734,27.832,28.809,35.156,246.094
1532278847.941,52.246,29.785,26.367,20.996,4.395
1532278847.945,54.688,31.250,24.902,18.066,-232.910
1532278847.949,56.641,30.273,27.344,26.367,-45.898
1532278847.953,62.012,29.785,25.879,32.715,254.395
1532278847.957,58.594,30.762,27.344,28.809,141.602
1532278847.961,55.664,31.250,28.809,22.461,-189.453
1532278847.964,59.082,33.203,28.809,25.879,-127.441
1532278847.968,54.688,33.691,30.762,27.832,207.520
1532278847.972,53.711,32.227,31.738,21.484,208.008
1532278847.976,54.688,32.715,30.762,17.090,-115.723
1532278847.980,54.688,30.273,29.785,21.484,-163.086
1532278847.984,54.199,27.832,29.785,25.879,125.000
1532278847.988,55.664,31.250,29.785,25.391,249.023
1532278847.992,59.082,34.180,28.809,22.949,-25.391
1532278847.996,59.082,32.227,28.320,21.484,-199.219
1532278848.000,61.523,31.738,27.832,24.902,29.785
1532278848.004,63.965,33.203,25.879,28.320,229.980
1532278848.007,65.918,33.691,24.414,23.926,52.734
1532278848.011,65.430,30.762,24.902,22.461,-200.684
1532278848.015,64.941,29.297,25.391,29.785,-39.062
1532278848.019,66.406,28.320,25.391,26.367,249.023
1532278848.023,69.336,30.273,26.367,17.090,137.207
1532278848.027,77.637,32.227,26.367,15.137,-165.527
1532278848.031,77.637,31.250,22.949,21.973,-102.051
1532278848.035,72.754,29.785,25.391,35.156,232.422
1532278848.039,72.266,28.809,30.762,30.762,208.496
1532278848.043,68.848,30.273,28.809,23.926,-133.789
1532278848.047,62.500,28.809,27.344,36.621,-187.988
1532278848.050,55.664,25.879,27.832,39.062,116.699
1532278848.054,56.641,27.344,28.320,33.203,257.324
1532278848.058,54.199,30.273,28.320,27.832,-11.719
1532278848.062,51.758,33.691,28.320,25.391,-218.262
1532278848.066,57.129,32.227,26.855,29.297,4.883
1532278848.070,60.059,31.250,24.902,32.227,250.488
1532278848.074,59.570,32.715,26.367,25.879,71.777
1532278848.078,62.988,31.250,25.391,20.508,-202.637
1532278848.082,63.965,31.250,23.438,20.020,-94.727
1532278848.086,60.059,30.762,24.902,22.949,219.238
1532278848.090,58.105,31.250,25.879,20.020,191.895
1532278848.094,57.617,31.738,29.297,14.160,-146.484
1532278848.097,53.711,29.297,28.809,17.578,-157.715
1532278848.101,51.758,29.785,25.391,21.973,151.367
1532278848.105,54.199,30.273,28.809,22.461,216.797
1532278848.109,53.223,31.250,30.762,17.578,-66.895
1532278848.113,50.293,35.156,28.320,17.578,-184.082
1532278848.117,47.363,37.598,24.902,19.531,78.125
1532278848.121,48.340,40.527,24.414,15.625,245.605
1532278848.125,48.340,40.039,26.855,11.230,10.742
1532278848.129,43.945,37.109,29.785,8.301,-222.168
1532278848.133,47.363,36.133,28.809,14.648,-10.254
1532278848.137,55.176,37.598,24.414,20.020,284.180
1532278848.140,54.199,41.992,22.461,11.230,101.562
1532278848.144,47.852,41.016,25.391,4.395,-206.055
1532278848.148,46.875,34.668,32.227,16.113,-89.844
1532278848.152,51.270,29.785,34.180,22.949,229.980
1532278848.156,55.176,31.738,30.762,17.578,191.895
1532278848.160,53.711,36.133,26.855,10.254,-127.930
1532278848.164,54.688,38.574,23.926,10.742,-164.551
1532278848.168,58.594,42.480,19.043,14.648,128.906
1532278848.172,59.082,42.480,18.066,10.742,252.930
1532278848.176,54.688,37.598,23.926,8.789,-30.762
1532278848.180,54.688,35.645,25.879,3.906,-207.520
1532278848.183,53.711,36.621,22.949,3.906,55.176
1532278848.187,52.734,35.156,23.438,12.207,271.484
1532278848.191,59.570,33.203,27.344,19.043,46.875
1532278848.195,57.617,32.227,27.344,13.184,-218.262
1532278848.199,50.293,29.785,26.855,9.766,-25.391
1532278848.203,58.105,30.273,26.367,20.996,277.344
1532278848.207,66.895,33.691,25.879,22.461,154.297
1532278848.211,66.406,33.691,29.785,18.066,-146.484
1532278848.215,59.082,34.180,28.809,20.508,-103.516
1532278848.219,52.246,33.691,28.809,14.648,198.242
1532278848.223,50.781,32.715,32.227,10.254,198.242
1532278848.226,53.711,33.691,31.250,16.602,-100.098
1532278848.230,58.105,36.133,30.762,20.508,-181.641
1532278848.234,53.223,35.156,28.320,20.508,127.441
1532278848.238,52.734,34.180,24.902,11.719,265.137
1532278848.242,56.641,34.668,24.902,6.348,-31.250
1532278848.246,54.688,34.180,25.879,13.672,-166.504
1532278848.250,55.176,33.691,22.949,21.484,66.895
1532278848.254,60.059,34.668,20.020,20.996,250.000
1532278848.258,61.035,36.621,20.020,13.184,42.480
1532278848.262,60.547,36.133,20.996,12.695,-217.285
1532278848.266,59.082,33.691,20.996,18.066,-47.363
1532278848.269,56.152,32.715,20.508,23.438,250.000
1532278848.273,60.059,31.738,19.531,26.855,192.871
1532278848.277,60.059,30.273,20.996,21.973,-127.930
1532278848.281,56.152,28.320,24.902,22.949,-155.273
1532278848.285,57.617,25.879,24.414,32.715,168.945
1532278848.289,59.082,22.949,25.391,31.250,215.332
1532278848.293,59.570,23.926,25.391,26.367,-81.055
1532278848.297,60.547,26.855,19.531,26.367,-162.109
1532278848.301,62.500,29.297,16.602,26.855,106.934
1532278848.305,62.988,30.762,17.090,25.391,250.000
1532278848.309,63.477,29.785,16.602,22.949,-12.695
1532278848.312,62.012,27.832,18.555,27.344,-202.637
1532278848.316,59.082,26.367,20.996,34.668,9.766
1532278848.320,53.711,26.367,23.438,29.785,241.211
1532278848.324,53.711,28.809,23.926,23.438,81.543
1532278848.328,53.223,26.855,22.949,20.508,-179.199
1532278848.332,50.781,23.438,22.461,20.020,-58.594
1532278848.336,47.363,23.438,20.020,21.973,219.238
1532278848.340,43.945,25.391,21.973,18.066,149.902
1532278848.344,42.969,28.320,23.438,15.625,-145.996
1532278848.348,43.945,28.320,23.926,20.020,-162.109
1532278848.352,45.410,26.855,23.438,21.973,156.250
1532278848.355,46.387,27.344,22.461,21.484,254.883
1532278848.359,43.945,28.809,22.461,9.277,-60.059
1532278848.363,39.062,28.809,22.949,3.418,-224.609
1532278848.367,41.992,28.320,23.438,17.578,60.059
1532278848.371,41.016,27.344,26.367,21.973,268.555
1532278848.375,37.109,26.367,24.902,13.184,42.969
1532278848.379,41.504,27.344,23.438,16.113,-229.980
1532278848.383,44.434,27.832,23.438,24.902,-56.641
1532278848.387,42.969,27.344,22.949,23.926,244.629
1532278848.391,49.316,29.297,26.855,20.508,116.699
1532278848.395,50.293,27.832,26.855,16.602,-167.480
1532278848.398,45.410,28.320,23.926,20.508,-98.145
1532278848.402,43.945,28.320,26.855,22.949,185.547
1532278848.406,46.387,29.297,27.344,18.555,192.871
1532278848.410,48.340,32.227,27.344,14.160,-87.402
1532278848.414,50.781,32.227,27.832,18.066,-145.020
1532278848.418,49.316,30.762,25.391,22.461,130.371
1532278848.422,47.852,27.832,26.855,13.672,229.980
1532278848.426,46.387,28.809,27.832,8.301,-45.898
1532278848.430,47.852,31.738,26.855,16.113,-196.289
1532278848.434,53.711,31.250,28.809,22.461,54.688
1532278848.438,53.223,31.738,28.320,20.508,258.789
1532278848.441,48.340,31.738,26.855,9.277,47.363
1532278848.445,49.805,31.250,28.320,15.137,-208.984
1532278848.449,58.105,34.180,27.832,29.297,-60.547
1532278848.453,53.223,37.598,24.902,27.344,232.910
1532278848.457,41.992,32.227,28.320,16.113,122.559
1532278848.461,31.738,29.297,29.785,4.395,-205.566
1532278848.465,33.691,31.250,26.855,11.230,-143.555
1532278848.469,39.551,34.180,24.902,21.973,201.660
1532278848.473,40.039,33.691,25.879,19.531,204.102
1532278848.477,34.668,30.273,28.809,13.672,-122.559
1532278848.481,33.203,26.855,30.762,14.648,-199.707
1532278848.484,41.016,24.902,31.738,24.414,101.074
1532278848.488,50.781,27.344,30.762,26.855,254.883
1532278848.492,50.293,29.297,29.297,21.973,-34.180
1532278848.496,44.922,29.785,27.832,19.531,-222.656
1532278848.500,49.805,31.250,24.414,22.949,20.508
1532278848.504,53.223,33.203,22.461,24.414,253.418
1532278848.508,53.711,33.203,22.461,21.484,75.195
1532278848.512,55.176,31.250,25.391,25.391,-162.109
1532278848.516,51.270,27.832,25.879,29.297,-15.137
1532278848.520,49.316,26.855,24.902,29.785,244.141
1532278848.524,56.152,26.367,26.855,32.715,144.531
1532278848.527,57.617,23.438,25.879,29.785,-143.555
1532278848.531,62.012,26.367,23.438,31.250,-111.328
1532278848.535,64.453,27.344,23.926,39.551,174.316
1532278848.539,57.617,23.926,25.879,36.133,198.730
1532278848.543,53.223,23.438,24.414,25.391,-78.613
1532278848.547,51.758,24.414,23.438,29.297,-156.738
1532278848.551,52.734,25.879,22.949,36.133,101.074
1532278848.555,52.246,25.391,22.461,31.738,254.395
1532278848.559,54.199,26.855,22.461,22.949,7.324
1532278848.563,51.270,27.344,22.461,18.555,-215.332
1532278848.567,47.363,26.367,22.461,27.832,-6.348
1532278848.570,52.734,27.832,22.949,31.738,264.160
1532278848.574,54.199,26.855,25.879,28.320,104.004
1532278848.578,53.223,26.855,27.344,28.809,-187.012
1532278848.582,54.688,25.879,24.902,34.668,-91.797
1532278848.586,52.246,22.949,26.855,40.527,213.379
1532278848.590,51.758,23.926,27.832,35.645,183.594
1532278848.594,52.734,25.879,23.438,28.809,-128.418
1532278848.598,54.199,24.902,22.949,33.203,-179.199
1532278848.602,51.758,25.391,21.484,34.180,126.465
1532278848.606,46.875,27.344,20.020,29.785,212.402
1532278848.610,46.387,27.832,19.531,27.344,-78.125
1532278848.613,46.875,26.367,16.602,30.273,-201.660
1532278848.617,44.922,26.855,14.648,32.715,73.730
1532278848.621,45.410,24.902,17.578,33.203,259.766
1532278848.625,47.852,23.438,20.996,32.227,27.344
1532278848.629,48.828,24.902,20.020,32.715,-193.848
1532278848.633,46.875,23.926,19.043,37.598,-20.508
1532278848.637,45.410,23.926,22.949,36.133,260.254
1532278848.641,41.992,27.344,21.973,24.902,110.352
1532278848.645,39.551,25.391,20.020,23.926,-188.965
1532278848.649,43.945,23.438,22.949,37.109,-83.008
1532278848.653,47.363,25.391,24.414,44.922,219.727
1532278848.656,49.805,27.344,23.926,41.992,190.918
1532278848.660,49.805,27.344,23.926,37.109,-134.766
1532278848.664,49.805,26.855,25.391,39.062,-197.266
1532278848.668,49.805,25.879,23.926,46.387,124.023
1532278848.672,52.246,27.344,24.414,40.039,254.395
1532278848.676,51.758,29.297,27.344,34.180,-45.898
1532278848.680,51.758,29.785,26.855,37.109,-215.820
1532278848.684,49.316,29.297,26.855,41.504,30.762
1532278848.688,41.504,28.320,27.344,40.039,230.469
1532278848.692,38.086,26.855,26.855,33.203,33.203
1532278848.696,36.133,27.344,28.809,29.785,-192.871
1532278848.699,33.691,28.320,30.762,28.809,-36.621
1532278848.703,32.227,29.785,28.809,23.438,244.629
1532278848.707,28.320,30.762,27.832,18.555,148.926
1532278848.711,26.367,31.250,29.297,13.672,-180.176
1532278848.715,28.320,31.250,31.250,20.508,-130.859
1532278848.719,28.320,31.738,31.250,24.414,193.359
1532278848.723,27.832,31.738,30.273,20.996,213.379
1532278848.727,28.809,31.250,29.785,23.438,-95.215
1532278848.731,35.645,31.250,32.715,31.250,-194.824
1532278848.735,34.180,29.297,33.691,35.156,104.004
1532278848.739,27.832,28.809,29.297,27.344,239.746
1532278848.742,34.180,32.227,29.785,18.555,-47.363
1532278848.746,42.969,33.691,29.785,26.855,-222.656
1532278848.750,35.645,30.762,28.320,31.250,30.273
1532278848.754,19.043,27.344,29.785,23.926,270.996
1532278848.758,20.508,30.762,31.250,17.090,77.637
1532278848.762,21.973,33.691,30.273,15.137,-202.637
1532278848.766,21.484,32.227,30.762,23.926,-57.129
1532278848.770,20.020,32.227,33.691,25.391,238.770
1532278848.774,10.742,29.785,38.574,16.113,168.945
1532278848.778,16.113,24.902,42.969,16.602,-142.090
1532278848.782,28.809,24.414,41.992,16.602,-192.871
1532278848.785,27.344,30.762,34.180,15.625,128.906
1532278848.789,22.461,33.203,31.250,16.602,221.191
1532278848.793,24.414,28.809,36.133,11.719,-68.848
1532278848.797,26.367,27.832,34.180,14.160,-155.273
1532278848.801,25.391,27.832,31.738,13.184,85.449
1532278848.805,22.949,26.367,31.250,10.254,260.254
1532278848.809,23.438,24.902,31.738,7.812,20.508
1532278848.813,25.879,22.949,30.273,3.418,-216.309
1532278848.817,31.738,22.461,25.391,12.207,4.395
1532278848.821,39.551,22.461,24.902,15.137,245.605
1532278848.825,38.574,22.461,27.344,8.301,89.844
1532278848.828,34.668,21.484,26.367,11.719,-188.965
1532278848.832,35.645,21.484,23.926,24.902,-101.562
1532278848.836,33.691,20.508,23.438,33.691,226.562
1532278848.840,31.250,20.020,23.438,27.832,191.895
1532278848.844,33.691,20.020,24.902,26.367,-129.883
1532278848.848,33.203,17.578,24.902,33.691,-163.086
1532278848.852,36.621,17.090,22.461,42.969,161.621
1532278848.856,47.363,18.555,22.949,45.410,255.859
1532278848.860,47.363,20.508,23.926,30.762,-82.520
1532278848.864,40.527,19.531,19.531,22.461,-227.051
1532278848.868,38.086,16.602,14.160,29.297,72.266
1532278848.871,37.598,15.625,13.184,31.250,244.141
1532278848.875,39.551,17.578,15.137,28.320,20.508
1532278848.879,41.992,17.578,15.137,26.855,-217.773
1532278848.883,41.504,15.625,13.672,31.250,-32.227
1532278848.887,41.992,16.602,15.137,35.645,281.250
1532278848.891,44.434,17.090,16.113,32.227,140.137
1532278848.895,46.387,15.625,16.113,30.762,-140.137
1532278848.899,48.828,14.648,17.578,37.109,-80.566
1532278848.903,46.387,14.160,17.090,39.062,214.844
1532278848.907,43.457,14.160,13.184,30.762,214.355
1532278848.911,43.457,15.137,12.695,25.391,-105.469
1532278848.914,43.945,16.602,13.184,28.809,-162.598
1532278848.918,41.504,16.113,12.207,29.297,136.719
1532278848.922,39.551,17.578,9.766,20.508,250.000
1532278848.926,40.039,18.066,9.766,19.043,-15.625
1532278848.930,46.387,17.090,12.207,27.832,-188.965
1532278848.934,49.805,16.113,12.207,34.180,56.152
1532278848.938,45.410,12.695,12.695,34.180,275.391
1532278848.942,48.340,11.719,11.719,32.715,60.547
1532278848.946,49.805,12.207,10.742,33.203,-193.848
1532278848.950,49.805,10.254,9.766,39.551,-51.758
1532278848.954,56.152,9.277,10.254,44.922,250.000
1532278848.958,55.176,8.789,11.230,39.551,163.086
1532278848.961,49.805,10.742,9.277,31.738,-153.809
1532278848.965,50.781,9.766,8.789,38.086,-122.559
1532278848.969,48.828,10.254,7.324,41.504,201.660
1532278848.973,44.434,9.277,5.859,32.227,224.609
1532278848.977,45.898,11.230,8.789,27.832,-101.074
1532278848.981,43.457,11.719,10.254,25.391,-203.613
1532278848.985,39.062,8.789,10.742,30.762,103.027
1532278848.989,35.645,9.766,11.719,31.738,260.254
1532278848.993,30.273,10.254,10.742,21.973,-5.859
1532278848.997,30.762,8.789,10.254,23.438,-202.637
1532278849.001,32.715,7.812,12.207,29.785,13.672
1532278849.004,28.320,9.277,14.160,29.297,255.859
1532278849.008,27.344,9.277,16.602,22.949,69.336
1532278849.012,29.297,8.789,16.113,21.973,-210.938
1532278849.016,28.809,9.277,15.625,30.273,-75.684
1532278849.020,26.855,9.766,17.578,30.273,227.539
1532278849.024,22.949,10.254,19.043,19.043,147.461
1532278849.028,21.484,8.301,19.043,18.555,-154.297
1532278849.032,20.996,7.812,18.555,23.926,-146.484
1532278849.036,24.414,8.789,18.066,28.320,160.156
1532278849.040,24.902,10.742,18.066,26.367,234.375
1532278849.044,23.438,12.207,18.555,20.996,-64.941
1532278849.047,26.855,12.695,19.043,23.438,-191.895
1532278849.051,28.809,10.254,20.996,29.785,73.242
1532278849.055,25.879,7.324,22.461,26.855,252.930
1532278849.059,17.090,7.324,19.043,12.695,20.508
1532278849.063,17.090,8.301,16.602,9.277,-195.312
1532278849.067,22.949,9.277,18.555,17.090,-7.324
1532278849.071,20.996,10.254,17.578,14.648,257.324
1532278849.075,15.625,10.742,17.090,5.859,115.723
1532278849.079,15.625,10.254,19.531,3.418,-179.199
1532278849.083,15.137,9.277,19.531,5.859,-87.402
1532278849.087,16.113,6.348,20.020,12.695,237.793
1532278849.090,17.578,7.812,19.043,9.277,209.961
1532278849.094,17.090,11.719,13.184,4.395,-118.164
1532278849.098,16.602,12.695,10.742,4.395,-161.133
1532278849.102,10.742,8.789,13.184,3.418,140.137
1532278849.106,7.324,6.836,14.648,2.441,233.887
1532278849.110,10.742,8.301,17.578,3.418,-62.500
1532278849.114,10.742,4.883,21.973,7.324,-201.660
1532278849.118,11.230,4.395,20.996,12.695,31.250
1532278849.122,13.672,7.324,17.578,6.836,229.004
1532278849.126,14.648,8.301,18.066,2.441,43.945
1532278849.130,19.043,10.742,14.648,6.836,-219.238
1532278849.133,22.461,9.766,13.184,11.719,-32.715
1532278849.137,17.578,4.395,15.625,9.766,251.465
1532278849.141,16.602,2.930,16.113,0.977,105.957
1532278849.145,17.578,3.906,15.137,2.441,-169.434
1532278849.149,19.043,1.953,14.648,7.812,-90.820
1532278849.153,20.508,0.977,13.184,13.184,197.266
1532278849.157,21.484,4.395,14.160,12.695,192.871
1532278849.161,22.949,4.883,14.160,2.930,-140.137
1532278849.165,24.902,1.465,12.207,8.301,-201.660
1532278849.169,28.809,-2.441,13.672,23.438,126.465
1532278849.173,34.180,-2.441,15.137,29.297,240.723
1532278849.176,38.086,-2.930,12.207,26.855,-31.738
1532278849.180,35.645,-3.906,9.277,23.926,-215.332
1532278849.184,42.480,-2.930,8.789,30.273,20.020
1532278849.188,45.898,-3.418,9.277,31.738,242.188
1532278849.192,37.109,-1.953,8.789,24.414,51.270
1532278849.196,39.551,-2.441,7.324,28.320,-203.125
1532278849.200,41.016,-4.883,6.836,32.227,-62.988
1532278849.204,37.598,-3.418,6.348,31.250,224.609
1532278849.208,36.133,-4.395,5.859,31.250,146.484
1532278849.212,39.062,-5.371,4.395,29.785,-159.668
1532278849.216,42.480,-3.418,1.465,35.156,-141.602
1532278849.219,42.969,-3.418,0.000,39.551,178.711
1532278849.223,43.457,-0.488,1.465,36.133,220.215
1532278849.227,44.434,0.488,2.930,32.227,-83.496
1532278849.231,44.922,0.488,6.348,37.109,-195.312
1532278849.235,44.434,-0.977,6.836,43.457,102.539
1532278849.239,41.504,-0.488,6.348,37.598,280.762
1532278849.243,41.504,-0.977,7.812,29.297,19.043
1532278849.247,40.527,-2.930,10.254,34.180,-224.121
1532278849.251,44.434,-2.930,9.766,40.039,-9.277
1532278849.255,41.504,-2.441,8.789,37.598,278.320
1532278849.259,32.227,-3.418,9.766,28.809,107.422
1532278849.262,33.691,-2.441,8.301,17.090,-213.379
1532278849.266,36.621,-2.441,7.812,26.855,-114.746
1532278849.270,38.574,-0.977,9.277,37.109,227.051
1532278849.274,40.039,1.953,10.254,30.762,185.547
1532278849.278,40.527,1.465,9.277,24.902,-143.066
1532278849.282,37.109,0.977,8.789,25.391,-157.227
1532278849.286,41.016,-0.488,7.812,32.227,173.340
1532278849.290,41.992,0.000,6.836,34.180,229.004
1532278849.294,41.504,1.465,7.324,27.832,-82.520
1532278849.298,40.527,-0.977,5.371,26.855,-199.707
1532278849.302,32.715,-4.883,5.371,28.809,52.734
1532278849.305,35.156,-4.883,7.812,25.879,241.699
1532278849.309,37.598,-2.930,4.395,21.973,3.906
1532278849.313,34.668,-1.953,2.930,23.438,-217.285
1532278849.317,31.738,-4.395,6.836,29.297,-15.137
1532278849.321,29.785,-4.395,6.348,26.367,236.816
1532278849.325,30.273,-1.465,5.371,20.508,112.793
1532278849.329,29.785,0.488,4.395,16.113,-182.129
1532278849.333,29.297,0.977,2.441,19.531,-130.371
1532278849.337,28.809,-2.441,3.418,24.414,205.078
1532278849.341,30.762,-2.441,5.371,20.508,194.336
1532278849.345,29.785,-1.953,3.906,13.184,-118.652
1532278849.348,29.297,-0.977,3.418,17.090,-145.020
1532278849.352,33.203,0.488,1.465,23.926,135.254
1532278849.356,35.156,0.977,0.488,21.484,258.301
1532278849.360,37.109,4.883,3.906,11.230,-19.043
1532278849.364,31.250,4.395,4.395,4.883,-232.422
1532278849.368,28.320,4.395,5.859,18.066,28.809
1532278849.372,25.391,3.418,7.324,19.531,290.527
1532278849.376,24.902,3.418,7.324,15.137,58.594
1532278849.380,31.250,2.930,8.789,17.578,-232.422
1532278849.384,30.762,3.418,10.742,19.043,-49.316
1532278849.388,28.320,5.371,7.812,17.090,255.859
1532278849.391,29.297,7.324,4.883,12.207,126.953
1532278849.395,33.203,8.789,8.301,12.207,-162.109
1532278849.399,35.156,9.277,7.324,11.719,-114.258
1532278849.403,33.203,10.254,2.930,8.301,153.809
1532278849.407,30.762,12.695,-0.977,5.859,173.340
1532278849.411,32.227,12.207,0.488,0.488,-93.262
1532278849.415,35.156,10.254,3.906,5.859,-177.734
1532278849.419,33.203,7.812,4.883,15.625,82.031
1532278849.423,27.832,5.859,4.883,12.207,238.281
1532278849.427,29.297,5.371,7.324,9.766,-27.832
1532278849.431,30.762,3.906,9.277,14.648,-222.168
1532278849.434,32.715,3.418,8.789,20.996,23.438
1532278849.438,30.762,6.348,8.301,16.113,234.863
1532278849.442,27.832,8.789,10.742,2.441,-20.508
1532278849.446,21.973,6.836,9.766,-4.883,-278.320
1532278849.450,16.602,5.371,7.324,1.953,-80.078
1532278849.454,19.531,8.789,7.812,8.789,220.215
1532278849.458,20.020,12.695,8.789,2.441,152.832
1532278849.462,19.043,12.695,10.254,-4.883,-164.062
1532278849.466,19.043,10.254,10.742,0.977,-148.926
1532278849.470,18.555,11.230,11.719,9.766,198.242
1532278849.474,12.695,12.207,9.277,2.441,239.258
1532278849.477,10.254,13.184,6.836,-5.859,-73.730
1532278849.481,9.277,12.695,7.812,-1.465,-171.387
1532278849.485,12.207,11.719,8.301,2.930,99.121
1532278849.489,15.625,15.625,5.859,1.465,250.977
1532278849.493,10.254,19.531,6.836,-6.348,-6.836
1532278849.497,13.672,19.043,6.836,-8.789,-204.102
1532278849.501,22.949,18.555,4.395,-4.883,-0.488
1532278849.505,24.902,19.043,3.906,-3.906,257.324
1532278849.509,16.602,17.090,5.859,-1.953,115.234
1532278849.513,10.742,15.625,8.301,3.906,-194.824
1532278849.517,13.672,17.578,6.836,12.207,-94.238
1532278849.520,13.672,18.066,6.348,6.348,198.730
1532278849.524,7.324,16.602,8.301,-3.418,136.230
1532278849.528,9.277,14.160,10.742,0.488,-162.109
1532278849.532,9.277,12.695,10.742,5.371,-175.293
1532278849.536,3.418,12.695,11.230,9.766,141.602
1532278849.540,6.348,13.184,12.207,7.324,218.262
1532278849.544,7.812,15.625,12.207,-0.977,-86.914
1532278849.548,5.371,17.090,11.230,5.859,-204.102
1532278849.552,2.930,17.090,8.789,13.184,88.379
1532278849.556,0.977,16.602,9.766,5.859,267.090
1532278849.560,0.000,15.625,10.254,-3.418,24.414
1532278849.563,0.977,16.113,11.230,-2.441,-193.848
1532278849.567,1.953,15.625,11.230,4.395,-18.066
1532278849.571,1.953,14.160,10.254,5.859,226.562
1532278849.575,4.395,16.602,12.207,2.441,106.445
1532278849.579,6.836,16.602,10.742,-2.441,-178.711
1532278849.583,11.230,16.602,11.230,2.441,-128.418
1532278849.587,12.695,15.625,14.648,12.207,187.988
1532278849.591,14.160,14.160,11.719,9.277,208.984
1532278849.595,19.531,15.137,13.672,7.324,-92.773
1532278849.599,20.508,16.602,14.648,11.230,-172.363
1532278849.603,19.043,16.602,12.695,18.555,129.395
1532278849.606,18.555,16.602,13.672,17.578,236.328
1532278849.610,20.508,16.113,15.137,8.789,-53.223
1532278849.614,20.508,15.625,15.625,8.301,-203.613
1532278849.618,22.949,15.137,13.184,17.090,38.574
1532278849.622,31.738,17.578,11.719,19.531,213.867
1532278849.626,37.598,19.043,7.812,12.695,15.137
1532278849.630,32.227,18.066,6.348,10.742,-224.121
1532278849.634,32.227,17.578,4.395,16.113,-58.105
1532278849.638,41.504,16.602,0.977,24.414,207.520
1532278849.642,46.875,16.113,2.441,25.391,110.840
1532278849.646,43.945,16.113,2.930,23.926,-169.434
1532278849.649,44.434,17.090,2.441,31.738,-140.137
1532278849.653,43.457,17.090,1.953,41.992,180.664
1532278849.657,41.504,16.113,1.465,42.480,214.355
1532278849.661,46.875,25.879,7.324,44.434,-111.816
1532278849.665,48.340,32.227,13.184,47.363,-210.938
1532278849.669,39.551,26.855,7.324,44.434,83.984
1532278849.673,36.621,23.926,4.883,39.062,245.117
1532278849.677,31.250,24.414,5.371,30.273,16.113
1532278849.681,24.902,21.973,6.836,24.902,-197.754
1532278849.685,26.855,19.043,5.371,29.297,19.531
1532278849.689,25.391,18.066,4.395,33.203,283.691
1532278849.692,24.414,16.602,7.812,25.879,94.238
1532278849.696,20.996,15.137,8.301,23.926,-191.895
1532278849.700,22.461,14.160,7.324,23.438,-87.891
1532278849.704,21.484,16.113,7.324,19.043,204.102
1532278849.708,16.602,19.043,8.301,20.020,144.531
1532278849.712,22.461,21.973,9.277,20.508,-145.996
1532278849.716,25.391,21.484,7.812,24.414,-99.609
1532278849.720,21.484,21.973,5.859,23.926,178.223
1532278849.724,20.996,23.438,7.812,13.184,186.523
1532278849.728,21.484,21.973,6.348,13.672,-100.098
1532278849.732,23.926,21.484,3.418,25.391,-177.734
1532278849.735,28.809,19.531,2.441,30.762,122.070
1532278849.739,22.949,18.066,2.930,27.832,262.695
1532278849.743,16.602,19.043,3.418,23.926,8.301
1532278849.747,18.555,18.066,2.441,20.996,-198.242
1532278849.751,16.113,18.066,1.953,24.414,1.465
1532278849.755,17.578,19.043,1.953,26.367,276.855
1532278849.759,24.414,21.973,3.906,24.902,123.535
1532278849.763,25.879,22.461,0.977,24.414,-193.359
1532278849.767,26.855,20.020,0.488,31.738,-95.215
1532278849.771,25.879,16.602,2.930,36.133,219.238
1532278849.775,17.090,14.648,2.441,27.832,179.688
1532278849.778,16.113,14.648,0.000,17.578,-144.043
1532278849.782,18.066,16.113,-1.953,19.043,-192.383
1532278849.786,17.090,17.090,-3.418,24.414,133.789
1532278849.790,16.113,17.090,-1.953,20.508,237.305
1532278849.794,15.625,19.531,0.977,14.160,-55.664
1532278849.798,16.113,17.578,0.977,14.160,-196.289
1532278849.802,15.137,16.602,0.977,19.531,53.711
1532278849.806,21.484,17.090,0.977,21.484,250.000
1532278849.810,24.414,16.113,-0.488,13.184,3.418
1532278849.814,18.066,18.066,0.000,9.277,-226.562
1532278849.818,20.020,18.066,-1.953,18.066,-3.418
1532278849.822,19.531,19.043,-3.906,15.625,252.441
1532278849.825,20.996,20.996,-3.418,7.812,127.441
1532278849.829,25.391,19.531,-0.977,16.113,-152.344
1532278849.833,27.832,19.531,-0.488,25.391,-107.910
1532278849.837,26.367,21.484,-1.465,26.855,178.711
1532278849.841,24.902,21.484,-0.977,19.043,192.383
1532278849.845,28.320,18.555,-1.953,16.602,-112.793
1532278849.849,27.832,17.090,-1.953,24.902,-179.688
1532278849.853,23.926,17.578,-2.441,30.762,125.977
1532278849.857,21.484,17.578,-3.418,30.273,260.742
1532278849.861,20.508,19.043,-1.953,22.461,-38.574
1532278849.865,19.531,20.508,-0.977,20.020,-226.562
1532278849.868,22.949,19.043,-3.906,30.273,79.102
1532278849.872,24.902,19.043,-3.906,33.691,306.641
1532278849.876,25.879,18.066,-1.953,24.902,96.191
1532278849.880,25.391,18.555,-1.465,17.578,-179.688
1532278849.884,19.531,20.020,-1.465,20.020,-47.852
1532278849.888,20.508,21.484,-0.977,24.902,239.258
1532278849.892,21.973,22.461,-1.953,20.020,170.898
1532278849.896,15.137,20.508,-1.465,15.137,-147.949
1532278849.900,13.184,21.973,-1.465,18.066,-154.297
1532278849.904,12.695,22.949,-0.977,19.043,163.086
1532278849.908,5.371,20.996,2.441,12.695,214.355
1532278849.911,0.977,22.461,5.371,2.441,-77.148
1532278849.915,0.977,22.949,4.883,5.859,-159.668
1532278849.919,6.348,22.461,2.930,12.207,122.070
1532278849.923,6.348,22.949,3.418,3.906,245.117
1532278849.927,0.000,24.902,3.906,-3.906,2.441
1532278849.931,0.488,26.367,5.859,0.488,-179.688
1532278849.935,3.906,27.344,7.812,7.324,44.434
1532278849.939,0.000,29.785,9.766,7.324,264.648
1532278849.943,-3.418,30.762,12.207,0.977,87.402
1532278849.947,-4.395,30.273,12.207,-3.906,-170.410
1532278849.951,-6.348,29.785,11.230,0.488,-67.871
1532278849.954,-8.789,27.344,9.766,1.953,217.285
1532278849.958,-13.184,27.344,8.301,-5.859,164.062
1532278849.962,-17.090,28.320,9.277,-18.066,-169.434
1532278849.966,-15.625,27.344,9.277,-16.602,-184.570
1532278849.970,-9.277,29.785,8.789,-6.348,159.668
1532278849.974,-9.277,31.250,9.766,-11.719,232.422
1532278849.978,-16.113,30.762,10.742,-18.066,-65.918
1532278849.982,-15.625,32.227,11.230,-12.695,-187.988
1532278849.986,-16.113,28.809,11.230,-7.324,101.562
1532278849.990,-22.949,28.320,11.230,-8.301,269.043
1532278849.994,-20.020,33.203,12.695,-12.207,14.160
1532278849.997,-15.137,31.738,14.160,-10.742,-198.242
1532278850.001,-16.113,30.273,14.648,-9.766,-28.809
1532278850.005,-10.742,30.273,15.625,-8.301,204.590
1532278850.009,-9.277,28.320,17.090,-6.348,83.984
1532278850.013,-11.230,29.297,16.602,-8.789,-210.449
1532278850.017,-9.277,31.250,12.207,-4.395,-109.375
1532278850.021,-10.742,33.203,12.207,-0.977,193.848
1532278850.025,-7.812,32.715,15.137,-3.418,151.855
1532278850.029,-6.836,32.227,14.160,-8.301,-136.230
1532278850.033,-8.301,32.227,12.695,-5.371,-172.852
1532278850.037,-7.812,29.297,14.648,-1.953,146.973
1532278850.040,-3.418,29.297,15.625,-1.953,230.957
1532278850.044,-0.977,34.668,11.230,-5.859,-73.730
1532278850.048,-0.488,36.621,7.812,-5.859,-232.910
1532278850.052,-8.301,35.156,11.230,-6.348,51.270
1532278850.056,-17.090,33.691,11.719,-10.742,265.137
1532278850.060,-19.531,30.762,9.277,-16.113,0.977
1532278850.064,-20.508,28.320,13.184,-17.578,-238.281
1532278850.068,-19.043,26.855,13.672,-9.277,-30.273
1532278850.072,-16.113,30.762,9.277,-6.836,248.047
1532278850.076,-14.648,36.621,7.324,-15.137,128.906
1532278850.080,-15.137,35.156,5.371,-19.531,-195.801
1532278850.083,-17.578,32.715,6.348,-10.742,-150.879
1532278850.087,-13.672,32.227,12.207,-1.953,196.289
1532278850.091,-12.207,31.250,12.207,-6.348,200.684
1532278850.095,-11.719,30.762,9.277,-6.836,-108.398
1532278850.099,-7.324,29.297,10.742,-1.953,-137.695
1532278850.103,-5.371,28.809,12.207,-4.395,132.324
1532278850.107,-7.324,29.785,11.230,-3.906,253.906
1532278850.111,-2.930,29.297,7.324,-4.883,17.578
1532278850.115,2.930,27.832,5.859,0.000,-164.551
1532278850.119,-2.441,27.344,9.277,4.395,45.410
1532278850.123,-6.836,27.832,6.836,-0.488,252.930
1532278850.126,-1.465,28.320,5.371,-1.953,63.477
1532278850.130,2.930,27.832,6.348,2.930,-208.496
1532278850.134,2.930,27.344,3.906,8.301,-54.688
1532278850.138,2.441,29.297,5.859,10.742,239.746
1532278850.142,0.977,32.715,8.301,0.488,139.648
1532278850.146,-0.488,33.203,6.836,-5.859,-168.457
1532278850.150,0.488,31.738,7.324,7.812,-140.625
1532278850.154,1.953,30.762,7.324,12.695,173.828
1532278850.158,-4.395,29.297,4.883,6.836,226.562
1532278850.162,-3.906,28.809,3.906,6.348,-71.289
1532278850.166,3.418,28.809,3.418,13.184,-166.016
1532278850.169,3.906,28.809,1.953,16.113,119.629
1532278850.173,5.859,27.832,4.395,12.695,236.816
1532278850.177,6.836,27.832,4.395,10.742,-30.762
1532278850.181,10.254,28.320,1.465,12.695,-220.215
1532278850.185,10.254,25.879,0.488,17.578,-1.953
1532278850.189,5.371,22.949,1.953,14.160,272.461
1532278850.193,2.441,23.926,2.930,2.441,108.887
1532278850.197,4.395,23.926,2.930,4.395,-192.383
1532278850.201,12.695,25.879,4.395,15.137,-97.656
1532278850.205,18.555,28.320,4.883,17.090,199.219
1532278850.209,18.555,29.297,7.812,16.113,198.242
1532278850.212,17.090,30.762,7.812,17.578,-117.188
1532278850.216,19.043,29.785,4.395,22.461,-154.297
1532278850.220,22.461,28.320,3.418,24.414,138.184
1532278850.224,17.578,28.809,2.441,21.484,207.031
1532278850.228,13.672,28.320,4.883,16.113,-54.688
1532278850.232,17.578,26.367,7.324,19.043,-181.152
1532278850.236,15.137,23.926,5.859,19.531,69.824
1532278850.240,15.625,26.367,2.930,16.113,249.512
1532278850.244,18.555,30.762,5.371,16.113,18.555
1532278850.248,13.672,29.297,7.324,15.625,-207.031
1532278850.252,11.230,25.391,6.348,17.090,-11.719
1532278850.255,12.207,25.391,7.812,18.555,251.465
1532278850.259,12.207,26.367,7.812,13.184,101.074
1532278850.263,8.789,27.344,7.812,2.441,-218.750
1532278850.267,10.742,26.367,7.812,8.301,-148.438
1532278850.271,12.695,25.391,8.301,20.020,192.383
1532278850.275,13.672,26.855,8.301,16.113,197.754
1532278850.279,21.484,28.320,8.789,10.742,-142.090
1532278850.283,18.555,30.273,9.766,10.742,-190.918
1532278850.287,16.113,30.273,8.789,16.602,136.719
1532278850.291,14.648,29.785,7.324,15.137,241.699
1532278850.295,13.672,26.855,7.812,9.277,-42.969
1532278850.298,20.020,27.832,9.277,16.113,-194.824
1532278850.302,24.414,29.297,8.301,17.090,45.410
1532278850.306,18.555,26.855,9.277,12.207,270.996
1532278850.310,11.230,24.902,10.742,7.324,48.828
1532278850.314,12.207,26.855,11.230,8.789,-233.398
1532278850.318,16.113,28.320,11.719,17.578,-46.875
1532278850.322,18.066,30.762,12.695,19.043,244.629
1532278850.326,14.648,32.715,11.719,11.719,110.840
1532278850.330,13.672,32.715,11.230,9.277,-196.289
1532278850.334,17.578,30.273,13.184,16.113,-131.836
1532278850.338,16.113,27.832,15.137,19.043,172.363
1532278850.341,15.625,30.273,16.602,11.230,156.250
1532278850.345,15.137,31.250,18.555,4.883,-152.832
1532278850.349,11.719,28.809,19.043,8.789,-194.336
1532278850.353,8.789,26.367,17.578,15.625,113.770
1532278850.357,4.883,27.344,18.066,12.695,248.047
1532278850.361,4.883,30.273,20.508,4.883,-33.203
1532278850.365,3.906,32.227,22.461,5.371,-205.566
1532278850.369,3.906,33.203,21.973,6.836,43.457
1532278850.373,6.348,33.203,20.020,1.465,270.020
1532278850.377,5.859,34.180,23.438,-6.348,75.684
1532278850.381,3.418,36.621,24.414,-12.695,-223.633
1532278850.384,0.000,37.598,20.996,-11.230,-96.191
1532278850.388,0.000,36.621,20.996,-4.395,235.840
1532278850.392,0.977,36.621,24.414,-6.836,177.246
1532278850.396,-0.977,37.598,24.414,-12.207,-140.625
1532278850.400,0.000,36.133,20.996,-7.324,-126.953
1532278850.404,-1.953,35.645,20.996,-4.395,194.336
1532278850.408,-4.395,38.086,22.461,-9.766,234.863
1532278850.412,-3.906,39.062,24.414,-15.625,-96.191
1532278850.416,-5.371,39.062,23.438,-12.207,-186.523
1532278850.420,-4.395,40.527,23.926,-4.395,84.473
1532278850.424,-3.418,41.992,27.344,-8.789,220.703
1532278850.427,-1.953,40.039,28.809,-12.695,-2.930
1532278850.431,-3.418,40.527,26.855,-9.766,-212.891
1532278850.435,-0.488,41.016,24.414,-1.465,-1.953
1532278850.439,-2.930,39.551,25.879,-1.953,258.789
1532278850.443,-14.648,38.574,29.785,-17.578,97.656
1532278850.447,-17.578,38.574,28.320,-21.484,-205.566
1532278850.451,-11.230,38.574,25.879,-11.230,-103.027
1532278850.455,-10.254,38.086,27.344,-9.277,218.262
1532278850.459,-10.254,41.016,28.320,-16.113,172.363
1532278850.463,-6.836,43.945,31.250,-18.555,-138.184
1532278850.467,-3.418,41.016,28.320,-15.137,-175.293
1532278850.470,-2.930,39.062,26.367,-15.137,128.418
1532278850.474,-8.789,37.598,25.879,-21.973,220.215
1532278850.478,-10.742,36.621,26.367,-24.414,-77.637
1532278850.482,-11.719,35.156,29.785,-23.438,-215.820
1532278850.486,-8.301,35.156,32.227,-16.602,39.062
1532278850.490,-1.953,34.668,34.180,-7.812,234.863
1532278850.494,-3.418,34.180,31.738,-11.719,11.719
1532278850.498,1.465,35.645,29.297,-11.719,-231.445
1532278850.502,6.348,37.109,30.762,-7.812,-46.875
1532278850.506,5.859,37.598,27.832,-10.742,239.746
1532278850.510,5.371,37.598,25.879,-17.090,134.766
1532278850.513,8.789,35.156,28.320,-15.137,-187.500
1532278850.517,4.883,34.180,29.297,-6.348,-135.254
1532278850.521,-3.906,33.203,28.809,-3.418,177.246
1532278850.525,-4.395,34.180,31.738,-5.371,177.246
1532278850.529,-5.859,34.668,32.227,-3.418,-108.398
1532278850.533,-4.395,33.691,32.715,5.371,-144.531
1532278850.537,-3.418,34.180,30.762,9.766,176.270
1532278850.541,-8.789,33.203,28.809,4.883,265.625
1532278850.545,-6.348,34.180,30.762,0.000,-28.809
1532278850.549,-4.883,35.645,33.691,0.000,-189.941
1532278850.553,-3.418,36.133,32.715,1.465,59.082
1532278850.556,0.488,35.156,31.250,-1.465,275.879
1532278850.560,0.977,39.062,31.250,-12.695,45.898
1532278850.564,-2.930,41.016,31.250,-26.855,-209.961
1532278850.568,-2.441,38.086,30.762,-18.066,-16.113
1532278850.572,-5.371,37.109,30.762,-10.254,269.043
1532278850.576,-6.348,36.621,31.250,-15.625,129.395
1532278850.580,-5.371,37.109,29.785,-14.160,-176.758
1532278850.584,-0.977,36.133,29.297,-6.348,-119.141
1532278850.588,-3.418,35.156,27.344,-1.953,181.641
1532278850.592,-9.766,36.133,26.367,-6.836,195.801
1532278850.596,-9.277,36.621,27.344,-10.742,-90.332
1532278850.599,-10.254,35.645,28.320,-5.371,-164.551
1532278850.603,-7.812,36.621,28.320,1.465,126.953
1532278850.607,-4.883,36.133,26.367,2.441,254.395
1532278850.611,-2.930,33.203,26.855,-0.488,-48.828
1532278850.615,0.488,33.691,28.320,-0.977,-229.492
1532278850.619,2.441,37.109,27.832,8.301,6.348
1532278850.623,6.836,40.039,26.855,3.418,225.098
1532278850.627,8.789,41.016,24.902,-8.301,63.477
1532278850.631,9.766,40.039,23.438,-1.953,-180.664
1532278850.635,9.277,38.574,22.461,5.859,-80.078
1532278850.639,6.348,37.109,23.438,6.836,211.914
1532278850.642,7.324,37.109,21.973,-2.441,150.879
1532278850.646,8.789,37.109,19.043,-2.441,-150.391
1532278850.650,8.789,34.668,20.996,3.906,-133.789
1532278850.654,13.184,33.691,22.461,7.324,182.617
1532278850.658,13.672,34.668,23.438,7.812,241.211
1532278850.662,10.254,35.156,27.832,-3.418,-76.660
1532278850.666,10.254,34.180,27.832,-6.836,-185.547
1532278850.670,13.184,32.715,25.879,5.371,102.051
1532278850.674,13.184,31.738,27.832,7.812,280.273
1532278850.678,8.789,30.762,27.832,2.441,41.016
1532278850.682,8.301,31.738,27.832,4.883,-192.383
1532278850.686,13.672,34.180,29.297,9.766,-2.441
1532278850.689,12.207,34.180,27.344,10.742,263.672
1532278850.693,15.137,35.156,26.367,9.277,114.746
1532278850.697,18.066,34.668,25.879,3.906,-186.523
1532278850.701,16.113,33.203,24.414,2.441,-103.027
1532278850.705,17.090,34.668,25.391,6.836,198.730
1532278850.709,15.137,35.645,25.391,6.348,162.109
1532278850.713,15.137,36.621,25.391,0.000,-153.320
1532278850.717,19.043,38.574,24.902,3.906,-169.434
1532278850.721,22.461,38.086,23.926,8.301,116.699
1532278850.725,25.391,36.133,26.367,7.324,186.035
1532278850.729,26.367,36.133,27.344,8.301,-76.660
1532278850.732,29.785,37.598,27.344,11.719,-198.730
1532278850.736,32.227,37.598,26.367,19.043,74.219
1532278850.740,29.785,37.109,23.926,14.160,260.254
1532278850.744,25.391,39.062,21.484,4.395,6.348
1532278850.748,23.438,41.016,21.973,8.301,-222.656
1532278850.752,28.809,39.551,24.414,18.066,-30.273
1532278850.756,26.855,36.621,24.414,16.602,259.766
1532278850.760,21.484,39.551,26.367,10.254,145.508
1532278850.764,25.879,40.527,26.855,8.301,-193.848
1532278850.768,25.391,36.621,23.438,10.742,-143.066
1532278850.772,20.996,34.668,23.926,14.160,185.547
1532278850.775,19.531,34.180,23.926,7.324,166.016
1532278850.779,19.531,32.715,22.949,-0.488,-149.414
1532278850.783,20.996,32.227,21.973,4.395,-185.547
1532278850.787,19.531,31.738,20.996,10.742,127.441
1532278850.791,16.602,30.762,21.484,5.371,252.930
1532278850.795,16.602,32.715,22.461,-3.418,-30.273
1532278850.799,14.648,32.227,23.438,-2.441,-201.172
1532278850.803,9.766,31.738,24.902,-3.418,22.461
1532278850.807,6.348,32.715,25.391,-7.812,215.332
1532278850.811,1.465,30.762,23.926,-8.789,45.410
1532278850.815,-0.977,33.203,25.391,-7.324,-172.852
1532278850.818,3.906,34.180,27.832,2.930,-37.598
1532278850.822,7.812,32.715,28.320,9.277,221.680
1532278850.826,9.766,34.668,30.273,7.324,143.555
1532278850.830,14.160,34.668,30.273,7.324,-160.156
1532278850.834,20.020,32.715,27.832,10.742,-137.695
1532278850.838,23.926,35.156,29.297,14.648,204.102
1532278850.842,19.531,35.645,28.320,12.695,225.098
1532278850.846,17.090,34.180,26.855,5.859,-96.680
1532278850.850,16.602,33.691,27.832,9.766,-151.367
1532278850.854,17.578,33.203,26.367,18.066,139.648
1532278850.858,17.090,31.250,27.832,18.066,261.719
1532278850.861,13.184,32.715,26.855,6.836,-23.438
1532278850.865,18.555,36.133,25.879,3.418,-220.215
1532278850.869,21.484,33.203,25.391,17.090,24.902
1532278850.873,14.648,30.273,24.414,20.020,266.113
1532278850.877,19.043,34.180,27.832,14.160,93.750
1532278850.881,24.414,35.156,28.320,13.672,-187.988
1532278850.885,23.438,32.227,27.344,19.531,-56.641
1532278850.889,18.066,31.250,27.832,20.508,235.840
1532278850.893,12.695,30.762,27.344,10.254,160.156
1532278850.897,10.742,30.762,27.832,5.859,-153.809
1532278850.901,15.625,31.738,28.809,13.672,-177.246
1532278850.904,21.484,32.227,27.832,14.160,108.887
1532278850.908,17.578,33.203,28.320,12.207,201.660
1532278850.912,10.742,32.715,31.250,11.719,-40.039
1532278850.916,12.695,32.715,30.273,14.648,-176.270
1532278850.920,17.090,33.691,27.832,17.578,73.730
1532278850.924,15.137,33.203,28.320,11.230,235.352
1532278850.928,11.230,33.203,30.273,8.301,-11.230
1532278850.932,13.184,32.227,31.738,10.742,-229.004
1532278850.936,16.113,27.832,31.738,17.090,-12.695
1532278850.940,16.113,27.832,31.250,14.160,264.648
1532278850.944,13.672,31.738,32.227,5.371,83.008
1532278850.947,18.066,33.691,35.645,7.812,-217.773
1532278850.951,25.391,31.250,36.133,18.066,-91.797
1532278850.955,19.043,27.832,34.180,21.484,227.051
1532278850.959,14.160,29.297,31.738,17.090,185.547
1532278850.963,20.020,31.250,31.250,15.137,-148.438
1532278850.967,27.344,29.785,32.715,20.020,-171.387
1532278850.971,25.879,30.273,29.785,21.484,153.320
1532278850.975,24.414,29.785,28.809,17.090,261.230
1532278850.979,24.902,29.297,27.832,15.137,-32.227
1532278850.983,22.949,29.785,26.855,17.090,-209.961
1532278850.987,22.461,28.320,28.809,22.949,44.434
1532278850.990,19.531,29.297,28.320,19.043,252.930
1532278850.994,15.137,32.227,28.809,8.789,42.480
1532278850.998,16.602,31.250,32.715,11.719,-184.570
1532278851.002,22.461,30.762,30.762,20.996,-22.461
1532278851.006,19.531,33.203,27.832,25.879,249.512
1532278851.010,19.531,33.203,30.273,19.531,142.578
1532278851.014,22.461,31.250,31.250,10.742,-172.363
1532278851.018,19.531,29.785,29.785,16.113,-108.887
1532278851.022,13.184,30.762,30.762,15.625,198.730
1532278851.026,10.254,32.715,33.691,11.230,181.152
1532278851.030,13.672,32.227,32.227,14.160,-147.949
1532278851.033,16.602,31.738,32.227,14.648,-210.938
1532278851.037,18.066,31.738,35.645,18.555,135.254
1532278851.041,20.020,31.738,38.086,13.672,231.445
1532278851.045,20.508,30.273,37.109,1.465,-58.594
1532278851.049,20.020,29.297,36.621,5.371,-201.660
1532278851.053,20.508,31.250,36.621,13.184,41.016
1532278851.057,16.602,29.785,36.621,13.184,268.555
1532278851.061,8.301,29.297,35.645,7.812,66.406
1532278851.065,5.859,29.297,34.668,6.348,-207.520
1532278851.069,7.324,28.809,35.156,15.137,-47.363
1532278851.073,5.859,29.297,33.203,15.137,240.234
1532278851.076,9.277,29.785,31.738,5.371,157.227
1532278851.080,12.695,29.785,33.203,1.953,-160.645
1532278851.084,10.254,27.832,31.738,1.953,-180.664
1532278851.088,13.184,25.391,30.762,10.254,158.691
1532278851.092,18.555,26.367,31.250,14.160,234.375
1532278851.096,20.996,29.297,33.203,8.301,-69.824
1532278851.100,19.531,29.297,33.203,10.742,-180.664
1532278851.104,20.508,27.832,30.273,16.602,87.891
1532278851.108,20.508,28.320,29.785,15.625,250.977
1532278851.112,21.484,30.273,30.273,11.719,-0.977
1532278851.116,21.484,29.297,30.762,12.695,-221.191
1532278851.119,20.020,28.809,29.785,16.602,6.348
1532278851.123,18.555,29.297,29.297,17.578,258.789
1532278851.127,17.090,27.832,31.738,13.672,63.965
1532278851.131,15.625,26.855,32.715,11.230,-204.102
1532278851.135,14.160,27.344,30.273,12.207,-67.383
1532278851.139,17.090,28.809,29.785,16.113,245.605
1532278851.143,15.625,29.785,33.203,3.906,159.668
1532278851.147,15.137,29.785,32.715,-8.789,-170.898
1532278851.151,20.508,26.855,28.809,4.883,-155.273
1532278851.155,21.484,25.391,27.344,15.137,163.574
1532278851.159,18.066,26.855,27.344,10.254,233.398
1532278851.162,18.066,26.367,28.809,1.953,-69.824
1532278851.166,18.555,26.855,28.809,8.301,-218.750
1532278851.170,20.508,26.855,27.344,16.602,62.988
1532278851.174,21.484,25.391,27.832,10.254,258.301
1532278851.178,18.555,26.367,31.250,3.906,15.137
1532278851.182,20.996,27.344,34.668,3.418,-243.164
1532278851.186,18.555,31.250,34.180,5.859,-68.848
1532278851.190,13.672,33.203,33.691,10.254,255.371
1532278851.194,11.719,31.738,36.133,5.859,132.324
1532278851.198,14.160,31.250,36.621,2.441,-174.805
1532278851.202,16.113,32.715,36.133,5.859,-108.398
1532278851.205,18.555,33.691,36.621,10.742,216.797
1532278851.209,19.043,31.250,38.086,11.719,212.402
1532278851.213,13.672,32.227,37.598,8.789,-128.906
1532278851.217,17.578,33.691,38.574,10.742,-165.527
1532278851.221,20.020,32.715,39.551,17.578,148.926
1532278851.225,16.602,30.273,39.062,14.648,239.258
1532278851.229,16.113,30.762,39.551,10.254,-39.551
1532278851.233,15.625,30.273,41.016,14.648,-182.129
1532278851.237,14.648,25.879,40.039,20.020,78.125
1532278851.241,11.719,31.738,37.109,11.230,276.367
1532278851.245,7.324,38.086,32.227,-3.418,42.969
1532278851.248,9.766,38.574,30.273,-5.371,-193.848
1532278851.252,10.254,40.527,28.320,1.465,3.418
1532278851.256,7.324,39.062,29.785,7.812,276.367
1532278851.260,7.324,37.109,33.203,2.441,141.113
1532278851.264,13.672,39.551,33.203,1.465,-181.152
1532278851.268,20.508,40.039,32.227,13.672,-133.301
1532278851.272,22.949,40.039,29.297,18.555,195.801
1532278851.276,22.949,41.016,25.879,13.184,206.055
1532278851.280,22.949,40.527,26.855,10.254,-138.184
1532278851.284,25.879,39.062,26.367,9.277,-222.656
1532278851.288,23.438,38.086,23.926,6.836,113.770
1532278851.291,21.973,38.086,23.926,5.859,249.512
1532278851.295,24.414,38.574,24.902,2.441,-34.668
1532278851.299,24.414,38.574,25.391,5.371,-232.422
1532278851.303,25.391,37.598,24.414,15.137,15.625
1532278851.307,26.367,36.133,23.438,16.602,276.855
1532278851.311,28.320,36.133,24.414,12.695,67.871
1532278851.315,28.809,36.621,23.926,9.277,-211.914
1532278851.319,28.320,36.133,21.484,18.066,-76.172
1532278851.323,30.762,37.598,23.438,17.090,202.148
1532278851.327,33.691,37.598,24.414,6.348,135.254
1532278851.331,34.180,37.598,21.484,8.789,-149.902
1532278851.334,34.668,37.109,23.438,16.602,-115.723
1532278851.338,35.156,37.109,24.414,22.949,205.078
1532278851.342,35.156,36.133,23.438,17.578,240.723
1532278851.346,31.738,34.180,23.926,10.254,-84.961
1532278851.350,30.762,33.691,22.461,12.207,-199.219
1532278851.354,35.156,33.203,20.508,18.555,127.930
1532278851.358,38.574,32.715,20.996,17.090,292.969
1532278851.362,42.480,33.203,23.438,10.254,-9.277
1532278851.366,46.875,34.180,23.926,7.324,-228.516
1532278851.370,53.223,33.691,21.484,17.578,-6.836
1532278851.374,55.664,34.180,22.461,20.508,274.414
1532278851.377,49.316,35.156,23.438,16.602,124.023
1532278851.381,47.852,34.180,24.902,22.949,-180.664
1532278851.385,46.875,32.715,23.926,34.668,-78.125
1532278851.389,35.156,29.785,22.461,39.062,206.543
1532278851.393,33.691,27.832,24.902,33.691,169.434
1532278851.397,36.621,30.273,24.902,30.273,-133.301
1532278851.401,35.645,30.273,22.461,34.180,-173.828
1532278851.405,35.156,28.809,22.949,40.527,146.484
1532278851.409,32.715,27.344,24.414,33.691,237.793
1532278851.413,32.715,27.344,20.508,22.461,-62.988
1532278851.417,34.668,28.809,20.020,26.367,-193.848
1532278851.420,45.410,31.250,23.926,35.156,72.266
1532278851.424,49.805,33.203,22.949,31.738,249.512
1532278851.428,40.527,32.715,22.461,24.414,12.695
1532278851.432,41.992,32.715,23.926,26.367,-199.707
1532278851.436,44.434,32.715,23.438,35.156,-20.020
1532278851.440,38.086,29.785,23.438,34.668,220.215
1532278851.444,33.203,29.785,24.902,14.160,69.824
1532278851.448,33.691,31.250,25.391,8.789,-200.195
1532278851.452,30.762,31.738,25.391,21.484,-103.027
1532278851.456,29.785,32.715,26.367,23.926,199.219
1532278851.460,30.762,32.227,26.855,19.531,163.086
1532278851.463,27.832,31.738,27.832,7.812,-183.594
1532278851.467,32.227,31.738,25.879,10.254,-204.102
1532278851.471,29.785,28.809,22.949,25.391,139.648
1532278851.475,20.996,24.902,23.926,25.879,262.695
1532278851.479,26.367,25.879,25.879,20.020,-29.297
1532278851.483,29.785,27.344,27.344,19.531,-213.379
1532278851.487,31.738,30.273,28.809,25.391,62.988
1532278851.491,31.250,33.691,31.738,25.879,272.461
1532278851.495,34.180,36.133,32.227,20.508,35.156
1532278851.499,39.551,36.621,32.227,25.391,-212.891
1532278851.503,40.527,31.738,32.715,31.250,-63.477
1532278851.506,37.109,29.297,29.785,26.367,211.914
1532278851.510,30.762,28.320,28.809,23.926,149.902
1532278851.514,31.738,27.832,31.738,21.973,-157.227
1532278851.518,32.227,29.297,32.715,26.367,-134.277
1532278851.522,30.273,27.832,30.273,28.320,191.406
1532278851.526,27.344,27.832,28.320,19.043,215.332
1532278851.530,26.367,28.320,25.391,10.742,-97.168
1532278851.534,29.785,27.832,27.344,15.137,-162.109
1532278851.538,38.086,28.320,28.809,25.879,127.930
1532278851.542,41.016,27.832,28.320,26.855,229.492
1532278851.546,35.645,27.832,28.320,21.973,-41.992
1532278851.549,28.809,26.367,26.367,20.996,-201.172
1532278851.553,26.367,25.391,26.855,25.879,36.621
1532278851.557,24.414,26.855,28.320,26.855,269.531
1532278851.561,20.996,26.367,28.320,15.625,84.473
1532278851.565,15.137,24.414,28.809,6.836,-238.770
1532278851.569,11.719,23.926,28.809,15.625,-84.473
1532278851.573,11.719,24.902,27.344,18.555,273.926
1532278851.577,14.160,27.832,29.785,12.207,180.664
1532278851.581,18.066,28.320,33.203,12.695,-171.387
1532278851.585,22.461,28.320,32.715,19.531,-155.273
1532278851.589,21.484,29.297,32.715,27.344,195.312
1532278851.593,22.461,31.738,31.738,22.949,213.867
1532278851.596,25.391,30.273,30.273,14.160,-109.375
1532278851.600,24.902,29.297,28.320,20.508,-209.473
1532278851.604,22.461,29.785,26.367,22.461,79.590
1532278851.608,18.066,29.297,29.785,18.066,263.672
1532278851.612,17.090,27.832,28.809,16.113,2.930
1532278851.616,20.996,26.367,27.832,18.555,-209.961
1532278851.620,21.973,27.832,26.367,24.902,16.113
1532278851.624,18.066,28.809,22.949,17.578,255.371
1532278851.628,20.996,28.320,23.926,12.695,92.773
1532278851.632,24.902,27.832,24.902,19.043,-182.129
1532278851.636,28.320,28.320,22.461,24.902,-94.238
1532278851.639,26.855,27.832,21.484,27.344,220.215
1532278851.643,26.367,27.344,20.508,20.996,181.641
1532278851.647,30.273,27.832,20.996,18.555,-148.926
1532278851.651,28.320,27.344,24.902,23.926,-157.715
1532278851.655,23.438,27.832,26.855,27.832,154.785
1532278851.659,22.949,26.855,29.297,28.320,234.375
1532278851.663,17.578,25.879,30.273,14.648,-75.684
1532278851.667,16.602,26.367,29.785,12.695,-200.684
1532278851.671,20.020,25.391,29.785,25.879,92.773
1532278851.675,19.043,26.367,28.809,22.461,259.277
1532278851.679,19.043,27.832,27.344,13.184,11.230
1532278851.682,20.996,29.785,27.344,13.672,-213.867
1532278851.686,22.949,31.250,28.809,23.438,-46.387
1532278851.690,20.996,30.762,28.320,24.414,234.863
1532278851.694,18.066,29.785,27.832,12.207,103.027
1532278851.698,20.508,30.273,29.785,14.648,-200.684
1532278851.702,22.949,30.273,30.273,22.949,-125.488
1532278851.706,22.949,29.297,28.809,24.414,183.105
1532278851.710,22.949,30.273,29.785,24.414,190.918
1532278851.714,24.902,29.785,28.809,19.531,-123.535
1532278851.718,26.367,28.320,25.879,23.438,-167.480
1532278851.722,24.902,27.832,27.344,31.250,137.207
1532278851.725,25.879,29.785,27.344,32.227,257.324
1532278851.729,23.438,31.250,25.879,23.926,-28.809
1532278851.733,25.391,30.273,26.367,24.414,-228.027
1532278851.737,33.203,32.715,27.832,36.133,12.207
1532278851.741,33.691,33.203,27.344,33.203,249.512
1532278851.745,30.762,32.715,25.391,20.508,59.082
1532278851.749,26.367,32.227,26.367,16.113,-189.941
1532278851.753,22.949,29.785,29.297,22.461,-40.527
1532278851.757,24.414,29.297,30.273,25.879,243.164
1532278851.761,21.973,28.320,28.809,20.020,155.762
1532278851.765,18.555,26.367,30.762,14.160,-174.316
1532278851.768,25.879,27.344,31.250,23.438,-142.090
1532278851.772,27.832,29.297,29.297,37.109,215.332
1532278851.776,28.809,30.273,29.297,35.645,243.164
1532278851.780,26.367,29.297,29.297,24.902,-122.559
1532278851.784,21.484,30.762,30.273,16.113,-227.539
1532278851.788,21.484,30.273,27.344,21.484,88.867
1532278851.792,18.555,27.832,29.297,25.391,224.121
1532278851.796,17.090,28.320,32.227,20.020,-35.645
1532278851.800,20.020,27.344,30.762,21.973,-198.730
1532278851.804,21.484,29.297,29.297,31.250,35.156
1532278851.808,22.949,29.297,29.297,34.180,269.043
1532278851.811,20.996,25.391,29.297,26.855,90.332
1532278851.815,28.320,27.344,31.738,23.926,-186.523
1532278851.819,23.926,21.484,24.902,21.484,-72.266
1532278851.823,34.668,33.691,38.086,37.109,236.328
1532278851.827,-6.348,-7.324,-2.441,-9.277,188.477
1532278851.831,-271.484,-271.484,-270.508,-283.691,-149.414
1532278851.835,-500.488,-500.488,-499.512,-511.230,-158.203
1532278851.839,-518.555,-524.902,-522.949,-526.855,161.133
1532278851.843,-525.391,-531.738,-532.227,-534.180,221.680
1532278851.847,-552.246,-547.852,-550.293,-562.988,-78.125
1532278851.851,-526.855,-521.973,-526.855,-538.574,-209.473
1532278851.854,-481.934,-479.980,-489.746,-482.910,74.219
1532278851.858,-456.055,-449.219,-463.379,-454.102,271.484
1532278851.862,-429.688,-415.039,-431.152,-436.035,2.441
1532278851.866,-408.691,-398.438,-413.574,-421.875,-222.168
1532278851.870,-410.156,-401.855,-419.922,-416.992,16.602
1532278851.874,-402.832,-391.113,-412.598,-405.273,268.555
1532278851.878,-386.230,-374.512,-393.066,-391.602,112.793
1532278851.882,-368.652,-357.422,-371.582,-377.930,-198.730
1532278851.886,-348.145,-335.938,-351.562,-356.445,-134.277
1532278851.890,-328.125,-316.406,-334.473,-327.637,209.473
1532278851.894,-312.012,-298.340,-313.965,-314.453,185.547
1532278851.897,-292.969,-278.320,-296.875,-299.316,-152.344
1532278851.901,-272.461,-260.254,-281.738,-270.020,-172.363
1532278851.905,-253.906,-246.094,-263.672,-248.535,156.250
1532278851.909,-236.816,-229.492,-244.629,-237.305,245.605
1532278851.913,-222.168,-210.938,-227.051,-226.562,-57.129
1532278851.917,-207.520,-195.801,-213.867,-208.496,-222.168
1532278851.921,-194.336,-180.664,-199.219,-187.012,31.250
1532278851.925,-184.570,-166.992,-184.570,-185.059,236.328
1532278851.929,-174.805,-155.273,-169.922,-184.082,25.879
1532278851.933,-163.086,-144.531,-160.645,-167.480,-205.566
1532278851.937,-155.273,-135.254,-153.809,-151.855,-24.414
1532278851.940,-147.461,-125.488,-145.996,-143.555,246.094
1532278851.944,-135.254,-114.746,-134.277,-138.184,105.957
1532278851.948,-125.000,-106.445,-124.512,-127.930,-172.363
1532278851.952,-114.258,-98.633,-115.723,-112.305,-93.750
1532278851.956,-99.609,-88.379,-104.980,-97.168,221.191
1532278851.960,-97.656,-81.055,-98.145,-97.656,215.332
1532278851.964,-98.145,-75.684,-91.309,-101.074,-102.051
1532278851.968,-91.309,-68.359,-84.961,-88.379,-155.273
1532278851.972,-79.590,-62.012,-78.125,-74.707,116.211
1532278851.976,-72.754,-55.664,-71.777,-76.172,217.773
1532278851.980,-70.801,-47.852,-63.965,-73.242,-29.297
1532278851.983,-60.547,-40.527,-55.664,-63.477,-213.867
1532278851.987,-55.664,-35.645,-48.340,-54.688,24.902
1532278851.991,-44.434,-29.297,-40.039,-43.457,252.441
1532278851.995,-29.297,-14.648,-29.785,-36.621,50.781
1532278851.999,-24.902,-6.836,-22.461,-30.273,-161.133
1532278852.003,-20.996,-5.371,-20.508,-22.461,-8.301
1532278852.007,-21.973,-7.324,-19.043,-20.020,248.047
1532278852.011,-21.484,-5.859,-17.090,-20.508,170.410
1532278852.015,-13.672,-0.977,-12.207,-20.508,-131.348
1532278852.019,-16.113,-1.953,-9.277,-18.555,-125.488
1532278852.023,-21.484,-5.859,-12.695,-22.949,180.176
1532278852.026,-25.391,-6.836,-13.672,-31.250,190.918
1532278852.030,-28.320,-7.324,-12.207,-36.133,-117.188
1532278852.034,-27.832,-8.789,-10.254,-32.715,-199.219
1532278852.038,-27.344,-5.371,-9.766,-27.344,121.582
1532278852.042,-29.297,-3.418,-7.812,-31.250,263.184
1532278852.046,-26.855,-0.488,-5.371,-35.156,-2.930
1532278852.050,-22.949,4.883,-2.930,-31.250,-195.312
1532278852.054,-17.578,8.301,0.000,-20.508,-2.441
1532278852.058,-7.324,20.996,17.578,-3.906,258.301
1532278852.062,15.625,42.969,43.457,7.812,83.496
1532278852.066,35.645,58.594,62.012,17.090,-220.215
1532278852.069,36.133,59.570,65.918,28.320,-72.266
1532278852.073,28.320,52.246,56.641,25.879,250.977
1532278852.077,35.156,59.082,64.941,28.320,173.828
1532278852.081,45.898,70.801,78.125,36.621,-155.273
1532278852.085,54.688,77.148,85.938,46.875,-177.734
1532278852.089,64.453,87.891,94.727,65.430,141.113
1532278852.093,67.871,97.168,100.586,70.801,228.516
1532278852.097,74.219,99.609,103.516,69.336,-66.406
1532278852.101,80.566,100.586,106.445,76.172,-192.871
1532278852.105,85.449,103.027,109.375,85.938,82.031
1532278852.109,87.402,103.516,109.863,86.426,233.398
1532278852.112,90.332,102.051,111.328,82.520,-6.348
1532278852.116,95.215,104.980,110.840,86.914,-214.355
1532278852.120,94.727,103.516,109.863,93.750,-20.996
1532278852.124,95.215,104.004,108.887,92.285,218.262
1532278852.128,100.586,108.887,110.352,89.844,72.754
1532278852.132,102.539,112.793,114.746,94.727,-183.594
1532278852.136,103.027,112.305,112.793,98.633,-98.145
1532278852.140,109.375,114.258,113.770,104.980,208.008
1532278852.144,112.305,119.629,120.117,105.469,179.199
1532278852.148,110.840,116.699,120.117,101.562,-122.070
1532278852.152,105.957,107.910,113.281,100.586,-145.020
1532278852.155,98.145,101.074,105.469,100.098,130.859
1532278852.159,97.168,98.145,103.027,95.215,225.098
1532278852.163,99.609,101.074,106.445,91.309,-60.059
1532278852.167,102.539,105.469,107.422,97.656,-206.055
1532278852.171,108.398,107.910,106.445,106.934,75.195
1532278852.175,111.328,107.910,109.863,105.469,257.324
1532278852.179,114.258,107.422,113.281,99.609,23.438
1532278852.183,116.211,108.887,111.816,95.703,-209.961
1532278852.187,116.211,109.863,108.398,92.285,-56.641
1532278852.191,116.699,110.352,105.469,96.191,212.891
1532278852.195,114.258,109.375,107.910,97.656,105.957
1532278852.198,112.793,106.445,106.445,96.680,-191.406
1532278852.202,110.840,104.004,101.074,98.633,-125.488
1532278852.206,102.051,102.051,103.027,102.051,184.570
1532278852.210,96.191,100.586,102.539,100.098,158.691
1532278852.214,95.703,100.586,100.586,94.238,-143.555
1532278852.218,97.168,100.098,101.562,99.121,-157.227
1532278852.222,102.539,98.145,100.586,106.934,124.023
1532278852.226,102.051,97.168,99.609,102.051,206.543
1532278852.230,100.586,97.168,99.121,94.727,-49.316
1532278852.234,100.586,98.145,95.703,93.262,-192.871
1532278852.238,97.168,96.680,91.797,95.215,57.129
1532278852.241,99.121,92.285,90.820,91.309,258.301
1532278852.245,101.074,93.750,92.773,86.426,55.176
1532278852.249,97.168,93.750,93.750,85.449,-208.008
1532278852.253,98.145,91.309,90.820,89.355,-82.520
1532278852.257,95.703,90.332,91.309,92.285,221.680
1532278852.261,93.262,89.844,93.750,84.961,158.203
1532278852.265,90.820,89.355,89.844,72.266,-177.734
1532278852.269,88.379,89.844,86.426,72.754,-150.391
1532278852.273,88.379,87.402,83.984,81.055,211.426
1532278852.277,87.891,84.961,79.590,75.684,244.629
1532278852.281,85.938,83.984,78.613,68.359,-86.914
1532278852.284,82.520,82.031,76.172,71.777,-200.195
1532278852.288,83.496,77.637,73.730,75.684,79.102
1532278852.292,82.520,77.637,77.637,72.266,249.023
1532278852.296,82.031,80.566,80.078,65.430,-17.578
1532278852.300,79.102,77.148,80.566,66.895,-234.863
1532278852.304,72.754,75.195,77.637,70.801,-24.902
1532278852.308,70.312,74.707,75.195,70.312,247.559
1532278852.312,65.918,73.242,75.684,63.965,94.238
1532278852.316,62.988,73.242,76.172,58.594,-193.359
1532278852.320,64.941,70.801,75.195,63.965,-47.852
1532278852.324,67.383,69.824,77.637,64.453,238.770
1532278852.327,65.430,70.312,77.637,57.617,152.832
1532278852.331,62.500,69.824,76.660,57.129,-168.945
1532278852.335,61.523,66.406,75.195,60.059,-164.062
1532278852.339,60.059,65.918,73.730,63.965,163.574
1532278852.343,64.453,68.359,74.219,58.105,201.172
1532278852.347,65.918,69.824,74.707,47.852,-95.703
1532278852.351,62.012,67.383,72.266,52.246,-209.961
1532278852.355,63.965,66.895,71.777,59.570,62.988
1532278852.359,63.477,68.359,71.777,58.594,295.410
1532278852.363,62.012,70.312,69.824,47.852,44.922
1532278852.367,59.570,69.824,67.383,42.969,-218.262
1532278852.370,58.105,66.406,66.406,46.875,-19.043
1532278852.374,60.547,65.918,68.848,45.898,254.883
1532278852.378,58.105,64.941,67.871,41.504,138.184
1532278852.382,57.617,63.965,62.500,40.527,-171.387
1532278852.386,57.617,66.895,59.570,47.363,-110.840
1532278852.390,54.688,65.918,64.453,49.805,199.707
1532278852.394,54.199,63.477,62.500,37.109,188.965
1532278852.398,58.105,65.430,61.035,31.738,-123.047
1532278852.402,62.500,66.406,65.918,41.504,-172.363
1532278852.406,63.477,66.406,64.453,39.551,104.004
1532278852.410,60.547,68.359,68.848,32.715,211.426
1532278852.413,28.809,50.781,49.805,10.254,-55.176
1532278852.417,0.977,29.297,24.414,-13.672,-191.895
1532278852.421,2.930,32.227,33.691,-5.859,77.637
1532278852.425,5.371,39.551,40.527,-2.930,273.926
1532278852.429,11.719,46.875,47.363,-10.742,56.641
1532278852.433,17.090,51.270,54.199,-13.672,-198.730
1532278852.437,12.207,49.316,52.246,-9.277,-36.133
1532278852.441,1.953,46.875,53.711,-8.789,233.887
1532278852.445,-3.906,50.293,58.105,-16.113,94.727
1532278852.449,-0.977,54.199,63.965,-15.137,-194.824
1532278852.453,7.324,56.152,64.941,-2.441,-120.605
1532278852.457,0.000,45.898,51.758,-13.184,195.312
1532278852.460,-33.203,13.672,20.020,-51.270,208.984
1532278852.464,-59.570,-6.348,-2.441,-76.660,-119.141
1532278852.468,-82.031,-24.414,-17.578,-95.215,-191.406
1532278852.472,-121.582,-68.359,-64.453,-126.953,129.883
1532278852.476,-182.129,-129.395,-126.953,-187.500,273.438
1532278852.480,-224.609,-168.457,-164.062,-234.863,-16.113
1532278852.484,-235.352,-177.246,-171.875,-243.652,-216.797
1532278852.488,-240.723,-181.152,-172.363,-241.699,31.250
1532278852.492,-240.234,-178.223,-169.922,-236.328,262.207
1532278852.496,-230.469,-170.410,-165.527,-233.887,81.543
1532278852.500,-222.656,-164.062,-161.621,-229.492,-200.195
1532278852.503,-210.449,-155.273,-158.691,-217.285,-104.492
1532278852.507,-198.242,-146.484,-151.367,-201.172,193.359
1532278852.511,-188.965,-141.602,-142.090,-192.383,140.137
1532278852.515,-174.805,-133.789,-131.348,-184.082,-148.926
1532278852.519,-163.574,-128.906,-127.441,-166.504,-144.043
1532278852.523,-154.785,-123.047,-124.512,-154.297,157.715
1532278852.527,-145.996,-114.258,-114.258,-148.438,217.773
1532278852.531,-130.859,-103.516,-107.422,-137.207,-92.285
1532278852.535,-118.164,-96.680,-99.609,-121.582,-207.031
1532278852.539,-107.910,-90.820,-94.727,-106.934,100.098
1532278852.543,-101.074,-82.031,-88.379,-102.051,255.371
1532278852.546,-87.891,-73.730,-80.566,-99.121,-22.461
1532278852.550,-73.242,-65.918,-72.754,-83.496,-210.449
1532278852.554,-66.406,-58.594,-67.383,-64.941,21.484
1532278852.558,-57.129,-54.199,-62.500,-51.758,262.695
1532278852.562,-46.387,-49.316,-52.246,-49.805,109.863
1532278852.566,-36.621,-41.992,-44.922,-44.922,-156.250
1532278852.570,-24.902,-32.227,-37.598,-28.320,-71.289
1532278852.574,-13.184,-21.973,-28.809,-12.695,233.887
1532278852.578,-9.277,-15.137,-19.531,-7.812,185.547
1532278852.582,-1.953,-7.812,-12.695,-4.395,-154.785
1532278852.586,12.207,3.418,-5.371,8.789,-186.523
1532278852.589,28.320,12.207,2.930,26.855,153.809
1532278852.593,34.180,14.648,4.883,29.785,256.836
1532278852.597,35.156,19.043,12.207,27.344,-44.434
1532278852.601,41.504,25.391,19.043,36.621,-190.430
1532278852.605,43.945,27.832,21.484,47.363,71.777
1532278852.609,44.434,27.832,20.996,45.898,267.578
1532278852.613,35.645,21.973,13.184,27.832,30.762
1532278852.617,23.926,9.766,-0.488,13.672,-180.176
1532278852.621,23.926,1.953,-9.277,18.066,-8.301
1532278852.625,17.578,-4.883,-14.160,10.254,244.629
1532278852.629,8.789,-13.184,-23.438,-7.324,137.695
1532278852.632,11.719,-13.672,-25.391,-6.348,-181.152
1532278852.636,14.160,-11.230,-22.461,2.930,-94.727
1532278852.640,13.184,-10.742,-22.461,8.789,257.812
1532278852.644,18.066,-7.324,-20.508,1.953,188.965
1532278852.648,24.414,-4.883,-17.578,-3.418,-164.551
1532278852.652,26.367,-2.930,-13.672,10.742,-174.805
1532278852.656,31.738,3.906,-8.301,22.949,149.414
1532278852.660,32.715,10.254,-3.418,20.508,258.789
1532278852.664,33.691,17.090,4.395,17.090,-38.574
1532278852.668,41.992,22.949,13.672,30.273,-228.027
1532278852.672,48.828,26.855,16.602,41.992,31.738
1532278852.675,51.758,31.738,22.461,43.945,265.625
1532278852.679,43.945,28.320,20.020,34.668,46.875
1532278852.683,39.062,25.391,12.695,25.879,-220.703
1532278852.687,37.598,25.879,9.766,25.879,-44.922
1532278852.691,26.855,16.113,5.371,20.996,280.762
1532278852.695,18.555,8.789,0.977,10.742,171.875
1532278852.699,15.625,6.348,-1.953,3.906,-165.039
1532278852.703,14.160,4.883,-0.488,6.836,-144.043
1532278852.707,12.207,3.906,1.465,8.301,158.691
1532278852.711,11.719,6.348,0.000,3.906,210.449
1532278852.715,3.906,8.301,0.000,0.977,-101.074
1532278852.718,4.883,9.277,2.441,7.324,-181.641
1532278852.722,14.160,9.277,3.906,12.695,118.164
1532278852.726,9.277,9.277,4.883,8.789,246.094
1532278852.730,3.418,9.277,7.324,7.812,-10.742
1532278852.734,7.324,10.742,10.254,15.137,-189.941
1532278852.738,13.672,11.719,12.695,22.949,48.828
1532278852.742,15.137,13.672,11.719,18.555,266.602
1532278852.746,15.625,17.090,10.742,6.836,45.898
1532278852.750,9.766,16.602,10.742,5.371,-226.074
1532278852.754,14.160,19.531,18.555,21.484,-72.754
1532278852.758,33.203,31.738,31.250,37.109,233.398
1532278852.761,41.504,42.480,41.016,39.062,171.387
1532278852.765,43.457,52.246,48.340,41.016,-146.973
1532278852.769,53.711,61.035,55.176,50.781,-145.508
1532278852.773,59.082,62.012,59.082,59.082,168.945
1532278852.777,56.152,54.688,49.805,50.781,225.586
1532278852.781,42.480,43.457,36.621,28.320,-66.895
1532278852.785,27.344,33.691,28.809,11.719,-204.102
1532278852.789,18.555,25.391,20.996,13.184,71.289
1532278852.793,9.277,19.531,12.695,13.672,274.414
1532278852.797,7.812,18.555,13.184,4.883,7.812
1532278852.801,14.160,18.066,16.113,6.348,-221.191
1532278852.804,19.531,18.066,16.602,12.207,-13.672
1532278852.808,17.578,18.555,16.113,13.672,238.281
1532278852.812,12.207,17.578,18.066,11.230,84.961
1532278852.816,10.742,18.066,19.531,7.324,-216.797
1532278852.820,14.648,18.066,16.602,15.137,-105.957
1532278852.824,15.625,19.043,20.020,16.113,210.449
1532278852.828,16.113,24.414,23.438,9.277,173.828
1532278852.832,15.625,26.367,20.996,9.766,-130.859
1532278852.836,19.043,25.879,18.555,18.555,-154.297
1532278852.840,30.762,24.902,20.996,26.367,157.715
1532278852.844,33.691,29.785,22.949,26.855,239.746
1532278852.847,37.598,34.668,25.391,24.414,-61.523
1532278852.851,39.062,34.180,29.297,26.367,-204.590
1532278852.855,41.016,36.621,32.715,36.133,71.777
1532278852.859,41.504,40.039,31.738,35.645,256.348
1532278852.863,37.598,43.457,34.668,30.273,9.766
1532278852.867,36.621,45.898,41.504,27.344,-243.652
1532278852.871,36.133,44.434,39.551,36.621,-28.809
1532278852.875,36.133,44.434,38.086,42.480,260.254
1532278852.879,42.480,48.340,47.363,42.480,128.906
1532278852.883,46.387,54.688,58.594,44.434,-175.781
1532278852.887,46.387,58.594,59.082,50.781,-104.492
1532278852.890,45.898,57.617,55.176,57.617,216.309
1532278852.894,44.922,58.105,58.105,53.711,213.867
1532278852.898,53.223,66.406,65.430,53.223,-119.141
1532278852.902,60.547,69.824,69.824,62.500,-197.754
1532278852.906,63.965,70.312,73.242,70.312,132.324
1532278852.910,62.500,72.266,74.707,66.406,244.141
1532278852.914,59.082,67.383,71.289,54.199,-56.641
1532278852.918,49.805,53.711,58.105,42.969,-213.379
1532278852.922,30.762,40.039,44.922,34.668,50.781
1532278852.926,19.531,32.715,38.086,17.578,253.906
1532278852.930,11.230,22.949,22.461,-4.395,28.809
1532278852.933,9.277,19.043,16.602,-5.859,-221.191
1532278852.937,7.324,20.508,20.020,0.000,-41.016
1532278852.941,4.883,19.531,20.996,3.906,264.648
1532278852.945,9.277,19.531,22.461,4.883,156.250
1532278852.949,11.719,22.461,24.414,2.441,-152.832
1532278852.953,24.902,29.785,30.762,18.555,-114.746
1532278852.957,33.691,36.133,37.598,34.668,198.242
1532278852.961,33.203,40.039,39.062,31.738,232.422
1532278852.965,37.598,45.898,41.504,25.391,-90.332
1532278852.969,36.133,43.945,41.016,23.438,-198.730
1532278852.973,34.180,36.621,33.691,28.320,109.375
1532278852.976,38.086,38.574,31.738,27.832,275.391
1532278852.980,34.668,37.109,30.762,18.066,12.207
1532278852.984,32.715,35.156,28.809,13.184,-223.633
1532278852.988,37.109,37.598,31.250,24.902,-27.344
1532278852.992,43.457,39.062,37.598,30.762,260.254
1532278852.996,49.805,42.969,44.922,26.855,93.262
1532278853.000,52.734,44.922,49.805,29.785,-205.078
1532278853.004,53.711,43.457,49.316,36.133,-74.707
1532278853.008,52.734,43.457,43.457,38.574,219.727
1532278853.012,47.852,45.410,42.480,41.016,172.363
1532278853.016,48.340,51.758,51.758,44.434,-145.996
1532278853.019,42.969,49.805,49.316,48.340,-163.086
1532278853.023,25.391,40.527,35.645,38.574,147.461
1532278853.027,22.461,41.992,40.039,30.273,219.727
1532278853.031,32.227,44.922,44.434,28.320,-75.195
1532278853.035,27.344,40.039,37.109,23.438,-194.824
1532278853.039,19.043,33.203,27.832,23.926,92.773
1532278853.043,20.996,30.273,26.367,21.484,250.977
1532278853.047,22.949,29.297,29.785,16.113,-1.465
1532278853.051,26.855,28.809,28.320,17.578,-197.754
1532278853.055,28.809,29.297,26.855,26.367,10.742
1532278853.059,26.855,31.250,28.320,27.832,255.859
1532278853.062,30.273,33.691,27.344,19.531,99.121
1532278853.066,25.391,30.762,23.438,9.766,-191.406
1532278853.070,27.832,22.949,20.020,14.160,-75.195
1532278853.074,29.785,19.043,15.625,19.531,249.023
1532278853.078,23.438,18.066,13.672,10.742,196.289
1532278853.082,27.832,15.625,14.160,4.395,-141.602
1532278853.086,31.738,15.625,13.184,11.230,-184.570
1532278853.090,30.762,18.066,15.625,19.043,136.230
1532278853.094,31.738,20.996,19.043,16.602,228.516
1532278853.098,34.668,22.461,20.996,11.230,-62.012
1532278853.102,35.156,21.973,19.531,9.766,-189.453
1532278853.105,37.109,22.949,20.020,10.254,58.594
1532278853.109,41.016,25.879,27.344,13.672,275.391
1532278853.113,45.410,33.203,35.645,25.879,72.266
1532278853.117,46.387,39.551,41.016,32.715,-204.102
1532278853.121,51.270,39.062,40.527,41.992,-11.719
1532278853.125,56.152,40.039,40.527,45.898,289.062
1532278853.129,57.129,41.992,41.016,38.574,153.320
1532278853.133,55.176,39.551,34.180,27.832,-178.711
1532278853.137,47.852,31.250,21.484,23.438,-107.422
1532278853.141,41.992,23.438,14.648,23.438,236.328
1532278853.145,45.898,29.297,21.484,22.461,194.336
1532278853.148,52.734,39.062,29.297,24.414,-134.277
1532278853.152,59.082,43.457,37.598,39.062,-157.227
1532278853.156,60.547,43.945,43.457,48.828,139.648
1532278853.160,60.547,46.875,42.480,44.922,246.094
1532278853.164,59.570,52.734,44.922,37.598,-48.828
1532278853.168,61.523,55.176,50.293,42.969,-222.656
1532278853.172,71.289,56.641,53.711,58.594,35.645
1532278853.176,73.730,58.105,52.246,57.617,265.137
1532278853.180,76.172,61.523,55.664,52.246,73.730
1532278853.184,74.219,61.523,54.688,52.246,-202.637
1532278853.188,65.918,54.688,48.340,54.688,-63.965
1532278853.191,69.336,53.711,51.270,61.035,241.699
1532278853.195,71.289,57.617,53.223,56.641,154.297
1532278853.199,73.242,60.547,58.594,53.711,-145.020
1532278853.203,78.613,63.477,59.570,58.105,-127.930
1532278853.207,83.008,66.895,60.059,63.477,174.805
1532278853.211,83.496,67.383,64.941,64.453,200.195
1532278853.215,81.543,70.312,66.895,61.523,-102.051
1532278853.219,87.891,72.754,68.359,70.801,-177.246
1532278853.223,89.844,71.777,67.871,75.684,106.934
1532278853.227,86.426,72.266,66.895,69.824,255.371
1532278853.231,88.867,73.730,67.383,63.965,0.488
1532278853.234,93.750,73.730,66.406,66.406,-195.801
1532278853.238,90.332,71.289,68.359,72.266,8.301
1532278853.242,78.125,65.430,66.895,66.895,246.094
1532278853.246,56.641,45.410,43.945,31.738,73.242
1532278853.250,34.180,21.484,19.043,2.930,-213.867
1532278853.254,18.066,3.418,2.441,-0.488,-81.543
1532278853.258,4.883,-6.348,-4.883,-8.789,245.117
1532278853.262,5.371,-2.441,0.000,-7.812,179.199
1532278853.266,17.578,8.301,11.230,4.883,-175.781
1532278853.270,24.414,15.625,19.043,16.602,-180.664
1532278853.274,29.297,22.461,25.391,29.297,160.645
1532278853.277,32.715,30.273,36.133,32.227,235.352
1532278853.281,29.297,29.297,36.621,24.902,-67.383
1532278853.285,28.320,29.297,32.227,22.461,-224.609
1532278853.289,30.273,30.273,33.691,26.855,30.762
1532278853.293,31.250,31.250,35.156,33.203,236.816
1532278853.297,35.645,37.598,41.504,33.691,2.930
1532278853.301,38.086,38.574,44.434,37.109,-232.422
1532278853.305,36.133,38.086,42.969,41.992,-33.203
1532278853.309,29.785,38.086,42.480,43.457,250.488
1532278853.313,28.809,34.180,39.551,34.180,106.934
1532278853.317,39.551,36.621,42.969,29.785,-184.082
1532278853.321,44.434,41.992,45.410,40.527,-94.727
1532278853.324,41.016,43.457,42.969,46.875,218.262
1532278853.328,40.527,46.875,49.316,43.457,165.527
1532278853.332,21.973,32.227,32.715,20.508,-151.855
1532278853.336,-6.348,6.348,2.441,-4.395,-177.734
1532278853.340,-18.066,-10.254,-10.254,-15.137,139.160
1532278853.344,-20.996,-16.113,-15.625,-21.973,237.305
1532278853.348,-24.414,-15.137,-18.066,-27.344,-68.359
1532278853.352,-27.832,-13.184,-15.137,-23.926,-215.332
1532278853.356,-24.902,-12.695,-14.160,-14.160,40.527
1532278853.360,-21.484,-12.695,-19.043,-9.277,249.512
1532278853.364,-19.531,-7.812,-15.625,-16.113,17.578
1532278853.367,-17.090,-5.371,-7.812,-19.043,-218.750
1532278853.371,-9.766,-2.930,-4.883,-3.906,-32.227
1532278853.375,-3.418,1.953,0.488,6.348,233.398
1532278853.379,-4.395,4.395,4.883,-0.488,138.672
1532278853.383,-2.441,5.859,5.859,-7.812,-190.918
1532278853.387,1.465,6.836,4.883,-6.836,-138.672
1532278853.391,-4.883,5.859,0.488,-3.418,232.910
1532278853.395,-11.230,5.371,-0.488,-6.348,223.145
1532278853.399,-10.742,8.301,1.465,-9.766,-102.539
1532278853.403,-9.766,10.254,5.371,-5.859,-163.086
1532278853.407,-4.395,11.230,8.301,0.000,128.906
1532278853.410,0.000,11.230,11.230,4.395,261.719
1532278853.414,-0.488,12.695,17.578,2.441,-27.344
1532278853.418,4.395,16.602,17.090,3.418,-224.121
1532278853.422,11.230,21.484,18.066,11.719,3.418
1532278853.426,9.766,24.902,20.020,8.301,246.094
1532278853.430,13.672,27.344,25.391,9.277,79.102
1532278853.434,15.625,29.785,31.250,15.625,-188.477
1532278853.438,14.648,34.668,31.738,18.555,-62.012
1532278853.442,17.090,36.621,35.645,23.926,242.188
1532278853.446,20.508,40.039,38.086,23.438,163.086
1532278853.450,31.250,48.340,42.969,29.297,-193.359
1532278853.453,40.527,53.223,51.270,42.480,-176.758
1532278853.457,42.480,54.688,56.152,49.805,186.523
1532278853.461,48.340,57.129,60.059,51.270,263.672
1532278853.465,51.270,62.500,62.988,46.387,-63.965
1532278853.469,53.711,65.918,62.012,51.270,-208.984
1532278853.473,55.664,66.406,62.988,60.059,95.703
1532278853.477,53.711,64.941,66.895,58.105,277.832
1532278853.481,54.688,62.500,67.383,53.223,20.020
1532278853.485,57.617,64.453,67.383,50.781,-203.125
1532278853.489,60.547,67.871,66.406,57.129,2.441
1532278853.493,55.664,67.871,66.406,62.012,267.090
1532278853.496,49.805,67.383,66.895,54.688,97.168
1532278853.500,51.758,71.289,67.871,49.805,-196.777
1532278853.504,56.641,73.242,70.312,55.664,-62.988
1532278853.508,63.477,76.660,73.242,66.406,268.555
1532278853.512,67.383,82.031,77.148,69.824,204.590
1532278853.516,61.523,76.660,73.242,61.523,-132.812
1532278853.520,56.152,69.336,69.824,63.477,-139.160
1532278853.524,60.059,70.312,71.289,67.383,159.668
1532278853.528,57.617,72.266,75.684,54.199,202.148
1532278853.532,53.711,70.312,76.660,48.828,-57.129
1532278853.536,56.152,69.336,71.777,55.664,-175.293
1532278853.539,58.105,70.801,71.777,59.570,102.051
1532278853.543,57.617,71.289,72.754,55.664,282.715
1532278853.547,57.617,70.801,68.848,48.828,21.484
1532278853.551,54.688,71.289,68.848,49.316,-186.523
1532278853.555,57.617,69.336,72.754,57.617,10.254
1532278853.559,61.035,67.383,68.848,58.105,275.879
1532278853.563,57.129,69.336,68.359,55.176,125.000
1532278853.567,57.617,67.871,71.777,49.316,-188.965
1532278853.571,57.617,66.406,68.848,53.223,-101.074
1532278853.575,58.105,65.430,65.918,60.547,227.539
1532278853.579,59.082,64.941,69.336,59.570,208.496
1532278853.582,54.688,63.965,70.801,52.246,-128.906
1532278853.586,52.246,63.965,69.824,52.734,-174.805
1532278853.590,57.617,67.383,69.824,61.523,149.414
1532278853.594,62.500,67.383,70.312,60.547,250.977
1532278853.598,62.500,69.336,71.777,52.734,-42.969
1532278853.602,62.012,69.824,71.289,53.223,-212.402
1532278853.606,62.988,65.918,68.848,56.641,56.641
1532278853.610,58.105,64.941,68.359,56.152,292.969
1532278853.614,58.105,65.918,72.754,51.758,65.430
1532278853.618,63.965,62.988,71.777,49.316,-204.590
1532278853.622,61.523,59.082,66.895,51.270,-8.301
1532278853.625,62.988,62.500,64.941,45.898,262.695
1532278853.629,59.082,64.941,66.895,38.574,117.188
1532278853.633,57.129,63.477,63.477,43.457,-154.785
1532278853.637,59.570,63.477,58.594,49.316,-130.371
1532278853.641,56.641,63.477,59.570,51.758,183.105
1532278853.645,55.664,63.477,62.988,49.805,216.309
1532278853.649,54.688,59.082,62.500,44.922,-92.285
1532278853.653,58.105,57.129,59.570,46.387,-176.270
1532278853.657,60.059,56.641,58.105,47.852,113.281
1532278853.661,53.711,57.617,60.547,47.363,257.812
1532278853.665,49.316,60.059,62.500,35.645,-52.246
1532278853.668,49.316,59.082,57.129,25.879,-260.742
1532278853.672,52.246,59.082,56.152,39.551,11.719
1532278853.676,47.363,55.664,56.152,39.062,257.324
1532278853.680,42.969,51.270,55.664,31.738,83.008
1532278853.684,50.293,49.316,58.105,36.621,-186.035
1532278853.688,50.781,50.781,55.664,43.457,-64.941
1532278853.692,47.852,48.828,52.246,49.805,242.676
1532278853.696,50.293,49.316,56.152,43.945,160.156
1532278853.700,46.387,52.734,58.105,35.156,-138.672
1532278853.704,43.945,53.711,58.105,40.039,-134.277
1532278853.708,44.434,50.293,55.664,40.039,167.480
1532278853.711,42.969,45.898,51.270,36.133,228.027
1532278853.715,44.434,46.875,51.270,33.691,-88.379
1532278853.719,51.270,48.340,50.781,40.039,-183.594
1532278853.723,52.734,47.363,51.758,50.781,112.793
1532278853.727,51.270,49.316,58.105,52.734,273.926
1532278853.731,52.246,51.758,55.176,45.410,16.602
1532278853.735,48.828,51.758,51.270,43.457,-205.566
1532278853.739,47.852,51.270,51.758,45.410,2.930
1532278853.743,45.898,50.293,50.293,41.016,253.906
1532278853.747,39.062,50.781,50.293,31.250,87.402
1532278853.751,38.574,49.316,50.781,22.949,-178.711
1532278853.754,41.992,45.898,48.340,28.320,-85.938
1532278853.758,44.434,45.410,47.363,35.645,208.496
1532278853.762,41.992,46.387,48.828,30.762,184.570
1532278853.766,45.898,48.828,50.293,21.973,-161.621
1532278853.770,53.223,50.293,50.293,27.832,-169.434
1532278853.774,52.734,48.828,45.410,36.133,178.711
1532278853.778,47.852,49.316,45.898,30.762,247.559
1532278853.782,44.922,49.316,49.316,25.879,-56.641
1532278853.786,43.945,46.875,49.805,34.668,-205.566
1532278853.790,38.086,45.898,47.852,38.574,90.332
1532278853.794,31.738,42.480,48.828,33.203,274.414
1532278853.797,28.809,42.969,48.340,31.738,-9.277
1532278853.801,26.855,45.898,48.828,34.668,-222.656
1532278853.805,30.762,46.875,47.363,35.645,-21.973
1532278853.809,33.691,48.340,45.410,34.668,222.656
1532278853.813,33.203,50.293,50.781,36.133,107.422
1532278853.817,35.156,52.734,49.805,33.203,-173.340
1532278853.821,38.086,48.828,47.363,37.109,-103.516
1532278853.825,38.574,44.434,46.387,41.992,196.289
1532278853.829,40.527,45.898,45.410,40.039,187.012
1532278853.833,41.504,45.898,47.852,33.691,-129.883
1532278853.837,41.016,44.434,45.898,33.203,-194.824
1532278853.840,41.504,41.992,41.992,34.180,153.320
1532278853.844,39.062,38.086,41.504,30.273,282.715
1532278853.848,35.156,35.645,43.945,23.438,-29.297
1532278853.852,33.203,38.574,44.922,25.391,-213.379
1532278853.856,32.227,40.527,45.410,33.203,35.645
1532278853.860,29.785,37.598,45.410,28.809,271.973
1532278853.864,24.902,38.574,45.898,17.090,50.293
1532278853.868,24.902,39.062,46.875,15.137,-236.816
1532278853.872,28.809,37.109,46.875,28.809,-68.359
1532278853.876,30.762,37.598,43.457,33.691,241.211
1532278853.880,30.762,39.551,41.504,30.273,155.762
1532278853.883,36.133,42.969,42.969,27.832,-182.617
1532278853.887,38.574,40.527,40.527,33.691,-138.184
1532278853.891,38.574,39.551,41.992,43.945,193.359
1532278853.895,42.480,43.945,46.875,43.945,214.844
1532278853.899,51.270,44.922,48.340,41.992,-77.148
1532278853.903,54.199,46.387,49.316,42.969,-192.383
1532278853.907,47.852,42.969,50.781,45.410,75.684
1532278853.911,37.598,41.504,50.293,39.062,270.508
1532278853.915,27.832,44.922,47.852,23.926,-11.230
1532278853.919,28.320,45.410,46.875,19.531,-217.285
1532278853.923,28.320,46.875,48.828,25.879,37.598
1532278853.926,23.926,48.828,50.293,25.879,251.953
1532278853.930,20.508,48.828,50.781,17.578,67.871
1532278853.934,20.020,47.363,50.293,18.066,-188.965
1532278853.938,24.902,45.898,51.758,28.320,-69.824
1532278853.942,28.809,43.945,55.176,34.668,241.211
1532278853.946,25.391,44.434,52.246,27.344,149.902
1532278853.950,23.926,44.922,49.805,22.461,-167.969
1532278853.954,35.645,42.969,51.758,32.227,-157.715
1532278853.958,40.527,41.016,51.270,39.551,166.016
1532278853.962,33.691,41.504,52.246,34.180,235.352
1532278853.966,34.180,42.969,52.734,28.320,-91.797
1532278853.969,36.621,43.457,48.828,28.809,-203.613
1532278853.973,39.062,40.527,46.387,33.691,76.172
1532278853.977,43.457,41.992,49.805,37.109,243.164
1532278853.981,45.410,45.898,53.223,33.691,-3.906
1532278853.985,47.852,44.922,49.805,27.832,-242.188
1532278853.989,54.199,46.387,46.875,30.762,-21.973
1532278853.993,54.199,48.340,50.293,42.969,262.207
1532278853.997,52.734,49.805,54.688,43.945,96.191
1532278854.001,54.688,48.828,55.176,39.062,-173.828
1532278854.005,55.664,45.410,54.688,45.410,-89.844
1532278854.009,54.688,44.922,52.734,49.805,207.031
1532278854.012,51.758,46.387,51.270,41.504,190.918
1532278854.016,53.711,49.805,51.758,36.133,-159.668
1532278854.020,61.523,53.711,53.223,46.875,-159.180
1532278854.024,64.453,53.711,55.176,54.688,165.527
1532278854.028,66.406,55.664,54.688,51.270,223.633
1532278854.032,65.430,57.617,55.176,46.875,-83.008
1532278854.036,63.965,57.129,54.199,50.293,-232.422
1532278854.040,69.824,59.570,60.547,63.477,49.805
1532278854.044,67.871,59.082,60.547,60.547,237.793
1532278854.048,62.012,53.223,54.199,44.434,-14.648
1532278854.052,59.082,48.828,50.781,39.551,-230.469
1532278854.055,61.035,48.828,48.828,51.758,-21.484
1532278854.059,64.941,50.293,50.293,58.594,262.695
1532278854.063,66.895,52.246,56.152,55.664,124.512
1532278854.067,68.848,56.641,57.129,52.734,-192.871
1532278854.071,68.848,61.035,55.664,56.152,-99.609
1532278854.075,71.777,64.453,59.082,61.523,219.238
1532278854.079,73.730,65.918,62.012,56.152,214.355
1532278854.083,72.266,65.430,64.941,50.781,-112.305
1532278854.087,70.801,66.895,63.477,51.758,-214.355
1532278854.091,65.918,61.523,58.594,54.688,90.820
1532278854.095,60.059,53.223,52.246,45.410,227.051
1532278854.098,59.082,50.781,49.316,36.621,-52.246
1532278854.102,55.664,47.852,45.410,41.992,-212.891
1532278854.106,54.688,42.480,39.551,45.410,57.129
1532278854.110,51.758,39.551,41.016,45.410,265.137
1532278854.114,47.363,38.574,41.504,41.016,45.410
1532278854.118,49.805,36.133,39.062,37.598,-190.430
1532278854.122,44.922,32.715,33.691,38.574,-37.109
1532278854.126,37.109,33.203,32.227,39.551,246.582
1532278854.130,36.621,34.668,32.715,31.738,160.156
1532278854.134,34.668,31.738,31.738,25.391,-165.527
1532278854.138,35.645,29.297,28.809,27.344,-130.859
1532278854.141,34.668,27.832,27.832,27.832,211.914
1532278854.145,31.738,26.855,28.320,21.973,225.586
1532278854.149,31.250,27.832,29.785,15.137,-103.027
1532278854.153,34.668,28.809,28.809,22.949,-166.504
1532278854.157,38.086,27.344,23.438,28.809,125.977
1532278854.161,36.621,27.344,25.879,26.855,262.695
1532278854.165,32.715,28.320,26.855,17.090,2.930
1532278854.169,28.320,24.902,20.508,10.742,-207.031
1532278854.173,29.785,24.414,20.508,19.043,10.742
1532278854.177,31.250,25.391,20.996,22.949,269.531
1532278854.181,29.785,23.438,19.531,15.625,98.633
1532278854.184,32.227,22.949,21.484,12.695,-225.586
1532278854.188,34.668,24.902,24.414,17.578,-100.586
1532278854.192,33.691,24.902,21.973,20.020,221.680
1532278854.196,28.809,23.438,20.996,16.602,146.973
1532278854.200,26.855,22.461,22.461,11.719,-143.066
1532278854.204,26.855,21.973,21.484,15.625,-136.719
1532278854.208,24.902,21.973,18.555,19.531,171.875
1532278854.212,27.832,20.996,19.531,15.137,248.047
1532278854.216,28.809,24.902,20.508,12.695,-53.711
1532278854.220,28.809,25.879,20.020,18.066,-183.594
1532278854.224,28.320,21.973,20.508,22.949,96.680
1532278854.228,26.855,21.484,21.484,17.090,236.816
1532278854.231,24.902,22.949,25.879,9.766,-31.738
1532278854.235,22.949,22.949,28.320,10.742,-246.094
1532278854.239,27.832,21.484,26.367,20.996,-19.043
1532278854.243,29.785,20.020,23.438,26.367,254.395
1532278854.247,30.762,20.508,23.438,16.602,84.961
1532278854.251,31.738,20.508,23.926,11.719,-201.172
1532278854.255,32.227,21.484,22.949,20.508,-94.727
1532278854.259,37.109,25.879,24.902,22.949,222.168
1532278854.263,33.691,25.879,23.438,15.625,211.426
1532278854.267,24.414,23.926,23.438,8.789,-131.836
1532278854.271,27.344,24.902,26.855,12.207,-177.246
1532278854.274,30.762,26.367,27.832,16.602,129.395
1532278854.278,30.273,26.855,25.391,11.719,232.910
1532278854.282,28.320,24.902,26.367,11.230,-40.527
1532278854.286,28.809,27.344,26.855,9.277,-215.820
1532278854.290,30.273,27.832,26.367,10.254,29.785
1532278854.294,27.832,24.902,27.344,17.578,273.438
1532278854.298,28.320,25.391,24.902,15.137,64.453
1532278854.302,31.250,24.414,25.879,14.160,-198.730
1532278854.306,31.738,25.391,27.344,21.484,-20.020
1532278854.310,27.832,26.855,27.832,27.344,277.832
1532278854.314,27.344,27.832,30.762,21.973,139.648
1532278854.317,23.926,26.367,31.738,14.160,-184.082
1532278854.321,19.531,24.414,26.855,19.043,-121.582
1532278854.325,16.602,22.461,22.949,15.625,181.641
1532278854.329,20.020,25.879,28.809,8.301,183.105
1532278854.333,21.973,28.809,30.762,8.301,-118.652
1532278854.337,19.531,26.367,27.344,10.742,-196.777
1532278854.341,21.973,27.832,29.297,16.602,117.676
1532278854.345,22.461,29.297,30.273,11.719,269.043
1532278854.349,23.438,28.809,26.855,7.324,-12.695
1532278854.353,21.484,26.855,26.367,10.742,-202.148
1532278854.357,20.996,25.879,26.367,13.672,38.086
1532278854.360,23.926,27.344,28.809,15.625,266.602
1532278854.364,26.855,29.785,27.832,10.742,56.641
1532278854.368,24.414,29.297,22.949,3.906,-230.957
1532278854.372,25.391,29.785,25.879,16.113,-55.664
1532278854.376,30.762,32.715,23.926,22.461,256.348
1532278854.380,29.297,30.762,21.973,15.625,163.574
1532278854.384,23.926,26.855,25.391,13.184,-178.711
1532278854.388,21.484,25.879,26.855,17.090,-150.391
1532278854.392,20.996,25.391,27.344,23.926,208.496
1532278854.396,20.996,27.832,31.250,20.508,224.121
1532278854.400,21.484,29.297,35.645,17.578,-117.188
1532278854.403,21.973,28.809,35.156,21.484,-206.543
1532278854.407,18.066,26.367,33.203,21.484,87.402
1532278854.411,15.625,26.855,29.297,17.090,233.887
1532278854.415,11.230,27.344,25.391,7.324,-1.465
1532278854.419,13.672,27.344,25.391,9.766,-202.637
1532278854.423,20.020,26.367,27.832,17.090,8.789
1532278854.427,16.602,26.855,26.855,13.184,258.301
1532278854.431,8.789,27.344,26.855,6.836,74.219
1532278854.435,7.812,27.832,27.832,7.812,-208.984
1532278854.439,12.695,28.320,28.320,14.648,-65.430
1532278854.443,13.672,23.926,28.320,19.531,237.305
1532278854.446,12.695,25.391,27.344,11.719,145.996
1532278854.450,15.625,27.344,31.250,7.812,-145.508
1532278854.454,18.555,25.391,30.273,14.648,-139.648
1532278854.458,17.578,27.832,26.855,17.090,153.320
1532278854.462,18.555,28.320,25.391,16.602,249.023
1532278854.466,20.996,24.902,26.855,8.789,-61.523
1532278854.470,22.949,26.367,27.832,10.254,-229.980
1532278854.474,24.414,26.855,25.391,20.020,67.383
1532278854.478,30.273,25.879,26.855,15.625,273.438
1532278854.482,36.133,25.879,28.320,12.207,29.297
1532278854.486,34.180,26.367,29.297,15.137,-207.520
1532278854.489,28.809,26.367,28.809,22.949,-6.836
1532278854.493,22.949,25.391,26.855,30.273,280.273
1532278854.497,22.949,24.902,29.297,28.320,124.023
1532278854.501,24.414,22.949,31.250,25.391,-181.152
1532278854.505,22.949,23.926,30.273,25.879,-113.281
1532278854.509,19.531,29.785,29.785,23.438,182.129
1532278854.513,19.043,32.227,29.297,18.555,161.133
1532278854.517,21.973,30.762,27.344,14.648,-130.859
1532278854.521,21.973,30.762,25.879,16.113,-166.504
1532278854.525,21.973,28.809,27.832,20.020,130.371
1532278854.529,16.602,25.391,28.809,15.625,244.629
1532278854.532,11.719,26.367,31.250,12.207,-37.598
1532278854.536,17.090,27.832,34.180,19.043,-172.852
1532278854.540,20.020,26.855,35.156,23.438,87.891
1532278854.544,23.438,28.809,37.109,22.461,252.441
1532278854.548,28.809,30.762,36.621,14.160,19.531
1532278854.552,34.180,30.273,34.180,10.742,-232.910
1532278854.556,36.133,30.762,30.273,18.066,-67.383
1532278854.560,35.156,31.250,32.227,20.508,264.160
1532278854.564,34.180,30.273,36.621,17.090,154.297
1532278854.568,31.738,30.273,35.645,11.719,-191.406
1532278854.572,27.344,31.250,33.203,16.113,-121.094
1532278854.575,24.414,31.250,33.691,25.879,200.684
1532278854.579,20.996,27.832,34.668,23.438,220.215
1532278854.583,18.555,28.809,37.109,19.531,-88.867
1532278854.587,24.414,29.785,37.109,22.461,-179.199
1532278854.591,25.391,29.297,32.715,25.879,144.043
1532278854.595,21.973,30.273,31.250,20.508,243.652
1532278854.599,24.414,29.785,33.691,15.625,-27.832
1532278854.603,27.344,29.297,33.691,19.043,-180.664
1532278854.607,32.227,31.738,34.180,25.391,40.039
1532278854.611,36.621,31.738,39.062,25.391,275.391
1532278854.615,34.668,31.738,38.086,20.020,74.219
1532278854.618,31.738,30.762,35.645,20.508,-211.426
1532278854.622,27.832,29.297,38.086,32.227,-46.387
1532278854.626,29.297,31.738,37.598,37.109,229.492
1532278854.630,35.156,36.621,40.527,32.227,152.344
1532278854.634,37.598,38.574,42.969,30.273,-143.066
1532278854.638,37.598,36.621,39.551,32.227,-154.297
1532278854.642,38.086,35.645,37.598,34.668,163.574
1532278854.646,44.434,37.109,39.551,33.203,198.730
1532278854.650,40.527,37.109,40.527,25.391,-114.746
1532278854.654,34.180,35.156,37.598,29.297,-202.637
1532278854.658,39.551,34.668,37.109,38.574,107.422
1532278854.661,40.527,33.691,38.086,38.574,290.527
1532278854.665,39.551,34.668,36.133,29.785,36.621
1532278854.669,40.527,35.645,36.621,31.250,-202.148
1532278854.673,42.480,37.109,36.133,41.992,3.906
1532278854.677,43.945,38.086,35.156,38.086,283.691
1532278854.681,39.062,36.621,36.621,26.367,110.840
1532278854.685,37.598,37.598,34.668,22.949,-202.637
1532278854.689,39.062,38.086,33.691,28.809,-95.215
1532278854.693,38.086,35.156,33.203,34.180,224.121
1532278854.697,38.574,34.180,32.227,31.738,168.945
1532278854.701,36.133,32.227,33.691,29.297,-163.086
1532278854.704,33.691,29.297,38.086,33.203,-154.785
1532278854.708,33.691,27.344,36.621,27.344,145.020
1532278854.712,34.180,27.832,33.203,22.461,210.449
1532278854.716,35.645,29.785,34.180,24.902,-69.824
1532278854.720,33.691,28.320,32.715,26.367,-203.125
1532278854.724,31.738,28.809,31.738,31.250,77.637
1532278854.728,38.574,31.250,34.180,31.250,295.410
1532278854.732,37.598,31.738,33.203,27.344,50.781
1532278854.736,32.715,27.832,31.250,23.926,-208.496
