timestamps,TP9,AF7,AF8,TP10,Right AUX
1532203279.501,38.574,36.621,16.113,29.297,19.043
1532203279.505,37.109,36.621,15.625,25.391,42.969
1532203279.509,41.016,35.645,14.648,33.203,48.828
1532203279.513,48.340,31.250,17.090,37.109,29.785
1532203279.517,46.875,28.809,13.672,32.227,25.879
1532203279.521,47.363,32.227,12.207,31.738,34.180
1532203279.525,48.828,37.598,16.113,27.832,40.039
1532203279.528,45.410,35.645,19.043,29.297,38.574
1532203279.532,48.828,29.297,20.020,36.621,13.672
1532203279.536,51.758,35.156,20.508,36.621,28.320
1532203279.540,46.387,41.016,21.484,37.109,51.270
1532203279.544,43.945,37.598,23.438,41.016,28.809
1532203279.548,42.969,34.668,24.902,48.828,-4.883
1532203279.552,41.016,30.762,25.391,51.270,-10.254
1532203279.556,34.668,30.273,23.438,37.109,42.969
1532203279.560,32.227,35.156,16.602,31.250,60.547
1532203279.564,28.809,33.691,14.648,31.250,17.578
1532203279.568,23.438,33.691,20.508,28.809,-6.836
1532203279.571,28.320,36.621,23.438,31.738,17.578
1532203279.575,34.180,33.691,21.484,33.203,44.922
1532203279.579,36.621,33.691,21.973,33.691,49.316
1532203279.583,41.992,35.645,23.438,31.250,2.930
1532203279.587,42.969,29.785,25.391,29.785,5.371
1532203279.591,42.969,31.250,28.320,37.109,51.270
1532203279.595,43.457,36.133,26.367,39.551,62.012
1532203279.599,40.039,33.203,22.949,27.832,33.203
1532203279.603,37.598,35.645,22.461,22.949,13.184
1532203279.607,34.668,38.086,20.508,26.855,42.969
1532203279.610,28.320,37.598,22.949,26.855,60.059
1532203279.614,27.832,36.621,26.367,27.344,38.574
1532203279.618,29.297,34.180,25.391,28.320,45.410
1532203279.622,33.691,33.203,28.809,34.668,46.875
1532203279.626,37.109,31.250,31.250,36.621,16.113
1532203279.630,33.203,24.902,25.879,36.621,35.156
1532203279.634,35.645,26.855,27.344,37.598,52.734
1532203279.638,37.109,34.668,33.691,36.621,64.453
1532203279.642,35.645,35.645,37.598,39.062,59.570
1532203279.646,33.203,34.180,35.645,37.109,31.738
1532203279.650,26.367,30.762,33.691,26.367,27.344
1532203279.653,25.879,28.809,38.086,24.414,25.879
1532203279.657,26.367,32.227,41.504,25.879,35.156
1532203279.661,23.926,34.180,45.410,24.902,20.996
1532203279.665,25.879,33.691,46.387,23.438,-27.344
1532203279.669,30.273,33.691,41.992,23.438,-6.348
1532203279.673,31.250,35.156,41.016,30.762,40.527
1532203279.677,30.762,35.156,41.992,32.227,45.898
1532203279.681,32.715,28.809,42.969,33.203,23.438
1532203279.685,32.227,26.367,42.969,35.156,8.301
1532203279.689,31.250,32.227,40.527,32.715,43.457
1532203279.693,38.086,35.156,42.480,33.691,58.594
1532203279.696,39.551,35.645,41.016,35.645,47.852
1532203279.700,40.527,32.715,45.410,35.156,13.672
1532203279.704,42.969,33.203,51.270,41.016,5.371
1532203279.708,41.504,38.086,44.922,41.992,33.691
1532203279.712,41.504,39.551,43.457,34.180,49.805
1532203279.716,39.062,35.645,45.898,33.691,25.879
1532203279.720,33.691,33.203,45.898,37.109,16.113
1532203279.724,32.227,32.715,46.875,26.367,36.621
1532203279.728,32.715,34.180,46.875,20.508,34.180
1532203279.732,34.180,37.109,44.434,31.738,22.949
1532203279.735,38.086,39.551,44.922,37.598,47.852
1532203279.739,39.062,38.086,45.410,40.039,47.363
1532203279.743,37.109,29.785,42.480,41.992,36.133
1532203279.747,38.086,30.762,42.969,40.527,18.066
1532203279.751,38.574,36.133,41.504,34.668,-12.695
1532203279.755,39.551,41.504,42.969,33.203,-2.441
1532203279.759,42.480,41.992,43.945,35.645,28.809
1532203279.763,40.527,37.109,39.062,29.297,12.695
1532203279.767,39.062,37.109,39.062,26.855,-8.301
1532203279.771,39.551,37.109,39.551,31.250,32.227
1532203279.775,36.621,38.574,37.598,25.391,38.086
1532203279.778,32.715,36.133,35.645,25.879,27.344
1532203279.782,30.762,37.109,32.715,31.738,4.883
1532203279.786,31.250,39.551,29.297,29.297,14.160
1532203279.790,28.809,37.598,26.367,26.367,56.152
1532203279.794,24.902,36.621,25.879,27.344,64.453
1532203279.798,22.949,37.598,24.902,24.902,52.246
1532203279.802,23.438,34.668,28.320,20.508,6.348
1532203279.806,26.367,31.738,29.785,26.855,17.090
1532203279.810,26.855,31.250,26.367,33.203,61.035
1532203279.814,24.902,30.762,23.926,25.879,38.086
1532203279.817,21.484,33.691,22.949,22.949,20.020
1532203279.821,20.508,38.574,22.949,23.926,20.020
1532203279.825,24.902,40.527,22.461,24.414,32.227
1532203279.829,29.297,39.551,20.996,27.344,24.414
1532203279.833,33.691,38.086,15.137,30.273,12.695
1532203279.837,30.273,34.180,14.648,28.809,55.176
1532203279.841,20.996,32.227,19.531,24.902,32.227
1532203279.845,20.508,32.227,20.020,30.762,3.906
1532203279.849,22.461,31.738,24.902,32.227,16.113
1532203279.853,25.879,33.203,27.344,34.180,10.742
1532203279.857,26.367,34.180,27.344,40.039,30.762
1532203279.860,24.414,34.668,25.879,39.551,33.203
1532203279.864,25.391,34.668,20.508,24.414,3.418
1532203279.868,26.855,33.691,19.531,20.020,14.160
1532203279.872,34.180,34.180,19.043,35.645,44.434
1532203279.876,39.551,34.180,17.090,40.527,53.711
1532203279.880,37.598,36.133,16.602,41.504,61.035
1532203279.884,39.551,36.133,14.160,39.551,28.320
1532203279.888,41.016,35.156,14.160,34.668,50.781
1532203279.892,37.598,31.250,16.602,37.598,96.680
1532203279.896,41.992,30.273,16.602,41.504,55.176
1532203279.900,46.387,35.156,14.648,39.551,31.250
1532203279.903,44.922,37.109,16.113,31.738,19.531
1532203279.907,43.457,38.086,24.414,30.273,29.297
1532203279.911,42.480,36.621,25.391,35.645,55.176
1532203279.915,40.039,35.156,20.996,40.039,6.836
1532203279.919,37.109,38.574,18.555,38.086,11.230
1532203279.923,39.551,41.504,15.625,30.762,31.250
1532203279.927,40.039,41.504,18.555,33.691,51.270
1532203279.931,40.039,38.086,18.066,33.203,25.391
1532203279.935,41.504,37.109,14.160,28.809,0.977
1532203279.939,47.852,39.551,16.602,28.320,38.086
1532203279.942,59.570,41.992,17.578,30.273,39.551
1532203279.946,55.664,42.969,16.113,24.902,20.508
1532203279.950,46.387,42.969,17.090,18.555,15.625
1532203279.954,47.852,41.016,17.578,23.438,38.086
1532203279.958,49.316,40.039,17.578,31.250,61.523
1532203279.962,42.480,41.992,20.508,31.250,28.809
1532203279.966,36.133,46.875,23.438,28.809,-18.555
1532203279.970,34.668,52.734,30.273,41.992,38.574
1532203279.974,31.250,55.176,37.109,46.875,85.938
1532203279.978,26.367,52.246,39.062,37.109,53.223
1532203279.982,9.277,49.805,39.062,22.949,23.926
1532203279.985,-0.488,52.246,41.016,11.230,37.109
1532203279.989,4.883,51.270,53.223,20.020,48.340
1532203279.993,6.348,50.781,60.059,22.949,41.504
1532203279.997,1.465,61.523,49.805,-1.953,25.391
1532203280.001,-5.371,68.848,41.504,-25.391,-4.883
1532203280.005,0.977,71.777,45.410,-32.227,5.371
1532203280.009,-1.953,75.684,44.434,-36.133,35.645
1532203280.013,-20.020,75.684,45.898,-41.504,12.695
1532203280.017,-32.715,77.148,46.875,-46.875,-6.348
1532203280.021,-34.180,78.125,41.992,-55.176,3.906
1532203280.025,-26.855,82.031,43.945,-56.641,6.348
1532203280.028,-34.668,86.914,42.480,-57.617,-4.883
1532203280.032,-32.715,84.961,38.086,-61.523,-4.883
1532203280.036,-28.320,82.520,38.574,-64.941,-6.348
1532203280.040,-33.691,85.938,36.621,-62.988,2.441
1532203280.044,-32.715,92.285,30.762,-63.965,9.766
1532203280.048,-36.133,98.633,27.832,-69.824,0.488
1532203280.052,-29.297,100.098,23.438,-66.406,19.043
1532203280.056,-21.973,97.656,15.137,-59.570,49.316
1532203280.060,-17.578,99.609,9.277,-56.152,58.105
1532203280.064,0.000,103.027,3.906,-46.875,41.504
1532203280.067,14.648,104.980,-1.465,-30.273,12.695
1532203280.071,25.391,104.980,-2.930,-19.531,44.434
1532203280.075,39.062,102.051,-10.254,-12.207,59.570
1532203280.079,52.734,100.586,-19.531,3.418,22.461
1532203280.083,60.059,101.074,-21.973,15.137,-4.395
1532203280.087,73.730,99.609,-26.367,25.391,3.418
1532203280.091,90.820,94.238,-35.156,39.551,41.016
1532203280.095,100.098,89.844,-33.203,53.711,42.480
1532203280.099,109.375,85.938,-28.809,65.430,22.949
1532203280.103,119.141,84.961,-30.273,65.430,9.766
1532203280.107,134.277,83.008,-31.250,79.102,52.734
1532203280.110,142.090,79.102,-29.297,99.121,49.805
1532203280.114,135.742,71.777,-28.809,103.027,16.602
1532203280.118,140.137,69.824,-29.297,104.980,34.180
1532203280.122,149.414,68.359,-29.297,109.863,49.316
1532203280.126,147.461,64.941,-29.297,113.281,33.691
1532203280.130,146.973,64.453,-24.414,115.234,8.789
1532203280.134,144.531,59.570,-20.020,111.816,-4.883
1532203280.138,139.648,53.711,-18.066,103.516,18.555
1532203280.142,141.113,49.805,-15.137,103.027,25.879
1532203280.146,135.254,44.434,-15.625,98.633,4.883
1532203280.150,135.742,41.504,-12.695,104.004,-9.277
1532203280.153,131.348,40.039,-6.836,109.375,-1.953
1532203280.157,121.094,35.645,-10.254,100.098,32.227
1532203280.161,117.676,36.621,-9.277,95.215,42.969
1532203280.165,120.605,35.156,-6.348,91.309,42.480
1532203280.169,119.141,31.250,-6.836,89.844,65.918
1532203280.173,112.305,28.809,-2.441,91.309,79.590
1532203280.177,107.422,20.996,2.441,91.797,49.805
1532203280.181,98.633,18.555,5.371,90.820,6.348
1532203280.185,90.332,21.484,7.812,84.961,-24.902
1532203280.189,90.332,21.484,8.789,85.938,25.879
1532203280.192,93.750,21.973,9.766,87.402,38.086
1532203280.196,98.145,24.414,9.277,81.543,22.949
1532203280.200,89.844,23.926,10.742,81.055,16.113
1532203280.204,73.730,20.508,12.207,77.637,-0.977
1532203280.208,66.406,19.043,11.230,77.148,23.926
1532203280.212,63.477,16.602,12.207,81.055,35.645
1532203280.216,65.918,13.184,17.090,70.801,10.254
1532203280.220,70.312,10.742,18.555,63.477,-1.465
1532203280.224,65.430,12.207,18.066,68.848,31.250
1532203280.228,54.688,15.625,16.113,64.453,42.969
1532203280.232,55.664,18.066,19.043,64.453,32.227
1532203280.235,63.477,21.484,20.508,67.871,17.578
1532203280.239,59.570,19.043,18.555,67.383,44.434
1532203280.243,64.941,16.113,21.484,63.965,21.973
1532203280.247,75.684,16.113,20.020,59.570,-23.438
1532203280.251,67.871,11.719,21.973,64.941,8.789
1532203280.255,56.152,12.695,26.367,64.941,55.664
1532203280.259,41.992,19.531,23.926,57.617,59.082
1532203280.263,31.738,19.531,20.996,52.734,1.953
1532203280.267,35.645,12.695,25.879,54.688,9.277
1532203280.271,38.086,14.160,27.832,59.082,27.344
1532203280.274,42.480,20.020,25.879,56.152,23.438
1532203280.278,51.270,22.461,25.391,50.781,36.621
1532203280.282,54.199,24.414,27.832,51.758,15.625
1532203280.286,50.293,20.508,30.762,57.617,22.461
1532203280.290,38.086,15.137,27.832,53.711,47.363
1532203280.294,27.832,13.184,27.344,44.922,33.691
1532203280.298,19.043,13.672,26.855,39.551,33.691
1532203280.302,21.973,16.113,24.414,34.668,30.273
1532203280.306,32.715,13.672,28.320,32.227,24.902
1532203280.310,32.227,13.672,34.180,40.527,43.945
1532203280.314,28.320,18.066,35.156,46.387,24.414
1532203280.317,25.879,17.090,34.668,45.410,19.043
1532203280.321,27.344,19.531,35.645,40.527,16.113
1532203280.325,33.691,23.926,39.062,35.156,4.883
1532203280.329,38.574,21.484,38.574,44.434,33.691
1532203280.333,40.039,23.438,33.691,43.945,42.480
1532203280.337,41.504,26.367,30.273,45.410,56.152
1532203280.341,41.992,23.438,34.668,53.223,60.059
1532203280.345,33.203,13.184,41.016,44.434,54.688
1532203280.349,30.273,10.254,43.945,38.086,62.012
1532203280.353,38.086,16.602,43.457,42.480,37.109
1532203280.357,38.574,20.996,41.504,44.922,35.645
1532203280.360,40.039,22.949,41.504,43.945,26.367
1532203280.364,44.922,22.949,38.574,43.457,17.578
1532203280.368,41.992,21.484,38.086,41.992,40.527
1532203280.372,34.180,20.996,37.598,44.922,48.828
1532203280.376,35.156,22.949,32.715,42.969,30.762
1532203280.380,35.156,23.438,35.156,43.945,9.766
1532203280.384,30.762,22.461,42.969,46.875,7.812
1532203280.388,29.297,23.926,43.457,47.363,44.434
1532203280.392,28.320,21.973,41.016,46.875,67.383
1532203280.396,25.879,22.461,39.551,42.969,61.035
1532203280.399,27.832,19.043,39.062,39.551,62.012
1532203280.403,27.832,14.648,43.457,38.574,34.180
1532203280.407,34.668,19.531,44.922,41.992,32.227
1532203280.411,44.434,23.926,40.527,48.828,27.344
1532203280.415,41.016,25.391,40.039,47.852,2.441
1532203280.419,41.504,23.926,40.039,48.340,22.949
1532203280.423,48.828,26.367,38.086,43.457,37.109
1532203280.427,43.457,27.832,36.621,41.016,28.809
1532203280.431,42.480,27.832,36.621,43.457,11.719
1532203280.435,39.551,24.414,37.109,38.086,24.414
1532203280.439,34.180,22.949,38.574,38.086,59.570
1532203280.442,36.621,22.949,40.039,38.574,48.828
1532203280.446,38.574,22.461,36.133,37.109,28.809
1532203280.450,38.574,24.902,30.273,31.250,27.832
1532203280.454,37.109,23.438,29.785,29.785,22.461
1532203280.458,37.109,20.508,31.250,37.109,37.109
1532203280.462,36.133,21.484,32.715,32.715,11.230
1532203280.466,29.785,24.902,33.203,24.902,-29.297
1532203280.470,21.484,26.367,29.785,31.250,17.090
1532203280.474,25.879,28.320,25.879,37.109,54.688
1532203280.478,32.715,27.832,28.809,40.039,40.527
1532203280.482,30.273,26.855,34.180,41.504,18.066
1532203280.485,25.879,27.344,35.156,38.086,29.785
1532203280.489,28.809,27.832,36.621,35.645,42.480
1532203280.493,28.809,30.273,39.062,40.527,29.297
1532203280.497,21.973,30.762,38.574,42.969,14.160
1532203280.501,27.832,25.879,39.062,40.039,3.418
1532203280.505,28.320,21.484,37.598,36.133,17.578
1532203280.509,26.367,22.949,34.668,36.133,32.227
1532203280.513,32.715,25.391,35.645,38.086,15.137
1532203280.517,34.668,23.926,34.180,36.621,2.930
1532203280.521,34.180,22.461,31.738,37.598,22.949
1532203280.524,36.133,26.855,30.762,35.645,23.926
1532203280.528,37.109,30.273,33.203,30.762,11.230
1532203280.532,32.715,29.785,35.645,33.691,15.137
1532203280.536,28.320,28.809,36.133,35.645,40.039
1532203280.540,30.762,31.250,36.133,33.203,49.316
1532203280.544,37.109,33.691,37.109,37.598,42.480
1532203280.548,36.133,31.738,36.133,41.504,16.602
1532203280.552,29.785,27.344,33.203,40.527,2.930
1532203280.556,25.879,28.320,33.691,37.598,32.227
1532203280.560,30.273,33.203,32.715,38.086,54.199
1532203280.564,35.156,31.738,34.180,35.156,20.996
1532203280.567,34.668,31.250,37.109,35.645,0.000
1532203280.571,34.668,34.668,37.109,38.574,46.387
1532203280.575,36.133,31.738,37.109,32.715,51.270
1532203280.579,30.762,26.855,36.621,33.691,16.113
1532203280.583,27.832,26.367,40.039,36.133,20.508
1532203280.587,37.109,29.297,46.387,38.086,34.668
1532203280.591,37.598,32.227,45.898,37.109,28.320
1532203280.595,30.273,31.250,41.016,28.809,15.137
1532203280.599,29.297,34.180,41.016,29.297,-2.930
1532203280.603,29.297,33.691,41.504,22.461,4.883
1532203280.607,30.762,33.203,44.434,16.602,22.461
1532203280.610,34.180,33.691,45.410,25.879,33.691
1532203280.614,39.551,27.832,42.480,26.855,20.020
1532203280.618,43.945,30.762,42.480,22.949,20.996
1532203280.622,45.410,31.738,45.410,15.625,16.602
1532203280.626,51.758,33.203,45.898,14.648,-9.277
1532203280.630,50.781,37.598,42.969,21.484,-15.137
1532203280.634,50.293,34.668,38.086,24.902,2.930
1532203280.638,49.316,28.809,35.645,28.809,15.625
1532203280.642,31.738,26.367,38.086,32.227,31.738
1532203280.646,21.484,28.320,41.016,34.668,32.227
1532203280.649,17.090,25.879,43.945,32.227,32.715
1532203280.653,9.277,24.902,42.480,25.879,50.293
1532203280.657,8.301,25.391,41.504,22.949,74.219
1532203280.661,11.719,23.438,42.480,24.414,56.152
1532203280.665,12.207,24.414,39.551,23.438,-17.090
1532203280.669,13.184,25.879,35.645,22.949,-2.441
1532203280.673,21.484,24.902,42.480,28.320,53.223
1532203280.677,30.762,16.602,50.293,39.062,61.035
1532203280.681,24.414,20.508,42.480,30.273,12.695
1532203280.685,13.672,31.250,37.598,15.137,-21.973
1532203280.689,24.902,32.227,40.039,14.648,0.000
1532203280.692,34.668,37.109,39.062,19.531,17.090
1532203280.696,30.762,37.109,40.527,33.691,16.113
1532203280.700,29.297,34.668,41.992,39.062,9.277
1532203280.704,27.344,33.203,35.645,21.484,18.066
1532203280.708,30.273,34.180,36.621,20.020,45.898
1532203280.712,30.273,32.715,43.457,30.273,54.688
1532203280.716,21.484,31.250,42.480,31.250,35.156
1532203280.720,29.785,37.109,41.504,34.668,44.922
1532203280.724,41.504,39.551,41.504,38.574,68.359
1532203280.728,42.969,40.527,43.945,41.016,45.410
1532203280.731,47.852,44.922,47.363,43.945,27.344
1532203280.735,56.152,43.945,45.410,42.969,41.992
1532203280.739,57.129,38.086,41.992,41.992,46.875
1532203280.743,53.711,33.691,45.410,38.086,33.691
1532203280.747,53.223,35.156,44.434,37.598,6.836
1532203280.751,44.922,41.504,38.574,41.992,24.902
1532203280.755,45.898,41.992,41.504,43.457,54.688
1532203280.759,51.758,40.039,45.898,43.457,58.594
1532203280.763,44.922,41.016,47.363,42.969,24.414
1532203280.767,44.434,43.945,45.898,44.922,21.484
1532203280.771,40.527,39.551,45.898,50.293,72.266
1532203280.774,39.062,37.598,49.805,47.363,72.754
1532203280.778,41.016,36.133,46.875,38.574,41.016
1532203280.782,39.551,36.133,43.945,38.574,18.555
1532203280.786,43.945,41.504,51.270,46.875,4.395
1532203280.790,46.875,41.992,54.199,50.293,8.789
1532203280.794,47.852,39.551,50.781,42.480,21.484
1532203280.798,47.363,39.062,46.387,40.039,9.766
1532203280.802,47.363,39.551,44.434,39.062,1.465
1532203280.806,46.875,41.504,44.922,33.691,13.184
1532203280.810,45.898,44.922,43.457,34.668,26.855
1532203280.814,48.828,40.039,41.504,33.203,50.781
1532203280.817,46.875,31.250,37.598,34.180,42.480
1532203280.821,41.504,33.691,37.109,35.156,14.648
1532203280.825,38.574,38.086,36.621,37.598,29.785
1532203280.829,42.969,38.086,33.691,39.551,34.668
1532203280.833,43.457,36.621,30.762,36.133,37.598
1532203280.837,40.039,38.086,26.367,33.691,34.180
1532203280.841,43.945,41.016,26.367,37.109,67.383
1532203280.845,48.340,40.039,26.367,42.480,39.062
1532203280.849,43.945,33.691,21.484,33.691,1.465
1532203280.853,46.875,32.227,23.438,29.297,33.203
1532203280.856,46.875,33.203,27.832,33.203,62.012
1532203280.860,36.621,36.621,25.391,30.762,45.898
1532203280.864,29.785,40.039,24.902,27.344,5.371
1532203280.868,28.320,34.668,23.926,27.832,6.836
1532203280.872,29.785,33.691,20.996,32.715,25.391
1532203280.876,32.227,40.527,21.973,36.133,13.672
1532203280.880,35.156,41.504,22.461,36.621,20.020
1532203280.884,26.367,36.621,20.996,28.809,35.645
1532203280.888,25.879,31.250,16.602,29.297,57.617
1532203280.892,33.203,32.715,15.625,37.109,62.012
1532203280.896,35.156,32.227,22.461,38.086,35.645
1532203280.899,35.156,31.250,27.344,35.156,22.949
1532203280.903,35.156,36.133,29.785,38.574,20.020
1532203280.907,36.133,37.109,30.762,42.480,57.617
1532203280.911,33.691,31.250,26.855,38.574,50.293
1532203280.915,37.109,25.391,26.855,36.621,14.648
1532203280.919,33.691,27.344,26.367,31.738,60.547
1532203280.923,28.320,34.180,23.438,28.809,33.203
1532203280.927,29.785,43.457,20.508,29.297,-9.766
1532203280.931,27.344,46.875,19.043,33.691,18.066
1532203280.935,30.273,44.922,20.996,36.621,21.973
1532203280.939,32.715,42.969,22.461,34.180,41.992
1532203280.942,25.391,39.551,24.414,26.367,20.996
1532203280.946,32.227,36.133,24.414,26.367,-37.598
1532203280.950,50.293,30.273,23.438,43.945,-17.090
1532203280.954,30.273,28.320,30.762,36.621,41.016
1532203280.958,6.348,29.297,35.645,18.555,52.734
1532203280.962,12.695,25.391,34.180,19.531,18.555
1532203280.966,12.695,23.438,31.250,17.578,16.113
1532203280.970,3.906,23.438,30.273,17.578,30.762
1532203280.974,5.859,20.996,29.785,10.742,14.160
1532203280.978,5.371,24.414,31.738,3.906,46.875
1532203280.981,2.441,29.785,30.273,7.324,8.789
1532203280.985,13.672,30.762,30.762,13.672,-23.438
1532203280.989,18.555,25.391,32.715,21.484,38.086
1532203280.993,17.578,24.902,32.227,20.508,53.223
1532203280.997,20.996,28.809,34.180,20.996,18.555
1532203281.001,25.391,29.297,36.621,26.855,-6.836
1532203281.005,30.273,29.297,37.109,27.832,34.668
1532203281.009,30.762,28.809,36.133,28.320,44.922
1532203281.013,35.156,28.809,34.180,34.668,17.090
1532203281.017,34.180,31.738,30.762,38.086,26.855
1532203281.021,27.832,32.715,31.250,35.156,40.527
1532203281.024,32.227,30.762,33.203,24.902,21.484
1532203281.028,33.691,31.250,33.691,21.484,2.930
1532203281.032,30.273,32.715,31.250,28.809,15.137
1532203281.036,31.738,32.227,27.344,34.668,19.043
1532203281.040,35.645,34.180,29.297,37.598,15.625
1532203281.044,39.062,36.133,33.691,36.621,6.836
1532203281.048,42.480,37.109,33.691,39.551,10.742
1532203281.052,41.992,36.621,31.738,36.133,22.949
1532203281.056,39.551,35.156,31.250,32.227,58.105
1532203281.060,43.945,37.598,33.691,39.551,35.645
1532203281.064,44.434,37.598,30.762,39.551,2.930
1532203281.067,37.109,31.250,26.855,33.691,23.926
1532203281.071,36.133,30.273,26.855,35.645,40.039
1532203281.075,32.715,32.715,27.832,36.621,25.879
1532203281.079,32.715,32.715,29.297,35.645,24.902
1532203281.083,36.133,29.785,26.367,30.273,4.883
1532203281.087,42.969,27.832,21.484,22.949,-21.973
1532203281.091,51.270,28.320,21.484,32.227,23.438
1532203281.095,49.316,29.785,24.414,38.574,34.668
1532203281.099,38.574,30.762,26.367,32.227,36.133
1532203281.103,26.367,29.785,26.367,29.297,34.180
1532203281.106,21.484,28.320,25.879,32.715,46.387
1532203281.110,23.438,31.738,28.320,34.180,71.777
1532203281.114,27.344,34.668,27.344,28.809,15.137
1532203281.118,28.809,34.668,23.926,26.855,21.484
1532203281.122,30.273,35.156,25.879,23.926,53.711
1532203281.126,32.227,37.109,24.414,22.461,39.062
1532203281.130,34.668,40.527,23.438,26.855,26.367
1532203281.134,40.527,40.527,27.344,30.762,27.832
1532203281.138,45.898,39.062,32.715,38.086,59.570
1532203281.142,54.199,35.645,33.691,41.992,59.082
1532203281.146,57.617,36.621,31.738,40.527,23.926
1532203281.149,53.711,44.922,35.156,37.109,-1.465
1532203281.153,46.875,43.945,35.156,37.109,28.809
1532203281.157,41.016,38.574,34.668,40.527,59.082
1532203281.161,39.551,39.551,34.668,37.598,37.109
1532203281.165,39.062,38.574,33.691,27.344,-3.906
1532203281.169,37.598,39.062,32.227,30.273,1.953
1532203281.173,38.574,42.480,31.250,38.086,44.922
1532203281.177,40.039,43.457,30.762,41.504,70.801
1532203281.181,38.574,40.039,29.297,41.992,36.133
1532203281.185,40.527,36.621,32.715,42.969,23.438
1532203281.188,44.922,38.574,35.645,42.969,53.711
1532203281.192,50.781,40.039,33.203,43.457,57.129
1532203281.196,53.223,40.527,34.668,47.363,59.082
1532203281.200,48.828,38.086,39.062,50.781,35.156
1532203281.204,46.875,41.016,39.062,50.293,35.645
1532203281.208,50.293,43.457,38.574,47.363,46.387
1532203281.212,50.293,42.480,38.574,45.410,29.297
1532203281.216,46.875,42.480,34.668,41.016,11.719
1532203281.220,41.992,41.992,33.203,38.574,28.320
1532203281.224,34.668,40.039,35.156,33.203,20.508
1532203281.228,27.832,37.598,36.133,33.691,19.531
1532203281.231,28.809,35.645,37.598,40.039,36.133
1532203281.235,32.715,36.133,38.574,38.574,40.527
1532203281.239,35.645,38.086,34.668,37.598,57.617
1532203281.243,37.109,40.527,37.109,37.598,42.969
1532203281.247,41.992,42.969,39.062,38.086,10.742
1532203281.251,47.363,43.457,36.133,37.598,0.000
1532203281.255,44.434,41.504,36.621,39.062,23.926
1532203281.259,48.340,42.969,39.551,42.969,33.203
1532203281.263,50.293,47.363,43.945,44.922,0.488
1532203281.267,42.480,41.992,42.969,43.945,-19.531
1532203281.271,39.551,41.016,37.109,45.898,5.859
1532203281.274,33.203,46.875,37.109,44.922,55.664
1532203281.278,38.086,47.363,40.039,39.551,62.012
1532203281.282,42.480,47.363,41.504,40.527,30.273
1532203281.286,38.086,40.527,42.480,38.574,34.668
1532203281.290,42.480,41.016,41.016,36.621,59.570
1532203281.294,47.852,46.387,40.039,37.109,35.156
1532203281.298,48.828,44.434,40.039,36.133,27.832
1532203281.302,53.711,45.410,41.016,29.297,31.250
1532203281.306,60.059,47.852,40.039,20.996,37.598
1532203281.310,64.453,47.852,43.945,30.273,48.828
1532203281.313,72.266,44.434,46.875,34.668,14.648
1532203281.317,71.289,40.039,39.062,38.086,21.973
1532203281.321,61.035,39.551,36.621,42.969,36.621
1532203281.325,52.246,39.062,42.480,38.086,25.879
1532203281.329,41.504,40.039,46.875,44.922,17.090
1532203281.333,41.016,44.434,47.852,52.246,3.906
1532203281.337,37.598,43.945,49.316,54.688,48.828
1532203281.341,34.668,45.410,47.852,52.246,68.848
1532203281.345,36.133,49.316,44.922,49.805,28.320
1532203281.349,35.645,51.758,45.410,52.246,-4.395
1532203281.353,42.480,55.176,44.922,49.805,14.648
1532203281.356,43.457,56.641,47.363,47.363,53.223
1532203281.360,47.363,58.594,51.270,45.898,39.062
1532203281.364,55.176,61.523,49.805,42.480,-19.531
1532203281.368,48.828,58.105,47.852,45.410,-4.395
1532203281.372,45.410,55.176,48.340,47.363,33.691
1532203281.376,52.246,55.176,48.828,44.922,21.484
1532203281.380,56.641,56.641,53.223,44.922,-1.465
1532203281.384,52.246,59.082,53.711,45.410,9.277
1532203281.388,43.945,54.688,55.176,48.828,71.289
1532203281.392,48.828,52.734,55.664,51.270,76.660
1532203281.396,51.270,51.270,55.176,52.246,32.227
1532203281.399,45.410,49.316,56.641,52.734,27.344
1532203281.403,52.734,53.711,53.223,42.969,12.207
1532203281.407,56.152,55.664,48.828,37.598,13.184
1532203281.411,50.781,54.199,50.293,41.016,37.598
1532203281.415,44.434,55.664,54.199,48.828,30.273
1532203281.419,41.992,55.176,55.176,53.223,7.812
1532203281.423,45.898,55.664,54.688,46.387,40.039
1532203281.427,49.805,56.152,54.688,43.457,63.477
1532203281.431,54.688,55.176,55.176,45.898,46.875
1532203281.435,54.199,56.152,53.711,47.363,38.086
1532203281.438,53.711,57.129,52.734,45.410,52.734
1532203281.442,52.734,59.082,51.270,44.922,62.988
1532203281.446,55.176,59.570,51.758,43.457,32.715
1532203281.450,58.105,59.570,51.758,46.875,27.344
1532203281.454,52.734,55.176,51.270,47.852,33.691
1532203281.458,46.875,50.781,51.758,48.828,49.805
1532203281.462,51.270,52.734,48.340,51.270,32.715
1532203281.466,53.223,53.223,49.805,50.293,14.648
1532203281.470,51.270,53.711,55.176,52.246,53.223
1532203281.474,55.176,56.152,56.152,50.781,61.523
1532203281.478,50.293,54.688,51.270,41.016,47.363
1532203281.481,42.969,52.246,50.293,37.109,29.297
1532203281.485,44.922,52.734,51.270,41.016,15.625
1532203281.489,46.875,50.293,48.828,38.574,68.848
1532203281.493,53.223,49.805,49.316,30.273,49.316
1532203281.497,50.781,51.758,50.781,28.320,8.789
1532203281.501,48.340,47.852,47.363,26.855,25.391
1532203281.505,46.875,47.363,45.410,14.648,28.320
1532203281.509,46.387,49.805,43.945,13.672,10.254
1532203281.513,52.734,52.734,42.969,26.855,15.137
1532203281.517,33.203,51.270,40.039,30.762,39.062
1532203281.521,21.484,47.363,37.598,32.715,45.898
1532203281.524,29.297,45.898,41.016,35.156,45.410
1532203281.528,33.203,46.875,47.363,38.086,18.066
1532203281.532,37.598,42.480,47.852,36.133,14.160
1532203281.536,39.062,37.109,46.387,33.691,27.832
1532203281.540,38.086,37.109,44.434,32.227,32.227
1532203281.544,38.574,42.969,39.062,24.902,19.531
1532203281.548,34.668,44.922,35.645,26.855,3.418
1532203281.552,34.180,41.016,35.156,26.855,18.066
1532203281.556,36.621,41.992,35.645,20.508,58.105
1532203281.560,27.344,41.992,36.133,23.438,57.129
1532203281.563,26.855,41.992,32.715,23.926,10.742
1532203281.567,39.551,44.922,31.250,21.973,10.742
1532203281.571,38.574,47.363,33.691,25.879,48.340
1532203281.575,37.109,46.387,32.227,29.297,49.805
1532203281.579,36.133,46.387,34.180,31.738,11.230
1532203281.583,35.645,46.875,37.598,34.668,-14.648
1532203281.587,37.598,44.922,36.133,35.645,22.461
1532203281.591,32.227,42.969,36.133,34.668,41.016
1532203281.595,32.715,39.062,37.598,33.203,15.137
1532203281.599,36.621,37.598,37.598,39.062,25.391
1532203281.603,36.621,37.598,39.062,33.691,-5.371
1532203281.606,31.738,36.133,40.527,27.344,-6.836
1532203281.610,36.133,39.062,40.039,38.086,36.621
1532203281.614,40.039,42.480,38.086,40.039,0.977
1532203281.618,34.180,41.992,35.156,38.086,7.812
1532203281.622,38.086,41.992,34.180,37.109,47.852
1532203281.626,43.457,43.457,33.691,41.992,33.203
1532203281.630,42.480,44.434,37.109,43.457,7.324
1532203281.634,44.922,44.434,38.086,36.621,11.230
1532203281.638,44.434,46.387,39.062,41.016,34.668
1532203281.642,44.922,45.898,37.109,39.062,16.113
1532203281.645,39.551,42.480,32.715,24.902,-8.301
1532203281.649,37.598,41.992,33.203,30.762,6.348
1532203281.653,45.898,43.457,37.598,38.574,53.711
1532203281.657,41.504,41.016,39.062,40.527,62.988
1532203281.661,44.434,41.016,37.109,40.527,17.578
1532203281.665,46.875,35.645,40.039,38.086,32.227
1532203281.669,36.133,25.879,41.504,32.715,49.316
1532203281.673,29.785,32.715,39.062,31.250,43.457
1532203281.677,20.508,40.039,39.551,37.109,41.504
1532203281.681,17.578,41.992,40.527,40.039,22.949
1532203281.685,25.391,41.016,40.039,34.180,1.953
1532203281.688,28.809,36.133,39.062,34.180,41.504
1532203281.692,29.785,37.109,36.133,38.086,56.152
1532203281.696,33.203,41.992,38.086,45.410,23.438
1532203281.700,35.156,39.551,37.109,49.805,43.457
1532203281.704,39.062,40.039,33.203,44.434,62.500
1532203281.708,41.992,40.039,34.668,41.992,57.129
1532203281.712,39.062,37.598,37.109,40.039,16.113
1532203281.716,36.133,39.062,36.621,37.598,21.484
1532203281.720,40.039,39.551,36.133,38.574,50.781
1532203281.724,41.992,38.574,34.668,38.574,35.156
1532203281.728,38.574,37.598,31.250,34.668,40.039
1532203281.731,39.551,40.527,30.273,30.762,25.391
1532203281.735,39.062,41.504,32.227,28.809,19.043
1532203281.739,32.227,37.598,36.133,31.250,51.270
1532203281.743,31.250,31.250,37.109,26.855,32.227
1532203281.747,38.574,36.621,38.086,24.414,-8.301
1532203281.751,37.598,44.434,36.621,32.227,43.945
1532203281.755,30.273,42.480,32.715,34.180,80.078
1532203281.759,34.668,41.992,33.203,39.062,46.875
1532203281.763,42.969,41.504,35.156,43.457,36.133
1532203281.767,42.969,41.016,37.109,41.504,50.293
1532203281.770,41.016,40.039,36.133,40.527,51.270
1532203281.774,39.062,39.062,37.109,40.039,54.688
1532203281.778,40.039,38.086,38.574,41.992,34.668
1532203281.782,41.016,42.480,41.504,44.922,-1.465
1532203281.786,38.086,41.016,42.480,40.039,20.508
1532203281.790,39.551,36.621,39.551,41.016,45.898
1532203281.794,43.945,37.109,35.645,39.551,51.270
1532203281.798,45.898,37.109,39.551,32.715,30.762
1532203281.802,41.992,38.574,45.898,30.273,2.441
1532203281.806,40.527,39.062,44.434,33.203,26.855
1532203281.810,40.039,35.645,41.504,36.133,42.480
1532203281.813,43.457,36.621,39.551,33.203,33.203
1532203281.817,46.387,40.527,38.086,26.855,23.926
1532203281.821,43.945,43.457,36.621,25.391,22.461
1532203281.825,43.945,43.457,36.133,29.785,25.391
1532203281.829,43.457,43.945,34.668,28.809,18.066
1532203281.833,44.434,41.504,35.156,32.227,2.930
1532203281.837,42.969,38.086,36.133,40.039,36.133
1532203281.841,39.062,39.551,32.227,36.133,58.594
1532203281.845,40.527,40.527,32.715,33.203,35.645
1532203281.849,42.969,40.527,33.691,38.574,23.438
1532203281.853,44.434,40.039,28.809,40.527,68.359
1532203281.856,42.969,41.016,29.785,38.574,71.777
1532203281.860,39.551,42.969,33.203,39.551,46.387
1532203281.864,37.109,42.969,36.133,39.062,3.418
1532203281.868,34.668,38.086,33.691,36.133,34.668
1532203281.872,34.180,39.062,32.715,35.156,68.359
1532203281.876,39.062,41.016,35.156,32.715,42.480
1532203281.880,46.875,41.016,39.062,37.598,25.879
1532203281.884,44.922,41.504,36.133,41.992,13.672
1532203281.888,41.504,40.039,29.785,38.574,42.969
1532203281.892,43.945,41.992,33.203,37.598,53.223
1532203281.895,44.434,40.527,34.668,38.086,41.016
1532203281.899,42.969,35.156,32.227,38.086,36.133
1532203281.903,39.551,35.156,34.180,40.527,23.438
1532203281.907,37.598,38.086,34.668,41.016,27.344
1532203281.911,37.598,40.039,38.086,43.945,29.785
1532203281.915,36.133,37.109,42.969,44.434,-1.953
1532203281.919,32.715,38.574,42.969,42.969,23.926
1532203281.923,34.668,41.992,41.992,37.109,48.340
1532203281.927,39.551,41.504,41.016,35.645,30.762
1532203281.931,43.457,38.086,39.551,45.410,38.574
1532203281.935,44.434,36.133,36.621,46.387,30.762
1532203281.938,40.527,37.598,37.598,47.852,49.316
1532203281.942,42.480,41.504,42.969,50.293,56.641
1532203281.946,48.828,41.504,40.527,46.875,22.461
1532203281.950,47.363,39.062,34.180,39.062,43.945
1532203281.954,43.945,38.086,38.086,40.039,80.566
1532203281.958,48.828,35.645,41.992,43.945,60.059
1532203281.962,49.316,37.109,40.527,40.527,25.391
1532203281.966,44.434,37.109,41.504,37.598,16.602
1532203281.970,46.875,37.598,40.527,41.504,12.695
1532203281.974,48.340,44.434,41.016,39.551,35.156
1532203281.978,48.340,46.875,41.504,39.062,41.016
1532203281.981,47.363,45.410,41.016,38.574,17.090
1532203281.985,49.805,44.434,41.016,38.086,46.875
1532203281.989,52.246,41.504,39.062,41.992,63.965
1532203281.993,53.223,42.480,37.598,41.504,62.500
1532203281.997,55.664,45.410,37.598,39.551,64.941
1532203282.001,56.152,45.898,37.598,37.598,36.621
1532203282.005,58.594,44.434,32.227,30.273,26.855
1532203282.009,54.688,41.992,30.273,25.879,54.688
1532203282.013,52.246,41.504,36.621,29.297,41.016
1532203282.017,57.129,42.480,35.645,34.180,27.344
1532203282.020,53.711,43.945,36.621,37.109,45.898
1532203282.024,39.551,41.992,40.527,35.156,45.410
1532203282.028,29.785,37.109,40.527,34.668,33.691
1532203282.032,23.438,37.109,41.504,35.645,19.043
1532203282.036,22.461,36.621,40.527,32.227,45.410
1532203282.040,30.273,32.715,39.062,33.691,64.941
1532203282.044,37.598,34.668,39.062,31.250,33.691
1532203282.048,38.086,39.062,37.598,34.668,10.254
1532203282.052,31.250,39.551,34.180,39.062,10.254
1532203282.056,31.738,40.039,33.203,33.691,49.805
1532203282.060,37.598,39.551,36.133,34.668,51.270
1532203282.063,35.645,36.133,39.062,32.227,-2.930
1532203282.067,30.762,32.715,37.598,25.391,-4.395
1532203282.071,31.250,31.250,35.156,28.809,38.574
1532203282.075,33.203,34.180,33.203,29.297,39.062
1532203282.079,40.039,34.180,31.250,26.855,25.391
1532203282.083,37.109,36.621,32.227,27.832,12.207
1532203282.087,27.832,37.598,33.691,26.855,24.902
1532203282.091,36.133,35.156,33.203,26.367,49.316
1532203282.095,38.574,39.062,35.645,31.738,34.668
1532203282.099,35.156,37.109,39.551,37.109,20.508
1532203282.102,34.180,34.668,37.598,28.320,41.016
1532203282.106,35.156,37.109,31.738,16.602,31.738
1532203282.110,34.180,38.574,35.156,25.879,25.879
1532203282.114,33.203,37.598,40.527,34.180,19.043
1532203282.118,38.574,40.039,41.992,32.227,32.227
1532203282.122,36.133,37.598,42.480,35.156,54.688
1532203282.126,34.668,36.133,40.527,37.109,42.480
1532203282.130,38.574,37.598,39.551,33.691,28.809
1532203282.134,38.574,37.598,39.551,34.668,25.391
1532203282.138,39.551,40.039,38.574,37.109,37.109
1532203282.142,41.016,39.551,38.086,36.621,47.363
1532203282.145,39.062,37.109,40.527,35.645,38.086
1532203282.149,37.598,37.598,39.551,40.039,47.852
1532203282.153,38.574,37.109,34.668,36.621,63.477
1532203282.157,45.898,40.039,38.574,32.227,53.711
1532203282.161,54.688,39.551,42.480,36.133,28.320
1532203282.165,57.129,34.180,41.992,32.715,22.461
1532203282.169,56.641,38.086,38.574,28.809,37.598
1532203282.173,48.340,45.898,38.574,28.320,55.664
1532203282.177,35.645,46.875,42.480,30.762,56.152
1532203282.181,27.832,41.504,41.992,28.809,33.691
1532203282.185,28.809,37.598,41.992,28.809,9.277
1532203282.188,34.668,37.598,42.969,30.273,17.578
1532203282.192,36.621,38.574,42.480,31.738,50.781
1532203282.196,34.180,39.062,38.574,34.180,21.973
1532203282.200,34.180,39.551,33.691,31.250,20.020
1532203282.204,40.527,41.992,39.551,29.785,31.738
1532203282.208,43.457,41.016,42.480,28.809,35.645
1532203282.212,37.109,35.156,38.086,29.785,35.156
1532203282.216,34.180,33.691,37.109,34.668,13.184
1532203282.220,35.156,37.109,34.668,35.156,19.043
1532203282.224,35.645,42.480,33.691,26.855,18.555
1532203282.227,40.527,45.410,36.621,27.344,-16.602
1532203282.231,42.480,38.574,35.156,34.180,-16.113
1532203282.235,34.180,36.133,30.762,30.762,26.855
1532203282.239,34.180,40.527,32.715,30.762,29.297
1532203282.243,35.645,42.480,33.691,24.414,7.812
1532203282.247,32.227,40.527,29.785,18.066,-9.766
1532203282.251,27.832,38.574,29.785,21.973,-8.789
1532203282.255,29.297,37.598,30.762,28.320,32.715
1532203282.259,33.203,37.598,29.785,30.273,48.828
1532203282.263,35.645,40.527,31.738,28.320,10.254
1532203282.267,31.250,40.527,36.133,32.227,-19.043
1532203282.270,20.996,38.086,36.621,37.598,21.484
1532203282.274,19.531,39.062,34.668,36.133,71.289
1532203282.278,20.996,41.016,33.203,41.504,49.316
1532203282.282,24.414,35.645,34.180,40.527,1.953
1532203282.286,24.414,32.715,35.645,33.203,-12.695
1532203282.290,23.438,36.133,35.645,35.645,24.902
1532203282.294,25.879,36.621,36.621,34.668,35.645
1532203282.298,29.297,36.133,35.645,35.156,1.953
1532203282.302,31.250,39.062,33.691,35.156,-7.324
1532203282.306,32.715,41.016,37.109,30.762,29.785
1532203282.310,33.203,39.062,40.527,30.273,34.180
1532203282.313,32.227,39.551,38.086,32.227,-13.672
1532203282.317,35.156,40.039,35.156,30.762,2.441
1532203282.321,42.480,38.086,36.621,29.297,49.805
1532203282.325,41.504,40.527,34.668,34.180,59.570
1532203282.329,38.086,40.527,33.203,38.086,23.438
1532203282.333,33.691,37.598,33.203,32.227,-19.531
1532203282.337,34.180,41.992,33.203,32.715,5.371
1532203282.341,43.945,43.945,35.156,38.086,21.484
1532203282.345,41.992,41.992,33.691,24.902,-46.387
1532203282.349,38.086,38.574,30.273,22.461,-50.781
1532203282.352,40.527,37.598,28.809,35.645,11.719
1532203282.356,42.969,42.480,33.691,40.039,16.602
1532203282.360,40.527,41.992,38.086,43.945,22.949
1532203282.364,35.645,36.621,38.086,45.898,3.906
1532203282.368,37.598,36.133,37.598,47.852,17.578
1532203282.372,42.969,37.109,38.574,46.387,47.852
1532203282.376,40.039,33.203,34.180,39.062,29.297
1532203282.380,36.621,36.621,33.691,43.945,30.273
1532203282.384,36.133,41.016,38.574,38.574,6.836
1532203282.388,36.621,36.133,37.109,25.879,10.742
1532203282.392,42.480,36.133,36.621,29.785,49.805
1532203282.395,33.203,38.574,34.180,29.785,15.625
1532203282.399,25.879,35.156,32.715,30.273,12.207
1532203282.403,28.320,36.621,35.645,32.227,56.152
1532203282.407,29.785,37.598,38.086,32.715,47.852
1532203282.411,30.273,34.668,41.016,32.227,14.648
1532203282.415,26.367,35.156,41.504,30.762,2.441
1532203282.419,25.391,31.738,38.086,29.785,15.625
1532203282.423,30.762,34.180,37.109,26.367,38.574
1532203282.427,34.180,38.574,40.039,22.949,20.020
1532203282.431,33.691,35.156,38.574,28.320,1.953
1532203282.434,40.039,34.668,37.109,34.180,15.625
1532203282.438,38.086,37.109,37.598,31.250,26.367
1532203282.442,36.621,36.133,35.645,22.461,13.672
1532203282.446,34.180,34.668,34.180,25.879,-43.457
1532203282.450,32.715,33.691,38.086,32.227,-11.719
1532203282.454,38.086,35.645,41.016,33.691,27.344
1532203282.458,32.715,38.086,40.527,40.039,26.855
1532203282.462,31.738,38.086,37.109,40.039,14.648
1532203282.466,35.156,35.645,35.156,41.016,-3.418
1532203282.470,35.645,32.715,35.645,43.457,35.645
1532203282.474,35.645,34.180,36.133,39.062,45.410
1532203282.477,37.109,37.109,36.621,37.598,28.809
1532203282.481,40.039,33.691,39.062,33.203,12.207
1532203282.485,45.898,29.297,40.527,31.738,11.230
1532203282.489,49.316,33.203,35.645,38.574,38.086
1532203282.493,48.340,42.969,35.645,39.551,29.297
1532203282.497,44.434,41.016,38.574,36.621,23.438
1532203282.501,42.480,34.180,39.062,34.668,21.973
1532203282.505,43.945,36.133,40.039,28.320,24.414
1532203282.509,42.480,37.598,38.574,33.203,25.391
1532203282.513,44.434,38.086,36.133,35.645,-0.488
1532203282.517,42.480,38.086,35.645,32.227,4.883
1532203282.520,41.992,33.203,38.086,33.203,32.715
1532203282.524,42.969,32.715,36.133,25.879,30.762
1532203282.528,40.039,32.227,37.109,24.414,-9.766
1532203282.532,38.086,33.203,39.551,32.715,-1.953
1532203282.536,35.156,37.109,38.086,33.691,29.297
1532203282.540,34.180,36.133,35.645,31.250,41.016
1532203282.544,37.598,34.668,33.691,34.668,33.691
1532203282.548,45.410,35.156,37.109,41.016,20.020
1532203282.552,50.781,34.180,39.062,37.109,29.785
1532203282.556,46.875,31.250,38.574,29.297,70.312
1532203282.559,40.039,33.691,39.551,27.344,62.012
1532203282.563,37.598,37.598,39.551,31.250,26.367
1532203282.567,32.715,36.621,37.598,29.785,16.113
1532203282.571,25.391,35.645,36.621,27.344,29.785
1532203282.575,25.879,37.109,36.621,31.250,40.527
1532203282.579,29.785,38.086,37.109,29.297,24.414
1532203282.583,32.227,37.598,40.039,27.832,17.090
1532203282.587,34.668,36.133,39.062,29.297,11.719
1532203282.591,35.156,34.668,38.574,35.645,20.996
1532203282.595,34.668,36.621,38.086,39.062,15.625
1532203282.599,36.133,40.527,39.062,35.156,-21.973
1532203282.602,33.203,37.598,41.016,30.762,-22.461
1532203282.606,30.762,31.738,39.062,32.227,33.203
1532203282.610,27.832,33.691,36.133,34.180,36.621
1532203282.614,23.926,37.598,37.109,31.738,6.836
1532203282.618,28.809,34.668,38.574,29.785,21.484
1532203282.622,37.598,35.156,38.574,26.367,29.785
1532203282.626,43.945,38.086,38.574,27.344,15.625
1532203282.630,45.410,41.504,40.039,35.156,-4.883
1532203282.634,38.086,41.992,43.457,38.574,17.090
1532203282.638,32.227,38.574,42.969,32.715,51.270
1532203282.642,34.668,36.133,41.504,31.738,22.461
1532203282.645,33.691,33.691,40.039,35.156,22.461
1532203282.649,27.344,32.715,41.992,34.668,30.273
1532203282.653,31.250,37.109,48.340,38.086,62.012
1532203282.657,41.016,41.016,49.805,42.480,77.148
1532203282.661,45.410,39.551,44.434,42.480,41.992
1532203282.665,45.898,38.086,39.062,35.156,11.719
1532203282.669,39.062,37.109,39.551,38.086,35.156
1532203282.673,32.227,32.715,39.062,44.434,76.172
1532203282.677,34.668,29.785,42.480,40.527,48.340
1532203282.681,34.180,32.715,43.945,35.645,13.672
1532203282.684,30.273,36.133,41.504,31.738,7.812
1532203282.688,33.691,35.156,42.480,25.879,34.668
1532203282.692,42.480,30.273,40.039,21.973,68.848
1532203282.696,53.711,30.273,38.574,23.926,49.805
1532203282.700,59.570,34.668,35.156,20.020,38.574
1532203282.704,57.129,38.574,32.715,22.949,60.059
1532203282.708,42.480,37.598,38.086,29.297,31.738
1532203282.712,25.391,31.250,37.109,27.832,-10.254
1532203282.716,22.461,27.832,34.668,32.227,28.809
1532203282.720,26.855,28.320,34.668,40.527,68.359
1532203282.724,29.297,28.320,30.273,34.180,49.805
1532203282.727,31.250,24.902,26.367,30.273,29.297
1532203282.731,24.414,22.461,26.367,35.156,15.137
1532203282.735,18.555,21.973,23.926,31.738,10.254
1532203282.739,20.020,21.484,28.809,31.738,45.898
1532203282.743,20.508,21.973,34.180,27.832,46.387
1532203282.747,20.996,23.438,33.691,18.555,24.414
1532203282.751,23.926,25.879,32.227,17.578,32.227
1532203282.755,24.414,30.762,33.691,17.578,62.012
1532203282.759,24.414,31.738,34.668,18.066,66.895
1532203282.763,33.203,28.320,37.598,19.531,17.090
1532203282.767,35.645,28.809,35.645,16.602,0.488
1532203282.770,32.715,32.715,33.203,20.020,44.434
1532203282.774,32.715,36.133,33.203,21.973,65.430
1532203282.778,33.203,32.715,31.738,20.996,43.457
1532203282.782,33.203,31.738,28.809,26.367,-5.859
1532203282.786,27.832,35.645,29.297,25.391,16.602
1532203282.790,25.391,37.109,32.715,21.973,41.016
1532203282.794,27.832,34.668,34.180,22.949,29.297
1532203282.798,27.832,33.691,35.156,27.344,19.043
1532203282.802,27.832,34.180,36.621,24.902,0.488
1532203282.806,32.715,32.715,35.645,22.949,25.391
1532203282.809,31.738,30.273,33.691,32.715,24.414
1532203282.813,25.879,26.855,36.621,34.668,14.160
1532203282.817,23.926,26.367,40.039,32.227,29.297
1532203282.821,27.832,28.320,42.480,28.320,31.738
1532203282.825,33.691,28.809,42.480,20.508,25.879
1532203282.829,32.715,33.203,38.086,18.066,34.180
1532203282.833,23.438,34.668,32.227,12.695,37.109
1532203282.837,22.949,32.715,29.297,8.301,56.152
1532203282.841,25.391,30.273,26.855,12.207,57.617
1532203282.845,23.438,29.297,24.414,15.137,19.043
1532203282.849,25.391,27.344,25.391,13.184,-17.090
1532203282.852,26.855,25.391,28.320,14.160,21.484
1532203282.856,21.973,26.367,30.762,17.090,49.805
1532203282.860,19.531,27.344,28.809,19.043,8.789
1532203282.864,21.973,24.414,26.367,12.695,-17.090
1532203282.868,26.367,22.949,29.785,11.719,-17.578
1532203282.872,27.832,24.414,32.227,19.531,46.875
1532203282.876,25.391,25.391,30.273,19.043,56.641
1532203282.880,27.832,24.414,27.344,19.531,22.949
1532203282.884,35.156,24.414,32.715,25.879,25.391
1532203282.888,36.621,27.832,37.109,30.273,43.457
1532203282.891,31.250,24.902,32.715,23.438,43.945
1532203282.895,24.902,18.555,32.227,20.020,8.789
1532203282.899,21.973,20.508,34.668,25.879,1.953
1532203282.903,22.461,23.926,34.180,23.926,31.738
1532203282.907,22.949,22.949,31.738,19.043,40.527
1532203282.911,25.879,24.414,30.273,21.973,28.320
1532203282.915,37.109,26.367,34.180,25.879,17.090
1532203282.919,35.645,25.391,37.109,26.855,32.227
1532203282.923,29.297,23.926,37.598,24.414,21.484
1532203282.927,32.227,24.902,36.621,23.438,2.930
1532203282.931,28.809,28.809,38.574,26.855,7.812
1532203282.934,26.855,29.785,37.598,27.832,38.574
1532203282.938,26.855,27.832,33.691,26.367,66.406
1532203282.942,26.855,28.320,34.668,29.297,31.738
1532203282.946,27.344,25.391,36.621,25.391,-9.277
1532203282.950,24.414,23.926,39.062,22.461,21.973
1532203282.954,23.926,24.902,40.039,24.902,54.688
1532203282.958,29.297,26.855,37.109,27.344,65.430
1532203282.962,29.297,26.367,34.180,24.414,35.645
1532203282.966,28.320,23.438,38.086,22.461,13.184
1532203282.970,28.320,25.391,38.574,30.762,50.293
1532203282.974,28.809,27.832,37.109,31.738,45.410
1532203282.977,32.715,25.391,39.551,34.180,13.184
1532203282.981,35.156,25.391,40.527,35.645,-1.953
1532203282.985,30.762,28.809,39.551,31.738,3.906
1532203282.989,24.902,25.879,37.598,32.227,24.902
1532203282.993,25.879,21.484,36.133,35.156,54.199
1532203282.997,29.297,22.949,37.598,33.691,35.645
1532203283.001,30.273,22.949,40.039,23.926,13.672
1532203283.005,30.762,24.414,40.527,18.066,18.066
1532203283.009,36.133,25.391,38.574,21.484,22.461
1532203283.013,31.738,21.484,36.621,25.391,26.855
1532203283.016,20.020,19.531,40.039,22.949,26.367
1532203283.020,20.020,20.508,40.527,22.461,20.020
1532203283.024,25.879,17.578,39.551,18.555,28.809
1532203283.028,28.809,18.066,40.527,19.531,38.574
1532203283.032,25.879,20.508,41.504,26.855,27.832
1532203283.036,21.484,15.625,41.504,30.762,41.016
1532203283.040,24.902,22.461,37.598,33.691,49.316
1532203283.044,30.762,29.785,35.156,35.156,19.531
1532203283.048,30.273,29.297,37.109,28.320,7.812
1532203283.052,31.250,25.879,39.062,29.785,26.855
1532203283.056,31.250,22.949,36.621,34.180,62.988
1532203283.059,24.902,23.438,33.691,28.809,62.988
1532203283.063,26.367,26.367,35.645,31.250,19.043
1532203283.067,32.715,28.320,41.992,35.156,25.879
1532203283.071,25.879,24.902,41.992,27.832,64.941
1532203283.075,25.391,23.926,37.109,24.414,47.852
1532203283.079,34.668,24.414,38.086,28.809,16.602
1532203283.083,35.645,21.973,42.969,34.180,12.695
1532203283.087,37.109,24.414,39.551,32.715,28.809
1532203283.091,33.203,25.391,35.156,27.832,38.574
1532203283.095,34.180,25.391,39.062,34.180,17.578
1532203283.099,32.715,27.344,40.039,41.504,26.855
1532203283.102,33.203,23.926,37.598,34.180,32.227
1532203283.106,36.133,22.461,35.156,29.297,37.109
1532203283.110,30.762,30.273,34.180,33.203,22.461
1532203283.114,27.344,33.203,35.645,31.250,-7.324
1532203283.118,26.367,28.809,37.598,35.156,21.484
1532203283.122,24.414,28.320,38.574,30.273,21.973
1532203283.126,26.855,23.926,36.621,22.461,-3.418
1532203283.130,36.621,25.391,34.668,28.320,24.902
1532203283.134,38.574,27.832,38.574,28.320,20.508
1532203283.138,32.227,27.344,41.016,27.344,16.602
1532203283.141,32.715,30.762,38.086,25.879,14.648
1532203283.145,32.227,30.762,37.598,22.949,-33.691
1532203283.149,30.273,25.879,34.668,25.879,-12.207
1532203283.153,31.738,24.902,32.227,29.785,49.316
1532203283.157,36.133,28.809,36.133,33.203,69.336
1532203283.161,38.574,35.156,37.598,30.762,35.156
1532203283.165,34.668,38.574,37.109,31.738,19.043
1532203283.169,35.645,31.738,35.645,34.668,36.621
1532203283.173,43.457,30.762,40.039,37.109,68.848
1532203283.177,42.969,37.109,42.480,34.180,56.641
1532203283.181,33.203,38.086,36.621,31.250,12.695
1532203283.184,33.691,38.574,33.203,31.250,4.883
1532203283.188,35.645,34.668,35.156,28.809,46.875
1532203283.192,35.156,31.250,39.062,32.227,66.406
1532203283.196,34.180,30.273,40.039,34.668,42.969
1532203283.200,32.715,30.762,39.062,33.691,30.762
1532203283.204,39.551,32.715,38.086,29.297,43.457
1532203283.208,46.875,31.738,40.527,31.250,66.895
1532203283.212,39.062,27.832,42.480,35.156,32.715
1532203283.216,29.785,25.391,39.551,31.250,20.020
1532203283.220,33.203,25.391,36.133,34.668,60.059
1532203283.224,40.527,27.832,38.086,29.785,50.293
1532203283.227,38.086,27.344,41.992,20.996,47.363
1532203283.231,32.227,23.926,41.016,28.809,25.391
1532203283.235,33.691,26.367,40.039,31.738,17.578
1532203283.239,37.109,30.273,38.086,30.273,53.223
1532203283.243,34.180,31.250,38.086,23.926,19.531
1532203283.247,30.762,31.250,41.504,20.508,7.324
1532203283.251,33.203,28.809,42.480,21.484,47.363
1532203283.255,35.645,25.879,40.527,20.508,67.871
1532203283.259,31.250,27.344,42.480,23.926,65.918
1532203283.263,23.926,31.250,41.504,25.879,38.086
1532203283.266,22.949,31.250,38.574,27.344,31.738
1532203283.270,24.902,27.832,40.527,29.297,46.387
1532203283.274,22.949,26.367,40.039,28.320,41.504
1532203283.278,23.926,26.367,37.109,28.320,33.691
1532203283.282,27.832,26.367,35.645,23.438,21.484
1532203283.286,32.227,28.809,35.645,15.137,20.996
1532203283.290,34.668,27.832,35.156,15.625,32.715
1532203283.294,30.762,20.996,36.621,26.367,34.668
1532203283.298,25.391,17.578,38.086,33.203,51.758
1532203283.302,32.227,24.902,37.598,29.785,53.711
1532203283.306,34.180,26.855,35.156,28.809,42.480
1532203283.309,23.926,23.438,36.621,30.273,39.551
1532203283.313,21.973,22.461,36.133,24.414,9.766
1532203283.317,18.066,21.484,33.203,20.508,17.090
1532203283.321,19.531,21.973,33.203,17.578,58.594
1532203283.325,20.020,21.484,33.203,13.184,48.828
1532203283.329,18.066,21.973,27.344,16.602,19.531
1532203283.333,24.902,22.461,24.414,19.043,7.812
1532203283.337,23.926,21.484,27.832,19.043,56.152
1532203283.341,26.855,17.578,26.367,16.602,61.523
1532203283.345,27.832,16.113,24.902,8.789,10.742
1532203283.348,26.855,15.137,24.414,10.742,-4.395
1532203283.352,23.438,14.648,23.438,16.602,11.230
1532203283.356,23.926,19.531,22.949,12.695,30.273
1532203283.360,23.438,19.531,23.438,12.695,8.301
1532203283.364,14.648,15.625,21.484,12.695,-15.625
1532203283.368,12.695,13.184,19.043,11.230,24.902
1532203283.372,13.672,18.066,17.090,11.230,73.730
1532203283.376,25.391,20.508,18.066,9.277,61.035
1532203283.380,32.715,21.484,23.926,9.277,19.531
1532203283.384,27.832,23.438,22.949,9.277,-4.395
1532203283.388,29.297,19.043,20.996,6.836,14.648
1532203283.391,39.062,17.090,22.461,10.742,26.855
1532203283.395,40.527,17.090,22.949,19.531,22.461
1532203283.399,35.156,17.090,20.508,23.438,25.879
1532203283.403,33.691,19.531,23.926,21.484,10.742
1532203283.407,39.062,20.996,29.785,27.344,11.230
1532203283.411,42.480,25.391,34.668,39.551,25.391
1532203283.415,40.039,26.855,35.645,41.992,13.672
1532203283.419,35.645,25.879,31.250,39.062,33.691
1532203283.423,29.297,28.320,29.297,34.668,32.227
1532203283.427,31.738,30.273,28.320,30.762,11.230
1532203283.431,39.062,34.668,34.180,37.598,17.090
1532203283.434,39.551,35.645,37.109,41.992,27.344
1532203283.438,35.156,30.273,35.645,36.621,45.898
1532203283.442,28.320,26.855,36.621,27.344,26.855
1532203283.446,29.785,23.926,36.621,27.832,0.488
1532203283.450,29.785,23.926,34.180,35.156,-4.395
1532203283.454,22.461,22.949,29.785,29.785,11.719
1532203283.458,26.367,17.090,27.832,24.414,32.227
1532203283.462,34.180,17.578,25.391,24.902,21.973
1532203283.466,34.668,24.414,24.902,19.531,-15.137
1532203283.470,31.738,24.902,25.391,19.043,1.953
1532203283.473,30.762,19.531,22.949,23.438,54.688
1532203283.477,27.832,16.602,24.414,23.438,42.480
1532203283.481,19.043,16.113,23.926,25.391,-3.906
1532203283.485,17.090,12.695,22.949,26.855,17.090
1532203283.489,24.902,12.207,24.414,23.438,38.574
1532203283.493,28.809,15.137,26.855,21.973,15.625
1532203283.497,24.902,14.160,24.414,19.043,1.953
1532203283.501,25.879,14.160,21.973,14.160,1.465
1532203283.505,23.926,15.137,22.949,14.648,27.832
1532203283.509,23.926,18.066,21.973,17.578,17.578
1532203283.513,24.902,20.996,21.973,21.973,13.184
1532203283.516,20.020,20.020,20.508,20.508,28.809
1532203283.520,17.578,17.090,18.066,13.672,29.785
1532203283.524,22.461,17.090,19.043,9.766,14.648
1532203283.528,24.414,15.625,21.484,14.160,12.695
1532203283.532,23.926,13.672,23.438,17.578,30.273
1532203283.536,24.414,14.160,26.855,21.484,21.973
1532203283.540,23.926,16.602,24.902,25.879,57.129
1532203283.544,29.297,17.578,23.926,24.414,69.824
1532203283.548,26.855,15.625,25.879,23.926,18.066
1532203283.552,17.578,15.625,18.066,19.531,10.254
1532203283.556,17.578,15.625,14.160,18.066,55.176
1532203283.559,26.855,14.648,19.531,20.020,61.035
1532203283.563,24.902,18.066,20.020,15.137,2.441
1532203283.567,16.113,19.043,19.043,11.719,7.324
1532203283.571,14.160,20.020,20.508,16.602,56.152
1532203283.575,13.672,17.578,20.508,14.160,52.734
1532203283.579,17.578,13.184,16.602,14.648,23.438
1532203283.583,22.461,19.043,17.578,12.207,19.531
1532203283.587,21.973,21.484,20.020,6.348,43.945
1532203283.591,20.996,19.531,20.996,9.766,60.547
1532203283.595,19.531,15.625,24.414,13.672,49.316
1532203283.598,13.672,13.184,21.973,19.531,0.488
1532203283.602,17.090,16.113,20.996,19.043,15.625
1532203283.606,18.555,17.578,26.367,20.996,18.555
1532203283.610,21.973,19.043,30.273,29.297,9.766
1532203283.614,24.414,19.531,28.809,25.879,19.043
1532203283.618,20.996,17.090,23.438,21.973,37.109
1532203283.622,20.020,14.160,20.508,19.043,53.711
1532203283.626,19.043,15.625,24.902,14.160,34.180
1532203283.630,19.043,15.625,27.832,18.066,20.508
1532203283.634,25.391,15.625,24.902,22.461,37.109
1532203283.638,26.367,17.090,20.020,19.531,61.035
1532203283.641,21.484,18.555,20.020,18.066,25.879
1532203283.645,23.926,20.996,23.926,20.996,-29.785
1532203283.649,25.879,21.484,27.832,20.996,10.254
1532203283.653,19.043,17.090,25.391,17.090,49.316
1532203283.657,16.602,14.160,25.391,20.508,53.223
1532203283.661,19.043,18.555,26.855,24.414,25.879
1532203283.665,16.113,20.508,27.344,18.066,-23.926
1532203283.669,16.602,19.043,28.809,19.043,3.418
1532203283.673,15.137,19.531,24.902,19.043,41.992
1532203283.677,12.695,19.531,22.461,19.043,16.113
1532203283.681,19.043,19.043,24.902,22.949,-7.324
1532203283.684,24.414,18.066,23.926,20.996,14.160
1532203283.688,21.973,17.090,17.090,15.625,33.691
1532203283.692,14.648,18.066,17.578,12.695,30.273
1532203283.696,11.230,20.508,21.973,11.719,36.621
1532203283.700,16.113,20.996,21.973,15.625,29.785
1532203283.704,19.531,24.414,22.949,12.695,27.344
1532203283.708,25.391,29.297,25.879,13.672,27.344
1532203283.712,29.297,26.367,24.902,21.484,5.859
1532203283.716,27.344,24.902,25.879,25.879,6.348
1532203283.720,27.344,25.879,29.297,32.227,40.039
1532203283.723,25.879,23.926,29.297,27.344,55.664
1532203283.727,29.785,24.414,27.344,23.438,46.875
1532203283.731,30.273,27.344,30.273,28.320,23.926
1532203283.735,28.320,27.344,32.227,26.367,21.973
1532203283.739,30.762,24.902,34.180,28.320,17.578
1532203283.743,29.785,25.391,32.715,20.996,14.160
1532203283.747,30.273,30.273,27.344,5.859,-13.184
1532203283.751,33.691,30.762,28.809,13.184,-7.812
1532203283.755,33.691,28.320,34.668,28.320,37.109
1532203283.759,32.227,25.879,34.180,26.855,45.898
1532203283.763,34.668,24.414,30.273,18.066,20.508
1532203283.766,36.133,25.879,31.250,27.344,2.930
1532203283.770,43.945,26.367,32.227,35.645,47.363
1532203283.774,56.152,25.391,30.273,32.715,54.199
1532203283.778,66.406,28.809,29.297,29.297,41.504
1532203283.782,45.898,27.832,33.203,29.785,18.555
1532203283.786,15.625,23.438,34.180,32.227,5.371
1532203283.790,7.812,24.414,35.156,35.156,33.203
1532203283.794,11.719,25.879,37.109,38.574,20.508
1532203283.798,16.602,25.879,36.133,33.691,11.230
1532203283.802,23.926,23.926,37.598,30.273,20.996
1532203283.805,31.250,23.926,38.086,30.762,33.691
1532203283.809,30.273,25.879,37.109,34.668,41.016
1532203283.813,31.250,27.344,33.203,35.645,36.133
1532203283.817,35.645,27.832,24.414,37.109,42.480
1532203283.821,42.480,23.926,27.344,39.062,46.387
1532203283.825,46.875,22.949,29.785,35.645,34.668
1532203283.829,56.152,30.762,30.273,37.109,30.762
1532203283.833,61.523,32.715,32.227,33.691,20.508
1532203283.837,56.641,28.320,28.809,28.809,49.316
1532203283.841,57.129,30.762,27.344,27.344,75.684
1532203283.845,52.246,31.250,30.273,20.996,14.160
1532203283.848,44.922,26.367,31.250,22.461,7.812
1532203283.852,48.828,28.320,34.180,27.832,45.410
1532203283.856,41.016,28.320,36.133,27.344,58.105
1532203283.860,33.691,25.879,34.668,32.227,40.527
1532203283.864,35.156,26.367,34.180,34.668,-1.465
1532203283.868,30.762,26.367,35.645,34.180,6.348
1532203283.872,27.832,26.367,34.668,33.203,53.711
1532203283.876,25.391,27.832,33.691,34.668,57.617
1532203283.880,25.391,25.391,36.621,35.645,0.977
1532203283.884,24.414,21.484,40.527,30.762,-21.484
1532203283.888,24.902,24.414,38.574,27.344,26.855
1532203283.891,30.762,24.414,35.645,33.203,42.969
1532203283.895,31.250,20.996,37.598,37.109,21.484
1532203283.899,20.996,20.508,36.621,37.109,4.395
1532203283.903,20.996,19.043,34.180,34.668,-16.113
1532203283.907,30.273,21.484,33.691,31.250,9.766
1532203283.911,42.480,25.879,30.762,33.691,22.461
1532203283.915,46.387,25.879,28.320,30.762,-2.930
1532203283.919,45.898,25.879,28.320,26.855,30.762
1532203283.923,43.457,24.414,27.832,26.367,69.336
1532203283.927,35.645,23.438,27.832,28.320,11.719
1532203283.930,37.109,28.809,28.320,34.180,-26.855
1532203283.934,28.809,30.762,27.832,32.227,-3.906
1532203283.938,29.297,28.320,32.715,29.297,36.621
1532203283.942,40.039,31.738,35.645,30.273,18.555
1532203283.946,38.574,35.645,39.551,31.250,-25.879
1532203283.950,36.621,36.133,43.457,36.621,-3.906
1532203283.954,34.180,37.598,41.992,35.645,6.836
1532203283.958,34.180,38.086,42.480,39.062,42.969
1532203283.962,44.434,38.574,43.945,47.363,26.367
1532203283.966,48.340,43.457,42.969,44.434,17.578
1532203283.970,51.270,44.922,42.969,50.781,55.664
1532203283.973,57.129,45.898,47.852,56.641,53.711
1532203283.977,53.711,44.434,48.828,53.711,62.012
1532203283.981,56.641,42.480,47.363,52.246,24.902
1532203283.985,63.477,44.922,50.781,45.898,1.953
1532203283.989,66.406,41.504,51.270,44.922,43.457
1532203283.993,61.523,40.039,48.828,48.340,57.617
1532203283.997,54.199,40.039,51.270,48.828,30.273
1532203284.001,46.387,39.551,53.223,48.828,23.926
1532203284.005,45.410,41.016,53.223,47.852,44.922
1532203284.009,44.434,37.598,53.711,47.852,57.617
1532203284.013,37.598,36.621,52.246,46.875,48.828
1532203284.016,35.156,40.039,49.316,41.992,49.805
1532203284.020,36.621,39.062,49.316,42.480,35.156
1532203284.024,39.062,40.527,47.852,37.598,24.902
1532203284.028,36.621,42.480,46.875,37.109,10.254
1532203284.032,37.598,40.527,45.410,47.852,-2.930
1532203284.036,45.898,38.086,43.945,49.805,42.480
1532203284.040,50.293,42.969,49.805,51.758,55.664
1532203284.044,49.316,45.898,48.828,48.828,44.922
1532203284.048,51.270,40.527,41.016,46.875,13.184
1532203284.052,50.781,39.062,41.016,47.363,-1.953
1532203284.055,50.781,41.504,41.992,41.504,49.805
1532203284.059,49.316,41.504,42.969,36.621,42.480
1532203284.063,46.875,40.527,42.480,35.645,-2.441
1532203284.067,47.852,38.086,40.039,36.621,29.297
1532203284.071,44.922,37.598,38.574,36.133,58.105
1532203284.075,43.457,40.527,37.109,35.645,30.273
1532203284.079,52.734,42.969,36.133,34.668,3.418
1532203284.083,62.012,43.945,34.180,28.320,-11.719
1532203284.087,68.848,40.039,33.203,21.484,-6.348
1532203284.091,61.035,38.574,34.180,32.715,20.508
1532203284.095,51.270,38.086,36.133,43.457,41.016
1532203284.098,54.199,35.645,34.180,40.039,20.996
1532203284.102,54.688,34.668,39.551,45.410,14.160
1532203284.106,54.199,37.598,45.410,47.852,32.715
1532203284.110,51.758,36.621,42.969,43.457,9.277
1532203284.114,41.992,32.715,42.969,47.852,-0.977
1532203284.118,36.133,30.273,42.480,54.688,11.230
1532203284.122,37.109,31.738,41.504,54.688,31.250
1532203284.126,39.551,37.598,42.969,46.387,29.785
1532203284.130,41.016,36.133,38.574,46.387,33.691
1532203284.134,41.504,30.273,39.551,50.781,41.992
1532203284.138,44.434,22.949,47.363,58.105,49.805
1532203284.141,43.945,26.855,48.828,52.734,66.895
1532203284.145,36.133,38.086,45.410,36.133,38.574
1532203284.149,35.645,43.945,40.527,35.156,33.203
1532203284.153,46.875,41.016,41.992,44.434,67.383
1532203284.157,42.969,41.016,42.969,45.898,45.898
1532203284.161,38.086,42.969,41.992,40.527,42.480
1532203284.165,38.574,41.992,41.504,28.320,19.043
1532203284.169,32.715,38.086,39.551,26.855,14.160
1532203284.173,29.297,35.156,39.062,36.621,68.359
1532203284.177,32.715,34.668,38.086,36.621,49.805
1532203284.180,33.691,29.297,33.691,37.109,15.625
1532203284.184,32.715,27.344,33.691,37.598,17.090
1532203284.188,33.691,24.902,33.691,35.156,28.809
1532203284.192,36.133,20.508,33.203,33.691,20.996
1532203284.196,42.480,21.484,32.715,31.738,10.254
1532203284.200,41.504,25.391,27.832,33.203,-0.488
1532203284.204,31.250,23.926,26.855,32.715,7.324
1532203284.208,24.902,20.996,25.879,24.902,28.320
1532203284.212,19.043,20.996,25.391,20.508,32.715
1532203284.216,20.508,18.555,29.785,23.438,24.902
1532203284.220,22.949,19.531,29.785,21.484,38.574
1532203284.223,21.973,22.461,24.414,13.672,40.527
1532203284.227,29.785,22.461,24.902,13.184,16.113
1532203284.231,30.273,16.602,24.414,18.066,37.598
1532203284.235,26.367,13.184,21.973,17.090,41.504
1532203284.239,28.320,15.137,23.926,20.508,53.223
1532203284.243,20.020,16.602,22.461,21.484,44.922
1532203284.247,19.531,17.578,23.926,22.461,4.395
1532203284.251,26.367,17.578,26.855,28.809,14.160
1532203284.255,27.832,18.066,20.996,28.320,42.480
1532203284.259,31.738,17.090,17.090,24.902,48.828
1532203284.262,37.598,15.625,21.484,20.508,33.203
1532203284.266,37.598,17.090,22.461,11.230,3.906
1532203284.270,31.250,17.090,19.043,15.137,44.434
1532203284.274,26.367,14.648,19.531,20.996,57.129
1532203284.278,26.855,17.090,19.531,22.461,26.855
1532203284.282,28.320,19.043,18.555,19.043,-12.695
1532203284.286,24.902,19.043,20.508,18.066,10.254
1532203284.290,28.809,17.090,20.996,26.855,47.852
1532203284.294,37.598,13.672,23.438,28.320,27.344
1532203284.298,36.621,17.090,21.484,25.391,13.184
1532203284.302,30.762,23.438,20.508,24.414,17.090
1532203284.305,31.250,24.902,26.855,18.555,20.508
1532203284.309,32.227,23.438,27.344,23.926,29.297
1532203284.313,30.273,23.438,25.879,34.180,7.324
1532203284.317,24.902,20.996,25.879,32.715,-0.977
1532203284.321,31.738,20.996,26.367,33.203,24.902
1532203284.325,37.109,20.508,27.344,37.109,35.156
1532203284.329,35.645,20.020,26.367,35.156,36.133
1532203284.333,37.109,20.996,27.832,33.691,30.273
1532203284.337,29.785,20.508,29.785,35.645,30.762
1532203284.341,31.250,18.066,29.297,37.109,30.273
1532203284.345,36.621,19.531,31.250,37.598,6.836
1532203284.348,33.203,20.020,27.344,35.156,10.254
1532203284.352,29.785,17.090,28.809,33.691,38.086
1532203284.356,24.414,12.695,32.227,35.156,64.453
1532203284.360,21.973,13.672,30.762,38.086,51.270
1532203284.364,23.438,17.578,28.809,34.180,1.953
1532203284.368,24.414,17.578,27.832,29.297,33.691
1532203284.372,32.227,18.066,26.855,29.785,66.406
1532203284.376,37.109,20.020,24.414,30.273,41.016
1532203284.380,36.133,20.996,25.879,33.691,25.879
1532203284.384,33.691,21.973,28.809,33.691,38.086
1532203284.387,34.180,23.926,26.367,30.273,54.688
1532203284.391,35.645,23.438,25.879,26.855,54.688
1532203284.395,29.785,22.461,23.926,25.879,38.574
1532203284.399,22.461,21.484,20.996,29.297,11.230
1532203284.403,17.578,19.043,24.414,29.785,20.020
1532203284.407,20.508,15.625,26.855,28.809,32.227
1532203284.411,22.461,16.602,27.344,26.855,28.809
1532203284.415,25.391,20.996,26.855,25.391,18.066
1532203284.419,35.645,23.438,24.902,30.273,41.992
1532203284.423,40.039,21.484,24.902,24.902,52.246
1532203284.427,33.203,18.555,24.902,20.020,13.184
1532203284.430,18.555,17.578,23.926,30.273,13.672
1532203284.434,11.230,17.578,24.902,33.203,31.738
1532203284.438,18.555,19.531,24.414,32.227,32.227
1532203284.442,28.320,21.973,24.902,27.832,3.418
1532203284.446,30.762,19.043,25.879,22.461,20.996
1532203284.450,28.809,17.578,20.020,25.391,49.805
1532203284.454,36.133,20.996,19.531,28.809,27.344
1532203284.458,30.762,21.973,23.926,27.832,28.320
1532203284.462,15.625,22.949,22.461,20.508,4.883
1532203284.466,17.090,23.438,21.973,20.996,3.906
1532203284.470,25.879,24.414,21.973,25.879,42.480
1532203284.473,30.762,23.926,19.531,25.879,25.391
1532203284.477,27.344,21.484,23.926,22.461,14.160
1532203284.481,25.879,18.555,27.344,25.391,-2.441
1532203284.485,26.855,17.090,22.949,28.809,19.043
1532203284.489,31.250,19.043,20.020,25.879,54.199
1532203284.493,31.250,20.020,18.066,22.949,32.227
1532203284.497,23.926,19.043,15.625,18.555,1.953
1532203284.501,19.531,13.672,11.719,9.766,-6.836
1532203284.505,16.113,8.789,10.742,1.465,-5.371
1532203284.509,16.602,10.742,10.254,-0.488,21.973
1532203284.512,19.531,12.695,7.812,1.465,-1.953
1532203284.516,21.484,14.160,8.789,6.836,12.695
1532203284.520,17.090,15.625,12.695,14.160,43.945
1532203284.524,15.625,15.625,17.578,17.578,31.250
1532203284.528,20.508,14.648,16.113,18.555,31.250
1532203284.532,22.461,11.230,13.672,17.090,17.090
1532203284.536,25.391,9.766,18.066,15.137,20.508
1532203284.540,23.438,11.230,17.578,16.602,34.668
1532203284.544,22.461,12.207,17.578,13.184,-0.488
1532203284.548,27.344,12.207,19.043,9.277,-12.695
1532203284.552,22.949,15.137,19.043,16.113,26.367
1532203284.555,24.902,16.602,21.484,23.926,21.484
1532203284.559,34.668,15.137,23.438,28.809,19.043
1532203284.563,31.738,17.578,24.414,29.297,8.789
1532203284.567,34.180,17.090,24.902,25.879,9.766
1532203284.571,34.180,15.137,26.855,30.273,42.969
1532203284.575,27.832,17.578,31.250,27.344,67.383
1532203284.579,23.926,15.137,29.785,22.949,43.945
1532203284.583,17.578,15.137,27.344,21.973,8.301
1532203284.587,22.461,23.438,31.738,12.695,14.648
1532203284.591,29.785,26.367,29.297,19.043,45.898
1532203284.595,26.367,22.461,23.926,23.926,36.133
1532203284.598,16.602,19.531,22.461,19.043,11.719
1532203284.602,15.137,20.508,20.996,21.973,18.555
1532203284.606,19.043,21.484,20.996,26.855,33.203
1532203284.610,21.973,23.438,20.996,25.879,28.320
1532203284.614,27.832,26.367,23.926,26.367,20.996
1532203284.618,29.297,23.438,28.809,27.832,36.133
1532203284.622,28.320,20.996,33.691,30.762,48.340
1532203284.626,22.949,23.438,35.645,32.227,64.941
1532203284.630,24.902,24.902,33.691,28.320,30.273
1532203284.634,30.762,24.414,29.785,24.414,24.902
1532203284.637,32.227,22.949,29.297,23.438,70.312
1532203284.641,29.785,23.926,30.273,22.949,47.852
1532203284.645,28.320,24.902,30.762,22.461,-8.301
1532203284.649,24.902,21.484,30.273,20.996,1.465
1532203284.653,17.578,14.160,22.461,13.184,51.758
1532203284.657,12.695,10.742,18.555,14.160,62.012
1532203284.661,14.160,6.348,21.973,24.414,30.762
1532203284.665,15.137,9.766,25.391,23.926,15.625
1532203284.669,11.719,18.555,29.785,18.066,13.184
1532203284.673,11.230,18.555,29.785,20.508,29.297
1532203284.677,13.184,18.555,30.762,26.855,42.480
1532203284.680,17.090,22.461,30.273,27.832,28.809
1532203284.684,27.832,24.414,27.344,26.367,24.414
1532203284.688,35.156,22.949,29.297,29.297,37.598
1532203284.692,34.668,25.879,32.227,28.320,50.293
1532203284.696,32.227,26.367,33.203,26.367,33.203
1532203284.700,30.762,23.926,35.156,27.832,43.457
1532203284.704,30.762,24.414,34.668,18.066,42.969
1532203284.708,31.250,23.438,32.715,16.113,21.973
1532203284.712,30.273,23.926,31.738,29.785,27.832
1532203284.716,32.227,27.344,26.367,32.715,51.270
1532203284.719,33.691,25.391,25.879,33.691,52.734
1532203284.723,27.344,21.484,27.344,28.809,25.879
1532203284.727,28.320,19.043,26.367,26.367,4.883
1532203284.731,34.668,18.066,22.461,29.297,22.949
1532203284.735,35.156,23.926,19.043,24.902,52.734
1532203284.739,34.668,22.461,22.461,26.367,46.387
1532203284.743,35.156,18.555,25.391,24.902,9.766
1532203284.747,37.109,24.902,23.926,25.391,0.000
1532203284.751,36.133,29.297,21.484,33.691,36.133
1532203284.755,35.645,29.785,23.926,35.645,51.270
1532203284.759,36.133,27.832,24.902,37.109,72.266
1532203284.762,35.645,25.391,25.879,31.738,30.273
1532203284.766,36.621,25.391,25.879,27.344,11.719
1532203284.770,39.062,24.902,25.879,32.715,70.312
1532203284.774,41.992,21.484,28.320,32.715,66.406
1532203284.778,41.016,20.020,30.273,30.273,41.504
1532203284.782,40.039,23.926,29.785,23.926,22.461
1532203284.786,42.969,24.414,29.297,17.578,17.578
1532203284.790,43.945,25.391,27.344,17.578,55.664
1532203284.794,39.551,27.832,25.391,19.043,61.035
1532203284.798,33.691,26.367,25.391,21.973,27.832
1532203284.802,29.785,20.508,24.414,25.879,23.438
1532203284.805,22.461,17.578,22.461,26.367,33.691
1532203284.809,19.531,14.160,21.973,24.414,23.926
1532203284.813,22.949,9.277,22.461,23.438,27.832
1532203284.817,20.508,15.137,19.531,27.832,41.504
1532203284.821,15.625,21.973,20.508,31.250,45.898
1532203284.825,12.695,18.066,26.367,27.344,32.227
1532203284.829,15.625,16.113,25.879,26.855,20.508
1532203284.833,19.043,18.066,24.902,28.320,3.906
1532203284.837,17.090,17.090,25.391,23.438,33.203
1532203284.841,20.020,17.578,24.902,19.531,33.203
1532203284.844,24.902,17.578,22.949,14.648,-7.324
1532203284.848,19.531,16.602,22.949,12.207,1.465
1532203284.852,20.996,18.555,19.043,16.602,35.645
1532203284.856,31.738,22.461,20.508,24.902,35.645
1532203284.860,33.691,23.438,27.344,32.227,26.855
1532203284.864,26.367,21.484,26.855,24.902,29.785
1532203284.868,21.484,21.484,25.879,20.996,40.527
1532203284.872,20.508,23.438,24.414,25.879,51.270
1532203284.876,21.973,26.855,20.996,26.367,44.434
1532203284.880,28.809,27.344,20.508,23.438,20.996
1532203284.884,34.668,25.391,20.996,15.137,-9.766
1532203284.887,31.250,25.879,21.973,12.207,-14.648
1532203284.891,30.273,27.832,22.949,21.973,50.293
1532203284.895,31.250,26.367,24.902,27.832,52.246
1532203284.899,33.203,26.367,24.902,28.320,31.250
1532203284.903,33.691,26.367,21.484,28.809,31.738
1532203284.907,28.320,26.367,21.484,32.227,20.020
1532203284.911,30.273,29.297,25.391,33.691,42.969
1532203284.915,30.273,29.297,25.879,34.180,43.945
1532203284.919,28.809,28.320,25.391,31.250,26.367
1532203284.923,32.715,26.855,26.855,26.855,23.438
1532203284.927,32.227,21.973,25.879,20.996,20.020
1532203284.930,29.297,21.973,22.461,20.508,12.207
1532203284.934,31.250,26.855,20.508,21.484,29.297
1532203284.938,34.180,26.367,19.043,25.391,56.152
1532203284.942,35.645,23.926,19.043,27.832,27.344
1532203284.946,30.762,25.391,20.508,24.414,-18.066
1532203284.950,27.832,30.273,20.508,25.879,7.324
1532203284.954,33.203,30.273,19.043,26.855,49.805
1532203284.958,34.668,26.855,19.531,28.809,19.043
1532203284.962,30.273,29.297,21.484,29.297,14.160
1532203284.966,33.203,29.297,22.949,23.438,11.719
1532203284.969,34.180,24.414,24.414,24.902,33.691
1532203284.973,27.344,23.438,25.391,28.809,65.918
1532203284.977,31.250,26.367,25.879,29.785,46.387
1532203284.981,41.504,27.344,24.414,29.297,41.504
1532203284.985,41.504,26.855,22.949,33.203,30.762
1532203284.989,39.062,26.367,23.926,33.691,58.105
1532203284.993,41.992,26.367,20.996,26.855,66.406
1532203284.997,39.551,27.832,20.020,22.949,27.832
1532203285.001,35.645,24.414,24.414,21.973,33.691
1532203285.005,29.785,24.414,21.484,19.531,33.203
1532203285.009,32.227,31.250,14.648,22.461,33.203
1532203285.012,42.480,31.250,12.695,35.156,33.691
1532203285.016,30.273,20.996,23.926,35.645,-3.906
1532203285.020,20.508,15.625,29.785,27.344,28.809
1532203285.024,31.250,21.484,28.320,25.879,38.574
1532203285.028,27.832,20.020,28.809,24.902,9.766
1532203285.032,26.855,17.578,30.762,29.785,9.277
1532203285.036,26.855,22.461,31.250,32.715,45.898
1532203285.040,22.461,24.414,26.855,34.180,61.035
1532203285.044,24.902,25.879,27.344,33.691,12.695
1532203285.048,29.785,26.367,30.273,36.133,-8.789
1532203285.052,35.645,23.926,30.273,40.527,28.809
1532203285.055,31.738,20.508,27.344,35.645,49.805
1532203285.059,26.367,24.414,24.902,38.574,34.180
1532203285.063,32.715,24.414,27.344,37.598,-8.789
1532203285.067,34.180,20.996,26.855,24.902,-20.508
1532203285.071,39.062,23.438,26.367,23.926,25.391
1532203285.075,38.574,26.367,23.438,33.691,20.508
1532203285.079,25.391,23.926,19.043,37.598,-3.906
1532203285.083,29.297,23.438,20.508,33.203,9.277
1532203285.087,31.738,24.902,22.949,33.203,16.602
1532203285.091,30.273,24.902,21.973,31.738,43.945
1532203285.094,35.645,20.508,21.484,29.785,42.480
1532203285.098,33.691,19.531,26.367,32.715,15.137
1532203285.102,31.738,24.902,25.879,33.691,17.578
1532203285.106,24.414,23.438,20.508,25.391,6.836
1532203285.110,21.973,21.973,19.531,29.297,4.395
1532203285.114,31.738,23.438,18.555,36.133,-11.719
1532203285.118,31.738,22.949,10.742,31.738,0.977
1532203285.122,32.227,24.414,12.207,35.645,32.227
1532203285.126,32.715,23.438,18.066,35.645,45.898
1532203285.130,31.738,20.996,20.996,34.668,33.203
1532203285.134,31.738,21.484,21.484,31.250,15.625
1532203285.137,29.297,20.996,17.578,27.832,39.062
1532203285.141,40.039,25.391,15.137,36.133,38.086
1532203285.145,41.992,30.273,16.602,40.039,-3.906
1532203285.149,38.086,29.297,17.578,37.109,-2.930
1532203285.153,37.598,24.902,17.090,33.691,33.691
1532203285.157,34.180,26.855,17.578,33.691,61.035
1532203285.161,34.668,29.297,15.137,36.133,40.039
1532203285.165,35.156,25.391,17.090,22.461,-34.180
1532203285.169,38.086,25.879,21.973,18.066,-17.090
1532203285.173,42.969,24.902,21.484,28.320,22.949
1532203285.176,35.645,23.926,20.996,28.809,33.691
1532203285.180,30.762,25.879,23.926,34.668,20.020
1532203285.184,37.109,26.855,20.996,33.691,-9.277
1532203285.188,37.109,25.879,18.555,27.344,34.668
1532203285.192,34.668,22.949,19.043,25.879,31.250
1532203285.196,32.227,23.438,18.066,28.809,-14.160
1532203285.200,35.645,26.855,14.160,32.227,4.395
1532203285.204,39.062,30.273,19.531,27.832,22.949
1532203285.208,32.715,26.367,25.391,27.344,26.367
1532203285.212,29.297,20.020,25.879,32.715,8.789
1532203285.216,29.297,23.926,28.809,35.156,-4.395
1532203285.219,33.203,31.250,26.367,34.180,27.832
1532203285.223,36.133,33.203,24.902,33.203,46.387
1532203285.227,30.273,28.809,21.973,33.203,28.809
1532203285.231,31.250,25.879,20.020,34.180,14.648
1532203285.235,32.227,23.926,19.043,35.156,56.641
1532203285.239,35.645,25.391,20.508,32.715,79.590
1532203285.243,42.480,30.273,25.391,27.832,0.488
1532203285.247,41.016,34.180,25.879,28.320,-32.715
1532203285.251,42.969,35.645,24.414,34.180,26.367
1532203285.255,45.898,36.621,28.320,38.086,53.223
1532203285.259,53.711,39.551,33.203,38.574,61.035
1532203285.262,56.641,38.086,31.738,41.016,28.809
1532203285.266,50.293,39.062,31.250,47.852,2.441
1532203285.270,44.434,45.410,30.762,45.898,46.875
1532203285.274,44.922,45.898,29.785,40.527,41.504
1532203285.278,45.898,40.527,31.738,37.598,30.762
1532203285.282,41.504,35.645,32.715,39.551,11.230
1532203285.286,41.016,31.250,29.297,34.668,-3.906
1532203285.290,40.039,27.344,27.832,31.250,18.555
1532203285.294,38.574,28.320,29.785,31.250,-1.465
1532203285.298,38.086,31.250,27.832,31.738,-3.418
1532203285.301,27.344,29.785,26.367,33.691,4.395
1532203285.305,29.297,28.320,24.902,28.320,28.320
1532203285.309,33.203,26.855,24.902,30.273,43.945
1532203285.313,32.715,26.855,22.461,36.621,14.160
1532203285.317,36.621,29.297,15.625,31.738,9.766
1532203285.321,40.039,25.879,18.555,29.785,54.199
1532203285.325,42.480,26.367,23.926,31.250,46.875
1532203285.329,33.691,29.785,21.484,30.762,32.715
1532203285.333,28.320,26.367,22.461,35.156,46.387
1532203285.337,36.133,25.879,21.973,32.227,41.992
1532203285.341,38.574,28.809,19.531,29.785,51.270
1532203285.344,37.598,29.297,22.461,20.020,1.465
1532203285.348,37.598,28.809,27.344,14.648,-16.602
1532203285.352,33.203,24.414,27.344,24.902,28.320
1532203285.356,36.133,20.508,23.926,31.250,43.457
1532203285.360,30.762,19.043,22.949,32.715,53.711
1532203285.364,16.113,19.043,20.020,28.320,29.785
1532203285.368,14.160,21.973,18.066,27.344,33.691
1532203285.372,17.578,26.367,19.043,26.855,72.266
1532203285.376,24.414,24.902,16.113,19.531,57.129
1532203285.380,29.297,20.996,16.602,19.043,27.832
1532203285.384,24.414,22.461,20.508,17.090,20.020
1532203285.387,26.855,29.297,16.602,18.066,20.020
1532203285.391,32.715,29.297,17.090,25.879,27.832
1532203285.395,28.320,27.832,20.508,25.879,34.668
1532203285.399,27.832,29.297,18.555,24.902,35.645
1532203285.403,32.227,28.809,17.578,24.902,38.574
1532203285.407,28.320,26.367,17.090,21.484,28.809
1532203285.411,28.809,27.344,18.066,22.461,17.090
1532203285.415,26.855,26.855,17.090,25.391,12.695
1532203285.419,26.855,21.973,13.184,23.438,14.160
1532203285.423,30.762,21.484,13.672,22.949,53.711
1532203285.426,30.762,24.414,16.602,23.438,59.570
1532203285.430,31.738,23.926,17.578,28.320,4.883
1532203285.434,31.250,21.973,19.043,29.785,20.020
1532203285.438,26.367,22.949,19.043,26.855,69.336
1532203285.442,25.879,26.367,19.043,22.949,41.992
1532203285.446,31.738,25.391,19.531,18.555,-0.977
1532203285.450,34.180,24.414,19.043,24.414,-4.395
1532203285.454,30.762,28.320,16.113,28.320,25.391
1532203285.458,31.250,28.809,16.113,33.203,40.039
1532203285.462,37.598,29.297,16.602,35.156,15.137
1532203285.466,43.457,31.250,17.578,29.297,6.836
1532203285.469,49.316,31.738,19.043,29.785,32.715
1532203285.473,52.734,31.738,18.555,27.832,72.266
1532203285.477,52.734,30.762,19.043,22.949,57.617
1532203285.481,53.711,31.738,19.043,22.949,0.488
1532203285.485,41.016,31.250,19.043,19.531,-19.043
1532203285.489,26.855,26.367,18.555,25.879,22.461
1532203285.493,31.738,25.879,17.578,37.598,32.715
1532203285.497,32.715,26.855,18.555,39.551,38.086
1532203285.501,33.691,23.438,20.996,41.504,59.082
1532203285.505,33.691,26.367,19.531,46.387,71.777
1532203285.508,23.926,28.809,17.090,52.246,70.312
1532203285.512,20.020,27.344,20.020,46.875,36.621
1532203285.516,27.344,21.973,21.973,42.480,31.738
1532203285.520,34.180,22.461,24.414,44.434,34.668
1532203285.524,33.203,31.250,27.832,31.250,10.254
1532203285.528,28.809,30.273,24.902,19.531,-13.184
1532203285.532,29.297,29.297,26.367,26.367,9.277
1532203285.536,28.809,27.832,24.902,24.414,41.992
1532203285.540,26.367,22.949,16.602,21.484,68.848
1532203285.544,22.949,21.973,15.625,25.879,23.926
1532203285.548,27.344,24.902,21.484,24.902,-1.465
1532203285.551,27.832,23.438,23.438,25.879,32.227
1532203285.555,27.832,22.461,23.926,30.273,65.430
1532203285.559,38.086,25.391,22.461,31.250,42.480
1532203285.563,39.062,25.391,18.555,33.691,-1.465
1532203285.567,35.156,26.855,19.531,38.086,13.184
1532203285.571,36.133,26.367,21.973,38.574,30.273
1532203285.575,26.855,25.391,23.438,41.016,29.785
1532203285.579,26.367,26.855,25.391,44.434,25.879
1532203285.583,35.645,24.902,25.879,33.691,-4.883
1532203285.587,32.715,22.461,24.902,25.879,-7.324
1532203285.591,29.297,25.391,27.832,28.809,27.344
1532203285.594,27.832,28.809,27.344,26.855,7.812
1532203285.598,25.879,26.367,21.484,22.461,-3.906
1532203285.602,30.273,22.461,20.020,21.484,29.785
1532203285.606,39.551,24.902,20.020,25.879,45.410
1532203285.610,39.062,26.367,16.113,26.367,45.410
1532203285.614,37.109,28.320,14.160,26.367,24.414
1532203285.618,43.945,33.203,18.066,34.180,16.113
1532203285.622,51.270,38.086,23.926,28.320,38.086
1532203285.626,49.316,37.109,25.879,22.949,29.785
1532203285.630,44.922,36.133,26.855,32.227,4.883
1532203285.633,49.316,35.156,25.879,34.668,19.531
1532203285.637,49.805,31.738,23.438,37.598,43.945
1532203285.641,46.387,30.762,23.926,35.645,33.691
1532203285.645,47.852,29.785,25.879,30.273,32.227
1532203285.649,48.828,29.785,26.855,35.645,46.387
1532203285.653,38.086,28.320,26.367,38.086,52.246
1532203285.657,33.691,26.855,26.855,39.062,61.035
1532203285.661,43.457,24.902,30.273,39.551,26.855
1532203285.665,44.434,26.855,28.320,35.156,-13.184
1532203285.669,48.828,30.762,24.902,31.250,28.809
1532203285.673,47.363,27.832,25.391,27.832,67.383
1532203285.676,36.621,27.344,29.297,32.227,52.734
1532203285.680,36.621,29.297,32.227,36.133,20.508
1532203285.684,44.434,32.227,30.273,35.645,6.348
1532203285.688,44.434,32.227,31.250,36.133,41.016
1532203285.692,40.527,30.273,29.785,36.133,53.223
1532203285.696,40.527,32.227,27.344,34.668,22.461
1532203285.700,45.898,33.203,26.855,35.645,4.395
1532203285.704,46.387,32.715,26.367,33.203,14.648
1532203285.708,44.922,31.250,23.438,25.879,22.461
1532203285.712,39.551,30.273,25.391,24.902,16.602
1532203285.716,32.227,32.715,26.855,26.367,21.484
1532203285.719,36.133,37.109,22.949,29.785,39.062
1532203285.723,38.574,38.086,24.902,31.250,19.531
1532203285.727,38.086,35.156,28.809,31.738,-10.742
1532203285.731,40.527,30.762,28.809,35.156,-23.438
1532203285.735,37.109,29.297,25.879,30.273,3.418
1532203285.739,36.133,34.180,23.926,31.738,29.785
1532203285.743,35.156,30.762,24.414,38.086,20.020
1532203285.747,35.156,27.832,25.391,39.551,32.715
1532203285.751,38.086,31.250,22.461,39.551,22.949
1532203285.755,34.180,28.809,22.461,41.504,22.461
1532203285.758,36.133,29.785,26.367,45.410,28.809
1532203285.762,42.969,35.645,26.855,37.109,-4.395
1532203285.766,44.922,38.086,22.461,24.902,-27.832
1532203285.770,44.922,35.645,18.555,29.785,6.348
1532203285.774,42.969,35.156,20.020,33.203,33.203
1532203285.778,37.598,31.738,23.926,34.668,12.695
1532203285.782,34.180,26.855,23.438,35.645,13.184
1532203285.786,32.227,27.344,21.484,32.227,34.668
1532203285.790,37.598,29.785,21.973,37.109,45.410
1532203285.794,42.969,29.297,22.949,38.574,23.926
1532203285.798,42.969,31.250,24.902,38.574,-10.254
1532203285.801,34.180,33.691,23.438,39.551,5.371
1532203285.805,26.367,32.715,22.461,30.762,28.320
1532203285.809,31.738,34.180,26.855,31.738,34.668
1532203285.813,32.715,31.250,26.367,35.156,36.133
1532203285.817,34.668,27.832,21.973,33.691,40.527
1532203285.821,35.156,29.297,21.973,36.133,46.387
1532203285.825,30.273,34.668,28.320,37.109,7.324
1532203285.829,31.250,36.133,30.762,33.691,24.902
1532203285.833,30.762,29.785,33.203,32.227,50.781
1532203285.837,31.738,27.344,37.109,31.250,43.457
1532203285.841,36.621,27.832,35.645,35.156,49.316
1532203285.844,33.691,27.344,32.227,38.574,17.578
1532203285.848,28.809,28.320,31.250,36.621,-8.789
1532203285.852,31.250,26.855,27.832,37.109,24.414
1532203285.856,36.133,28.809,26.855,36.621,55.664
1532203285.860,38.574,32.715,29.785,35.156,35.645
1532203285.864,40.039,28.809,27.344,36.621,-19.531
1532203285.868,38.574,28.320,29.297,36.133,1.465
1532203285.872,38.086,32.715,34.668,37.598,44.434
1532203285.876,39.062,34.668,29.297,37.109,3.418
1532203285.880,37.109,33.203,27.344,36.133,-3.418
1532203285.883,38.574,30.762,32.715,35.645,21.484
1532203285.887,37.109,29.297,31.738,35.645,43.945
1532203285.891,30.273,27.832,30.762,35.645,55.176
1532203285.895,28.809,26.367,32.715,31.738,3.418
1532203285.899,31.738,27.344,35.645,38.086,-17.578
1532203285.903,36.133,35.645,36.621,40.527,20.996
1532203285.907,41.504,40.039,41.016,31.738,34.180
1532203285.911,46.875,41.992,43.457,38.086,-3.906
1532203285.915,53.711,42.969,43.457,45.898,5.371
1532203285.919,47.363,40.527,43.457,44.434,44.434
1532203285.923,38.574,41.504,46.875,45.898,44.434
1532203285.926,39.551,41.992,50.293,48.340,35.645
1532203285.930,42.969,42.969,45.410,50.293,20.508
1532203285.934,50.293,47.363,44.434,51.758,26.855
1532203285.938,54.688,48.828,47.852,50.781,65.918
1532203285.942,56.152,49.316,46.875,44.922,57.129
1532203285.946,58.105,48.340,46.387,36.133,8.301
1532203285.950,57.129,46.875,46.387,41.016,19.531
1532203285.954,53.711,46.875,47.852,53.223,57.129
1532203285.958,49.805,48.828,48.340,54.199,49.805
1532203285.962,55.664,47.852,47.363,52.246,6.348
1532203285.965,61.035,47.363,48.828,58.105,-5.859
1532203285.969,58.594,49.316,47.363,56.641,56.152
1532203285.973,57.129,48.340,44.922,51.270,84.961
1532203285.977,52.734,42.480,42.969,50.293,59.082
1532203285.981,52.734,37.598,39.551,45.898,30.273
1532203285.985,50.781,39.551,36.621,42.969,42.969
1532203285.989,46.875,41.504,34.668,39.062,80.078
1532203285.993,52.246,41.992,34.180,39.551,69.336
1532203285.997,49.316,40.039,31.738,42.480,46.875
1532203286.001,41.992,33.691,28.809,35.645,53.711
1532203286.005,47.852,30.273,29.785,31.738,45.898
1532203286.008,47.852,33.691,29.297,33.691,47.363
1532203286.012,46.387,36.621,27.832,36.621,39.551
1532203286.016,41.992,34.668,25.391,39.551,24.902
1532203286.020,35.156,30.273,24.902,40.527,49.316
1532203286.024,36.621,28.809,22.949,37.109,44.922
1532203286.028,40.527,28.320,21.973,38.574,24.414
1532203286.032,38.086,25.391,20.996,41.992,0.488
1532203286.036,30.273,24.902,16.602,36.621,42.480
1532203286.040,29.785,26.367,15.625,39.551,60.547
1532203286.044,26.367,29.785,19.531,34.180,4.395
1532203286.048,25.391,31.738,19.531,26.367,0.000
1532203286.051,27.344,27.344,18.555,33.203,25.391
1532203286.055,26.855,24.902,18.555,33.691,40.039
1532203286.059,26.855,24.902,20.020,35.645,40.039
1532203286.063,30.273,25.391,20.996,28.809,31.738
1532203286.067,28.320,25.391,17.578,19.043,44.922
1532203286.071,19.531,23.438,16.602,18.066,49.805
1532203286.075,15.137,23.438,17.578,16.113,53.223
1532203286.079,16.602,22.949,18.066,18.555,25.879
1532203286.083,16.602,27.832,17.578,20.508,0.488
1532203286.087,20.996,27.832,14.648,16.113,25.879
1532203286.090,21.973,26.367,12.207,21.484,41.504
1532203286.094,17.578,24.902,11.230,26.367,20.996
1532203286.098,23.926,20.996,12.695,24.414,12.207
1532203286.102,33.691,24.902,17.090,24.414,34.668
1532203286.106,34.180,27.832,18.555,26.855,38.574
1532203286.110,29.297,25.391,14.648,31.250,35.156
1532203286.114,34.668,32.227,15.137,35.156,11.719
1532203286.118,31.738,35.156,18.555,30.762,28.320
1532203286.122,23.926,24.902,17.578,19.531,40.039
1532203286.126,25.391,20.020,17.090,19.043,27.344
1532203286.130,17.578,20.508,17.090,19.531,37.598
1532203286.133,14.648,22.461,16.113,14.648,24.414
1532203286.137,11.719,25.391,17.578,17.090,21.484
1532203286.141,14.160,27.832,19.043,20.996,33.691
1532203286.145,21.484,28.320,17.578,18.555,7.324
1532203286.149,24.414,28.320,20.996,16.602,7.324
1532203286.153,26.855,27.344,25.879,17.578,54.199
1532203286.157,29.297,27.344,23.438,17.090,55.664
1532203286.161,31.738,27.832,20.020,14.648,7.324
1532203286.165,31.250,28.809,20.508,11.719,-17.090
1532203286.169,31.738,30.273,20.020,11.230,3.906
1532203286.173,36.133,32.227,21.484,17.090,30.273
1532203286.176,43.945,33.203,24.902,21.973,38.574
1532203286.180,47.363,29.785,21.484,21.973,8.301
1532203286.184,43.457,27.832,22.461,18.066,0.488
1532203286.188,41.504,27.344,24.902,20.020,16.602
1532203286.192,35.156,21.484,23.926,35.645,12.207
1532203286.196,27.344,21.484,28.809,45.898,-4.395
1532203286.200,28.320,29.297,33.203,45.410,20.508
1532203286.204,26.367,31.738,31.250,40.039,37.109
1532203286.208,22.461,28.809,29.785,39.551,37.109
1532203286.212,20.996,26.367,29.297,39.551,33.203
1532203286.215,20.508,27.344,28.320,33.691,16.113
1532203286.219,13.184,29.297,29.785,26.855,29.785
1532203286.223,16.113,30.273,30.273,24.902,39.062
1532203286.227,24.414,25.879,25.879,24.414,18.555
1532203286.231,27.832,25.879,26.855,27.344,17.090
1532203286.235,28.809,28.809,27.344,35.156,41.504
1532203286.239,34.180,27.344,26.367,40.039,78.613
1532203286.243,36.621,27.344,28.809,36.133,53.711
1532203286.247,36.621,27.344,32.227,35.645,-6.836
1532203286.251,43.945,26.367,37.109,49.316,17.090
1532203286.255,42.969,29.785,35.645,48.340,48.828
1532203286.258,40.039,33.203,28.809,34.180,42.480
1532203286.262,43.457,32.227,27.344,32.715,10.742
1532203286.266,39.062,30.273,27.832,39.062,6.836
1532203286.270,33.691,35.645,27.832,39.062,55.664
1532203286.274,38.574,37.598,27.344,30.762,68.848
1532203286.278,38.086,33.203,25.391,27.344,0.000
1532203286.282,40.527,37.598,24.902,33.691,-20.508
1532203286.286,41.992,39.062,24.902,34.180,24.902
1532203286.290,37.598,37.109,22.461,34.180,65.430
1532203286.294,40.039,39.062,21.973,35.156,26.367
1532203286.298,43.945,39.062,23.926,35.156,4.395
1532203286.301,45.410,39.062,26.855,35.156,32.715
1532203286.305,43.457,35.645,29.297,37.109,24.414
1532203286.309,40.527,29.297,28.320,40.039,23.438
1532203286.313,38.086,28.809,27.344,37.109,20.020
1532203286.317,38.574,29.785,28.809,37.598,22.461
1532203286.321,38.574,30.273,30.762,37.598,59.570
1532203286.325,40.039,33.203,31.738,34.668,33.691
1532203286.329,38.086,31.250,33.203,31.738,19.043
1532203286.333,38.574,26.855,34.180,30.273,20.508
1532203286.337,42.480,26.855,36.621,30.762,14.160
1532203286.340,41.504,29.297,40.039,28.320,67.383
1532203286.344,40.039,32.227,41.016,26.367,58.105
1532203286.348,37.109,30.762,39.551,29.785,18.555
1532203286.352,36.133,28.809,37.598,33.691,27.832
1532203286.356,37.598,32.227,37.109,34.180,54.199
1532203286.360,35.645,34.668,36.621,35.156,36.133
1532203286.364,40.527,35.156,40.039,29.297,-8.301
1532203286.368,40.527,32.715,41.992,24.414,15.625
1532203286.372,36.621,32.227,40.527,27.344,45.410
1532203286.376,35.645,30.762,40.039,29.785,25.879
1532203286.380,29.785,31.250,40.527,35.156,15.137
1532203286.383,30.762,33.691,38.574,34.668,30.762
1532203286.387,34.668,32.715,40.039,31.738,36.621
1532203286.391,37.109,32.227,43.945,36.621,30.273
1532203286.395,40.527,32.715,46.875,35.156,15.137
1532203286.399,34.180,28.809,45.898,28.320,17.578
1532203286.403,33.691,24.414,41.504,24.414,43.945
1532203286.407,36.621,28.809,41.016,22.461,46.875
1532203286.411,32.227,31.738,41.504,23.926,17.090
1532203286.415,32.227,33.203,43.945,27.344,-4.395
1532203286.419,36.621,34.180,42.969,30.762,15.137
1532203286.422,39.551,36.621,41.992,28.320,41.992
1532203286.426,37.598,35.156,40.039,21.973,27.832
1532203286.430,25.879,28.320,37.598,23.438,5.371
1532203286.434,22.461,28.320,36.133,31.738,18.066
1532203286.438,27.832,28.809,39.551,36.621,47.363
1532203286.442,31.738,27.344,43.945,29.785,44.434
1532203286.446,25.391,28.809,46.387,32.715,24.902
1532203286.450,17.090,29.297,44.434,36.621,32.227
1532203286.454,23.926,29.785,41.992,30.762,49.316
1532203286.458,28.320,31.738,41.016,30.273,41.016
1532203286.462,32.227,32.227,40.527,31.250,16.602
1532203286.465,38.086,31.250,37.109,26.367,1.465
1532203286.469,34.180,30.762,37.109,30.762,33.691
1532203286.473,28.809,25.879,41.016,40.039,79.102
1532203286.477,32.227,22.461,41.016,39.062,57.617
1532203286.481,33.691,27.344,42.480,37.598,21.973
1532203286.485,28.320,31.250,40.527,37.598,30.273
1532203286.489,26.367,32.227,41.504,37.109,51.270
1532203286.493,26.855,32.227,45.410,34.668,40.039
1532203286.497,27.344,30.273,41.992,30.273,2.441
1532203286.501,29.785,30.273,39.062,33.203,10.254
1532203286.505,32.715,28.320,42.480,41.016,48.340
1532203286.508,36.621,29.785,43.945,38.086,33.203
1532203286.512,37.598,29.785,41.016,32.227,23.926
1532203286.516,33.691,27.344,39.062,33.203,33.691
1532203286.520,33.203,29.297,39.551,36.133,36.133
1532203286.524,28.809,31.250,38.574,33.691,19.043
1532203286.528,28.809,30.762,40.039,29.297,-17.578
1532203286.532,34.668,32.227,42.969,32.227,-2.441
1532203286.536,37.109,33.203,39.551,32.715,19.531
1532203286.540,41.992,28.320,35.645,33.203,69.336
1532203286.544,41.016,25.879,39.062,32.227,71.777
1532203286.547,32.715,24.902,39.551,26.367,-11.230
1532203286.551,23.926,20.508,38.086,25.391,-11.719
1532203286.555,22.461,23.438,41.016,29.297,28.809
1532203286.559,29.785,28.320,41.992,35.156,18.066
1532203286.563,41.504,34.668,43.457,38.086,-5.859
1532203286.567,46.875,37.109,42.480,38.574,2.441
1532203286.571,43.457,33.203,39.062,38.574,54.688
1532203286.575,37.109,31.738,38.574,33.203,38.086
1532203286.579,33.203,31.250,39.062,32.227,26.855
1532203286.583,28.809,30.762,42.969,39.062,17.090
1532203286.587,26.855,30.762,42.480,40.039,39.062
1532203286.590,31.250,31.250,37.598,34.180,62.500
1532203286.594,32.227,31.250,37.598,33.691,4.395
1532203286.598,37.109,31.250,42.480,35.156,5.371
1532203286.602,44.434,31.738,43.457,32.715,30.273
1532203286.606,42.969,32.227,41.992,31.250,13.184
1532203286.610,38.086,30.273,42.969,36.133,22.461
1532203286.614,38.086,29.297,43.945,37.109,17.090
1532203286.618,43.457,29.297,42.969,36.621,29.785
1532203286.622,47.363,30.762,41.504,37.598,35.645
1532203286.626,43.457,32.227,40.527,35.156,23.926
1532203286.630,38.574,33.691,38.086,34.668,19.043
1532203286.633,35.645,36.133,34.180,34.180,28.320
1532203286.637,35.645,31.250,33.203,33.691,76.172
1532203286.641,39.551,29.785,33.691,31.738,90.820
1532203286.645,37.109,33.691,33.203,29.297,52.246
1532203286.649,33.203,35.156,38.086,33.203,24.414
1532203286.653,30.273,31.250,40.527,36.621,71.777
1532203286.657,33.691,32.715,38.086,35.645,90.820
1532203286.661,39.062,35.645,39.551,37.109,57.617
1532203286.665,36.621,34.180,40.527,26.855,3.418
1532203286.669,37.598,30.762,38.086,24.414,-12.695
1532203286.672,37.598,27.832,36.621,37.598,19.531
1532203286.676,34.668,32.715,41.504,41.504,40.039
1532203286.680,38.574,34.668,44.434,37.598,29.297
1532203286.684,39.062,31.250,40.039,27.832,30.273
1532203286.688,37.109,31.250,36.133,27.832,76.172
1532203286.692,38.086,33.691,36.621,29.785,53.711
1532203286.696,40.527,29.785,40.039,29.297,6.348
1532203286.700,38.086,24.414,42.480,34.180,15.625
1532203286.704,39.551,31.250,43.457,31.738,30.762
1532203286.708,39.551,37.109,40.039,26.855,14.648
1532203286.712,35.645,33.203,39.062,36.133,-0.977
1532203286.715,35.645,28.320,41.504,42.969,12.695
1532203286.719,29.785,30.273,42.969,41.016,39.062
1532203286.723,25.879,29.785,40.527,33.691,16.602
1532203286.727,26.367,28.320,38.086,27.832,2.441
1532203286.731,27.832,27.832,37.109,25.879,3.906
1532203286.735,26.855,26.367,33.691,26.367,15.625
1532203286.739,31.738,31.250,38.574,35.156,52.734
1532203286.743,36.621,38.086,42.480,37.109,0.977
1532203286.747,36.133,41.504,43.457,30.762,-48.340
1532203286.751,45.410,41.504,49.805,37.598,-4.395
1532203286.755,48.828,41.016,52.246,44.922,25.879
1532203286.758,45.410,44.922,52.734,45.898,25.391
1532203286.762,48.340,50.293,54.199,47.852,-23.926
1532203286.766,48.828,50.781,56.641,49.805,-2.441
1532203286.770,51.270,47.363,59.570,54.688,43.945
1532203286.774,54.199,51.270,62.500,57.617,42.480
1532203286.778,54.199,56.641,64.941,57.129,5.859
1532203286.782,55.176,56.641,65.430,57.617,-33.203
1532203286.786,56.641,55.176,66.406,55.664,7.324
1532203286.790,55.176,55.664,64.941,55.176,38.574
1532203286.794,53.223,55.176,60.547,56.152,39.062
1532203286.797,54.199,54.688,62.500,57.617,36.621
1532203286.801,58.105,56.152,63.965,62.500,28.320
1532203286.805,62.988,55.176,63.477,55.664,24.414
1532203286.809,59.570,57.617,65.918,56.152,9.277
1532203286.813,56.152,57.129,62.012,61.035,15.625
1532203286.817,56.641,55.176,53.711,60.059,68.359
1532203286.821,57.617,59.570,55.664,61.035,54.199
1532203286.825,61.523,60.547,62.500,53.223,9.766
1532203286.829,64.941,57.617,61.523,52.246,6.348
1532203286.833,67.871,56.152,61.035,56.152,12.695
1532203286.837,61.523,57.617,61.523,58.105,45.410
1532203286.840,53.711,59.082,58.105,59.570,51.758
1532203286.844,58.105,56.641,54.199,51.270,22.461
1532203286.848,65.918,50.781,54.688,48.340,3.418
1532203286.852,65.430,53.223,57.617,53.223,26.367
1532203286.856,64.941,59.082,57.617,50.293,57.129
1532203286.860,75.684,61.523,56.152,51.270,26.367
1532203286.864,81.055,60.059,57.129,53.223,-11.230
1532203286.868,72.266,57.129,52.246,46.875,21.484
1532203286.872,68.359,52.246,48.340,45.410,50.293
1532203286.876,66.406,49.316,51.270,54.199,51.758
1532203286.879,51.270,47.363,51.758,58.594,37.598
1532203286.883,46.387,48.340,51.270,53.711,19.043
1532203286.887,47.363,48.340,51.270,54.688,19.531
1532203286.891,41.504,45.410,50.781,60.059,49.316
1532203286.895,40.527,44.922,50.293,61.523,52.246
1532203286.899,48.828,46.875,55.664,61.523,36.621
1532203286.903,54.688,46.387,59.082,56.641,48.828
1532203286.907,53.223,47.363,55.664,52.734,63.965
1532203286.911,50.781,49.316,52.246,53.223,47.363
1532203286.915,52.734,46.875,48.828,52.246,11.719
1532203286.919,58.105,44.434,49.805,57.617,27.344
1532203286.922,54.199,43.457,49.805,54.199,52.246
1532203286.926,53.223,45.898,49.316,48.828,6.348
1532203286.930,49.805,47.363,47.363,48.828,-7.812
1532203286.934,42.969,49.316,42.480,46.875,39.062
1532203286.938,51.758,47.852,44.922,48.828,68.848
1532203286.942,54.199,45.410,53.223,48.340,27.832
1532203286.946,48.340,47.363,55.664,42.969,-19.043
1532203286.950,52.246,48.340,53.711,45.898,6.836
1532203286.954,59.082,48.340,53.711,49.316,21.484
1532203286.958,49.805,49.805,50.781,49.805,42.969
1532203286.962,46.387,47.852,49.805,49.316,37.109
1532203286.965,54.688,45.410,49.316,43.945,9.277
1532203286.969,51.758,45.410,46.875,43.945,46.875
1532203286.973,49.316,46.875,46.387,48.340,71.777
1532203286.977,54.688,48.340,48.340,52.734,38.086
1532203286.981,54.199,47.852,48.340,54.688,18.555
1532203286.985,49.805,49.316,45.898,41.992,20.508
1532203286.989,42.969,42.480,49.316,39.062,14.160
1532203286.993,37.109,35.156,51.758,48.828,39.062
1532203286.997,41.992,38.574,49.316,47.852,38.086
1532203287.001,44.434,42.969,47.852,41.992,11.719
1532203287.004,46.875,44.434,45.410,35.645,5.859
1532203287.008,49.805,40.527,41.504,31.738,11.230
1532203287.012,49.316,38.086,40.039,34.668,19.043
1532203287.016,45.898,38.574,39.062,35.645,6.836
1532203287.020,41.504,35.645,37.598,36.621,28.320
1532203287.024,40.039,31.250,38.574,36.621,9.277
1532203287.028,37.109,30.762,39.062,38.086,-33.203
1532203287.032,38.574,33.203,38.086,39.551,19.531
1532203287.036,42.480,32.227,36.621,30.273,58.105
1532203287.040,38.574,32.715,36.621,27.832,37.109
1532203287.044,35.156,32.227,36.621,27.832,20.996
1532203287.047,39.551,28.809,35.156,26.855,18.066
1532203287.051,43.457,26.855,33.691,28.809,26.367
1532203287.055,46.387,27.832,34.180,30.762,22.461
1532203287.059,41.016,27.344,37.598,34.180,-1.953
1532203287.063,31.250,32.227,37.109,33.203,-9.766
1532203287.067,31.738,35.156,35.156,28.320,17.578
1532203287.071,36.621,33.691,32.715,25.879,26.367
1532203287.075,38.086,32.715,31.738,24.902,14.160
1532203287.079,35.156,30.273,32.715,23.926,5.859
1532203287.083,34.180,32.715,36.621,23.438,2.930
1532203287.087,35.156,33.203,38.574,20.508,29.785
1532203287.090,41.016,28.809,36.133,22.461,72.754
1532203287.094,46.387,28.809,34.668,26.855,22.949
1532203287.098,36.133,26.855,33.691,29.785,16.602
1532203287.102,31.738,25.879,34.668,33.691,34.668
1532203287.106,39.062,30.273,36.621,34.180,22.461
1532203287.110,32.715,30.273,35.156,33.691,27.832
1532203287.114,24.414,31.250,30.273,30.273,11.719
1532203287.118,24.902,27.832,30.762,25.879,17.578
1532203287.122,23.926,27.832,32.227,23.438,40.527
1532203287.126,23.438,35.645,33.203,22.949,-0.488
1532203287.129,25.879,34.668,36.621,24.414,-15.137
1532203287.133,26.855,30.762,37.109,23.926,21.973
1532203287.137,28.320,30.762,36.133,24.902,46.387
1532203287.141,29.297,27.344,36.621,25.391,36.133
1532203287.145,29.785,27.832,39.062,27.832,29.297
1532203287.149,33.691,29.785,36.133,27.344,34.180
1532203287.153,40.527,27.832,31.738,23.926,45.898
1532203287.157,37.598,31.738,31.738,23.438,71.289
1532203287.161,33.203,33.203,30.273,24.414,34.180
1532203287.165,31.250,30.762,28.809,26.855,4.395
1532203287.169,21.973,30.762,34.180,30.762,37.109
1532203287.172,20.996,32.227,38.574,28.809,75.684
1532203287.176,23.926,29.785,38.086,29.785,41.016
1532203287.180,25.879,25.879,39.062,34.180,13.672
1532203287.184,28.320,28.320,39.551,27.344,-4.395
1532203287.188,27.344,31.250,34.180,24.414,-5.859
1532203287.192,28.320,29.785,33.203,29.297,42.480
1532203287.196,30.273,29.297,34.180,27.344,24.902
1532203287.200,28.320,30.762,34.668,26.367,20.020
1532203287.204,28.809,28.809,36.621,28.320,33.203
1532203287.208,25.391,26.855,33.691,24.902,37.109
1532203287.212,25.391,26.855,29.297,22.461,58.105
1532203287.215,27.832,28.320,32.715,27.832,47.852
1532203287.219,26.367,27.832,38.086,32.227,49.316
1532203287.223,29.297,25.879,38.086,25.391,37.598
1532203287.227,32.227,27.832,37.109,21.973,20.996
1532203287.231,34.180,30.273,37.109,31.738,50.781
1532203287.235,32.227,32.227,36.133,34.180,55.664
1532203287.239,28.809,26.855,34.668,40.527,61.035
1532203287.243,34.668,26.367,35.156,36.621,12.207
1532203287.247,36.133,30.762,32.227,20.996,-13.672
1532203287.251,35.645,30.762,36.133,29.297,14.648
1532203287.254,38.086,30.273,41.992,37.598,7.812
1532203287.258,32.715,28.809,36.621,36.133,18.555
1532203287.262,30.762,23.926,33.691,32.227,-22.949
1532203287.266,30.762,22.461,37.109,25.391,-41.504
1532203287.270,30.762,27.832,39.551,27.344,26.367
1532203287.274,32.715,28.809,37.598,28.809,61.035
1532203287.278,32.715,29.297,37.109,24.902,45.410
1532203287.282,33.691,33.203,36.621,26.367,22.461
1532203287.286,40.039,34.668,36.621,30.273,47.852
1532203287.290,36.621,33.203,36.621,30.273,81.055
1532203287.294,33.203,32.227,37.598,30.273,54.199
1532203287.297,29.297,29.297,38.086,31.250,41.504
1532203287.301,24.902,25.879,34.180,32.227,45.410
1532203287.305,34.180,29.297,34.180,24.414,11.230
1532203287.309,36.133,34.180,37.598,21.484,-1.465
1532203287.313,31.250,31.250,37.109,28.809,13.184
1532203287.317,32.227,26.367,36.133,30.762,15.625
1532203287.321,31.738,27.344,35.645,30.762,37.109
1532203287.325,30.762,28.320,35.645,29.297,25.391
1532203287.329,32.715,30.762,34.668,28.809,-10.254
1532203287.333,34.180,30.273,34.180,33.203,23.926
1532203287.336,29.297,26.855,35.156,30.273,62.012
1532203287.340,33.203,29.785,29.785,28.809,59.082
1532203287.344,38.086,31.250,29.297,33.691,31.250
1532203287.348,39.551,30.762,35.645,35.156,30.273
1532203287.352,42.969,30.762,32.227,34.668,45.898
1532203287.356,42.969,31.250,29.785,35.645,45.410
1532203287.360,41.504,28.320,34.668,37.109,36.133
1532203287.364,41.016,28.320,37.598,32.715,-19.531
1532203287.368,42.969,29.785,40.039,31.250,-10.254
1532203287.372,42.969,25.879,39.062,36.133,46.387
1532203287.376,40.527,30.762,36.133,35.645,53.223
1532203287.379,31.738,34.180,36.133,33.691,41.504
1532203287.383,27.832,29.297,36.133,33.203,41.016
1532203287.387,33.203,27.832,35.645,36.133,61.035
1532203287.391,31.738,30.273,35.156,39.551,53.711
1532203287.395,29.785,26.855,37.598,39.062,26.367
1532203287.399,36.621,23.438,39.062,41.504,24.902
1532203287.403,44.434,28.809,40.527,41.016,26.367
1532203287.407,44.922,29.785,39.551,33.203,32.227
1532203287.411,42.969,26.367,35.156,41.016,10.742
1532203287.415,41.992,29.785,35.645,47.363,-5.859
1532203287.419,37.598,27.832,38.086,35.156,37.109
1532203287.422,32.227,28.320,36.621,26.855,27.344
1532203287.426,28.809,30.273,32.715,27.344,3.906
1532203287.430,30.273,28.320,33.203,32.227,-2.441
1532203287.434,32.227,28.320,35.156,36.621,12.695
1532203287.438,33.203,28.809,36.133,40.527,60.547
1532203287.442,36.133,30.762,32.227,34.180,23.438
1532203287.446,33.691,30.273,27.832,26.367,-25.879
1532203287.450,33.691,23.926,31.738,35.156,22.949
1532203287.454,29.785,20.996,32.715,37.109,60.547
1532203287.458,25.391,25.879,33.203,36.133,53.223
1532203287.461,29.297,31.250,32.715,36.133,22.461
1532203287.465,33.691,32.715,34.668,32.227,25.391
1532203287.469,34.180,30.762,38.086,32.227,47.363
1532203287.473,30.762,29.785,38.574,30.273,45.898
1532203287.477,33.691,29.297,38.574,32.715,34.668
1532203287.481,33.691,26.367,37.598,33.691,21.973
1532203287.485,31.250,26.855,36.133,30.273,44.434
1532203287.489,32.715,29.297,33.203,28.320,53.223
1532203287.493,33.691,29.785,31.738,26.855,27.832
1532203287.497,35.645,28.809,32.227,28.320,23.926
1532203287.501,36.621,29.297,31.738,30.762,61.035
1532203287.504,34.668,30.762,31.250,28.809,35.645
1532203287.508,34.180,28.320,29.785,27.832,-7.812
1532203287.512,28.809,27.344,28.320,30.273,8.789
1532203287.516,27.832,29.785,27.344,31.250,35.645
1532203287.520,36.621,36.133,29.297,35.645,41.992
1532203287.524,38.086,30.762,30.762,37.109,35.156
1532203287.528,41.016,24.414,34.180,34.180,1.953
1532203287.532,49.316,30.273,32.227,32.715,-20.996
1532203287.536,42.969,34.668,26.855,32.227,9.766
1532203287.540,26.367,34.180,30.273,31.738,25.391
1532203287.544,29.785,34.668,33.203,24.414,1.953
1532203287.547,39.062,37.109,34.180,20.020,-20.020
1532203287.551,40.527,34.180,35.156,26.855,22.461
1532203287.555,46.387,31.738,32.227,30.762,47.852
1532203287.559,53.223,33.203,28.809,27.344,40.039
1532203287.563,60.547,33.691,26.855,20.996,8.789
1532203287.567,59.570,35.645,29.785,19.043,2.441
1532203287.571,52.734,38.086,31.250,28.320,28.809
1532203287.575,46.387,39.062,30.762,34.668,29.297
1532203287.579,45.410,35.645,33.203,34.180,20.508
1532203287.583,51.758,38.086,37.598,38.086,4.395
1532203287.586,49.316,37.598,39.551,42.480,21.484
1532203287.590,34.668,29.785,36.133,40.039,49.316
1532203287.594,28.320,29.785,33.203,39.551,18.555
1532203287.598,30.273,31.250,33.691,43.457,19.043
1532203287.602,28.320,30.762,31.250,38.086,37.598
1532203287.606,31.738,31.738,27.832,32.227,35.156
1532203287.610,38.574,33.203,30.273,39.062,26.367
1532203287.614,33.203,29.785,32.227,41.504,0.488
1532203287.618,27.832,26.855,34.180,36.621,14.160
1532203287.622,30.273,30.273,37.598,33.203,44.922
1532203287.626,30.273,29.785,37.109,29.785,39.551
1532203287.629,31.250,30.762,36.621,30.762,17.090
1532203287.633,30.273,31.738,36.621,32.715,14.160
1532203287.637,26.855,32.227,36.621,33.691,55.664
1532203287.641,25.879,32.715,37.598,39.551,35.156
1532203287.645,27.344,30.273,35.645,32.227,1.953
1532203287.649,29.297,31.250,33.203,24.902,25.879
1532203287.653,28.320,30.762,33.691,26.855,64.941
1532203287.657,29.785,30.273,34.668,27.832,71.777
1532203287.661,29.297,31.250,33.203,34.180,49.316
1532203287.665,27.344,31.250,28.320,32.715,42.969
1532203287.669,30.273,28.809,30.273,30.762,63.965
1532203287.672,34.180,26.367,33.203,30.762,41.016
1532203287.676,35.156,28.809,32.227,30.762,14.160
1532203287.680,39.062,32.227,32.715,37.598,23.926
1532203287.684,39.062,29.785,34.180,29.297,13.672
1532203287.688,34.668,28.809,32.227,23.438,21.484
1532203287.692,36.133,33.691,31.250,33.203,53.223
1532203287.696,43.457,33.691,33.203,36.621,22.461
1532203287.700,47.363,30.273,35.645,36.621,23.926
1532203287.704,44.434,29.297,36.133,36.621,55.664
1532203287.708,40.527,29.785,32.715,37.598,34.180
1532203287.711,39.551,32.227,33.691,37.109,14.648
1532203287.715,38.086,32.715,33.203,34.180,30.273
1532203287.719,38.086,30.273,30.762,35.645,63.477
1532203287.723,42.969,27.344,30.273,33.203,48.828
1532203287.727,40.039,24.902,31.738,24.902,-15.137
1532203287.731,35.156,28.320,33.203,32.715,-1.953
1532203287.735,35.156,31.250,33.203,38.574,47.852
1532203287.739,41.992,29.297,32.715,33.691,53.223
1532203287.743,43.945,27.832,33.203,34.668,38.086
1532203287.747,43.945,27.344,31.738,36.621,26.855
1532203287.751,40.527,29.785,32.227,38.086,19.531
1532203287.754,36.621,31.250,34.180,39.551,29.785
1532203287.758,43.945,28.809,33.203,39.062,32.715
1532203287.762,49.316,31.738,33.691,39.551,29.785
1532203287.766,46.387,37.598,32.715,38.086,22.949
1532203287.770,44.434,39.551,32.715,38.574,18.555
1532203287.774,49.805,39.551,33.691,38.086,25.879
1532203287.778,52.246,38.574,32.715,36.133,1.465
1532203287.782,44.434,35.156,34.668,36.133,0.000
1532203287.786,41.992,34.668,39.551,33.691,11.230
1532203287.790,45.898,39.062,40.039,35.156,8.301
1532203287.793,44.434,37.109,34.668,38.574,3.906
1532203287.797,45.898,35.156,33.203,36.133,14.648
1532203287.801,44.922,33.203,33.691,37.109,41.016
1532203287.805,48.340,31.250,32.227,39.062,52.246
1532203287.809,50.293,33.691,33.203,36.621,44.922
1532203287.813,40.527,34.180,36.621,37.598,16.602
1532203287.817,38.574,36.621,38.086,40.527,5.371
1532203287.821,44.434,37.109,37.598,43.945,40.527
1532203287.825,41.504,36.621,38.086,34.668,27.344
1532203287.829,41.016,38.574,40.039,32.227,-5.371
1532203287.833,40.527,37.109,38.086,41.992,12.695
1532203287.836,35.645,34.668,36.621,40.527,22.461
1532203287.840,39.551,31.738,38.086,42.480,43.457
1532203287.844,46.875,31.250,39.551,46.875,37.598
1532203287.848,46.387,39.551,39.551,48.828,8.789
1532203287.852,45.410,42.480,35.645,42.969,-5.371
1532203287.856,39.551,36.621,34.180,43.457,20.996
1532203287.860,34.180,34.668,38.574,46.387,31.250
1532203287.864,35.645,38.574,41.992,41.016,7.812
1532203287.868,29.785,38.574,41.504,40.039,32.715
1532203287.872,27.344,37.598,37.109,39.551,64.453
1532203287.876,35.645,39.062,37.598,41.504,50.293
1532203287.879,41.992,37.598,40.527,42.969,30.273
1532203287.883,49.316,38.574,40.527,40.527,13.184
1532203287.887,50.293,39.062,41.016,38.086,25.879
1532203287.891,39.062,38.086,38.574,39.062,49.805
1532203287.895,32.227,39.062,38.086,39.551,27.832
1532203287.899,36.621,39.551,41.992,43.945,36.133
1532203287.903,41.992,37.598,40.527,43.457,52.246
1532203287.907,36.621,35.645,40.527,39.551,38.574
1532203287.911,33.203,36.621,45.410,40.527,20.020
1532203287.915,31.738,38.574,49.316,41.016,20.508
1532203287.918,34.668,39.551,45.898,39.551,43.457
1532203287.922,37.598,37.109,41.504,38.086,28.809
1532203287.926,36.133,32.227,42.969,38.086,0.000
1532203287.930,35.645,32.715,41.992,38.086,0.488
1532203287.934,38.574,41.016,43.457,38.086,21.484
1532203287.938,44.922,46.387,47.363,40.527,55.176
1532203287.942,49.805,48.828,51.270,43.457,34.180
1532203287.946,47.363,50.781,53.711,47.852,7.812
1532203287.950,49.316,49.316,55.664,49.805,36.133
1532203287.954,56.641,49.805,54.688,49.316,49.316
1532203287.958,61.523,50.781,54.199,54.199,25.391
1532203287.961,58.594,48.340,55.176,53.711,20.996
1532203287.965,57.129,51.758,58.105,45.410,-0.488
1532203287.969,59.570,53.223,60.547,47.852,16.602
1532203287.973,55.664,49.316,61.035,56.641,71.777
1532203287.977,48.828,49.805,59.082,49.316,65.918
1532203287.981,47.363,49.316,57.129,45.410,58.105
1532203287.985,53.711,49.805,56.152,48.828,61.035
1532203287.989,56.641,51.270,55.176,56.152,78.613
1532203287.993,54.199,52.246,53.711,59.082,59.082
1532203287.997,50.781,49.805,51.758,54.199,32.715
1532203288.001,51.758,47.852,46.387,54.688,60.059
1532203288.004,53.711,50.293,41.016,53.223,63.965
1532203288.008,57.129,50.293,41.504,50.781,40.527
1532203288.012,57.617,47.852,42.480,52.246,28.320
1532203288.016,51.270,50.293,43.945,54.199,50.781
1532203288.020,48.340,50.781,45.410,56.152,69.824
1532203288.024,49.316,48.828,45.410,52.246,14.160
1532203288.028,49.805,45.410,42.480,46.875,-26.855
1532203288.032,49.805,42.480,41.992,52.246,1.465
1532203288.036,49.316,40.039,41.992,59.570,36.133
1532203288.040,51.758,36.133,41.016,59.082,43.457
1532203288.043,49.805,36.133,37.109,50.781,16.113
1532203288.047,49.316,38.086,35.645,49.805,12.207
1532203288.051,49.805,38.086,32.227,52.734,23.926
1532203288.055,50.781,35.156,29.297,49.805,39.062
1532203288.059,43.945,29.297,30.273,44.922,28.320
1532203288.063,35.156,30.762,28.320,41.504,-11.719
1532203288.067,28.320,29.785,26.367,36.133,-18.555
1532203288.071,30.762,24.902,25.391,39.062,25.879
1532203288.075,39.551,27.832,23.438,42.969,26.367
1532203288.079,42.480,27.344,22.949,40.527,16.602
1532203288.083,38.086,24.902,22.461,36.133,26.855
1532203288.086,29.785,30.762,22.949,39.062,30.273
1532203288.090,33.203,33.691,26.367,43.457,47.363
1532203288.094,41.016,33.203,27.832,41.992,43.457
1532203288.098,40.527,33.203,27.344,46.875,20.996
1532203288.102,39.062,37.109,30.273,41.992,40.039
1532203288.106,36.621,38.086,29.297,32.227,37.598
1532203288.110,40.527,35.156,24.414,35.156,9.277
1532203288.114,50.781,34.668,28.320,42.969,0.000
1532203288.118,49.805,36.133,29.785,43.457,21.484
1532203288.122,39.551,32.227,24.902,36.133,40.039
1532203288.125,37.598,28.809,23.438,35.156,55.664
1532203288.129,43.457,33.203,26.367,38.086,27.344
1532203288.133,45.898,34.668,25.879,35.645,15.137
1532203288.137,50.293,33.691,21.484,37.109,71.777
1532203288.141,51.758,35.645,18.555,35.156,68.359
1532203288.145,45.898,34.668,23.438,34.668,-2.441
1532203288.149,42.480,30.273,27.344,37.598,-10.254
1532203288.153,38.574,24.414,26.855,35.645,41.992
1532203288.157,35.156,24.902,26.855,37.109,30.762
1532203288.161,35.156,25.391,25.879,41.992,3.906
1532203288.165,33.203,23.926,26.367,35.156,-7.812
1532203288.168,34.180,27.344,24.414,28.809,2.441
1532203288.172,34.668,28.809,22.461,36.133,45.410
1532203288.176,39.551,30.762,26.367,37.109,38.574
1532203288.180,44.922,34.668,23.438,32.715,-1.465
1532203288.184,40.527,30.762,19.043,26.367,24.414
1532203288.188,40.039,28.320,21.973,28.809,90.820
1532203288.192,39.062,31.250,24.902,32.227,69.336
1532203288.196,35.156,30.762,26.855,31.250,29.785
1532203288.200,33.691,25.879,23.438,35.645,45.410
1532203288.204,33.203,23.438,23.926,31.738,39.551
1532203288.208,35.156,25.879,26.367,26.855,10.742
1532203288.211,33.691,25.879,22.949,30.762,43.457
1532203288.215,28.320,25.391,25.391,33.203,51.758
1532203288.219,29.785,24.902,28.320,40.527,44.922
1532203288.223,35.645,24.902,23.926,40.039,62.500
1532203288.227,35.645,28.809,24.414,32.715,28.809
1532203288.231,34.668,33.203,26.367,32.715,17.090
1532203288.235,34.668,30.762,25.879,32.227,40.527
1532203288.239,33.691,26.855,31.250,36.621,32.715
1532203288.243,36.133,27.832,31.738,41.016,-9.277
1532203288.247,35.156,28.320,26.855,33.203,-27.344
1532203288.250,37.598,26.367,26.855,31.738,28.809
1532203288.254,36.621,25.391,27.832,36.133,63.965
1532203288.258,30.273,27.344,26.855,36.621,49.316
1532203288.262,34.180,30.762,26.855,35.156,28.809
1532203288.266,41.992,30.762,29.785,33.691,8.301
1532203288.270,41.016,30.273,33.203,33.203,35.645
1532203288.274,33.203,32.227,30.273,27.832,58.105
1532203288.278,29.785,33.203,26.367,25.879,31.738
1532203288.282,41.992,29.297,24.414,26.367,30.762
1532203288.286,51.758,25.879,25.879,22.461,25.391
1532203288.290,46.387,28.809,26.367,20.508,15.625
1532203288.293,38.086,29.297,23.926,22.949,27.344
1532203288.297,35.156,25.879,24.902,27.344,16.113
1532203288.301,33.203,23.438,26.367,32.715,19.531
1532203288.305,27.832,25.879,29.297,28.809,29.297
1532203288.309,24.414,26.367,30.273,27.344,-0.488
1532203288.313,32.715,27.832,26.855,33.691,9.277
1532203288.317,32.227,24.902,23.926,28.809,31.250
1532203288.321,28.809,20.996,25.391,28.320,22.949
1532203288.325,27.344,24.902,28.809,31.250,20.020
1532203288.329,24.414,26.367,29.785,30.273,13.672
1532203288.333,26.367,26.367,25.879,31.250,19.043
1532203288.336,29.297,25.879,22.949,35.645,46.875
1532203288.340,34.668,26.367,26.855,34.668,37.109
1532203288.344,37.598,27.832,29.785,26.367,12.207
1532203288.348,35.645,24.902,30.762,29.785,20.996
1532203288.352,33.691,25.391,28.809,34.180,40.527
1532203288.356,27.832,28.320,25.879,27.344,37.598
1532203288.360,26.367,27.832,26.855,23.438,17.090
1532203288.364,30.762,28.320,24.902,22.461,-1.465
1532203288.368,33.203,30.762,26.367,28.320,5.371
1532203288.372,33.691,31.250,27.344,35.156,45.898
1532203288.375,35.645,28.320,23.926,33.691,46.387
1532203288.379,40.039,28.809,27.344,31.250,23.926
1532203288.383,35.156,28.809,29.785,27.832,23.438
1532203288.387,35.156,29.297,26.367,25.879,37.109
1532203288.391,35.645,31.738,26.367,31.250,37.598
1532203288.395,37.109,29.785,27.344,31.738,41.016
1532203288.399,39.551,31.738,25.879,30.762,62.988
1532203288.403,39.062,35.156,26.855,28.809,56.641
1532203288.407,38.574,32.715,29.297,27.832,44.922
1532203288.411,41.016,29.785,29.785,29.785,20.508
1532203288.415,42.969,31.738,28.809,25.879,33.203
1532203288.418,41.992,26.855,26.855,24.414,54.688
1532203288.422,45.898,29.297,27.344,24.414,37.109
1532203288.426,46.387,35.156,30.762,24.902,11.719
1532203288.430,40.039,33.691,29.785,23.438,13.184
1532203288.434,36.133,34.180,26.367,21.484,42.480
1532203288.438,37.598,33.691,27.832,20.996,59.082
1532203288.442,40.527,33.203,27.832,18.066,35.156
1532203288.446,39.062,34.180,25.879,16.602,-20.996
1532203288.450,38.086,34.180,26.855,20.508,1.465
1532203288.454,38.086,31.738,32.227,29.297,37.109
1532203288.458,31.738,29.785,35.156,33.691,42.969
1532203288.461,35.645,28.809,35.156,32.227,16.602
1532203288.465,39.551,29.785,34.668,31.250,9.277
1532203288.469,39.551,33.691,32.227,28.809,38.086
1532203288.473,41.016,34.180,30.762,29.297,38.086
1532203288.477,41.992,37.598,36.133,34.668,31.250
1532203288.481,45.898,41.016,37.109,40.527,24.902
1532203288.485,50.293,40.039,30.273,32.715,21.973
1532203288.489,51.758,38.574,29.297,28.809,16.602
1532203288.493,51.270,30.762,31.250,40.039,37.598
1532203288.497,51.270,30.273,30.273,43.457,11.719
1532203288.500,46.875,34.180,32.227,35.645,7.324
1532203288.504,45.898,35.156,34.668,33.203,43.945
1532203288.508,45.898,38.086,35.156,33.203,29.297
1532203288.512,41.016,36.621,35.645,31.250,8.789
1532203288.516,40.039,34.668,37.109,33.203,30.762
1532203288.520,41.504,35.156,35.645,38.086,23.926
1532203288.524,36.621,33.691,30.762,37.598,-5.371
1532203288.528,39.062,32.227,28.320,36.133,-25.391
1532203288.532,41.016,33.203,30.762,37.598,-15.137
1532203288.536,38.086,33.691,34.668,39.062,32.715
1532203288.540,36.621,30.762,38.086,40.527,35.156
1532203288.543,34.668,28.320,33.691,39.551,-3.418
1532203288.547,40.527,32.715,32.227,40.527,19.043
1532203288.551,39.551,34.180,34.668,41.016,68.359
1532203288.555,36.621,36.621,38.086,37.109,58.105
1532203288.559,41.016,33.691,38.574,37.109,20.996
1532203288.563,35.645,27.344,35.156,40.527,24.414
1532203288.567,25.391,27.832,32.715,39.551,26.855
1532203288.571,23.438,34.180,34.180,40.039,24.902
1532203288.575,28.320,36.621,32.715,36.621,26.855
1532203288.579,36.133,33.203,29.785,35.645,7.324
1532203288.582,39.062,35.156,31.738,37.109,10.742
1532203288.586,44.434,40.527,34.668,34.668,9.766
1532203288.590,46.875,37.598,32.227,39.551,16.113
1532203288.594,42.969,32.715,33.691,42.480,25.879
1532203288.598,33.203,30.762,38.086,37.109,11.230
1532203288.602,30.273,31.250,39.062,33.203,23.926
1532203288.606,37.109,32.227,40.527,35.156,38.574
1532203288.610,40.527,34.668,42.969,41.504,43.457
1532203288.614,39.062,33.691,40.039,41.992,9.277
1532203288.618,34.668,30.273,34.180,40.527,34.180
1532203288.622,31.738,31.250,35.645,38.086,55.664
1532203288.625,33.691,30.273,38.086,28.809,-18.066
1532203288.629,33.691,27.832,34.180,27.832,-3.906
1532203288.633,32.227,29.297,32.715,34.180,37.109
1532203288.637,28.809,29.785,35.645,29.297,61.523
1532203288.641,22.949,32.715,35.645,21.973,60.547
1532203288.645,21.484,32.715,37.598,27.832,49.316
1532203288.649,26.367,30.273,38.574,32.715,62.988
1532203288.653,31.738,31.250,38.086,32.715,47.363
1532203288.657,28.809,30.273,43.945,33.691,31.250
1532203288.661,26.855,29.297,45.410,34.668,35.645
1532203288.665,33.691,29.297,42.480,30.762,14.160
1532203288.668,33.203,28.320,40.039,26.367,27.344
1532203288.672,32.227,32.715,39.062,31.738,64.453
1532203288.676,34.668,37.598,41.016,31.738,36.133
1532203288.680,28.320,33.203,42.480,25.391,12.207
1532203288.684,26.855,34.180,36.621,20.996,47.852
1532203288.688,31.738,38.086,32.715,23.438,51.270
1532203288.692,34.180,34.180,37.598,28.809,36.133
