timestamps,TP9,AF7,AF8,TP10,Right AUX
1532280128.093,18.066,49.316,36.133,18.555,-279.297
1532280128.097,24.902,49.805,36.621,26.367,59.570
1532280128.101,24.902,49.805,36.621,33.691,298.340
1532280128.105,26.367,44.922,33.203,31.738,34.180
1532280128.109,41.504,47.852,28.320,31.250,-239.258
1532280128.113,40.039,44.922,26.367,36.621,-20.508
1532280128.117,26.855,38.574,26.367,47.363,280.273
1532280128.120,28.809,35.156,30.273,52.734,107.422
1532280128.124,32.227,35.156,30.762,46.387,-238.770
1532280128.128,35.156,38.086,26.367,48.828,-135.254
1532280128.132,44.922,36.621,23.926,49.805,218.262
1532280128.136,53.711,35.156,24.902,51.758,197.754
1532280128.140,53.711,34.668,24.902,57.617,-160.645
1532280128.144,57.129,34.668,20.996,57.129,-204.102
1532280128.148,60.059,35.156,18.066,58.594,165.039
1532280128.152,61.523,36.621,17.578,60.059,272.949
1532280128.156,62.500,35.645,19.531,66.406,-83.496
1532280128.160,61.523,35.156,21.973,71.289,-280.273
1532280128.163,60.059,34.668,17.578,72.266,44.922
1532280128.167,61.523,35.645,13.672,70.801,330.078
1532280128.171,67.871,34.180,14.648,62.988,42.969
1532280128.175,70.312,33.203,18.066,57.617,-266.113
1532280128.179,60.547,30.762,25.879,72.266,-71.289
1532280128.183,56.641,30.762,20.996,78.125,270.508
1532280128.187,64.453,36.621,16.602,76.660,164.551
1532280128.191,63.965,35.645,21.484,82.520,-212.402
1532280128.195,61.523,34.668,18.066,76.172,-150.879
1532280128.199,62.988,34.180,20.020,66.406,242.188
1532280128.202,72.266,32.227,24.902,70.801,254.395
1532280128.206,68.359,33.203,22.461,76.172,-125.977
1532280128.210,55.664,32.715,19.531,73.730,-233.887
1532280128.214,54.199,30.762,18.555,71.289,125.488
1532280128.218,54.199,32.715,18.555,64.941,305.664
1532280128.222,56.152,35.156,18.555,62.500,-18.555
1532280128.226,56.152,33.691,20.020,62.988,-241.699
1532280128.230,60.059,33.203,17.578,62.988,36.621
1532280128.234,52.246,33.203,13.672,63.965,294.922
1532280128.238,43.945,31.738,20.020,59.082,54.688
1532280128.242,54.688,34.180,21.484,62.988,-238.281
1532280128.245,64.941,35.645,18.555,68.359,-46.875
1532280128.249,62.500,34.668,22.461,72.266,326.172
1532280128.253,55.176,34.668,22.461,63.965,203.613
1532280128.257,50.293,33.691,18.066,58.105,-188.965
1532280128.261,57.617,34.180,20.020,67.871,-129.395
1532280128.265,58.594,32.227,26.367,69.336,245.117
1532280128.269,60.059,32.227,24.414,68.848,288.574
1532280128.273,57.129,33.691,18.555,57.617,-99.609
1532280128.277,51.270,33.691,20.020,53.711,-242.676
1532280128.281,52.246,34.180,21.484,64.941,121.094
1532280128.284,53.711,35.156,17.578,62.988,324.707
1532280128.288,54.199,36.133,20.020,60.547,38.574
1532280128.292,46.387,35.645,23.926,58.594,-231.934
1532280128.296,49.805,34.180,24.902,60.059,8.301
1532280128.300,52.246,35.156,25.391,61.523,317.383
1532280128.304,44.922,35.156,25.879,52.246,104.004
1532280128.308,46.387,31.738,30.273,53.711,-230.957
1532280128.312,41.992,33.691,27.832,57.129,-130.859
1532280128.316,49.316,39.062,22.461,45.410,217.773
1532280128.320,54.199,40.527,24.414,40.039,181.152
1532280128.324,55.176,40.039,29.785,52.734,-175.293
1532280128.327,58.105,37.109,30.762,53.711,-166.016
1532280128.331,50.293,38.086,28.809,51.270,185.059
1532280128.335,52.246,38.574,26.855,51.270,251.465
1532280128.339,55.176,34.668,28.809,45.410,-77.637
1532280128.343,49.316,33.203,32.227,51.758,-217.285
1532280128.347,40.527,35.156,29.785,63.477,95.215
1532280128.351,40.527,37.598,29.785,59.570,285.156
1532280128.355,34.180,35.156,27.344,47.852,-18.066
1532280128.359,39.062,36.133,23.438,51.270,-278.320
1532280128.363,40.039,39.062,30.762,62.500,-17.090
1532280128.367,25.391,38.574,36.133,62.500,312.012
1532280128.370,20.508,36.621,28.809,52.246,127.930
1532280128.374,24.902,36.621,25.391,48.828,-215.820
1532280128.378,35.156,41.504,29.297,53.711,-108.398
1532280128.382,36.621,41.016,29.785,57.617,257.324
1532280128.386,36.621,37.598,25.879,52.734,246.582
1532280128.390,43.945,41.504,27.832,49.805,-139.160
1532280128.394,44.922,44.434,32.227,53.223,-204.102
1532280128.398,43.457,40.039,32.227,56.152,172.852
1532280128.402,43.457,38.574,31.250,52.734,289.551
1532280128.406,46.387,40.527,27.832,44.922,-62.988
1532280128.409,48.340,40.039,26.855,43.945,-248.535
1532280128.413,53.223,39.551,29.297,48.828,40.527
1532280128.417,48.340,39.551,33.691,52.246,298.828
1532280128.421,41.504,40.039,31.738,55.664,77.637
1532280128.425,43.457,41.992,24.414,51.270,-242.188
1532280128.429,39.551,37.109,23.438,46.875,-60.059
1532280128.433,36.133,33.691,26.855,46.875,287.598
1532280128.437,37.109,36.133,31.250,48.828,153.320
1532280128.441,37.109,36.621,28.809,48.828,-219.238
1532280128.445,42.480,37.109,27.832,45.898,-137.207
1532280128.449,46.875,37.598,33.203,47.852,264.648
1532280128.452,56.641,40.527,29.297,45.898,235.352
1532280128.456,52.734,40.527,25.879,44.434,-152.832
1532280128.460,50.781,41.016,31.250,55.176,-223.145
1532280128.464,54.688,41.016,31.250,53.223,142.090
1532280128.468,54.199,41.016,28.320,52.734,312.500
1532280128.472,55.176,41.504,30.273,60.059,-25.391
1532280128.476,50.781,41.504,33.691,57.129,-276.855
1532280128.480,53.711,42.969,33.691,60.059,40.527
1532280128.484,52.246,42.969,34.180,60.059,324.707
1532280128.488,49.805,43.945,34.668,51.758,46.387
1532280128.492,49.316,46.387,39.062,41.504,-279.297
1532280128.495,41.992,48.340,38.086,36.621,-101.562
1532280128.499,38.086,49.316,36.621,37.598,292.480
1532280128.503,35.645,45.898,37.598,30.762,188.965
1532280128.507,33.691,41.504,39.551,25.391,-194.336
1532280128.511,30.273,44.922,41.016,29.297,-146.973
1532280128.515,30.762,47.852,39.062,35.156,200.684
1532280128.519,30.762,44.434,41.504,33.691,252.441
1532280128.523,30.762,43.945,43.457,34.180,-102.051
1532280128.527,32.227,50.293,44.434,37.109,-241.211
1532280128.531,26.367,51.270,46.875,37.109,103.516
1532280128.534,18.066,43.457,49.805,35.645,310.547
1532280128.538,21.973,40.527,48.828,28.809,-7.812
1532280128.542,24.902,41.504,45.410,27.344,-253.906
1532280128.546,22.461,47.852,46.387,29.785,25.391
1532280128.550,29.785,51.758,46.387,28.809,298.828
1532280128.554,19.531,47.363,43.945,20.508,76.172
1532280128.558,13.672,45.410,38.574,10.742,-249.023
1532280128.562,22.949,48.828,36.133,10.254,-111.328
1532280128.566,18.066,48.828,39.062,14.648,267.578
1532280128.570,12.695,47.852,43.457,15.625,219.238
1532280128.574,9.766,47.363,43.945,12.207,-170.410
1532280128.577,8.789,44.434,42.969,17.090,-172.852
1532280128.581,18.555,43.945,45.410,25.879,192.383
1532280128.585,15.625,45.898,46.875,23.926,271.484
1532280128.589,8.301,44.922,50.293,18.555,-84.961
1532280128.593,13.672,42.969,52.246,18.555,-267.090
1532280128.597,16.602,47.363,41.992,20.020,49.316
1532280128.601,16.602,50.293,37.598,22.949,320.312
1532280128.605,17.578,47.363,39.551,20.020,62.012
1532280128.609,17.090,45.410,39.551,19.043,-246.094
1532280128.613,17.578,44.922,40.527,25.391,-5.371
1532280128.616,17.090,46.387,41.992,33.691,319.336
1532280128.620,17.578,46.387,39.062,29.785,150.391
1532280128.624,20.020,43.945,35.156,21.484,-217.773
1532280128.628,15.137,44.434,37.109,26.855,-146.973
1532280128.632,15.625,41.992,37.598,33.691,248.535
1532280128.636,18.555,39.551,36.133,29.785,237.305
1532280128.640,21.484,45.410,36.133,26.855,-155.762
1532280128.644,19.043,41.992,34.668,31.738,-202.637
1532280128.648,16.602,37.109,34.668,36.621,180.176
1532280128.652,21.973,37.109,38.086,35.645,305.176
1532280128.656,24.414,36.133,35.645,35.645,-26.855
1532280128.659,26.855,37.598,34.180,40.039,-226.562
1532280128.663,29.785,36.621,37.109,50.781,53.223
1532280128.667,34.180,33.691,39.062,55.664,309.082
1532280128.671,27.832,32.227,34.668,51.270,58.105
1532280128.675,27.832,31.738,30.762,51.758,-249.023
1532280128.679,35.645,31.250,30.762,58.594,-49.805
1532280128.683,41.016,35.156,31.738,56.152,328.613
1532280128.687,52.246,37.109,31.738,58.105,203.125
1532280128.691,56.641,35.645,30.273,55.664,-190.918
1532280128.695,48.340,38.086,29.297,44.434,-164.062
1532280128.699,40.527,34.180,36.621,55.176,215.332
1532280128.702,37.598,28.320,40.039,65.430,277.344
1532280128.706,29.297,26.855,32.227,54.688,-87.891
1532280128.710,23.438,29.297,35.156,54.199,-211.914
1532280128.714,37.598,30.762,36.621,56.152,131.348
1532280128.718,55.664,33.691,29.785,48.828,299.805
1532280128.722,58.594,38.086,29.785,54.199,-42.480
1532280128.726,60.059,33.203,37.109,60.547,-264.160
1532280128.730,52.246,25.391,41.992,60.547,39.062
1532280128.734,41.992,24.414,36.621,58.105,290.039
1532280128.738,44.922,26.855,31.738,59.082,51.270
1532280128.741,39.551,27.832,33.203,58.105,-226.074
1532280128.745,41.016,26.855,36.133,61.035,-72.754
1532280128.749,47.363,21.973,37.598,62.012,256.348
1532280128.753,45.410,19.531,34.668,58.105,176.758
1532280128.757,45.410,24.902,30.273,55.176,-181.641
1532280128.761,49.316,26.855,27.344,56.641,-163.574
1532280128.765,56.641,24.414,25.391,62.500,205.566
1532280128.769,58.594,24.902,29.297,69.336,270.508
1532280128.773,57.617,28.809,33.691,65.918,-120.117
1532280128.777,54.688,25.391,33.691,56.152,-273.438
1532280128.781,57.129,20.996,30.762,62.012,94.238
1532280128.784,63.965,25.391,32.715,64.941,298.828
1532280128.788,63.477,24.902,35.156,66.406,20.508
1532280128.792,49.805,20.508,33.203,58.594,-239.258
1532280128.796,34.180,20.020,35.156,60.547,-21.973
1532280128.800,40.527,23.926,37.598,67.871,293.945
1532280128.804,38.086,23.438,39.062,60.547,126.953
1532280128.808,44.434,25.391,38.574,60.059,-214.844
1532280128.812,50.781,28.320,35.156,51.758,-89.355
1532280128.816,41.016,22.461,35.156,44.434,252.441
1532280128.820,45.410,22.461,35.645,46.875,214.355
1532280128.824,41.016,28.320,31.738,38.086,-145.508
1532280128.827,33.691,31.250,32.227,42.480,-202.637
1532280128.831,51.270,31.250,35.156,53.711,156.250
1532280128.835,39.551,27.832,34.180,53.711,249.023
1532280128.839,20.996,24.414,38.574,54.688,-98.145
1532280128.843,24.902,25.879,39.551,55.664,-241.211
1532280128.847,39.551,30.762,38.086,55.664,94.238
1532280128.851,55.664,33.203,34.668,51.270,291.016
1532280128.855,49.316,33.203,33.691,50.293,19.043
1532280128.859,41.992,34.668,32.715,51.270,-240.234
1532280128.863,46.387,33.691,36.133,59.082,-54.688
1532280128.866,47.852,32.715,40.039,63.477,280.273
1532280128.870,43.457,30.762,41.504,63.477,133.301
1532280128.874,43.457,31.738,38.086,47.852,-247.070
1532280128.878,50.293,36.133,34.668,35.156,-139.160
1532280128.882,49.805,36.133,33.691,48.340,258.789
1532280128.886,46.875,31.738,34.180,57.617,257.324
1532280128.890,44.922,35.156,32.227,45.410,-134.766
1532280128.894,41.504,36.133,32.227,41.992,-219.727
1532280128.898,40.527,34.180,35.156,46.875,166.992
1532280128.902,35.156,34.668,37.109,50.293,307.617
1532280128.906,24.902,32.715,37.109,50.293,-63.477
1532280128.909,30.762,35.156,40.039,56.641,-259.277
1532280128.913,44.922,35.645,41.992,58.594,23.438
1532280128.917,40.527,40.039,32.715,45.410,282.227
1532280128.921,44.922,43.945,31.250,42.480,81.055
1532280128.925,50.781,44.434,37.109,56.152,-210.938
1532280128.929,47.363,43.457,36.133,53.223,-40.527
1532280128.933,37.109,38.086,40.039,51.270,287.109
1532280128.937,44.922,38.574,42.969,61.523,193.359
1532280128.941,48.828,41.992,36.133,50.781,-172.852
1532280128.945,47.852,41.016,35.645,49.805,-168.457
1532280128.949,52.246,37.109,36.133,52.246,210.449
1532280128.952,55.176,36.621,37.109,50.293,252.441
1532280128.956,47.852,37.598,39.551,54.688,-129.395
1532280128.960,47.363,36.621,41.992,55.664,-227.539
1532280128.964,56.152,37.109,41.992,54.199,131.836
1532280128.968,47.363,37.109,36.621,48.828,316.895
1532280128.972,39.062,31.738,40.039,56.152,-1.465
1532280128.976,33.203,30.273,48.340,60.059,-265.625
1532280128.980,34.180,32.715,41.016,48.828,-8.301
1532280128.984,41.992,35.645,34.668,41.992,270.996
1532280128.988,37.109,36.621,34.668,41.992,64.941
1532280128.991,32.715,33.691,35.156,41.016,-262.695
1532280128.995,41.504,28.320,37.109,46.875,-129.395
1532280128.999,41.016,23.438,33.203,44.434,247.070
1532280129.003,37.109,20.996,28.809,42.969,169.434
1532280129.007,43.457,18.555,31.738,51.758,-226.074
1532280129.011,33.691,11.719,36.621,54.199,-228.027
1532280129.015,38.574,11.230,34.668,51.270,133.301
1532280129.019,45.410,11.230,32.227,52.734,223.633
1532280129.023,34.668,8.789,34.668,46.387,-124.512
1532280129.027,26.855,6.348,36.133,47.363,-276.367
1532280129.031,29.297,3.906,33.691,55.176,51.758
1532280129.034,29.297,4.395,33.691,48.340,256.348
1532280129.038,22.461,0.488,37.109,39.062,-32.715
1532280129.042,28.809,0.488,31.738,38.574,-293.457
1532280129.046,29.785,1.953,24.902,35.645,-30.762
1532280129.050,24.902,2.930,31.250,39.551,289.062
1532280129.054,22.461,1.953,36.621,46.875,94.727
1532280129.058,22.949,0.977,33.691,42.480,-258.301
1532280129.062,23.926,2.930,27.344,32.715,-154.785
1532280129.066,32.227,4.883,22.461,28.320,218.262
1532280129.070,28.809,3.418,24.414,34.668,193.848
1532280129.073,22.949,0.977,31.250,46.387,-189.453
1532280129.077,24.414,3.418,31.250,39.062,-220.703
1532280129.081,21.484,2.441,26.855,31.250,163.086
1532280129.085,23.926,4.395,25.391,35.645,270.996
1532280129.089,22.949,6.836,25.391,31.738,-87.402
1532280129.093,35.156,4.395,26.855,32.715,-256.836
1532280129.097,33.203,2.930,24.902,33.691,62.012
1532280129.101,27.344,5.859,24.414,40.039,324.707
1532280129.105,29.297,2.441,27.832,41.504,66.895
1532280129.109,32.715,2.930,25.391,34.180,-249.512
1532280129.113,38.086,8.789,25.391,41.504,-46.875
1532280129.116,33.691,8.789,25.391,41.504,295.898
1532280129.120,30.762,4.395,24.902,43.945,161.133
1532280129.124,32.715,1.465,30.273,44.922,-196.777
1532280129.128,26.855,0.977,25.391,44.922,-143.555
1532280129.132,29.785,0.977,24.414,44.434,220.215
1532280129.136,42.480,0.977,28.809,37.109,234.863
1532280129.140,40.527,2.441,28.809,47.852,-97.168
1532280129.144,39.551,3.418,30.762,56.641,-187.012
1532280129.148,39.062,3.906,26.367,49.805,144.531
1532280129.152,40.039,4.395,28.320,50.293,295.410
1532280129.156,35.645,3.906,33.203,52.734,-25.391
1532280129.159,29.785,3.418,34.180,41.016,-237.793
1532280129.163,47.363,3.906,31.738,43.457,59.082
1532280129.167,49.805,2.441,26.855,43.945,357.422
1532280129.171,31.738,2.441,26.367,33.691,100.098
1532280129.175,39.551,5.371,28.320,40.039,-231.934
1532280129.179,40.039,6.836,26.855,54.688,-59.082
1532280129.183,39.551,5.859,25.879,49.316,289.062
1532280129.187,45.410,3.906,29.785,34.180,188.965
1532280129.191,38.574,3.418,30.273,42.480,-190.430
1532280129.195,32.227,3.906,27.832,40.527,-203.613
1532280129.198,25.391,2.441,27.344,32.715,192.871
1532280129.202,28.809,5.371,28.809,40.527,298.828
1532280129.206,41.504,9.766,31.738,44.434,-105.957
1532280129.210,39.062,5.371,33.691,46.387,-263.184
1532280129.214,33.203,-1.953,31.250,51.270,118.164
1532280129.218,28.320,-0.488,26.367,43.457,322.754
1532280129.222,29.785,1.953,25.879,32.227,-5.371
1532280129.226,30.762,-1.465,29.297,39.551,-244.141
1532280129.230,33.691,1.465,32.715,49.805,12.207
1532280129.234,39.551,7.324,30.762,37.598,301.270
1532280129.238,38.086,3.418,30.273,40.039,112.793
1532280129.241,35.645,4.883,30.762,42.969,-206.055
1532280129.245,35.645,5.371,29.785,36.621,-54.688
1532280129.249,41.992,2.930,27.832,43.945,305.176
1532280129.253,36.621,3.906,26.367,36.621,197.754
1532280129.257,38.086,9.766,26.855,30.762,-194.824
1532280129.261,32.715,9.277,27.344,36.621,-162.109
1532280129.265,15.625,2.930,28.809,32.227,197.266
1532280129.269,17.578,1.465,29.785,36.133,270.508
1532280129.273,23.438,3.418,29.297,40.527,-77.637
1532280129.277,29.785,4.883,24.902,35.156,-237.793
1532280129.281,37.598,2.930,27.344,41.504,102.539
1532280129.284,33.691,3.418,32.227,52.246,318.848
1532280129.288,32.715,5.371,26.367,43.457,22.949
1532280129.292,32.715,2.930,29.785,38.574,-297.363
1532280129.296,27.344,6.836,29.785,43.457,-82.031
1532280129.300,31.250,8.301,28.320,42.969,306.152
1532280129.304,29.297,2.930,32.715,51.758,125.977
1532280129.308,25.391,4.395,36.621,57.129,-264.160
1532280129.312,36.621,1.953,35.645,53.223,-158.203
1532280129.316,35.645,1.465,32.227,47.852,235.352
1532280129.320,23.926,3.418,31.738,42.480,238.281
1532280129.323,27.344,3.906,21.484,31.738,-129.883
1532280129.327,37.598,6.348,21.973,40.039,-188.477
1532280129.331,44.434,5.371,30.273,49.805,153.809
1532280129.335,34.180,3.906,29.785,45.410,269.043
1532280129.339,21.484,1.953,31.738,47.363,-54.688
1532280129.343,25.391,-1.953,35.645,44.434,-249.023
1532280129.347,25.391,-1.953,27.832,36.621,62.012
1532280129.351,26.855,-2.441,26.367,45.410,335.449
1532280129.355,41.016,0.000,28.809,41.016,72.754
1532280129.359,39.551,1.953,27.832,33.691,-235.840
1532280129.363,29.785,-2.441,28.320,41.016,-54.688
1532280129.366,26.367,-5.859,26.855,41.016,285.645
1532280129.370,26.855,-3.418,27.344,44.434,145.020
1532280129.374,32.227,0.977,29.297,42.969,-238.281
1532280129.378,36.621,2.441,27.344,39.551,-161.133
1532280129.382,39.551,1.953,28.809,39.062,222.168
1532280129.386,41.504,3.418,35.645,43.457,245.117
1532280129.390,25.391,2.441,34.180,44.434,-132.324
1532280129.394,21.973,-3.418,30.762,45.898,-222.656
1532280129.398,31.738,0.488,31.250,46.875,135.742
1532280129.402,29.297,2.930,32.227,42.969,301.758
1532280129.405,26.367,-0.488,31.738,35.156,-11.719
1532280129.409,29.297,3.418,30.762,32.227,-260.254
1532280129.413,36.621,6.348,26.367,36.133,9.277
1532280129.417,39.551,5.371,25.879,40.039,305.176
1532280129.421,47.363,2.441,35.645,56.152,54.199
1532280129.425,37.598,1.465,35.156,51.270,-281.738
1532280129.429,39.062,3.906,32.227,40.527,-97.168
1532280129.433,48.828,4.883,37.598,44.922,256.348
1532280129.437,32.227,6.348,33.203,44.434,154.297
1532280129.441,25.391,2.441,31.250,41.992,-208.496
1532280129.445,24.902,7.324,34.668,39.062,-175.293
1532280129.448,32.227,12.695,32.227,41.504,215.332
1532280129.452,44.434,9.277,28.809,40.039,234.375
1532280129.456,39.551,9.766,29.297,44.434,-143.066
1532280129.460,37.109,11.230,28.809,41.992,-247.559
1532280129.464,34.668,12.207,29.297,37.109,77.148
1532280129.468,38.086,17.090,29.785,43.945,294.434
1532280129.472,47.852,16.602,32.227,43.945,-17.090
1532280129.476,31.250,7.324,34.180,43.457,-291.504
1532280129.480,37.598,10.742,32.227,56.152,-1.953
1532280129.484,36.133,17.090,32.227,53.711,289.551
1532280129.488,34.180,17.090,34.180,49.805,86.426
1532280129.491,48.340,19.043,37.598,60.547,-245.605
1532280129.495,43.457,20.020,35.645,62.500,-118.652
1532280129.499,41.504,20.508,31.738,59.570,293.945
1532280129.503,29.785,20.508,28.809,45.410,236.328
1532280129.507,36.133,17.578,28.320,38.086,-207.031
1532280129.511,55.176,17.090,28.320,50.293,-246.094
1532280129.515,44.922,22.949,28.809,51.758,143.555
1532280129.519,41.992,18.555,33.203,51.270,255.859
1532280129.523,36.133,13.184,32.227,60.059,-131.348
1532280129.527,37.109,15.625,32.715,66.895,-279.785
1532280129.530,59.570,21.484,27.832,51.270,56.152
1532280129.534,56.152,23.926,22.461,49.805,232.910
1532280129.538,52.734,17.090,26.855,65.430,-27.344
1532280129.542,33.691,14.648,28.320,62.988,-279.297
1532280129.546,25.879,16.113,28.320,76.660,-64.941
1532280129.550,51.270,15.625,28.320,65.430,279.785
1532280129.554,38.086,17.578,23.438,39.551,94.238
1532280129.558,35.156,17.578,20.020,54.199,-286.133
1532280129.562,48.828,17.090,16.113,65.918,-178.711
1532280129.566,26.367,13.184,17.090,65.918,207.031
1532280129.570,33.691,16.113,20.020,63.477,206.543
1532280129.573,48.340,21.973,17.090,58.594,-171.387
1532280129.577,43.945,24.414,18.555,59.570,-215.820
1532280129.581,56.152,24.902,15.625,53.711,152.344
1532280129.585,51.758,28.809,13.672,55.176,283.203
1532280129.589,40.527,30.762,21.973,65.430,-50.293
1532280129.593,38.574,26.367,21.973,65.430,-246.094
1532280129.597,22.949,28.320,18.555,53.223,70.801
1532280129.601,13.672,29.785,15.625,44.434,331.543
1532280129.605,28.320,30.273,16.113,57.129,84.961
1532280129.609,37.598,35.645,17.578,56.641,-236.816
1532280129.613,46.387,37.598,15.625,47.852,-86.914
1532280129.616,39.551,36.621,22.461,57.617,267.090
1532280129.620,27.832,35.156,22.949,64.941,173.340
1532280129.624,36.133,34.180,20.508,64.941,-208.008
1532280129.628,38.086,39.062,22.949,60.059,-145.020
1532280129.632,45.898,40.527,19.043,55.664,250.977
1532280129.636,40.039,33.203,17.578,59.570,276.855
1532280129.640,43.457,31.738,20.020,57.617,-92.773
1532280129.644,63.477,35.645,22.949,49.316,-219.727
1532280129.648,54.688,34.668,21.973,48.340,139.160
1532280129.652,35.156,33.203,20.996,58.594,334.473
1532280129.655,39.551,33.691,29.785,70.801,-2.441
1532280129.659,57.617,34.180,26.855,62.012,-244.629
1532280129.663,46.387,31.250,20.508,53.711,33.691
1532280129.667,56.152,32.715,17.090,46.875,344.727
1532280129.671,48.828,29.785,17.578,47.852,119.141
1532280129.675,44.922,26.367,17.090,47.852,-258.789
1532280129.679,53.223,28.809,14.160,42.969,-91.797
1532280129.683,45.898,25.879,14.648,43.457,314.941
1532280129.687,22.949,25.391,25.391,50.293,209.473
1532280129.691,35.156,28.320,27.832,48.828,-189.453
1532280129.695,68.848,27.344,16.602,42.969,-145.996
1532280129.698,50.293,29.785,13.672,47.852,231.934
1532280129.702,36.133,27.832,20.508,54.199,277.832
1532280129.706,40.039,26.367,21.484,51.270,-115.723
1532280129.710,51.270,34.180,19.043,45.410,-249.512
1532280129.714,50.293,37.109,20.020,37.109,99.609
1532280129.718,31.250,33.203,22.949,33.203,311.035
1532280129.722,31.250,30.762,27.344,49.316,24.902
1532280129.726,32.227,31.738,29.785,56.152,-255.371
1532280129.730,47.852,26.367,25.879,44.922,-14.160
1532280129.734,34.668,20.020,20.508,40.527,304.199
1532280129.738,30.762,21.973,13.672,28.809,114.746
1532280129.741,39.551,22.461,16.602,31.250,-229.980
1532280129.745,40.527,22.949,19.043,37.109,-115.234
1532280129.749,44.434,21.484,20.996,24.902,273.926
1532280129.753,53.223,17.090,23.438,32.715,248.047
1532280129.757,56.641,16.602,20.508,35.645,-162.109
1532280129.761,27.344,12.695,20.996,32.715,-203.613
1532280129.765,28.320,14.160,22.949,38.086,184.570
1532280129.769,45.410,11.719,26.855,40.527,311.035
1532280129.773,22.461,6.348,23.438,29.785,-47.852
1532280129.777,25.391,6.348,24.414,40.039,-265.625
1532280129.780,54.199,5.859,22.949,54.199,62.500
1532280129.784,25.879,3.906,18.066,37.109,325.195
1532280129.788,22.949,3.418,20.020,28.320,55.664
1532280129.792,43.945,8.301,23.438,21.973,-221.680
1532280129.796,41.992,9.766,22.949,31.738,-4.883
1532280129.800,46.387,7.812,22.949,44.922,314.941
1532280129.804,34.668,12.207,23.438,40.527,169.434
1532280129.808,30.762,7.812,26.855,31.738,-208.984
1532280129.812,40.527,6.348,23.926,34.668,-143.066
1532280129.816,26.855,10.742,20.020,44.434,243.652
1532280129.820,26.367,6.348,21.973,31.738,259.277
1532280129.823,29.297,4.395,20.996,26.367,-122.070
1532280129.827,28.809,5.859,23.438,46.387,-199.219
1532280129.831,48.340,8.789,22.949,50.781,171.875
1532280129.835,17.578,12.207,18.066,35.645,305.664
1532280129.839,23.926,8.301,21.484,40.039,-37.598
1532280129.843,63.965,12.695,23.438,50.781,-232.910
1532280129.847,21.484,13.184,25.391,41.504,45.410
1532280129.851,38.574,8.789,23.926,29.785,291.504
1532280129.855,75.195,9.766,21.484,30.762,27.832
1532280129.859,62.012,7.812,25.391,35.156,-282.227
1532280129.862,35.645,7.324,24.902,40.039,-62.988
1532280129.866,30.273,9.277,20.996,41.016,336.914
1532280129.870,42.480,11.719,25.391,32.715,195.312
1532280129.874,39.551,14.160,29.785,27.832,-212.891
1532280129.878,42.480,14.648,25.879,28.320,-161.133
1532280129.882,50.293,11.719,28.320,52.734,219.727
1532280129.886,25.391,6.348,29.785,47.363,275.879
1532280129.890,13.184,8.301,26.855,19.043,-105.957
1532280129.894,11.230,13.672,26.855,14.648,-212.402
1532280129.898,34.180,15.137,25.391,25.391,137.695
1532280129.902,41.992,13.672,22.949,14.648,302.734
1532280129.905,20.996,7.812,27.344,14.160,1.465
1532280129.909,21.484,12.207,33.691,25.391,-243.164
1532280129.913,20.996,21.973,22.461,2.441,-0.977
1532280129.917,21.484,21.973,23.926,-1.953,301.270
1532280129.921,19.531,18.555,35.645,14.160,116.211
1532280129.925,14.648,17.578,33.691,17.578,-238.281
1532280129.929,28.809,18.555,32.715,23.926,-102.051
1532280129.933,17.578,19.531,34.180,23.438,283.203
1532280129.937,12.695,19.043,35.645,16.113,229.492
1532280129.941,11.719,21.484,37.109,0.977,-162.109
1532280129.945,14.160,23.438,33.691,0.977,-179.199
1532280129.948,11.719,18.555,36.133,15.137,222.656
1532280129.952,-46.875,15.625,41.992,24.414,275.879
1532280129.956,-34.668,17.090,31.250,-0.488,-110.840
1532280129.960,-2.930,17.090,24.902,-15.137,-238.281
1532280129.964,2.930,14.648,26.855,-4.883,106.934
1532280129.968,33.203,18.555,24.902,-7.324,337.402
1532280129.972,45.410,17.578,28.320,-3.418,39.062
1532280129.976,33.203,10.254,35.156,13.184,-273.926
1532280129.980,11.719,8.301,31.250,28.320,-24.902
1532280129.984,16.602,7.324,20.996,21.484,322.754
1532280129.987,5.371,12.207,20.996,5.859,125.000
1532280129.991,5.371,14.648,20.508,-6.348,-238.770
1532280129.995,34.668,9.766,14.648,1.465,-130.371
1532280129.999,33.203,7.812,20.996,15.137,287.109
1532280130.003,27.344,7.324,23.438,23.926,250.000
1532280130.007,22.949,7.324,28.320,43.457,-156.738
1532280130.011,29.785,10.254,30.273,44.434,-212.402
1532280130.015,36.133,9.277,21.484,35.645,146.973
1532280130.019,52.734,9.277,19.531,37.598,293.457
1532280130.023,25.879,5.859,20.020,36.621,-71.289
1532280130.027,-36.133,-1.465,19.531,39.062,-266.113
1532280130.030,-1.953,1.465,24.902,45.410,71.777
1532280130.034,52.734,5.371,25.391,35.156,334.961
1532280130.038,41.504,6.836,20.996,27.344,45.410
1532280130.042,34.668,6.836,24.414,38.086,-273.926
1532280130.046,41.504,4.395,26.855,42.969,-26.855
1532280130.050,48.340,8.789,23.926,28.320,329.590
1532280130.054,1.465,12.695,24.902,28.320,157.715
1532280130.058,0.977,12.695,26.855,40.527,-220.703
1532280130.062,65.430,15.137,26.855,48.828,-134.766
1532280130.066,74.219,17.090,29.785,57.617,254.883
1532280130.070,48.828,13.672,28.809,49.316,256.836
1532280130.073,33.691,12.695,34.180,44.922,-124.023
1532280130.077,25.391,15.625,34.668,45.410,-213.867
1532280130.081,35.156,17.090,25.879,49.805,149.902
1532280130.085,59.570,19.043,24.902,55.664,327.148
1532280130.089,37.598,17.578,24.902,45.898,8.789
1532280130.093,51.270,20.020,24.902,46.875,-263.672
1532280130.097,56.152,20.020,24.902,43.945,-27.344
1532280130.101,19.043,11.230,27.344,49.316,288.086
1532280130.105,29.297,12.207,28.320,54.199,83.008
1532280130.109,60.547,19.043,26.367,41.504,-250.000
1532280130.112,50.781,20.020,25.879,41.016,-82.031
1532280130.116,37.598,14.160,28.320,42.480,282.715
1532280130.120,43.457,13.672,27.344,38.574,170.410
1532280130.124,35.645,15.137,23.438,32.715,-217.773
1532280130.128,38.574,13.672,25.879,37.109,-169.922
1532280130.132,4.883,9.277,28.320,40.039,203.613
1532280130.136,-18.066,10.254,30.762,32.715,243.164
1532280130.140,41.504,13.672,31.738,37.109,-102.051
1532280130.144,64.453,11.719,27.344,40.527,-230.469
1532280130.148,49.316,10.742,28.320,45.410,119.141
1532280130.152,34.668,9.277,30.273,43.945,288.086
1532280130.155,42.969,9.277,31.738,44.434,-37.109
1532280130.159,28.320,12.207,26.855,29.297,-254.883
1532280130.163,-26.367,10.742,24.902,23.438,23.926
1532280130.167,4.883,7.324,30.762,38.086,319.336
1532280130.171,63.477,9.277,32.227,36.621,81.055
1532280130.175,51.758,9.766,26.367,30.273,-259.277
1532280130.179,49.316,9.766,29.785,50.293,-99.609
1532280130.183,49.316,9.766,35.645,57.129,259.277
1532280130.187,40.039,9.766,33.203,55.176,201.660
1532280130.191,29.297,11.230,28.809,44.434,-176.270
1532280130.194,32.227,13.672,27.832,26.855,-229.492
1532280130.198,28.320,15.137,27.832,32.715,166.504
1532280130.202,29.297,12.207,31.250,43.945,311.035
1532280130.206,22.461,14.648,32.227,35.645,-46.387
1532280130.210,7.812,14.160,29.785,31.738,-218.262
1532280130.214,28.809,13.184,29.785,42.969,96.191
1532280130.218,50.293,17.578,32.227,44.922,309.082
1532280130.222,51.758,19.531,32.715,43.945,19.531
1532280130.226,14.648,20.996,30.273,34.668,-270.996
1532280130.230,14.160,23.438,35.645,31.738,-21.973
1532280130.234,46.387,21.973,35.156,32.227,298.828
1532280130.237,37.598,20.996,28.320,26.367,121.582
1532280130.241,11.719,22.461,30.762,26.367,-229.492
1532280130.245,5.371,21.973,37.598,29.785,-121.582
1532280130.249,23.438,20.996,40.527,42.480,270.996
1532280130.253,34.180,23.438,37.598,36.133,238.281
1532280130.257,23.438,29.297,33.691,23.438,-154.785
1532280130.261,0.977,30.273,35.645,30.762,-191.895
1532280130.265,-2.441,26.855,39.062,26.855,185.547
1532280130.269,28.809,25.391,33.691,20.996,316.895
1532280130.273,33.691,30.273,34.180,24.414,-65.918
1532280130.277,-13.184,31.250,37.109,27.832,-281.738
1532280130.280,-14.648,30.762,39.551,33.691,54.199
1532280130.284,0.000,34.180,41.992,20.020,319.336
1532280130.288,28.320,41.016,39.551,9.766,77.148
1532280130.292,35.156,38.574,33.691,16.113,-231.934
1532280130.296,13.672,26.855,37.109,20.996,-62.988
1532280130.300,26.367,29.297,39.062,20.020,295.410
1532280130.304,37.598,42.480,39.062,17.578,199.707
1532280130.308,10.254,47.363,37.109,19.043,-189.453
1532280130.312,13.672,41.504,34.668,24.902,-163.574
1532280130.316,17.578,37.109,38.086,27.832,222.168
1532280130.319,0.977,41.016,40.039,22.461,233.887
1532280130.323,0.488,42.480,39.062,20.508,-153.809
1532280130.327,-7.812,36.133,37.598,23.438,-205.078
1532280130.331,23.926,41.504,31.738,14.160,144.531
1532280130.335,22.949,43.457,33.203,14.160,290.527
1532280130.339,9.277,39.551,41.992,21.484,-18.066
1532280130.343,30.762,43.457,37.598,11.719,-246.094
1532280130.347,24.414,38.086,33.203,20.020,67.383
1532280130.351,6.836,37.598,34.180,21.484,344.727
1532280130.355,7.324,40.527,35.645,17.090,97.656
1532280130.359,0.000,36.621,38.086,33.691,-228.027
1532280130.362,35.645,32.715,40.039,37.109,-78.613
1532280130.366,43.457,35.156,41.992,32.715,276.855
1532280130.370,19.043,44.434,41.504,31.250,199.707
1532280130.374,15.137,45.410,37.598,19.531,-217.285
1532280130.378,-8.301,40.527,37.109,16.113,-224.609
1532280130.382,-41.016,34.180,38.574,37.598,205.078
1532280130.386,12.695,35.156,40.527,52.246,272.949
1532280130.390,46.387,40.039,42.969,42.480,-116.211
1532280130.394,25.879,39.062,38.574,40.039,-238.281
1532280130.398,33.203,39.551,34.180,41.016,118.652
1532280130.402,32.715,39.551,35.645,34.180,319.824
1532280130.405,23.438,37.598,36.133,34.668,20.020
1532280130.409,28.320,31.250,35.645,36.621,-262.695
1532280130.413,-3.906,30.762,31.738,34.668,-20.508
1532280130.417,13.184,35.156,31.250,32.715,308.594
1532280130.421,42.969,38.574,33.203,41.504,123.535
1532280130.425,21.484,39.062,30.273,43.945,-241.211
1532280130.429,30.273,36.621,30.273,46.387,-121.094
1532280130.433,55.176,35.156,29.785,43.945,267.090
1532280130.437,44.434,35.156,26.367,37.598,224.121
1532280130.441,31.250,34.180,26.367,42.480,-155.273
1532280130.444,11.230,30.762,28.809,44.434,-187.988
1532280130.448,13.184,33.203,27.344,47.852,176.270
1532280130.452,15.625,25.391,27.832,54.199,287.109
1532280130.456,21.973,20.996,29.785,43.457,-64.453
1532280130.460,36.133,22.949,25.879,38.086,-252.930
1532280130.464,38.086,19.531,28.320,43.457,51.758
1532280130.468,48.828,13.672,31.738,44.434,311.523
1532280130.472,26.367,19.531,28.320,41.016,22.461
1532280130.476,14.160,21.484,27.344,34.668,-302.246
1532280130.480,18.066,14.648,28.809,36.621,-40.039
1532280130.484,41.504,18.555,31.738,43.945,254.883
1532280130.487,36.621,25.391,29.297,34.180,72.754
1532280130.491,24.414,23.438,31.250,28.809,-230.469
1532280130.495,40.039,18.555,34.180,39.062,-108.887
1532280130.499,36.621,19.531,28.809,36.133,254.395
1532280130.503,53.223,27.344,29.297,32.715,198.730
1532280130.507,39.062,26.367,35.645,41.504,-179.199
1532280130.511,14.160,19.531,40.039,42.480,-234.375
1532280130.515,40.527,26.855,37.109,26.367,125.977
1532280130.519,36.621,29.785,35.156,22.461,290.527
1532280130.523,32.227,28.809,40.039,38.574,-33.691
1532280130.527,34.668,31.250,39.062,42.969,-248.047
1532280130.530,2.930,27.832,37.598,34.180,33.691
1532280130.534,8.789,30.273,39.551,23.926,306.152
1532280130.538,37.598,35.645,37.109,28.809,48.340
1532280130.542,37.109,28.809,35.645,30.273,-264.648
1532280130.546,26.367,27.344,36.621,28.320,-42.969
1532280130.550,36.621,28.320,38.086,35.645,307.129
1532280130.554,33.203,29.297,40.039,37.109,170.898
1532280130.558,23.926,35.156,37.598,28.320,-226.562
1532280130.562,37.109,32.715,38.086,36.133,-162.598
1532280130.566,29.785,28.320,38.574,51.270,250.000
1532280130.569,8.789,29.297,39.062,47.852,263.184
1532280130.573,-25.879,24.414,43.945,53.711,-140.137
1532280130.577,12.695,24.902,41.504,47.852,-247.559
1532280130.581,76.660,31.738,36.133,41.016,136.719
1532280130.585,67.871,32.715,32.227,36.621,318.848
1532280130.589,52.246,34.668,31.250,28.320,-9.277
1532280130.593,52.246,35.645,34.180,37.598,-243.164
1532280130.597,61.523,35.645,37.598,46.875,15.137
1532280130.601,39.062,31.738,36.621,54.688,321.289
1532280130.605,37.109,34.180,41.016,50.293,111.816
1532280130.609,60.059,35.645,45.410,41.504,-225.586
1532280130.612,40.527,31.250,38.574,42.969,-109.375
1532280130.616,35.645,33.203,31.738,36.133,242.188
1532280130.620,45.898,40.039,34.668,37.109,198.730
1532280130.624,11.230,35.645,39.062,43.945,-181.152
1532280130.628,8.301,26.367,35.645,48.828,-200.684
1532280130.632,51.270,29.785,31.250,40.527,193.359
1532280130.636,32.715,31.250,36.621,41.016,290.039
1532280130.640,22.461,20.996,42.969,54.688,-79.102
1532280130.644,56.152,22.949,36.133,49.316,-243.652
1532280130.648,59.082,28.809,32.715,53.711,104.980
1532280130.651,55.664,29.297,31.738,50.781,324.707
1532280130.655,61.035,28.320,32.715,36.133,4.883
1532280130.659,54.688,26.855,34.180,43.945,-250.000
1532280130.663,45.898,24.414,30.762,54.688,3.418
1532280130.667,43.945,22.461,32.227,54.688,301.758
1532280130.671,27.832,21.973,34.180,46.387,121.582
1532280130.675,26.367,22.461,31.738,40.527,-236.816
1532280130.679,27.832,18.555,32.715,44.922,-133.789
1532280130.683,34.668,20.508,35.156,50.781,267.578
1532280130.687,43.457,22.461,31.250,46.387,231.934
1532280130.691,47.363,19.531,30.273,48.340,-165.527
1532280130.694,60.059,17.578,33.203,52.734,-204.590
1532280130.698,48.340,18.066,32.715,50.293,183.105
1532280130.702,51.270,25.391,33.691,62.012,294.434
1532280130.706,49.316,28.320,35.645,61.035,-73.730
1532280130.710,25.391,16.113,32.715,50.293,-249.023
1532280130.714,48.828,15.137,29.785,54.199,72.754
1532280130.718,69.824,19.531,33.203,57.129,315.430
1532280130.722,32.227,16.113,31.250,57.617,41.016
1532280130.726,37.598,19.531,29.297,53.711,-281.250
1532280130.730,61.523,22.461,29.297,49.316,-53.711
1532280130.734,57.617,19.043,27.344,44.922,305.176
1532280130.737,50.781,15.137,30.762,45.410,156.250
1532280130.741,9.766,17.090,32.227,39.551,-202.637
1532280130.745,3.906,18.066,31.738,41.504,-131.348
1532280130.749,43.945,20.020,33.691,60.547,263.184
1532280130.753,56.641,26.855,31.250,40.039,221.680
1532280130.757,52.734,26.855,30.273,24.414,-148.926
1532280130.761,57.617,24.414,37.598,49.805,-182.617
1532280130.765,25.391,20.996,42.969,55.664,173.340
1532280130.769,9.766,19.043,41.992,62.012,324.219
1532280130.773,19.531,20.996,31.738,42.969,-44.434
1532280130.776,34.180,22.461,31.738,34.180,-261.719
1532280130.780,46.387,26.367,33.203,37.598,62.012
1532280130.784,47.852,28.320,32.715,35.156,324.707
1532280130.788,20.508,25.879,35.645,40.039,73.730
1532280130.792,19.531,25.391,31.250,32.715,-259.766
1532280130.796,32.715,26.855,29.785,35.645,-67.383
1532280130.800,48.340,25.879,36.133,45.410,309.570
1532280130.804,20.508,20.020,39.062,39.062,192.871
1532280130.808,-6.348,19.531,40.039,41.016,-177.734
1532280130.812,46.387,22.461,37.598,50.781,-166.504
1532280130.816,65.430,26.367,35.156,39.062,184.570
1532280130.819,31.738,29.785,34.180,29.785,250.488
1532280130.823,36.133,28.809,36.621,32.227,-105.469
1532280130.827,43.457,27.832,38.086,33.203,-209.473
1532280130.831,28.320,23.926,42.969,33.203,130.371
1532280130.835,33.691,23.926,44.434,33.691,317.383
1532280130.839,27.832,27.832,35.156,30.273,17.090
1532280130.843,16.602,33.691,28.809,33.203,-264.160
1532280130.847,36.133,31.250,32.715,42.969,25.879
1532280130.851,43.457,25.391,37.598,35.645,337.402
1532280130.855,41.992,29.297,42.969,33.691,80.566
1532280130.859,29.297,26.855,42.969,45.898,-254.395
1532280130.862,20.996,24.902,40.527,53.711,-80.566
1532280130.866,52.246,30.273,37.109,41.504,277.832
1532280130.870,43.945,27.832,36.621,31.738,219.238
1532280130.874,34.180,27.344,35.156,30.273,-157.715
1532280130.878,30.762,31.738,30.273,25.879,-187.500
1532280130.882,8.301,26.367,34.180,42.969,182.617
1532280130.886,56.152,21.973,39.062,54.688,271.973
1532280130.890,55.176,29.785,36.621,50.293,-76.660
1532280130.894,22.949,36.621,31.738,43.457,-250.488
1532280130.898,24.414,28.809,32.227,41.016,71.289
1532280130.901,12.207,22.949,35.156,46.875,319.336
1532280130.905,21.973,24.902,36.133,40.039,13.184
1532280130.909,42.969,28.809,25.879,23.926,-292.480
1532280130.913,24.902,27.832,28.320,38.574,-72.754
1532280130.917,21.973,26.367,36.133,50.293,279.297
1532280130.921,53.223,33.203,34.668,35.156,115.234
1532280130.925,17.578,33.203,35.156,34.180,-251.465
1532280130.929,7.324,27.832,38.086,44.922,-136.230
1532280130.933,59.082,26.855,41.016,52.246,223.633
1532280130.937,53.223,33.203,38.574,50.781,211.914
1532280130.941,46.875,30.762,39.062,44.922,-140.137
1532280130.944,31.250,28.809,36.133,35.645,-214.355
1532280130.948,11.230,27.832,34.180,30.273,135.742
1532280130.952,-0.977,25.879,42.480,35.156,262.207
1532280130.956,6.348,29.785,41.504,39.062,-65.430
1532280130.960,49.805,33.691,31.738,26.367,-260.254
1532280130.964,54.199,31.738,27.832,27.832,65.918
1532280130.968,43.945,32.715,29.297,41.016,328.613
1532280130.972,13.184,31.250,33.691,26.855,47.852
1532280130.976,2.930,28.320,38.574,25.879,-255.859
1532280130.980,24.902,30.762,42.969,47.363,-53.223
1532280130.983,43.457,34.180,39.551,53.223,278.320
1532280130.987,16.602,33.203,33.203,39.551,157.227
1532280130.991,17.090,27.832,35.156,29.297,-219.727
1532280130.995,48.340,32.227,36.621,43.945,-197.754
1532280130.999,14.648,33.203,36.133,56.641,220.215
1532280131.003,27.832,37.598,31.250,40.527,237.305
1532280131.007,14.160,41.992,29.297,15.625,-153.809
1532280131.011,1.465,36.133,30.762,15.625,-222.656
1532280131.015,24.414,34.668,29.785,18.066,138.184
1532280131.019,36.621,36.621,33.691,20.996,305.176
1532280131.023,53.223,42.480,39.551,24.414,-39.062
1532280131.026,26.855,45.410,46.875,30.273,-251.953
1532280131.030,20.508,46.387,50.293,42.480,42.480
1532280131.034,50.293,47.852,52.734,44.434,309.082
1532280131.038,53.223,51.758,60.547,50.781,94.727
1532280131.042,41.016,47.363,64.453,62.500,-231.934
1532280131.046,17.578,43.457,65.430,73.730,-78.613
1532280131.050,25.879,51.758,59.082,75.684,305.176
1532280131.054,29.297,60.547,59.570,60.059,192.383
1532280131.058,11.230,54.199,63.965,41.992,-194.824
1532280131.062,60.059,52.246,63.477,43.945,-149.902
1532280131.066,73.730,54.199,62.500,57.617,214.844
1532280131.069,41.504,52.734,63.965,69.336,259.277
1532280131.073,42.480,54.199,63.477,60.059,-105.957
1532280131.077,53.711,54.199,63.965,51.270,-231.934
1532280131.081,20.020,59.570,64.453,56.152,118.652
1532280131.085,7.324,59.082,62.012,55.176,314.453
1532280131.089,57.617,51.270,57.129,51.758,15.137
1532280131.093,63.477,49.316,52.734,44.434,-259.766
1532280131.097,37.109,47.363,57.617,60.059,24.414
1532280131.101,41.016,42.480,66.406,79.102,326.660
1532280131.105,60.059,44.922,64.453,65.918,88.379
1532280131.108,60.059,45.898,61.035,70.312,-238.770
1532280131.112,57.617,46.875,56.641,56.152,-125.488
1532280131.116,68.359,47.852,58.105,43.945,254.883
1532280131.120,63.477,42.969,63.965,62.012,215.332
1532280131.124,59.570,41.016,58.594,56.152,-173.828
1532280131.128,61.035,41.016,61.035,66.895,-159.180
1532280131.132,35.645,37.598,66.406,69.336,224.121
1532280131.136,42.969,39.062,62.012,53.223,293.457
1532280131.140,78.125,44.922,56.152,60.059,-66.406
1532280131.144,39.062,42.480,57.617,62.500,-237.793
1532280131.148,-5.859,42.480,58.105,54.688,84.961
1532280131.151,45.410,44.434,55.176,46.875,300.293
1532280131.155,56.152,44.922,58.594,48.340,24.902
1532280131.159,38.086,48.340,58.105,45.898,-228.516
1532280131.163,71.289,40.527,56.152,50.781,-22.949
1532280131.167,73.242,37.109,56.641,61.035,301.270
1532280131.171,38.086,37.109,56.152,61.035,125.000
1532280131.175,48.828,38.574,57.129,60.547,-266.113
1532280131.179,50.781,39.551,53.711,53.223,-131.836
1532280131.183,46.875,40.527,53.223,65.430,252.441
1532280131.187,32.715,38.086,57.617,72.754,203.613
1532280131.191,38.574,32.715,63.477,64.941,-167.480
1532280131.194,63.477,32.227,56.641,60.547,-201.660
1532280131.198,50.781,38.086,45.410,59.570,163.574
1532280131.202,57.129,43.457,49.316,63.965,293.945
1532280131.206,65.918,40.527,53.711,62.012,-38.574
1532280131.210,33.203,37.598,49.316,62.012,-239.746
1532280131.214,53.711,38.086,50.781,60.547,57.129
1532280131.218,44.434,39.062,53.711,54.199,303.223
1532280131.222,30.762,35.156,53.711,62.500,46.387
1532280131.226,73.730,39.062,54.199,71.289,-245.117
1532280131.230,87.891,41.992,49.316,63.477,-26.367
1532280131.233,74.219,40.527,46.387,55.664,283.203
1532280131.237,47.852,35.645,51.758,66.406,171.387
1532280131.241,31.738,29.785,53.223,70.801,-169.922
1532280131.245,25.879,31.250,44.434,59.570,-132.812
1532280131.249,41.992,35.156,41.992,62.012,229.004
1532280131.253,66.895,34.668,39.551,63.965,252.930
1532280131.257,83.984,34.180,42.480,59.570,-106.934
1532280131.261,48.340,34.668,50.781,52.734,-200.684
1532280131.265,28.320,32.227,50.781,62.988,145.996
1532280131.269,49.805,33.691,51.758,77.637,320.312
1532280131.273,83.496,38.574,47.852,62.500,-1.953
1532280131.276,87.402,40.527,45.410,56.152,-283.203
1532280131.280,76.660,38.086,46.387,66.895,3.418
1532280131.284,63.965,33.203,47.852,70.801,324.219
1532280131.288,26.855,37.109,45.898,67.871,81.055
1532280131.292,49.316,40.039,44.434,57.617,-245.605
1532280131.296,40.039,40.527,48.340,60.547,-54.688
1532280131.300,13.672,33.691,50.293,68.359,293.457
1532280131.304,47.852,28.809,49.805,62.012,179.199
1532280131.308,79.590,36.621,49.316,52.246,-190.918
1532280131.312,80.566,40.039,46.387,58.594,-198.730
1532280131.315,37.598,42.480,40.039,45.898,160.645
1532280131.319,49.805,44.434,46.875,41.504,241.699
1532280131.323,56.152,38.086,53.223,51.758,-99.121
1532280131.327,36.621,35.156,52.734,54.199,-235.352
1532280131.331,41.016,35.156,54.199,70.312,97.656
1532280131.335,53.711,33.691,52.734,77.637,273.926
1532280131.339,41.992,34.668,51.758,52.734,-6.836
1532280131.343,30.273,37.598,48.828,38.574,-244.629
1532280131.347,27.344,41.016,43.457,47.852,-28.809
1532280131.351,20.020,45.410,41.992,50.293,275.391
1532280131.355,41.992,42.480,51.758,51.270,72.266
1532280131.358,51.758,41.016,50.293,52.246,-226.074
1532280131.362,27.832,35.645,47.363,58.594,-66.406
1532280131.366,35.156,32.227,50.781,62.500,292.480
1532280131.370,47.363,34.668,47.852,59.570,254.395
1532280131.374,37.598,39.062,43.457,55.176,-152.832
1532280131.378,56.641,38.574,40.527,51.270,-187.988
1532280131.382,85.938,34.180,45.898,62.500,215.332
1532280131.386,45.410,34.180,48.340,65.918,297.852
1532280131.390,23.438,35.645,40.527,58.594,-68.359
1532280131.394,70.801,44.922,35.645,47.852,-252.930
1532280131.398,58.105,42.969,43.457,44.922,62.988
1532280131.401,55.664,37.109,43.457,61.035,299.805
1532280131.405,76.172,35.156,37.109,64.941,32.227
1532280131.409,72.754,30.273,41.016,62.988,-224.121
1532280131.413,49.316,32.715,40.527,58.594,13.184
1532280131.417,35.645,34.668,38.574,54.199,328.613
1532280131.421,33.203,39.062,36.621,51.758,152.344
1532280131.425,58.105,38.574,35.156,48.828,-242.676
1532280131.429,64.941,31.738,36.621,57.129,-138.672
1532280131.433,59.082,37.109,35.156,59.082,245.605
1532280131.437,56.152,37.598,38.574,58.105,223.145
1532280131.440,-1.953,36.621,39.551,47.363,-145.996
1532280131.444,8.789,37.109,38.086,37.109,-208.984
1532280131.448,27.344,38.086,34.668,46.387,174.805
1532280131.452,13.672,43.457,36.621,57.129,306.152
1532280131.456,64.941,38.086,41.504,45.410,-52.246
1532280131.460,63.477,32.715,37.598,47.852,-254.395
1532280131.464,63.965,35.156,34.180,62.012,61.035
1532280131.468,82.520,35.156,34.668,60.547,334.473
1532280131.472,26.855,29.785,37.598,42.480,81.055
1532280131.476,-9.766,27.344,40.527,36.621,-246.582
1532280131.480,15.137,24.414,42.969,58.594,-41.016
1532280131.483,-6.836,23.438,41.992,52.734,315.430
1532280131.487,3.418,33.691,39.062,32.715,165.039
1532280131.491,31.738,38.086,35.645,30.273,-212.402
1532280131.495,34.180,31.738,36.621,39.062,-180.664
1532280131.499,51.270,27.344,37.109,46.387,217.773
1532280131.503,38.574,29.297,37.109,43.457,253.418
1532280131.507,32.715,33.203,37.598,31.250,-104.492
1532280131.511,40.039,28.809,33.691,35.156,-198.242
1532280131.515,37.598,24.414,35.645,52.734,128.906
1532280131.519,52.734,29.297,34.180,44.922,298.340
1532280131.523,54.688,30.273,34.180,34.180,-27.344
1532280131.526,18.555,23.926,35.645,37.109,-242.676
1532280131.530,27.344,26.855,32.715,40.527,33.203
1532280131.534,0.977,26.855,34.180,47.363,326.172
1532280131.538,18.555,24.414,40.527,48.340,75.195
1532280131.542,65.430,30.273,36.133,41.016,-269.531
1532280131.546,59.082,27.344,34.180,41.504,-59.082
1532280131.550,88.379,29.785,31.738,34.180,308.105
1532280131.554,-8.301,29.785,27.344,35.156,182.129
1532280131.558,0.000,24.414,34.668,38.086,-231.934
1532280131.562,67.871,32.715,30.762,29.785,-182.129
1532280131.565,57.129,31.250,27.344,39.551,206.543
1532280131.569,79.102,27.832,32.227,35.645,267.090
1532280131.573,46.387,25.879,32.715,29.785,-90.820
1532280131.577,31.738,22.461,31.738,35.156,-239.746
1532280131.581,7.324,21.973,33.203,36.133,107.422
1532280131.585,21.484,20.996,41.504,42.480,296.387
1532280131.589,36.133,24.414,34.180,37.598,3.418
1532280131.593,13.672,26.367,26.367,28.809,-255.371
1532280131.597,28.809,14.648,35.156,46.387,-28.809
1532280131.601,37.598,7.812,36.621,55.176,291.016
1532280131.605,29.785,19.043,29.297,31.250,106.445
1532280131.608,60.547,26.367,27.344,33.203,-232.910
1532280131.612,38.086,31.738,26.855,43.945,-110.352
1532280131.616,32.227,25.391,23.438,39.062,239.258
1532280131.620,62.012,21.973,27.344,46.875,191.406
1532280131.624,34.668,26.855,27.832,47.363,-168.457
1532280131.628,64.941,27.832,18.555,46.387,-201.172
1532280131.632,64.941,24.414,19.043,54.199,146.484
1532280131.636,44.922,21.973,24.902,57.617,221.191
1532280131.640,68.359,20.996,27.344,53.223,-105.957
1532280131.644,58.105,21.973,23.438,50.781,-249.512
1532280131.648,69.824,21.973,22.461,60.547,76.660
1532280131.651,76.660,22.461,24.414,60.547,316.406
1532280131.655,48.828,22.461,23.926,59.570,30.273
1532280131.659,66.895,19.531,22.949,59.570,-257.324
1532280131.663,46.387,18.555,21.973,63.965,-25.391
1532280131.667,59.570,19.531,20.020,57.129,296.875
1532280131.671,50.781,20.996,21.973,48.828,126.953
1532280131.675,32.715,20.508,21.973,56.152,-246.094
1532280131.679,76.660,15.625,20.508,66.895,-147.461
1532280131.683,99.121,17.578,17.578,64.453,250.488
1532280131.687,75.195,21.973,16.602,55.664,254.395
1532280131.690,54.199,19.043,21.973,62.012,-139.648
1532280131.694,73.242,19.043,22.461,68.848,-235.352
1532280131.698,66.895,19.043,22.949,73.242,145.508
1532280131.702,57.129,19.043,22.461,76.660,287.598
1532280131.706,70.312,22.461,23.438,74.219,-56.152
1532280131.710,91.797,24.902,18.555,67.383,-263.672
1532280131.714,77.148,22.949,16.602,63.965,28.809
1532280131.718,50.781,22.949,20.508,70.312,296.875
1532280131.722,56.641,23.926,21.973,68.359,44.434
1532280131.726,60.059,24.414,19.531,60.547,-265.625
1532280131.730,56.641,23.926,17.090,72.266,-80.078
1532280131.733,51.270,27.832,18.555,68.359,252.441
1532280131.737,45.410,31.250,16.113,53.711,145.508
1532280131.741,54.199,31.250,20.996,58.105,-207.520
1532280131.745,52.734,33.203,22.949,62.012,-151.367
1532280131.749,63.477,36.621,16.602,63.477,224.609
1532280131.753,52.734,37.109,19.531,55.176,235.352
1532280131.757,41.504,41.504,19.043,49.316,-120.605
1532280131.761,57.617,41.992,16.113,53.223,-232.910
1532280131.765,56.641,40.039,16.113,50.781,120.117
1532280131.769,42.969,41.992,14.160,45.410,303.223
1532280131.772,58.594,43.457,19.043,50.293,-11.719
1532280131.776,63.477,44.922,24.414,53.711,-236.816
1532280131.780,48.340,42.480,23.438,54.199,29.785
1532280131.784,47.363,41.016,20.996,48.340,314.941
1532280131.788,45.410,40.527,21.973,45.410,125.488
1532280131.792,42.969,36.621,20.996,44.434,-211.914
1532280131.796,40.039,32.715,20.996,45.898,-91.797
1532280131.800,34.180,30.762,21.484,51.758,267.090
1532280131.804,35.645,27.832,18.555,47.363,199.219
1532280131.808,46.387,26.367,18.555,41.504,-168.457
1532280131.812,56.641,26.367,20.508,44.922,-188.965
1532280131.815,53.223,25.879,20.996,56.152,177.734
1532280131.819,46.875,26.367,20.020,59.082,266.113
1532280131.823,51.758,24.902,23.438,49.805,-87.891
1532280131.827,55.664,23.438,28.809,55.176,-236.816
1532280131.831,60.059,24.414,27.832,62.988,86.426
1532280131.835,52.246,27.344,23.926,52.734,285.645
1532280131.839,46.875,27.344,23.438,45.898,-2.930
1532280131.843,46.875,26.367,25.879,54.199,-274.414
1532280131.847,40.527,24.414,26.367,55.176,-12.695
1532280131.851,48.828,25.879,25.879,52.734,284.180
1532280131.855,46.387,26.855,26.367,48.828,87.402
1532280131.858,42.480,25.879,27.344,39.062,-226.074
1532280131.862,44.434,24.902,26.855,43.457,-107.422
1532280131.866,42.969,23.438,29.785,51.270,264.160
1532280131.870,45.410,25.391,33.203,56.641,238.770
1532280131.874,35.156,21.973,34.668,41.992,-159.668
1532280131.878,30.273,20.996,31.738,30.273,-211.426
1532280131.882,39.062,27.344,31.250,44.922,164.062
1532280131.886,50.781,29.297,30.762,53.223,290.527
1532280131.890,46.875,29.785,30.762,41.504,-62.012
1532280131.894,32.227,28.809,30.762,29.297,-247.070
1532280131.897,28.320,29.297,30.762,46.875,77.637
1532280131.901,29.785,32.715,34.668,44.434,320.312
1532280131.905,28.320,35.156,34.180,32.715,63.965
1532280131.909,33.691,37.109,29.297,39.062,-210.938
1532280131.913,32.715,35.645,30.762,35.156,-34.180
1532280131.917,18.066,32.227,35.156,32.715,246.582
1532280131.921,20.020,29.297,36.621,35.645,136.719
1532280131.925,20.020,29.785,40.527,28.320,-185.059
1532280131.929,16.602,28.809,39.062,29.785,-146.484
1532280131.933,24.414,24.902,40.039,39.551,230.469
1532280131.937,18.555,24.414,43.945,37.598,260.742
1532280131.940,19.043,23.438,42.969,35.645,-140.137
1532280131.944,24.902,23.438,41.992,42.480,-212.891
1532280131.948,27.344,27.832,41.504,42.969,176.758
1532280131.952,26.367,30.762,41.504,39.551,303.711
1532280131.956,19.043,29.785,43.457,41.992,-54.199
1532280131.960,24.902,27.344,44.922,38.574,-268.555
1532280131.964,27.344,28.809,42.480,37.109,35.645
1532280131.968,15.137,34.668,37.598,35.156,316.406
1532280131.972,9.766,36.621,37.109,23.438,58.594
1532280131.976,12.207,33.691,40.039,23.926,-264.648
1532280131.980,24.414,33.691,38.086,31.738,-85.449
1532280131.983,25.391,35.156,36.621,38.574,285.156
1532280131.987,23.926,30.762,40.527,45.410,187.988
1532280131.991,22.949,30.762,41.016,39.551,-203.125
1532280131.995,5.371,31.250,41.504,19.531,-187.500
1532280131.999,-4.395,29.297,39.551,25.879,212.402
1532280132.003,22.949,32.227,35.645,33.691,281.250
1532280132.007,31.738,35.645,34.180,22.949,-101.562
1532280132.011,22.949,34.180,33.691,27.344,-236.328
1532280132.015,23.926,28.320,38.574,31.250,110.352
1532280132.019,23.438,28.809,35.645,26.855,292.480
1532280132.022,31.738,32.715,34.668,28.809,-18.066
1532280132.026,29.785,31.738,39.062,39.062,-254.883
1532280132.030,14.648,28.320,40.039,39.551,-7.324
1532280132.034,32.715,26.855,40.527,32.715,296.387
1532280132.038,35.156,28.320,38.574,32.227,97.656
1532280132.042,25.879,29.297,37.109,41.016,-235.840
1532280132.046,31.738,28.809,37.598,42.969,-104.492
1532280132.050,28.320,31.738,36.133,46.387,262.695
1532280132.054,40.039,31.738,36.133,46.875,177.734
1532280132.058,39.551,31.738,36.133,35.156,-206.543
1532280132.062,20.508,29.785,36.621,34.668,-164.062
1532280132.065,31.250,27.344,34.180,44.922,211.914
1532280132.069,45.410,31.250,28.809,51.758,277.832
1532280132.073,45.410,32.715,33.691,49.316,-122.559
1532280132.077,39.551,33.203,37.598,50.781,-244.629
1532280132.081,26.855,28.809,38.086,53.223,128.906
1532280132.085,24.414,27.344,39.062,59.082,313.477
1532280132.089,23.438,29.297,35.645,52.246,-8.301
1532280132.093,37.598,32.715,29.297,42.969,-300.293
1532280132.097,61.035,31.738,29.785,59.082,-41.016
1532280132.101,59.082,30.273,32.227,66.895,309.082
1532280132.104,52.734,33.691,33.691,62.500,125.000
1532280132.108,61.035,29.785,34.668,68.848,-243.652
1532280132.112,54.688,29.785,31.738,64.941,-160.645
1532280132.116,48.828,29.785,32.715,58.105,217.285
1532280132.120,33.203,27.832,33.691,47.363,208.984
1532280132.124,37.598,30.762,32.227,43.457,-176.270
1532280132.128,54.199,35.645,28.320,48.828,-225.098
1532280132.132,50.293,36.621,25.391,59.570,158.203
1532280132.136,47.852,33.203,28.809,62.500,271.484
1532280132.140,46.875,30.762,32.227,53.711,-82.520
1532280132.144,51.270,32.227,32.227,56.152,-250.488
1532280132.147,48.828,31.250,31.738,66.895,55.664
1532280132.151,46.387,27.344,36.133,69.824,267.090
1532280132.155,43.457,29.297,36.133,55.664,11.230
1532280132.159,38.086,31.738,30.273,41.504,-262.207
1532280132.163,42.480,32.715,27.832,51.270,-63.477
1532280132.167,43.945,30.762,30.273,61.523,313.477
1532280132.171,30.762,28.320,33.691,59.570,165.039
1532280132.175,22.949,27.344,34.668,56.152,-241.211
1532280132.179,31.250,30.762,31.738,59.570,-167.480
1532280132.183,19.043,29.297,31.738,57.617,229.004
1532280132.187,28.809,27.344,33.691,54.688,249.512
1532280132.190,44.922,31.250,36.133,63.965,-144.043
1532280132.194,34.668,28.809,37.598,54.688,-265.625
1532280132.198,9.277,22.949,39.551,32.715,117.188
1532280132.202,-12.207,21.973,42.480,34.180,301.758
1532280132.206,14.160,30.273,34.180,59.082,-44.434
1532280132.210,42.480,33.691,27.344,73.730,-242.676
1532280132.214,44.922,28.809,31.250,80.078,52.734
1532280132.218,55.176,30.273,34.180,80.078,333.984
1532280132.222,46.387,30.762,34.180,64.941,114.258
1532280132.226,31.250,33.203,33.203,59.570,-236.328
1532280132.229,32.715,30.762,35.645,63.965,-58.594
1532280132.233,30.273,24.902,31.738,57.129,276.367
1532280132.237,37.109,25.391,27.832,57.617,187.500
1532280132.241,39.551,25.391,29.785,55.176,-180.664
1532280132.245,25.391,24.902,29.785,54.199,-153.809
1532280132.249,21.484,23.438,29.297,53.711,238.770
1532280132.253,30.762,25.879,30.273,44.922,240.234
1532280132.257,32.227,26.367,32.227,48.340,-139.160
1532280132.261,19.043,26.367,30.273,51.270,-248.535
1532280132.265,26.855,24.902,31.738,39.551,104.980
1532280132.269,49.805,23.926,36.133,57.617,289.551
1532280132.272,57.129,27.832,34.180,66.406,-74.219
1532280132.276,54.688,27.344,32.715,57.129,-298.340
1532280132.280,48.828,27.344,30.762,61.035,4.883
1532280132.284,39.551,27.832,30.762,62.988,292.969
1532280132.288,32.227,25.391,33.203,59.082,95.703
1532280132.292,31.738,23.438,28.320,44.922,-271.973
1532280132.296,23.438,21.973,27.832,39.551,-138.672
1532280132.300,-7.812,13.184,34.180,48.340,280.273
1532280132.304,-11.719,11.719,32.227,30.762,215.820
1532280132.308,17.090,16.602,32.715,14.648,-199.219
1532280132.312,25.391,20.996,33.691,41.504,-219.238
1532280132.315,34.668,23.926,32.715,67.871,218.262
1532280132.319,29.785,22.949,35.156,50.781,319.824
1532280132.323,20.996,24.902,31.738,33.691,-60.059
1532280132.327,40.039,24.414,32.227,55.664,-222.656
1532280132.331,44.922,21.484,35.645,70.312,86.914
1532280132.335,28.809,20.508,38.086,61.035,292.969
1532280132.339,45.410,25.879,36.133,50.781,10.742
1532280132.343,50.781,26.367,35.156,47.852,-233.398
1532280132.347,30.273,21.484,33.691,50.781,-7.324
1532280132.351,30.762,20.508,29.785,48.828,313.965
1532280132.354,44.922,18.555,35.645,57.129,144.531
1532280132.358,34.180,13.184,39.551,57.129,-209.961
1532280132.362,14.648,13.184,38.574,44.922,-121.094
1532280132.366,15.137,14.160,34.180,62.500,259.277
1532280132.370,29.785,7.812,37.109,80.078,221.191
1532280132.374,56.152,14.648,40.527,79.590,-164.551
1532280132.378,57.129,20.508,40.039,88.379,-190.918
1532280132.382,43.945,16.113,39.062,90.820,190.430
1532280132.386,37.598,17.090,35.156,75.684,331.055
1532280132.390,16.113,18.555,34.668,57.617,-15.137
1532280132.394,23.438,20.996,33.203,49.805,-238.281
1532280132.397,34.180,23.438,29.297,43.945,58.105
1532280132.401,23.438,21.973,33.203,41.016,341.309
1532280132.405,25.879,22.461,33.203,56.152,102.539
1532280132.409,24.902,16.113,35.645,66.895,-208.496
1532280132.413,16.602,13.184,35.645,72.266,11.719
1532280132.417,25.391,16.113,32.715,64.941,344.238
1532280132.421,38.086,22.461,32.715,61.523,193.359
1532280132.425,52.246,24.414,32.227,79.590,-168.945
1532280132.429,46.387,17.090,37.598,78.613,-138.184
1532280132.433,42.969,20.020,34.180,68.848,220.703
1532280132.437,50.293,22.461,31.738,76.660,241.211
1532280132.440,55.664,19.043,34.180,76.660,-127.441
1532280132.444,40.039,17.090,34.180,68.359,-199.707
1532280132.448,34.180,18.066,33.691,67.871,158.691
1532280132.452,38.574,18.555,34.180,63.965,301.758
1532280132.456,48.828,19.531,37.109,74.707,-25.879
1532280132.460,62.500,22.949,33.691,78.613,-233.398
1532280132.464,61.523,23.926,31.738,79.102,46.387
1532280132.468,60.059,23.926,35.156,85.449,301.758
1532280132.472,40.039,22.949,36.133,61.523,82.520
1532280132.476,37.109,26.855,35.156,60.059,-218.262
1532280132.479,46.875,28.809,33.691,76.660,-41.504
1532280132.483,31.738,24.902,29.297,48.340,317.383
1532280132.487,42.480,23.438,30.762,55.176,212.402
1532280132.491,48.340,21.973,34.668,58.105,-158.203
1532280132.495,38.086,23.438,32.227,40.527,-145.996
1532280132.499,31.250,18.066,34.668,68.359,214.355
1532280132.503,48.828,19.531,33.691,87.891,267.578
1532280132.507,69.824,27.344,32.227,83.496,-89.844
1532280132.511,61.035,23.438,31.738,68.359,-229.980
1532280132.515,61.035,22.949,28.320,62.500,143.066
1532280132.519,46.387,19.531,29.785,66.895,330.078
1532280132.522,42.480,17.578,36.621,64.453,-17.578
1532280132.526,51.270,20.996,36.621,69.336,-262.695
1532280132.530,65.430,20.996,29.785,78.125,2.441
1532280132.534,45.898,17.578,28.320,57.129,291.504
1532280132.538,24.902,20.020,29.297,45.898,84.961
1532280132.542,45.410,24.902,28.320,57.129,-243.164
1532280132.546,55.664,20.996,28.809,63.965,-95.703
1532280132.550,41.016,18.555,31.250,60.547,278.320
1532280132.554,29.785,23.438,26.855,46.875,208.008
1532280132.558,39.062,23.438,24.414,43.457,-188.477
1532280132.561,39.551,20.996,27.344,40.527,-188.477
1532280132.565,35.645,21.973,27.344,30.273,194.824
1532280132.569,43.457,28.809,27.344,47.852,272.949
1532280132.573,48.828,28.320,33.203,53.223,-84.961
1532280132.577,29.297,21.484,37.598,44.434,-268.066
1532280132.581,38.574,21.973,33.691,49.316,65.918
1532280132.585,49.805,26.855,29.297,59.570,319.824
1532280132.589,39.062,26.855,33.691,65.430,36.621
1532280132.593,52.734,26.367,32.227,60.059,-271.484
1532280132.597,52.734,24.902,28.320,55.664,-38.574
1532280132.601,44.434,23.926,31.250,60.059,296.387
1532280132.604,43.945,22.461,33.203,60.547,112.305
1532280132.608,53.711,18.555,30.762,64.453,-241.211
1532280132.612,65.430,17.090,30.273,62.988,-151.367
1532280132.616,51.270,16.602,28.809,53.223,223.633
1532280132.620,51.758,18.066,27.832,56.152,218.262
1532280132.624,44.434,22.461,28.320,43.457,-154.297
1532280132.628,37.598,17.578,30.762,46.875,-196.289
1532280132.632,51.758,11.230,30.273,64.941,162.598
1532280132.636,55.664,13.672,28.320,31.738,297.363
1532280132.640,49.805,12.695,32.715,34.668,-41.992
1532280132.644,42.480,12.695,37.109,73.730,-234.863
1532280132.647,37.598,10.742,33.203,66.895,110.840
1532280132.651,26.855,11.230,34.180,43.457,359.375
1532280132.655,34.180,16.113,34.180,47.363,82.520
1532280132.659,66.406,16.113,35.156,65.430,-202.637
1532280132.663,70.312,19.531,37.109,69.336,-29.297
1532280132.667,58.594,20.996,34.668,70.312,290.527
1532280132.671,57.617,23.926,35.156,65.430,169.434
1532280132.675,64.941,26.855,34.668,49.316,-224.121
1532280132.679,66.895,29.297,37.109,59.082,-158.691
1532280132.683,60.547,29.785,40.527,69.336,253.906
1532280132.686,57.129,28.320,42.969,70.801,268.555
1532280132.690,51.270,32.227,41.992,71.289,-137.695
1532280132.694,52.734,35.156,42.969,69.824,-219.238
1532280132.698,47.363,39.551,41.504,73.730,159.668
1532280132.702,46.875,40.527,40.527,73.242,314.453
1532280132.706,52.734,33.691,43.457,73.730,-2.930
1532280132.710,49.805,36.621,41.504,68.359,-240.723
1532280132.714,49.805,39.062,41.992,60.059,14.160
1532280132.718,59.082,39.551,42.969,66.406,310.059
1532280132.722,73.242,41.504,42.969,86.914,110.352
1532280132.726,70.312,44.922,41.016,80.078,-225.586
1532280132.729,58.594,44.922,43.457,71.289,-55.176
1532280132.733,58.105,44.434,46.875,70.801,292.969
1532280132.737,58.105,46.875,49.316,71.777,204.102
1532280132.741,59.082,45.410,51.270,59.082,-173.340
1532280132.745,57.617,42.969,48.340,55.664,-210.449
1532280132.749,51.758,41.992,50.781,70.801,176.758
1532280132.753,53.223,41.992,52.246,60.547,242.188
1532280132.757,51.270,42.969,51.270,46.387,-146.484
1532280132.761,47.363,43.945,48.828,41.992,-252.441
1532280132.765,45.410,44.922,42.969,44.434,116.699
1532280132.769,36.621,42.480,45.898,45.410,321.289
1532280132.772,30.273,41.992,54.199,39.551,-2.930
1532280132.776,35.156,42.969,52.246,39.551,-265.625
1532280132.780,39.551,45.410,47.852,52.734,-1.465
1532280132.784,40.039,49.805,46.875,52.734,308.105
1532280132.788,40.039,50.781,46.875,40.039,93.262
1532280132.792,36.133,50.293,47.363,34.180,-268.066
1532280132.796,34.668,48.340,45.410,45.410,-121.582
1532280132.800,45.898,45.898,43.457,47.363,278.320
1532280132.804,47.363,47.363,46.387,47.363,240.234
1532280132.808,41.016,50.781,49.316,51.270,-173.340
1532280132.811,49.316,53.711,44.434,50.781,-189.941
1532280132.815,55.176,52.734,43.457,52.246,192.871
1532280132.819,48.828,45.898,47.852,53.711,287.109
1532280132.823,54.199,44.434,46.875,59.082,-45.410
1532280132.827,56.641,43.945,43.945,61.523,-225.098
1532280132.831,49.316,45.410,40.039,55.176,93.750
1532280132.835,49.316,47.852,38.086,55.176,320.312
1532280132.839,48.340,44.922,39.551,57.129,20.020
1532280132.843,45.410,42.969,37.598,48.340,-276.855
1532280132.847,48.340,44.434,32.715,52.734,-41.992
1532280132.851,46.387,42.969,34.180,59.570,302.734
1532280132.854,38.574,39.551,39.551,45.410,94.238
1532280132.858,37.598,38.574,41.016,39.551,-261.230
1532280132.862,40.039,36.133,39.062,50.293,-117.188
1532280132.866,39.062,35.645,38.574,53.223,255.859
1532280132.870,44.434,39.551,40.039,52.246,219.727
1532280132.874,48.828,40.527,40.039,50.293,-185.059
1532280132.878,51.758,39.551,39.551,52.734,-230.957
1532280132.882,54.688,39.551,39.551,54.688,155.762
1532280132.886,52.246,37.598,38.086,59.082,309.082
1532280132.890,50.781,36.133,39.062,63.965,-34.668
1532280132.893,46.875,35.645,39.062,59.082,-271.973
1532280132.897,46.387,34.668,40.039,55.664,50.293
1532280132.901,45.898,35.645,38.574,56.641,335.449
1532280132.905,42.969,36.133,37.109,56.152,71.777
1532280132.909,38.574,34.668,35.645,53.223,-258.301
1532280132.913,36.133,32.227,33.691,46.875,-95.703
1532280132.917,37.109,32.715,34.668,47.852,260.254
1532280132.921,40.527,32.227,35.156,47.852,153.809
1532280132.925,37.109,31.250,34.180,41.016,-210.449
1532280132.929,29.785,29.297,33.203,36.133,-157.227
1532280132.933,27.344,26.855,34.668,40.527,207.031
1532280132.936,33.203,29.785,32.715,49.316,240.234
1532280132.940,36.133,33.203,30.762,43.945,-135.742
1532280132.944,35.156,32.227,29.785,35.645,-227.051
1532280132.948,36.621,30.273,27.832,32.715,142.578
1532280132.952,33.203,28.320,29.785,28.809,293.457
1532280132.956,36.621,29.297,32.227,30.762,-64.941
1532280132.960,46.387,29.785,29.785,45.410,-292.480
1532280132.964,42.480,27.344,25.879,51.270,2.930
1532280132.968,46.387,26.367,26.367,48.828,289.551
1532280132.972,41.016,26.855,26.367,38.574,65.918
1532280132.976,29.297,24.414,26.855,27.832,-248.535
1532280132.979,27.832,21.484,27.344,28.809,-89.844
1532280132.983,28.320,22.461,24.414,36.133,260.254
1532280132.987,30.273,22.461,22.949,36.621,203.613
1532280132.991,30.273,21.973,25.879,34.180,-201.660
1532280132.995,33.203,20.996,23.438,39.551,-222.656
1532280132.999,35.156,19.043,21.973,42.480,202.637
1532280133.003,25.879,19.043,24.414,33.203,286.133
1532280133.007,27.344,20.508,24.414,28.320,-77.148
1532280133.011,28.809,20.020,24.414,32.715,-211.914
1532280133.015,27.832,20.508,25.391,30.762,89.844
1532280133.018,40.527,21.484,28.320,36.621,296.875
1532280133.022,41.992,19.531,27.344,38.574,2.441
1532280133.026,33.691,18.555,24.414,34.668,-274.902
1532280133.030,32.227,18.066,24.414,47.363,-8.789
1532280133.034,23.926,16.602,23.438,47.852,302.734
1532280133.038,21.973,16.113,21.484,46.387,125.488
1532280133.042,33.203,18.066,22.461,58.594,-243.164
1532280133.046,37.109,18.555,24.902,67.383,-113.281
1532280133.050,31.250,17.090,22.949,63.477,318.848
1532280133.054,32.715,15.625,22.949,58.594,218.262
1532280133.058,40.527,13.672,26.367,61.035,-203.613
1532280133.061,36.133,14.160,21.973,56.152,-188.477
1532280133.065,29.297,14.160,22.949,54.199,204.102
1532280133.069,30.273,13.672,25.391,58.594,287.109
1532280133.073,34.180,13.672,21.973,52.734,-85.938
1532280133.077,30.762,11.230,23.926,48.340,-254.395
1532280133.081,34.180,11.719,24.414,47.363,55.176
1532280133.085,32.227,12.207,20.996,47.852,333.008
1532280133.089,30.273,12.695,21.973,46.875,78.613
1532280133.093,36.621,15.625,23.438,40.527,-265.137
1532280133.097,36.133,15.625,23.438,41.016,-41.016
1532280133.101,35.645,15.625,22.949,49.316,308.594
1532280133.104,22.461,19.531,24.414,37.109,130.859
1532280133.108,18.555,17.090,22.461,18.555,-204.102
1532280133.112,26.367,15.137,19.043,26.855,-106.934
1532280133.116,19.531,16.602,19.043,33.691,256.348
1532280133.120,22.461,16.602,19.531,32.715,242.676
1532280133.124,18.066,16.602,22.949,26.367,-139.160
1532280133.128,11.719,15.137,26.367,28.320,-182.129
1532280133.132,20.996,17.578,24.414,34.180,178.711
1532280133.136,26.855,19.531,20.996,35.156,296.387
1532280133.140,20.020,16.113,23.926,30.762,-39.062
1532280133.143,8.789,16.602,20.996,26.855,-275.879
1532280133.147,19.531,18.555,18.066,36.133,38.574
1532280133.151,32.715,15.137,20.996,31.250,303.711
1532280133.155,21.973,17.090,22.461,31.250,53.711
1532280133.159,16.602,19.043,22.949,44.434,-220.215
1532280133.163,18.066,15.137,20.996,49.316,-60.059
1532280133.167,27.344,14.160,19.043,41.504,289.062
1532280133.171,35.645,18.066,20.508,43.945,189.453
1532280133.175,27.832,19.043,23.926,42.480,-200.684
1532280133.179,30.762,19.531,24.414,35.156,-168.945
1532280133.183,36.133,19.531,23.926,40.039,217.773
1532280133.186,33.203,18.555,24.414,35.156,269.043
1532280133.190,30.273,21.484,24.414,31.738,-130.371
1532280133.194,27.832,19.531,23.438,31.738,-286.621
1532280133.198,24.902,15.625,22.949,25.879,76.172
1532280133.202,24.902,18.555,24.414,30.273,283.203
1532280133.206,18.066,20.020,21.973,22.949,-30.273
1532280133.210,19.043,18.555,18.066,22.461,-261.230
1532280133.214,24.414,19.531,19.043,33.691,20.020
1532280133.218,13.672,18.066,16.602,21.484,322.754
1532280133.222,19.531,15.137,18.555,15.137,116.699
1532280133.226,32.715,15.137,20.996,28.809,-229.980
1532280133.229,28.809,13.184,19.043,38.086,-78.125
1532280133.233,24.414,12.695,20.020,34.668,284.180
1532280133.237,29.297,16.113,20.020,38.574,194.336
1532280133.241,34.180,18.555,20.508,40.039,-156.738
1532280133.245,32.715,16.113,18.555,39.551,-159.180
1532280133.249,25.879,14.648,19.043,43.457,221.191
1532280133.253,17.090,15.625,20.508,40.527,292.969
1532280133.257,14.160,13.184,20.020,34.668,-85.938
1532280133.261,16.602,16.602,20.020,29.785,-227.539
1532280133.265,25.391,18.066,22.949,34.180,108.887
1532280133.268,27.344,16.602,25.391,42.969,303.223
1532280133.272,18.066,16.602,26.855,43.457,0.488
1532280133.276,18.066,16.602,27.344,37.109,-258.789
1532280133.280,23.438,19.043,24.902,37.598,12.695
1532280133.284,16.113,17.578,26.367,33.691,322.266
1532280133.288,10.742,17.578,28.809,29.785,130.371
1532280133.292,13.184,18.066,28.809,32.715,-232.910
1532280133.296,17.578,20.020,25.391,27.344,-142.578
1532280133.300,21.973,20.996,25.879,27.832,246.094
1532280133.304,19.531,22.949,26.367,30.762,216.309
1532280133.308,11.230,23.438,27.344,29.785,-140.137
1532280133.311,11.230,20.508,30.273,31.738,-200.195
1532280133.315,20.020,18.555,31.738,38.086,156.250
1532280133.319,27.344,20.020,30.273,41.504,277.344
1532280133.323,26.855,25.391,25.391,28.809,-72.754
1532280133.327,18.555,28.320,26.367,22.461,-236.816
1532280133.331,17.090,29.297,27.832,27.344,65.430
1532280133.335,16.602,31.738,27.344,20.020,275.879
1532280133.339,12.695,33.691,27.344,19.531,26.855
1532280133.343,8.301,32.227,28.809,16.113,-255.371
1532280133.347,10.254,28.320,30.273,17.578,-43.457
1532280133.350,6.836,26.367,29.297,29.297,284.668
1532280133.354,9.277,24.902,34.668,36.133,136.230
1532280133.358,19.043,21.973,38.574,39.551,-232.910
1532280133.362,14.160,25.879,28.809,28.809,-171.875
1532280133.366,6.348,30.273,23.926,25.391,234.375
1532280133.370,3.418,27.832,28.809,27.344,241.211
1532280133.374,8.301,25.879,29.785,15.137,-169.434
1532280133.378,10.742,24.902,28.320,20.508,-251.953
1532280133.382,10.254,22.461,29.297,40.039,147.949
1532280133.386,19.043,23.438,31.738,40.527,312.500
1532280133.390,15.625,22.949,32.227,37.109,-20.996
1532280133.393,15.137,20.020,34.668,37.598,-237.305
1532280133.397,22.461,18.066,36.621,40.527,43.945
1532280133.401,16.602,24.414,27.832,25.879,303.711
1532280133.405,26.367,30.762,21.484,18.555,78.613
1532280133.409,12.207,24.902,28.809,24.902,-237.305
1532280133.413,-7.812,20.996,31.250,15.137,-70.801
1532280133.417,13.184,22.461,26.367,17.578,276.855
1532280133.421,24.902,28.809,18.555,26.855,188.477
1532280133.425,19.043,27.832,20.996,29.785,-187.012
1532280133.429,9.766,21.484,24.414,16.113,-138.184
1532280133.433,14.160,21.484,19.531,-0.488,239.746
1532280133.436,20.508,26.855,18.555,18.066,235.840
1532280133.440,13.672,28.320,17.578,23.438,-131.836
1532280133.444,0.488,21.484,20.508,5.371,-201.660
1532280133.448,0.000,18.555,25.879,24.414,142.090
1532280133.452,13.184,22.461,22.461,29.297,292.969
1532280133.456,10.254,24.414,21.484,21.484,-15.137
1532280133.460,14.648,24.902,22.461,27.344,-226.074
1532280133.464,23.438,25.879,20.508,35.645,59.082
1532280133.468,12.695,24.414,20.508,19.043,353.516
1532280133.472,9.766,23.926,19.531,12.207,97.168
1532280133.475,6.348,23.438,19.531,19.531,-270.508
1532280133.479,13.184,20.020,20.020,22.461,-93.262
1532280133.483,16.602,22.461,14.648,16.602,303.223
1532280133.487,4.395,23.438,16.113,11.230,217.285
1532280133.491,5.859,20.996,20.996,25.391,-193.359
1532280133.495,16.113,24.902,19.043,28.320,-195.801
1532280133.499,19.531,27.832,16.602,19.531,211.426
1532280133.503,10.254,24.902,20.508,19.531,301.270
1532280133.507,6.348,28.320,22.461,25.879,-76.172
1532280133.511,15.625,35.156,20.020,29.297,-239.258
1532280133.515,22.461,39.062,18.066,32.715,62.500
1532280133.518,19.043,39.062,18.066,26.367,281.250
1532280133.522,9.277,39.551,17.090,16.113,27.832
1532280133.526,9.766,41.016,20.020,21.484,-228.516
1532280133.530,18.555,41.992,20.020,30.273,-11.230
1532280133.534,20.508,42.969,16.602,37.598,282.715
1532280133.538,13.672,41.504,22.949,31.738,142.090
1532280133.542,13.672,43.457,24.902,21.973,-209.961
1532280133.546,24.414,44.922,22.949,32.227,-139.160
1532280133.550,17.090,42.480,24.902,33.691,225.098
1532280133.554,11.230,41.504,24.414,28.320,185.547
1532280133.558,15.137,43.945,21.484,13.672,-176.270
1532280133.561,8.789,47.363,22.949,13.184,-198.730
1532280133.565,7.812,47.363,23.438,33.203,147.461
1532280133.569,13.184,47.363,19.043,39.062,292.480
1532280133.573,23.926,47.852,22.461,33.203,-50.293
1532280133.577,22.949,49.316,21.973,26.855,-270.508
1532280133.581,19.531,46.875,18.066,28.320,73.242
1532280133.585,21.484,44.434,18.555,36.133,348.633
1532280133.589,13.672,48.340,17.578,28.320,52.734
1532280133.593,15.137,51.270,13.672,18.066,-260.254
1532280133.597,23.926,50.293,15.137,32.715,-53.223
1532280133.600,17.578,44.922,22.461,44.922,303.223
1532280133.604,6.836,46.875,23.438,44.922,184.570
1532280133.608,23.438,48.828,22.949,43.457,-204.102
1532280133.612,30.273,45.898,20.996,30.273,-165.527
1532280133.616,23.438,49.805,15.625,32.227,215.332
1532280133.620,30.273,51.758,18.555,51.270,242.188
1532280133.624,22.949,51.758,20.020,33.203,-138.184
1532280133.628,21.973,52.734,19.043,36.621,-228.027
1532280133.632,13.184,51.758,18.066,48.828,131.836
1532280133.636,14.160,48.828,17.578,35.645,277.832
1532280133.640,31.250,48.828,17.090,42.480,-52.246
1532280133.643,28.320,52.246,16.113,43.457,-257.812
1532280133.647,24.414,52.734,15.625,33.691,42.480
1532280133.651,15.625,49.316,18.555,29.785,301.270
1532280133.655,20.020,48.828,19.531,31.250,47.363
1532280133.659,28.320,50.781,16.602,31.738,-240.234
1532280133.663,34.180,54.199,16.113,33.691,-55.176
1532280133.667,25.879,54.199,17.578,25.879,293.945
1532280133.671,13.184,55.664,10.742,10.254,183.105
1532280133.675,5.371,52.246,13.672,17.578,-209.961
1532280133.679,31.250,51.270,14.648,30.273,-179.199
1532280133.682,47.363,53.711,11.719,48.340,222.168
1532280133.686,26.855,52.246,17.090,51.270,291.016
1532280133.690,34.668,53.223,12.207,39.551,-76.172
1532280133.694,44.922,52.734,12.695,30.273,-235.840
1532280133.698,41.016,52.734,13.672,23.926,92.285
1532280133.702,34.668,52.246,12.207,30.762,313.965
1532280133.706,29.785,49.316,11.230,33.203,8.789
1532280133.710,32.227,49.805,12.207,27.344,-246.582
1532280133.714,36.621,48.828,10.742,29.785,0.000
1532280133.718,32.227,46.875,8.789,40.039,314.453
1532280133.722,21.484,47.363,13.672,36.621,137.207
1532280133.725,16.602,50.293,12.207,23.926,-216.309
1532280133.729,17.578,50.293,13.184,35.156,-102.539
1532280133.733,25.391,49.805,13.672,38.574,268.066
1532280133.737,27.832,48.828,13.672,35.645,206.055
1532280133.741,25.391,49.316,17.578,38.574,-166.504
1532280133.745,26.855,51.270,16.113,41.992,-198.730
1532280133.749,28.809,53.223,16.602,45.898,173.828
1532280133.753,25.391,56.641,15.625,34.668,269.531
1532280133.757,25.879,54.199,13.672,29.785,-120.605
1532280133.761,27.832,51.758,11.719,28.320,-242.188
1532280133.765,25.879,52.734,8.789,24.414,119.629
1532280133.768,36.621,50.781,14.648,29.297,318.848
1532280133.772,31.250,48.828,20.020,42.969,13.184
1532280133.776,29.785,50.781,15.137,40.039,-231.934
1532280133.780,30.273,50.293,13.672,24.414,35.645
1532280133.784,26.855,47.852,15.137,33.691,321.777
1532280133.788,21.484,49.805,9.766,37.109,138.672
1532280133.792,34.668,56.641,3.418,25.391,-232.422
1532280133.796,35.645,57.129,2.930,27.832,-135.254
1532280133.800,24.414,48.828,6.836,23.926,251.465
1532280133.804,9.766,43.457,8.789,11.719,233.398
1532280133.807,15.625,39.551,12.207,26.855,-121.094
1532280133.811,35.645,39.551,13.672,37.598,-173.340
1532280133.815,30.762,39.551,11.230,24.902,191.406
1532280133.819,21.973,38.574,10.742,13.672,315.430
1532280133.823,23.926,39.062,14.648,21.484,-54.688
1532280133.827,23.926,37.598,18.066,23.438,-253.906
1532280133.831,9.766,34.180,17.090,34.668,59.082
1532280133.835,14.648,29.297,16.113,31.250,317.383
1532280133.839,13.672,26.855,17.578,26.855,57.129
1532280133.843,24.414,32.715,19.531,44.434,-255.371
1532280133.847,30.273,32.227,17.578,42.480,-60.547
1532280133.850,17.578,25.391,18.066,34.180,291.992
1532280133.854,28.809,30.273,17.578,37.598,152.344
1532280133.858,31.250,26.855,22.949,45.898,-222.168
1532280133.862,32.227,24.902,27.344,47.363,-176.270
1532280133.866,36.133,27.832,22.949,51.758,222.168
1532280133.870,22.949,27.832,21.973,33.203,270.996
1532280133.874,3.906,31.250,20.020,20.020,-127.441
1532280133.878,7.812,30.762,17.090,24.414,-222.168
1532280133.882,23.438,29.785,20.996,30.273,142.578
1532280133.886,17.090,33.203,20.996,33.203,299.805
1532280133.890,23.438,32.715,24.414,40.527,-16.113
1532280133.893,27.832,33.203,25.391,38.574,-320.312
1532280133.897,23.926,34.668,22.461,34.180,-45.898
1532280133.901,18.555,35.156,21.973,37.109,306.152
1532280133.905,21.484,33.691,21.973,37.109,83.984
1532280133.909,30.762,34.668,20.996,38.574,-254.395
1532280133.913,24.414,35.645,21.484,43.457,-93.262
1532280133.917,35.645,32.227,20.020,44.922,267.090
1532280133.921,31.738,34.180,22.949,43.945,190.918
1532280133.925,11.719,35.645,24.414,35.645,-220.215
1532280133.929,23.926,32.715,21.973,23.926,-213.867
1532280133.932,29.785,34.668,18.066,24.902,176.270
1532280133.936,28.320,36.621,18.555,26.855,230.469
1532280133.940,37.598,34.180,22.461,38.574,-112.305
1532280133.944,31.738,33.203,17.090,33.691,-233.887
1532280133.948,21.484,32.715,16.602,31.738,112.305
1532280133.952,9.766,34.180,17.578,27.832,304.688
1532280133.956,7.324,35.156,16.113,21.484,4.883
1532280133.960,17.090,27.832,21.973,19.531,-272.949
1532280133.964,29.785,28.320,23.438,33.691,-22.461
1532280133.968,37.598,36.133,21.484,47.852,310.059
1532280133.972,33.203,33.691,20.508,36.133,99.121
1532280133.975,24.902,31.738,18.555,30.273,-263.184
1532280133.979,14.648,29.785,17.578,25.879,-136.719
1532280133.983,20.020,30.273,18.066,29.297,254.883
1532280133.987,30.273,32.227,21.973,43.457,213.867
1532280133.991,35.156,31.250,22.461,39.551,-173.340
1532280133.995,20.020,30.273,20.020,29.297,-205.078
1532280133.999,11.230,29.785,19.531,24.414,157.227
1532280134.003,24.414,31.250,19.531,25.879,268.555
1532280134.007,39.062,35.645,19.531,26.855,-68.359
1532280134.011,27.344,35.645,20.996,29.785,-241.699
1532280134.015,9.766,31.738,20.508,38.086,90.332
1532280134.018,13.672,33.203,17.578,34.180,337.891
1532280134.022,8.301,33.691,16.602,23.926,43.457
1532280134.026,1.465,34.180,20.020,18.066,-251.465
1532280134.030,12.207,34.668,23.438,33.203,-23.438
1532280134.034,14.648,34.668,24.414,33.203,281.738
1532280134.038,5.859,39.551,24.414,24.902,119.141
1532280134.042,15.137,42.969,20.508,26.367,-213.867
1532280134.046,18.555,43.945,18.555,23.438,-124.512
1532280134.050,20.996,43.945,19.043,29.297,272.949
1532280134.054,22.949,44.922,22.949,36.621,243.164
1532280134.057,23.926,47.852,25.879,18.066,-140.137
1532280134.061,26.367,43.457,20.996,17.090,-179.199
1532280134.065,18.555,41.992,17.578,37.598,162.109
1532280134.069,24.902,42.969,20.996,32.715,279.785
1532280134.073,25.391,42.969,20.996,29.785,-69.336
1532280134.077,17.578,43.945,19.043,21.484,-272.949
1532280134.081,20.996,42.480,17.578,24.414,45.898
1532280134.085,28.320,40.527,17.578,37.598,291.504
1532280134.089,17.090,38.574,18.555,28.809,74.707
1532280134.093,18.555,38.086,19.531,27.344,-227.539
1532280134.097,28.320,38.574,17.090,40.039,-76.660
1532280134.100,21.973,42.969,18.066,38.086,287.598
1532280134.104,32.227,42.480,19.043,35.156,181.152
1532280134.108,34.180,39.551,19.531,39.551,-191.406
1532280134.112,20.508,41.504,20.996,37.109,-138.672
1532280134.116,26.367,42.480,20.020,31.250,214.355
1532280134.120,30.273,41.504,20.020,27.344,229.004
1532280134.124,27.344,43.457,19.043,27.344,-136.230
1532280134.128,25.879,46.875,13.672,34.668,-207.031
1532280134.132,27.832,43.457,15.625,39.551,149.902
1532280134.136,27.344,41.016,18.555,41.016,301.270
1532280134.139,24.414,42.480,16.113,31.738,-32.227
1532280134.143,20.996,43.945,19.043,31.738,-270.508
1532280134.147,25.391,44.922,20.508,37.109,12.207
1532280134.151,28.320,45.410,19.043,38.086,307.129
1532280134.155,28.320,46.387,20.996,31.250,89.844
1532280134.159,26.367,46.387,22.949,29.297,-266.602
1532280134.163,23.926,48.340,24.902,36.621,-102.051
1532280134.167,30.762,49.805,24.902,41.504,270.996
1532280134.171,36.621,50.293,20.996,29.297,172.852
1532280134.175,25.391,49.805,24.902,23.926,-216.797
1532280134.179,27.344,45.898,30.273,36.133,-217.285
1532280134.182,34.180,46.387,28.809,41.504,187.500
1532280134.186,34.668,52.734,27.344,40.527,265.625
1532280134.190,31.738,56.641,24.902,37.109,-95.703
1532280134.194,29.785,55.664,26.855,19.043,-245.605
1532280134.198,34.668,52.734,33.203,37.598,90.820
1532280134.202,34.668,55.176,35.645,59.082,310.059
1532280134.206,39.551,58.594,34.180,48.828,-0.977
1532280134.210,37.598,59.570,34.180,41.016,-261.719
1532280134.214,28.809,56.641,34.668,34.668,-16.113
1532280134.218,27.832,55.664,38.086,40.039,277.832
1532280134.222,28.320,56.641,39.551,36.133,111.328
1532280134.225,28.320,51.270,38.086,38.574,-234.375
1532280134.229,36.133,55.176,36.133,43.945,-126.953
1532280134.233,38.574,63.477,32.715,37.109,260.742
1532280134.237,34.180,63.965,34.668,40.527,218.262
1532280134.241,26.367,60.547,36.621,34.180,-196.777
1532280134.245,25.391,60.059,34.668,23.926,-204.102
1532280134.249,26.855,58.594,36.621,43.457,208.984
1532280134.253,22.461,54.688,41.504,51.758,279.785
1532280134.257,27.344,54.688,42.969,42.480,-78.125
1532280134.261,31.250,56.152,39.551,40.039,-231.445
1532280134.264,32.227,59.570,34.180,43.457,76.172
1532280134.268,29.785,60.547,35.156,43.945,303.223
1532280134.272,25.879,58.594,37.109,37.109,23.438
1532280134.276,33.691,59.082,37.109,41.504,-250.488
1532280134.280,36.133,56.152,38.574,44.922,-21.484
1532280134.284,31.250,52.246,39.551,44.434,280.762
1532280134.288,31.250,52.734,39.062,49.805,139.160
1532280134.292,31.250,51.270,40.039,40.527,-234.375
1532280134.296,35.156,48.828,38.574,36.133,-173.828
1532280134.300,32.715,49.316,34.668,46.387,246.582
1532280134.304,31.250,50.781,35.645,50.293,246.094
1532280134.307,34.180,51.758,37.109,47.852,-152.832
1532280134.311,40.039,49.805,38.086,50.781,-223.633
1532280134.315,41.016,50.293,37.598,41.992,131.348
1532280134.319,40.039,49.805,35.645,41.504,275.391
1532280134.323,41.504,44.922,38.086,53.223,-55.664
1532280134.327,36.621,40.039,36.133,43.457,-269.043
1532280134.331,41.992,36.621,35.645,49.316,35.156
1532280134.335,43.457,34.668,37.598,55.664,304.688
1532280134.339,36.621,34.180,36.621,52.246,48.340
1532280134.343,38.086,33.203,38.086,57.617,-256.836
1532280134.347,42.969,31.250,35.156,47.363,-79.590
1532280134.350,43.457,29.785,35.156,51.758,261.230
1532280134.354,40.039,31.250,37.598,50.293,134.766
1532280134.358,41.016,32.715,34.180,41.504,-249.023
1532280134.362,41.504,31.250,32.715,54.199,-182.129
1532280134.366,36.133,31.250,34.180,48.828,222.168
1532280134.370,34.668,31.250,33.691,50.781,268.555
1532280134.374,37.598,31.250,32.715,50.781,-130.371
1532280134.378,41.504,32.715,31.738,34.668,-233.887
1532280134.382,40.527,30.273,30.762,38.574,152.832
1532280134.386,42.480,28.809,34.180,43.945,335.938
1532280134.389,45.410,31.250,35.156,38.574,10.254
1532280134.393,43.457,30.762,33.203,41.992,-262.695
1532280134.397,41.992,29.297,34.668,56.641,0.488
1532280134.401,41.016,28.320,36.133,62.012,324.219
1532280134.405,33.203,27.344,37.109,58.105,106.934
1532280134.409,29.297,26.855,38.086,58.105,-222.656
1532280134.413,31.250,25.391,36.621,57.617,-101.074
1532280134.417,29.785,24.414,36.133,53.711,251.953
1532280134.421,33.203,25.391,34.668,53.711,221.680
1532280134.425,33.691,27.344,36.133,48.828,-174.316
1532280134.429,28.809,29.785,35.645,43.945,-177.734
1532280134.432,31.738,28.320,32.715,42.480,205.566
1532280134.436,32.227,24.902,32.227,40.039,263.184
1532280134.440,32.715,24.902,33.203,40.527,-127.441
1532280134.444,34.180,25.391,33.203,40.527,-249.512
1532280134.448,35.156,22.949,31.250,41.992,145.020
1532280134.452,37.109,22.949,31.738,42.480,349.609
1532280134.456,39.062,25.391,31.738,38.574,8.789
1532280134.460,41.504,22.949,30.762,41.504,-249.023
1532280134.464,36.621,20.020,32.715,47.852,0.488
1532280134.468,29.297,20.996,30.273,46.387,333.496
1532280134.471,33.691,21.484,28.320,44.922,134.277
1532280134.475,40.039,22.949,29.297,43.945,-264.648
1532280134.479,39.062,23.438,28.809,46.387,-114.746
1532280134.483,38.574,23.926,27.344,48.828,269.531
1532280134.487,39.062,25.391,27.832,47.363,204.590
1532280134.491,42.969,24.414,30.762,48.340,-192.871
1532280134.495,40.039,25.879,27.832,48.340,-228.516
1532280134.499,47.363,27.832,25.391,50.293,184.570
1532280134.503,50.293,27.832,26.367,54.199,292.969
1532280134.507,36.133,27.344,27.344,49.805,-83.008
1532280134.511,37.598,28.809,26.367,44.434,-272.461
1532280134.514,50.781,30.762,26.855,54.199,36.621
1532280134.518,50.293,29.297,27.344,61.523,294.922
1532280134.522,34.668,29.785,28.320,47.363,59.570
1532280134.526,34.668,31.250,26.367,41.992,-251.465
1532280134.530,49.316,31.738,24.902,49.805,-38.574
1532280134.534,46.387,33.203,26.855,49.316,315.430
1532280134.538,39.551,35.156,25.391,44.434,153.320
1532280134.542,46.875,35.645,26.855,45.410,-211.914
1532280134.546,44.434,38.086,29.297,47.852,-140.625
1532280134.550,41.016,37.598,29.297,50.293,249.023
1532280134.554,40.527,35.645,32.715,41.504,253.418
1532280134.557,36.621,35.645,33.203,34.668,-151.855
1532280134.561,33.691,32.227,31.250,38.086,-233.887
1532280134.565,43.457,29.297,32.715,45.410,159.668
1532280134.569,44.922,29.297,32.227,48.828,309.570
1532280134.573,35.156,31.250,29.785,40.527,-54.199
1532280134.577,40.039,31.738,31.250,42.480,-286.621
1532280134.581,47.363,29.297,33.203,50.781,14.648
1532280134.585,39.062,28.320,32.227,42.969,298.828
1532280134.589,35.156,27.344,32.715,35.645,67.871
1532280134.593,41.016,28.320,35.156,37.109,-274.902
1532280134.596,37.598,29.297,36.133,35.645,-99.609
1532280134.600,34.668,30.273,35.645,41.504,295.410
1532280134.604,36.133,29.297,36.621,45.898,184.082
1532280134.608,42.969,29.785,36.133,49.805,-209.961
1532280134.612,48.828,33.691,33.691,57.617,-164.551
1532280134.616,39.062,35.645,33.203,51.758,248.047
1532280134.620,26.855,34.668,35.156,41.016,291.504
1532280134.624,25.391,33.691,37.598,37.598,-83.984
1532280134.628,27.344,33.203,38.574,38.574,-224.609
1532280134.632,20.996,35.156,35.156,23.926,106.445
1532280134.636,15.137,38.574,31.738,6.836,275.879
1532280134.639,15.625,37.598,30.762,17.578,-35.645
1532280134.643,17.578,37.598,32.227,28.320,-250.977
1532280134.647,19.043,37.598,30.762,32.227,26.855
1532280134.651,25.391,40.039,30.762,38.574,308.594
1532280134.655,20.996,43.457,31.250,38.086,92.773
1532280134.659,20.020,48.340,25.879,29.785,-236.816
1532280134.663,31.738,51.758,28.320,33.203,-79.590
1532280134.667,23.438,51.270,33.203,35.645,289.551
1532280134.671,9.277,47.852,32.715,32.227,220.215
1532280134.675,0.000,43.945,30.762,29.785,-150.391
1532280134.679,9.766,40.039,28.809,23.926,-179.688
1532280134.682,17.090,35.645,25.391,29.297,177.734
1532280134.686,12.207,31.738,25.879,31.250,271.973
1532280134.690,9.277,30.762,28.809,22.949,-69.824
1532280134.694,1.465,30.273,26.367,18.555,-246.582
1532280134.698,3.906,25.391,27.344,24.414,68.848
1532280134.702,8.789,25.879,28.320,27.344,302.734
1532280134.706,13.672,29.297,24.902,19.531,48.828
1532280134.710,14.160,31.738,19.043,17.090,-223.633
1532280134.714,15.625,33.203,20.508,28.809,-17.090
1532280134.718,13.184,33.203,25.391,27.832,324.219
1532280134.721,8.789,32.715,23.438,23.438,143.066
1532280134.725,9.277,34.668,21.973,28.809,-229.980
1532280134.729,13.672,36.133,20.020,23.926,-98.145
1532280134.733,14.648,35.645,17.578,24.902,251.953
1532280134.737,15.137,32.715,22.949,25.879,185.059
1532280134.741,7.324,31.738,25.391,18.066,-185.547
1532280134.745,11.230,33.203,23.438,23.926,-219.727
1532280134.749,16.602,31.250,24.414,28.809,160.156
1532280134.753,17.090,31.738,24.902,20.020,259.766
1532280134.757,18.555,33.691,28.809,17.090,-67.871
1532280134.761,17.578,34.180,28.809,20.996,-244.629
1532280134.764,12.695,36.133,25.879,28.320,76.660
1532280134.768,16.602,37.598,24.414,29.785,326.172
1532280134.772,16.602,36.133,23.438,19.043,7.812
1532280134.776,-0.488,39.062,22.949,10.254,-290.527
1532280134.780,8.789,39.062,20.996,22.461,-60.059
1532280134.784,18.066,36.133,20.020,25.879,280.273
1532280134.788,15.137,36.133,20.996,24.414,150.879
1532280134.792,17.578,37.109,24.414,23.438,-233.887
1532280134.796,25.879,39.551,26.855,31.250,-190.918
1532280134.800,14.648,40.527,25.391,32.227,220.703
1532280134.803,2.441,39.551,26.855,23.438,251.953
1532280134.807,7.812,40.039,29.785,33.203,-142.090
1532280134.811,5.859,39.551,27.344,29.297,-233.887
1532280134.815,12.207,40.527,23.438,25.391,125.000
1532280134.819,20.020,39.551,26.855,40.039,299.316
1532280134.823,21.973,42.969,24.902,37.598,-35.156
1532280134.827,27.344,46.387,23.438,37.598,-274.414
1532280134.831,24.902,44.434,26.855,39.551,16.602
1532280134.835,20.508,41.016,29.297,28.809,278.809
1532280134.839,12.695,42.969,27.832,21.973,59.082
1532280134.843,11.719,46.875,20.508,20.996,-246.582
1532280134.846,24.902,46.387,20.508,31.738,-83.984
1532280134.850,26.367,46.875,22.461,36.133,302.246
1532280134.854,21.973,49.805,19.043,23.438,221.680
1532280134.858,25.391,52.734,17.578,25.391,-176.270
1532280134.862,20.020,52.246,20.020,32.227,-153.809
1532280134.866,26.855,51.758,26.367,37.598,229.492
1532280134.870,36.621,50.293,23.926,40.527,258.789
1532280134.874,34.668,43.457,21.484,35.156,-123.535
1532280134.878,31.738,36.133,20.020,26.855,-249.023
1532280134.882,23.926,30.762,18.066,27.344,114.746
1532280134.886,31.250,28.320,20.508,47.363,308.594
1532280134.889,39.062,25.879,18.066,38.574,-4.395
1532280134.893,28.320,20.020,17.578,34.668,-279.297
1532280134.897,29.297,22.461,18.555,45.410,1.953
1532280134.901,37.109,23.438,18.066,43.457,341.797
1532280134.905,27.344,21.484,16.602,36.133,115.234
1532280134.909,29.297,20.508,19.043,41.016,-261.719
1532280134.913,43.945,19.531,19.043,46.387,-130.371
1532280134.917,30.762,21.973,18.066,27.344,262.695
1532280134.921,14.648,21.973,18.066,28.320,186.035
1532280134.925,23.926,25.391,15.137,44.434,-212.891
1532280134.928,49.805,23.438,20.996,55.176,-193.848
1532280134.932,41.016,22.949,21.973,49.316,182.617
1532280134.936,35.156,27.344,17.090,39.062,250.977
1532280134.940,34.668,26.855,17.090,34.180,-73.242
1532280134.944,33.203,23.438,19.043,36.133,-221.680
1532280134.948,37.598,25.391,15.625,46.387,107.910
1532280134.952,31.738,26.855,14.648,37.109,331.543
1532280134.956,29.297,24.414,18.555,30.762,21.484
1532280134.960,29.297,25.879,17.578,34.668,-251.465
1532280134.964,24.902,25.879,17.578,27.832,-4.883
1532280134.968,29.785,25.391,20.996,39.551,312.500
1532280134.971,37.598,24.414,23.438,49.316,140.137
1532280134.975,39.062,25.391,20.508,36.133,-236.816
1532280134.979,25.391,27.832,14.648,27.344,-128.418
1532280134.983,19.531,27.832,16.602,37.598,271.484
1532280134.987,36.133,24.902,20.020,45.410,253.906
1532280134.991,36.133,26.367,18.066,45.410,-146.973
1532280134.995,34.668,28.809,19.043,35.645,-212.402
1532280134.999,27.344,28.809,19.043,31.250,150.879
1532280135.003,18.066,24.902,21.973,54.199,266.602
1532280135.007,28.809,22.461,23.926,54.688,-64.941
1532280135.011,33.203,28.320,20.020,42.480,-257.812
1532280135.014,46.875,32.227,18.555,49.316,40.527
1532280135.018,40.039,32.715,19.531,45.898,262.695
1532280135.022,28.320,32.227,18.555,38.574,18.066
1532280135.026,40.527,34.668,18.555,34.180,-236.328
1532280135.030,28.809,32.715,17.090,36.133,-34.180
1532280135.034,31.250,28.809,18.066,54.199,308.594
1532280135.038,36.621,31.738,20.508,52.246,194.824
1532280135.042,24.902,29.785,21.484,32.715,-195.801
1532280135.046,31.250,31.738,17.090,27.344,-148.438
1532280135.050,24.414,34.180,17.578,34.180,256.836
1532280135.053,9.766,31.250,21.484,29.785,241.211
1532280135.057,26.367,32.227,21.484,20.508,-162.598
1532280135.061,38.574,33.691,20.508,30.762,-209.961
1532280135.065,37.598,33.691,20.020,35.156,174.805
1532280135.069,49.805,38.086,19.531,32.715,322.754
1532280135.073,49.316,38.574,16.602,30.762,-25.879
1532280135.077,46.387,38.574,14.648,32.227,-259.766
1532280135.081,48.828,38.086,13.672,28.320,49.805
1532280135.085,39.062,30.762,16.113,28.320,344.238
1532280135.089,33.691,26.367,18.555,43.457,101.074
1532280135.093,25.391,25.879,18.555,52.246,-220.215
1532280135.096,24.414,28.320,16.602,56.152,-48.828
1532280135.100,28.320,27.344,17.578,54.199,296.387
1532280135.104,27.344,26.367,22.461,55.176,182.617
1532280135.108,16.113,27.832,20.996,37.109,-188.477
1532280135.112,7.812,28.809,18.555,29.785,-170.410
1532280135.116,20.996,31.738,18.066,40.527,200.684
1532280135.120,28.809,31.250,18.555,41.992,289.062
1532280135.124,22.949,32.227,19.043,33.691,-83.008
1532280135.128,23.926,35.156,16.602,20.020,-225.098
1532280135.132,22.949,35.156,17.090,18.555,134.277
1532280135.136,12.695,32.715,23.926,24.414,327.148
1532280135.139,13.672,31.738,25.879,33.691,15.625
1532280135.143,14.648,33.691,21.484,36.621,-246.582
1532280135.147,17.090,34.180,20.020,41.016,-6.836
1532280135.151,21.973,34.668,21.484,41.992,289.551
1532280135.155,14.648,33.691,23.438,25.391,69.336
1532280135.159,20.508,31.250,23.926,26.855,-250.488
1532280135.163,26.855,30.273,23.926,37.109,-94.727
1532280135.167,23.438,31.250,21.484,41.992,270.508
1532280135.171,30.762,29.785,26.367,51.758,206.543
1532280135.175,46.387,31.250,26.855,46.387,-186.523
1532280135.178,43.945,36.133,23.438,47.852,-197.754
1532280135.182,35.156,34.668,23.926,51.758,189.941
1532280135.186,32.715,32.227,26.855,38.574,284.180
1532280135.190,23.926,34.180,27.344,36.133,-80.078
1532280135.194,19.531,36.621,26.367,22.949,-281.738
1532280135.198,18.555,34.180,28.320,19.531,43.945
1532280135.202,-1.953,32.715,31.250,31.250,326.660
1532280135.206,-1.465,32.227,31.738,32.715,58.594
1532280135.210,22.949,34.180,32.227,23.926,-246.582
1532280135.214,18.555,34.180,29.297,25.879,-24.902
1532280135.218,17.578,30.273,35.645,40.039,329.102
1532280135.221,17.578,35.645,41.504,34.180,167.480
1532280135.225,22.461,41.016,33.691,33.203,-228.516
1532280135.229,23.926,47.363,27.832,34.668,-158.691
1532280135.233,19.531,51.270,27.344,46.387,200.684
1532280135.237,14.648,45.898,33.691,54.199,197.754
1532280135.241,21.484,45.410,36.133,41.992,-168.945
1532280135.245,32.227,50.293,31.250,32.227,-263.672
1532280135.249,38.574,47.852,37.109,45.410,109.375
1532280135.253,31.738,43.457,40.039,52.246,241.699
1532280135.257,16.113,45.898,36.133,34.668,-116.699
1532280135.260,24.902,48.340,32.227,50.293,-283.691
1532280135.264,22.461,47.363,33.691,52.734,44.922
1532280135.268,20.508,52.246,29.785,40.039,281.738
1532280135.272,24.902,51.758,30.762,64.453,10.254
1532280135.276,6.836,50.293,34.668,69.336,-299.805
1532280135.280,23.926,54.688,29.297,60.059,-88.379
1532280135.284,41.992,57.617,24.902,41.016,242.676
1532280135.288,38.574,57.617,24.902,33.691,97.168
1532280135.292,48.340,52.734,31.250,52.246,-267.090
1532280135.296,41.504,51.758,28.809,66.406,-238.770
1532280135.300,44.922,53.223,23.438,68.848,148.926
1532280135.303,54.688,52.246,26.855,64.453,192.871
1532280135.307,47.852,52.246,29.297,54.199,-210.938
1532280135.311,60.547,56.641,29.785,71.777,-289.551
1532280135.315,54.199,53.711,33.203,95.703,90.820
1532280135.319,42.480,51.270,36.133,86.914,248.535
1532280135.323,51.758,51.758,35.156,79.102,-68.848
1532280135.327,55.176,39.062,37.109,87.402,-296.387
1532280135.331,49.805,28.320,39.551,83.984,-4.395
1532280135.335,48.828,23.438,37.109,78.125,284.668
1532280135.339,65.918,21.973,35.645,83.984,58.594
1532280135.343,59.082,22.949,34.180,76.172,-261.719
1532280135.346,44.434,20.996,33.691,74.219,-82.031
1532280135.350,46.875,21.973,33.203,83.496,275.879
1532280135.354,40.527,22.461,30.273,75.684,160.645
1532280135.358,34.180,20.020,32.715,66.895,-217.285
1532280135.362,39.551,19.531,36.621,66.895,-181.641
1532280135.366,36.621,20.508,34.668,61.035,207.031
1532280135.370,29.785,22.461,34.180,59.082,275.391
1532280135.374,32.227,27.832,32.715,54.688,-97.168
1532280135.378,25.879,26.855,32.227,40.527,-223.145
1532280135.382,24.414,25.391,34.180,49.805,125.488
1532280135.385,13.672,28.809,33.203,46.387,311.035
1532280135.389,-0.488,31.738,33.691,22.949,1.953
1532280135.393,0.977,34.668,32.227,23.926,-260.742
1532280135.397,13.672,30.273,34.668,48.340,-11.719
1532280135.401,32.715,32.227,37.109,64.941,342.285
1532280135.405,30.273,38.574,31.738,46.387,164.062
1532280135.409,8.789,36.621,28.809,39.062,-215.332
1532280135.413,8.789,31.250,28.809,44.922,-93.262
1532280135.417,23.926,30.762,28.809,37.109,312.988
1532280135.421,19.043,32.227,27.344,29.785,248.047
1532280135.425,16.602,29.297,27.344,31.250,-164.062
1532280135.428,13.184,26.367,31.250,31.738,-188.477
1532280135.432,10.742,25.391,32.227,32.715,176.758
1532280135.436,16.602,26.367,31.738,26.855,281.250
1532280135.440,7.812,28.320,33.691,24.902,-75.684
1532280135.444,4.395,27.832,31.738,34.180,-246.094
1532280135.448,12.207,27.344,27.832,37.109,82.520
1532280135.452,11.230,28.320,25.391,25.879,336.914
1532280135.456,20.996,29.297,25.391,24.902,54.199
1532280135.460,20.996,31.250,25.391,24.414,-247.559
1532280135.464,3.418,29.785,27.832,37.109,-18.066
1532280135.468,10.254,29.297,30.273,40.039,308.105
1532280135.471,22.461,34.180,30.762,25.391,160.156
1532280135.475,14.160,31.738,34.668,17.090,-220.703
1532280135.479,7.324,28.320,33.203,16.602,-140.137
1532280135.483,10.254,28.320,31.738,40.527,275.879
1532280135.487,-15.137,28.320,35.156,36.621,265.137
1532280135.491,-16.602,25.391,34.180,17.578,-134.277
1532280135.495,19.531,25.391,33.691,25.391,-192.383
1532280135.499,30.762,28.320,33.691,37.598,188.477
1532280135.503,11.719,23.926,32.227,41.016,330.566
1532280135.507,8.301,23.438,32.227,32.715,-23.926
1532280135.510,15.625,26.855,34.668,15.137,-247.070
1532280135.514,15.137,27.344,34.668,24.902,55.664
1532280135.518,21.484,29.297,32.227,41.504,310.059
1532280135.522,25.391,32.227,32.227,45.410,77.148
1532280135.526,25.391,32.715,34.668,54.688,-205.078
1532280135.530,15.625,30.762,34.668,44.922,-12.207
1532280135.534,14.648,28.809,34.180,37.598,297.363
1532280135.538,9.277,27.832,31.738,33.203,153.320
1532280135.542,17.578,31.250,32.715,35.645,-189.941
1532280135.546,28.320,30.762,34.668,43.945,-137.207
1532280135.550,22.461,29.297,31.250,42.480,246.094
1532280135.553,23.438,32.715,32.227,34.668,275.391
1532280135.557,21.973,34.180,34.180,25.391,-98.145
1532280135.561,20.996,33.203,33.691,27.832,-175.781
1532280135.565,22.949,33.203,31.738,38.086,171.875
1532280135.569,16.113,33.691,33.691,40.039,323.730
1532280135.573,27.344,36.133,36.621,42.969,3.906
1532280135.577,44.922,37.109,35.156,36.133,-220.703
1532280135.581,41.016,35.645,34.180,36.621,63.965
1532280135.585,30.762,36.621,35.645,41.992,357.910
1532280135.589,28.809,35.645,36.621,35.645,154.785
1532280135.592,36.133,32.227,36.133,32.715,-205.566
1532280135.596,30.273,31.250,36.621,31.738,-67.383
1532280135.600,33.691,30.762,37.109,35.156,302.246
1532280135.604,45.410,33.691,37.598,46.875,191.895
1532280135.608,37.598,35.156,37.109,45.410,-171.387
1532280135.612,36.133,34.668,36.133,39.062,-164.062
1532280135.616,36.621,36.621,35.645,45.898,177.246
1532280135.620,38.574,37.598,31.738,43.457,272.461
1532280135.624,46.387,37.598,33.691,32.715,-72.266
1532280135.628,36.133,35.645,39.062,41.504,-226.074
1532280135.632,30.762,36.133,37.598,51.758,91.797
1532280135.635,35.645,37.598,39.551,50.293,303.223
1532280135.639,33.203,38.574,39.062,42.969,22.949
1532280135.643,26.367,35.156,39.062,36.621,-244.629
1532280135.647,33.203,33.691,39.551,39.551,-6.348
1532280135.651,37.598,34.180,38.574,43.945,317.383
1532280135.655,31.738,34.668,39.551,38.086,127.930
1532280135.659,31.250,35.156,38.086,34.180,-242.676
1532280135.663,24.414,32.227,38.574,42.969,-129.883
1532280135.667,25.879,30.762,40.527,46.875,252.930
1532280135.671,36.133,35.156,38.574,40.527,230.957
1532280135.675,34.180,38.574,37.598,33.203,-188.477
1532280135.678,36.133,37.598,36.621,32.715,-225.586
1532280135.682,40.039,38.086,36.133,39.062,176.270
1532280135.686,34.668,36.621,35.645,43.945,296.387
1532280135.690,31.250,35.156,39.551,45.410,-45.410
1532280135.694,37.598,35.645,38.574,44.922,-262.695
1532280135.698,44.922,37.598,36.133,47.852,72.266
1532280135.702,40.039,37.598,38.086,52.246,324.707
1532280135.706,31.250,34.668,36.621,52.246,23.438
1532280135.710,28.320,33.203,35.156,49.805,-246.094
1532280135.714,27.832,34.180,33.691,43.457,-49.805
1532280135.717,28.320,34.668,31.738,33.203,251.953
1532280135.721,25.391,34.180,31.738,32.227,145.508
1532280135.725,24.414,32.715,31.250,32.715,-207.520
1532280135.729,25.391,31.250,29.297,37.598,-146.973
1532280135.733,29.297,30.273,30.762,41.504,247.070
1532280135.737,27.832,30.762,34.180,39.062,251.953
1532280135.741,16.113,30.762,36.133,41.504,-125.488
1532280135.745,19.043,30.273,36.621,43.457,-212.891
1532280135.749,30.273,30.762,35.156,46.875,138.184
1532280135.753,35.645,30.762,35.645,45.898,264.160
1532280135.757,35.645,30.273,36.621,42.480,-89.355
1532280135.760,43.945,32.227,35.156,47.363,-297.363
1532280135.764,36.133,32.227,32.227,40.527,3.418
1532280135.768,32.715,30.762,32.227,37.109,321.289
1532280135.772,42.969,32.227,31.250,38.086,75.684
1532280135.776,42.969,34.668,28.320,36.133,-289.062
1532280135.780,43.945,31.738,28.809,40.039,-87.402
1532280135.784,38.574,29.297,28.809,50.781,283.203
1532280135.788,33.203,30.762,30.273,55.664,185.059
1532280135.792,39.062,33.691,33.203,50.781,-206.055
1532280135.796,31.738,33.203,30.762,47.852,-176.758
1532280135.800,24.902,29.297,30.273,52.246,202.148
1532280135.803,31.738,27.832,33.203,52.734,241.699
1532280135.807,36.133,30.762,33.691,45.410,-110.352
1532280135.811,33.691,32.715,31.738,43.457,-233.398
1532280135.815,37.109,33.203,30.273,38.086,85.449
1532280135.819,38.574,35.645,28.320,33.203,259.277
1532280135.823,33.203,36.133,28.809,36.621,-22.949
1532280135.827,38.574,34.668,30.273,39.551,-258.789
1532280135.831,33.203,34.180,30.273,40.039,1.953
1532280135.835,31.738,33.691,30.762,43.457,320.801
1532280135.839,38.574,31.738,31.250,44.922,123.535
1532280135.842,37.109,32.715,34.668,44.434,-249.023
1532280135.846,33.203,33.691,36.621,48.340,-91.797
1532280135.850,30.762,30.273,33.691,52.246,286.621
1532280135.854,33.203,32.715,32.715,41.504,183.105
1532280135.858,36.133,37.109,30.762,33.691,-185.059
1532280135.862,35.156,35.156,31.738,40.039,-178.223
1532280135.866,36.133,34.180,32.715,43.457,209.473
1532280135.870,35.645,33.691,33.691,41.992,278.320
1532280135.874,36.133,32.227,39.551,41.504,-85.938
1532280135.878,34.668,32.227,40.527,41.992,-201.660
1532280135.882,32.227,29.785,39.062,44.434,100.586
1532280135.885,36.133,27.832,40.527,39.551,301.758
1532280135.889,32.227,29.297,40.039,34.668,39.551
1532280135.893,32.715,30.273,37.598,32.715,-258.789
1532280135.897,37.109,31.738,35.156,34.668,-17.090
1532280135.901,33.203,30.762,36.133,40.039,350.098
1532280135.905,30.273,31.738,37.109,32.227,177.734
1532280135.909,31.738,32.227,33.691,23.438,-198.730
1532280135.913,36.621,29.297,35.645,30.273,-146.973
1532280135.917,32.227,26.855,37.109,34.668,238.770
1532280135.921,25.391,26.855,35.156,31.738,252.930
1532280135.925,31.738,27.832,31.250,27.832,-140.625
1532280135.928,36.133,29.297,30.762,32.227,-178.223
1532280135.932,26.855,29.297,33.203,34.180,186.035
1532280135.936,28.320,30.762,32.227,30.273,290.527
1532280135.940,33.203,32.715,32.715,23.438,-41.504
1532280135.944,35.645,35.645,29.297,20.996,-228.027
1532280135.948,36.621,35.156,28.320,37.598,86.914
1532280135.952,36.133,36.133,27.832,39.062,304.688
1532280135.956,43.945,37.598,29.785,25.391,38.574
1532280135.960,36.621,34.668,30.273,26.855,-217.773
1532280135.964,28.809,34.180,27.832,33.203,-18.555
1532280135.967,34.668,37.109,26.855,33.691,322.266
1532280135.971,42.969,42.969,26.855,30.762,163.086
1532280135.975,40.527,44.434,27.344,24.414,-224.121
1532280135.979,35.156,41.016,26.367,25.391,-155.762
1532280135.983,34.180,39.551,27.344,29.297,216.309
1532280135.987,31.250,38.086,29.297,27.832,234.375
1532280135.991,38.086,37.598,31.250,26.367,-134.766
1532280135.995,37.598,39.062,29.785,24.414,-259.277
1532280135.999,31.250,40.527,26.367,25.391,103.516
1532280136.003,38.086,42.480,26.367,32.715,293.457
1532280136.007,39.551,41.504,27.832,34.668,-26.367
1532280136.010,40.039,37.598,27.832,33.691,-261.719
1532280136.014,41.504,36.133,25.391,36.133,26.367
1532280136.018,35.645,35.156,24.414,33.691,319.824
1532280136.022,34.668,33.691,26.367,27.832,60.547
1532280136.026,37.109,34.180,24.902,30.273,-249.023
1532280136.030,33.691,36.621,22.949,34.668,-83.984
1532280136.034,36.133,37.598,24.414,33.203,256.836
1532280136.038,35.156,36.621,27.344,30.273,160.645
1532280136.042,35.156,34.668,27.344,35.645,-212.891
1532280136.046,39.062,31.250,29.785,43.945,-166.016
1532280136.049,35.156,31.250,32.715,47.852,202.148
1532280136.053,35.156,34.180,29.785,36.621,244.141
1532280136.057,42.969,37.109,27.344,27.832,-113.770
1532280136.061,41.504,34.668,27.832,38.574,-231.445
1532280136.065,36.621,29.785,29.785,42.969,118.652
1532280136.069,36.133,30.762,32.227,39.062,315.918
1532280136.073,36.621,33.203,32.227,39.551,-9.277
1532280136.077,39.062,33.203,30.762,35.645,-282.715
1532280136.081,35.645,32.227,26.855,39.062,-7.324
1532280136.085,33.203,30.762,26.855,41.504,309.082
1532280136.089,34.668,30.273,26.855,37.598,110.352
1532280136.092,32.715,31.250,26.367,34.668,-246.582
1532280136.096,30.273,32.227,28.320,33.203,-112.305
1532280136.100,29.785,30.762,27.832,39.062,275.879
1532280136.104,28.809,28.320,28.320,38.574,195.312
1532280136.108,27.344,28.320,29.297,34.180,-177.734
1532280136.112,27.344,29.297,29.297,30.273,-193.848
1532280136.116,23.926,29.785,26.855,28.320,181.152
1532280136.120,20.508,30.273,24.414,25.391,278.809
1532280136.124,23.438,30.762,24.414,25.879,-80.566
1532280136.128,27.344,34.180,22.461,31.250,-235.352
1532280136.132,30.762,36.133,24.414,31.738,70.801
1532280136.135,25.879,34.180,25.879,24.414,295.410
1532280136.139,26.367,33.203,24.414,25.879,24.414
1532280136.143,32.715,32.227,25.391,32.715,-256.836
1532280136.147,31.250,31.738,25.879,31.738,0.977
1532280136.151,31.250,29.297,26.367,29.785,334.473
1532280136.155,27.832,28.809,25.879,27.344,135.254
1532280136.159,27.344,30.273,23.926,22.461,-222.168
1532280136.163,29.297,29.297,22.461,27.832,-120.117
1532280136.167,27.344,30.273,22.461,34.180,272.461
1532280136.171,26.367,29.297,23.926,35.156,223.145
1532280136.174,31.250,31.250,24.902,30.762,-198.242
1532280136.178,36.133,34.668,25.879,30.762,-241.699
1532280136.182,37.109,35.645,27.832,42.480,165.039
1532280136.186,30.762,37.598,28.320,38.574,313.477
1532280136.190,28.320,39.062,26.367,31.738,-40.039
1532280136.194,33.203,37.109,27.344,34.668,-263.184
1532280136.198,34.180,33.691,28.809,39.551,49.805
1532280136.202,28.809,29.785,28.320,39.551,333.008
1532280136.206,25.879,29.785,31.250,34.668,63.965
1532280136.210,32.227,27.832,28.809,33.203,-259.766
1532280136.214,39.062,29.297,25.879,40.527,-65.430
1532280136.217,33.691,31.738,27.344,41.992,282.715
1532280136.221,30.762,32.227,25.391,36.621,136.719
1532280136.225,38.086,32.715,23.926,32.227,-225.586
1532280136.229,34.180,32.715,26.855,29.297,-160.156
1532280136.233,27.832,33.691,28.320,29.297,195.801
1532280136.237,23.926,32.715,27.832,26.855,187.500
1532280136.241,22.461,33.203,27.344,25.879,-167.969
1532280136.245,22.949,34.668,26.855,29.785,-242.676
1532280136.249,21.484,32.227,26.855,27.832,131.348
1532280136.253,26.855,34.668,27.832,25.879,319.824
1532280136.257,33.691,38.574,25.879,27.832,-15.625
1532280136.260,37.109,37.598,25.879,29.785,-235.352
1532280136.264,33.203,36.133,27.344,32.227,48.340
1532280136.268,28.809,37.109,28.320,31.738,314.941
1532280136.272,29.785,37.598,29.297,26.367,54.199
1532280136.276,27.832,38.086,31.250,22.949,-273.926
1532280136.280,27.832,39.062,30.273,32.227,-83.984
1532280136.284,23.926,34.180,29.785,35.156,270.508
1532280136.288,20.020,33.691,32.227,32.715,193.359
1532280136.292,28.809,37.109,32.715,35.645,-200.684
1532280136.296,34.180,35.156,30.273,36.621,-191.406
1532280136.299,25.879,38.086,27.832,34.180,225.098
1532280136.303,25.879,40.527,26.855,35.645,272.949
1532280136.307,32.227,38.574,27.344,37.109,-98.633
1532280136.311,33.203,37.598,30.273,37.598,-231.934
1532280136.315,34.180,37.109,31.250,41.992,99.609
1532280136.319,35.156,37.109,33.691,44.922,312.988
1532280136.323,36.133,39.551,32.227,40.527,11.230
1532280136.327,37.109,39.551,27.832,33.203,-252.441
1532280136.331,32.715,39.062,28.320,35.156,1.953
1532280136.335,34.668,38.086,27.344,40.527,289.551
1532280136.339,37.109,36.133,25.879,42.480,98.633
1532280136.342,34.668,36.621,26.367,44.434,-239.746
1532280136.346,40.527,34.180,26.855,46.387,-103.027
1532280136.350,35.156,30.762,28.320,44.434,274.414
1532280136.354,21.973,30.273,29.785,38.086,209.961
1532280136.358,26.367,34.180,29.297,39.062,-166.504
1532280136.362,36.621,37.109,27.344,42.480,-215.332
1532280136.366,39.062,34.180,25.879,41.992,177.734
1532280136.370,39.551,31.738,26.367,41.016,296.875
1532280136.374,36.621,34.668,27.344,35.156,-72.266
1532280136.378,36.621,36.133,28.809,38.086,-238.281
1532280136.381,45.898,34.180,28.809,49.805,116.699
1532280136.385,43.945,30.273,31.738,49.805,344.727
1532280136.389,35.645,31.250,34.180,44.434,48.340
1532280136.393,35.645,34.668,32.227,42.969,-256.348
1532280136.397,36.133,33.203,30.273,48.340,-38.574
1532280136.401,36.621,33.203,29.785,52.246,321.289
1532280136.405,37.598,33.203,32.715,50.293,161.621
1532280136.409,37.109,33.203,33.691,41.992,-213.379
1532280136.413,38.574,33.203,31.738,35.645,-125.488
1532280136.417,35.645,33.203,30.273,32.227,230.957
1532280136.421,28.320,34.668,28.809,33.691,229.980
1532280136.424,26.855,35.645,31.738,32.227,-121.582
1532280136.428,30.273,33.203,34.180,30.273,-200.684
1532280136.432,34.180,31.738,32.227,28.809,152.344
1532280136.436,26.855,31.738,32.227,22.461,314.941
1532280136.440,25.391,34.180,32.715,18.555,-13.672
1532280136.444,41.016,36.621,29.297,20.996,-236.328
1532280136.448,45.410,38.574,25.879,20.508,39.551
1532280136.452,40.527,41.504,26.367,20.020,273.926
1532280136.456,42.480,41.016,27.832,21.973,20.996
1532280136.460,49.316,40.039,30.273,27.832,-273.926
1532280136.464,47.363,40.039,32.227,36.133,-75.195
1532280136.467,36.621,39.551,29.785,43.457,279.785
1532280136.471,33.691,37.598,30.273,46.875,144.043
1532280136.475,37.109,37.598,33.203,41.992,-265.625
1532280136.479,36.621,37.109,33.691,45.410,-217.285
1532280136.483,31.250,36.133,29.297,50.293,190.430
1532280136.487,31.738,36.133,29.785,41.016,249.023
1532280136.491,27.832,32.715,34.180,35.156,-100.586
1532280136.495,27.832,29.785,34.180,35.156,-216.309
1532280136.499,32.227,30.273,30.762,35.156,117.676
1532280136.503,32.715,31.250,30.273,35.645,298.828
1532280136.506,30.762,29.297,30.762,32.715,3.418
1532280136.510,35.156,29.297,30.273,31.738,-250.000
1532280136.514,38.574,27.832,31.250,37.598,-14.648
1532280136.518,36.133,26.855,32.715,43.457,287.598
1532280136.522,34.668,28.809,35.156,43.945,75.195
1532280136.526,37.109,28.809,34.668,42.969,-256.348
1532280136.530,44.434,25.879,32.715,48.340,-92.285
1532280136.534,41.504,26.367,32.227,44.922,272.949
1532280136.538,32.715,28.809,31.250,34.180,210.938
1532280136.542,32.227,27.344,29.297,30.273,-173.340
1532280136.546,34.180,25.391,28.809,29.785,-158.203
1532280136.549,28.809,24.902,31.738,34.180,229.980
1532280136.553,23.926,25.391,34.180,27.832,291.992
1532280136.557,24.414,24.902,31.738,20.020,-74.707
1532280136.561,21.973,22.949,33.203,28.320,-244.629
1532280136.565,21.484,23.438,31.738,34.180,88.867
1532280136.569,19.531,24.902,29.297,33.691,320.312
1532280136.573,24.902,25.391,32.715,36.133,21.973
1532280136.577,33.203,27.832,29.785,44.922,-253.418
1532280136.581,41.992,27.832,25.879,50.293,-15.137
1532280136.585,41.504,28.320,26.855,47.852,283.203
1532280136.589,35.156,30.273,27.832,47.363,100.098
1532280136.592,39.062,28.809,30.273,48.340,-260.254
1532280136.596,39.062,28.809,32.715,45.898,-139.648
1532280136.600,37.598,29.297,29.785,44.922,266.602
1532280136.604,37.598,30.273,28.809,39.062,236.816
1532280136.608,37.598,34.668,31.250,31.250,-157.227
1532280136.612,33.203,39.551,31.738,27.344,-208.008
1532280136.616,25.391,41.016,31.250,23.438,153.809
1532280136.620,23.926,36.133,30.762,21.973,288.574
1532280136.624,27.832,30.273,30.762,26.855,-59.082
1532280136.628,33.203,30.273,29.297,31.738,-241.699
1532280136.631,41.016,30.762,28.809,33.203,61.523
1532280136.635,36.133,30.273,28.320,32.227,312.988
1532280136.639,27.832,29.297,28.809,28.320,40.039
1532280136.643,33.203,28.320,29.785,30.762,-283.691
1532280136.647,28.320,25.879,29.785,30.273,-53.711
1532280136.651,21.484,23.926,29.785,26.855,287.598
1532280136.655,29.297,23.926,29.785,24.902,105.957
1532280136.659,31.738,23.926,26.855,22.949,-263.672
1532280136.663,35.645,24.414,23.438,27.344,-154.785
1532280136.667,37.598,24.902,22.949,25.879,225.098
1532280136.671,31.738,24.902,25.391,22.461,241.211
1532280136.674,29.297,26.855,23.438,20.508,-133.789
1532280136.678,33.203,27.832,21.973,23.926,-204.590
1532280136.682,34.180,28.320,22.461,28.809,163.574
1532280136.686,31.738,29.297,20.508,22.949,309.082
1532280136.690,31.250,27.832,23.438,25.391,-29.785
1532280136.694,28.809,28.320,24.414,24.414,-260.742
1532280136.698,24.902,25.879,22.461,20.508,6.348
1532280136.702,19.531,22.949,23.926,19.531,302.734
1532280136.706,16.602,23.926,24.414,13.672,85.449
1532280136.710,18.555,22.949,22.949,16.113,-219.727
1532280136.714,15.625,20.996,20.996,15.625,-49.805
1532280136.717,14.648,21.973,21.484,17.090,280.762
1532280136.721,16.602,21.973,23.438,16.602,176.270
1532280136.725,17.090,19.531,23.926,14.648,-194.336
1532280136.729,21.484,20.020,21.973,14.160,-149.902
1532280136.733,19.043,21.973,20.508,17.578,221.680
1532280136.737,16.602,22.461,23.926,23.438,278.320
1532280136.741,17.578,21.484,23.926,23.438,-90.332
1532280136.745,11.719,22.949,23.438,21.973,-239.258
1532280136.749,10.742,24.414,22.461,22.949,128.418
1532280136.753,17.090,27.832,21.484,22.461,306.152
1532280136.756,20.996,29.297,24.414,20.996,-22.949
1532280136.760,21.973,28.809,23.926,24.414,-235.840
1532280136.764,18.555,27.344,24.414,27.832,22.461
1532280136.768,17.090,28.809,23.438,31.250,299.316
1532280136.772,23.926,29.297,18.555,25.879,96.680
1532280136.776,27.832,25.391,23.438,25.391,-228.027
1532280136.780,26.367,24.902,25.391,35.645,-67.383
1532280136.784,30.762,24.414,25.391,40.039,282.227
1532280136.788,33.203,23.926,27.344,37.598,212.891
1532280136.792,24.414,21.973,26.367,30.273,-182.129
1532280136.796,17.090,21.973,27.344,24.902,-222.656
1532280136.799,21.484,23.926,24.902,29.785,172.852
1532280136.803,27.344,25.391,24.902,36.621,282.227
1532280136.807,25.391,26.367,23.438,35.645,-92.285
1532280136.811,28.809,29.297,21.484,34.180,-253.418
1532280136.815,35.156,31.250,22.949,41.016,88.379
1532280136.819,35.156,28.809,23.438,43.945,289.551
1532280136.823,33.203,26.855,23.926,39.062,22.949
1532280136.827,35.156,25.391,23.926,38.574,-231.934
1532280136.831,37.598,26.367,21.484,42.969,3.418
1532280136.835,37.598,29.297,21.484,39.551,291.016
1532280136.838,33.203,28.809,23.926,35.156,94.727
1532280136.842,31.738,29.297,23.438,33.203,-225.586
1532280136.846,34.668,28.320,22.461,35.645,-123.535
1532280136.850,34.668,29.297,21.484,36.621,250.488
1532280136.854,33.203,31.738,21.484,31.738,222.168
1532280136.858,31.738,30.762,22.461,27.344,-165.039
1532280136.862,31.250,29.297,23.926,34.180,-197.754
1532280136.866,32.715,29.297,23.926,42.480,192.871
1532280136.870,29.785,29.297,23.438,38.574,317.871
1532280136.874,33.203,30.273,23.926,35.645,-46.387
1532280136.878,41.504,29.785,24.902,40.527,-253.906
1532280136.881,37.109,30.273,24.414,45.410,50.293
1532280136.885,35.645,30.762,25.391,44.434,301.270
1532280136.889,34.180,27.832,27.832,40.039,52.246
1532280136.893,27.832,24.902,27.832,32.715,-264.160
1532280136.897,22.949,24.414,26.367,27.832,-90.820
1532280136.901,27.344,26.855,24.414,35.156,280.762
1532280136.905,30.762,27.832,24.414,34.180,160.156
1532280136.909,25.391,28.809,23.438,28.320,-208.496
1532280136.913,18.555,29.785,22.461,28.809,-152.832
1532280136.917,18.066,28.320,23.438,28.320,203.125
1532280136.921,20.996,31.738,23.926,25.879,231.445
1532280136.924,20.996,35.156,21.973,23.438,-126.465
1532280136.928,14.648,34.668,24.902,22.461,-214.844
1532280136.932,12.695,33.691,27.832,23.926,152.832
1532280136.936,17.090,34.180,30.273,29.297,291.992
1532280136.940,17.578,35.645,28.320,27.832,-33.691
1532280136.944,20.020,38.086,25.391,33.203,-246.094
1532280136.948,26.855,39.551,27.832,46.875,62.500
1532280136.952,26.855,39.551,26.855,46.387,328.125
1532280136.956,25.391,41.504,26.855,43.457,49.316
1532280136.960,30.273,46.875,26.367,40.039,-260.742
1532280136.963,32.227,48.828,22.949,40.039,-67.383
1532280136.967,29.297,49.805,23.438,41.016,270.996
1532280136.971,31.738,52.734,20.996,32.715,175.293
1532280136.975,32.715,52.246,21.973,28.809,-193.359
1532280136.979,30.273,51.270,26.367,30.762,-179.199
1532280136.983,30.762,55.664,27.344,33.203,223.145
1532280136.987,32.715,58.105,27.344,33.203,269.043
1532280136.991,26.855,56.152,26.367,24.902,-110.352
1532280136.995,25.879,55.176,24.902,26.855,-230.957
1532280136.999,27.344,56.641,21.973,32.227,103.516
1532280137.003,22.461,56.641,21.484,24.902,306.641
1532280137.006,18.555,54.199,23.926,19.043,3.418
1532280137.010,19.043,52.246,20.020,20.508,-240.234
1532280137.014,16.113,50.293,20.020,21.484,13.672
1532280137.018,11.230,47.363,22.949,20.996,305.664
1532280137.022,11.230,41.992,22.461,20.508,117.676
1532280137.026,13.672,31.250,22.461,22.949,-230.469
1532280137.030,13.672,21.973,22.461,29.297,-104.980
1532280137.034,17.090,17.090,23.438,29.785,253.906
1532280137.038,22.461,14.160,22.461,24.902,171.387
1532280137.042,22.949,14.648,21.484,29.297,-167.480
1532280137.046,23.926,12.695,19.531,31.250,-155.273
1532280137.049,20.508,10.254,18.555,29.785,188.965
1532280137.053,19.531,8.301,22.461,27.832,257.812
1532280137.057,24.414,9.277,22.461,29.785,-93.750
1532280137.061,27.344,10.254,19.043,31.250,-242.676
1532280137.065,27.832,9.766,20.508,34.668,59.082
1532280137.069,29.785,11.230,23.926,38.574,308.594
1532280137.073,23.438,10.742,25.879,32.715,50.781
1532280137.077,22.949,13.184,27.832,30.273,-276.855
1532280137.081,32.227,17.090,26.855,39.551,-36.133
