timestamps,TP9,AF7,AF8,TP10,Right AUX
1532372707.923,42.969,34.180,45.410,46.387,66.895
1532372707.927,41.504,34.180,42.969,46.875,41.504
1532372707.931,44.434,37.598,40.527,42.480,15.137
1532372707.935,44.434,37.598,40.527,37.598,21.973
1532372707.939,46.387,35.645,38.574,29.297,57.617
1532372707.943,53.711,35.645,38.574,25.391,38.086
1532372707.947,53.711,36.621,38.574,27.344,0.000
1532372707.951,48.828,35.645,36.621,34.668,7.812
1532372707.954,45.410,32.715,36.621,44.434,65.918
1532372707.958,41.016,33.203,38.086,49.316,62.012
1532372707.962,38.574,33.691,42.969,52.734,30.762
1532372707.966,37.109,34.180,45.898,54.199,32.715
1532372707.970,34.180,34.180,47.852,52.246,58.105
1532372707.974,40.039,32.227,45.898,49.316,52.734
1532372707.978,40.527,29.785,46.875,46.875,20.020
1532372707.982,33.691,27.832,50.781,49.316,23.926
1532372707.986,35.645,30.273,49.316,52.246,51.270
1532372707.990,35.156,33.691,48.340,45.410,41.504
1532372707.994,40.039,36.133,48.828,47.852,13.672
1532372707.997,43.945,37.109,52.734,55.176,0.977
1532372708.001,45.410,39.062,52.734,55.176,8.789
1532372708.005,43.945,40.039,50.781,54.199,23.438
1532372708.009,39.062,39.062,48.828,48.340,11.230
1532372708.013,41.016,38.086,49.316,48.340,5.371
1532372708.017,39.062,36.621,54.199,50.293,38.574
1532372708.021,33.691,34.180,53.711,47.363,71.289
1532372708.025,34.180,34.668,49.316,46.387,44.434
1532372708.029,37.598,36.621,47.852,43.945,-14.648
1532372708.033,41.504,35.645,47.852,44.434,-1.465
1532372708.037,47.852,38.574,48.828,48.340,44.922
1532372708.040,41.016,41.016,45.898,46.387,52.734
1532372708.044,35.156,37.598,38.086,46.387,22.949
1532372708.048,44.922,36.133,31.250,47.852,-2.441
1532372708.052,41.504,41.504,29.297,50.293,30.762
1532372708.056,41.016,41.016,26.855,50.293,39.062
1532372708.060,43.945,37.598,28.320,49.805,12.695
1532372708.064,46.875,38.574,31.738,59.082,28.809
1532372708.068,47.363,38.086,30.273,51.270,55.664
1532372708.072,39.062,37.109,30.273,46.875,44.434
1532372708.076,38.086,39.062,35.645,46.387,11.230
1532372708.079,38.574,41.992,36.621,37.598,13.672
1532372708.083,36.621,43.945,36.133,41.016,34.668
1532372708.087,40.039,46.387,37.109,39.062,61.035
1532372708.091,34.668,47.363,35.156,33.691,71.289
1532372708.095,33.203,45.410,36.621,34.180,43.457
1532372708.099,37.109,45.898,40.039,34.180,41.504
1532372708.103,30.273,47.852,41.016,33.691,82.031
1532372708.107,29.785,50.293,39.062,29.785,66.406
1532372708.111,30.273,48.340,39.551,24.902,-2.930
1532372708.115,27.344,46.387,41.016,24.902,-34.180
1532372708.119,25.391,48.340,37.598,20.996,38.574
1532372708.122,23.438,48.340,37.109,22.949,79.102
1532372708.126,20.996,45.898,39.062,23.926,20.020
1532372708.130,20.020,44.434,39.551,18.555,-6.836
1532372708.134,34.668,45.898,38.086,27.832,34.668
1532372708.138,34.668,44.922,37.598,34.180,71.289
1532372708.142,11.719,40.527,45.898,23.438,66.406
1532372708.146,15.625,42.969,48.340,23.926,21.973
1532372708.150,38.086,51.270,36.621,31.250,-4.395
1532372708.154,30.762,53.223,32.715,28.320,54.199
1532372708.158,9.766,48.340,39.551,19.043,65.430
1532372708.162,3.906,46.387,42.480,16.113,17.090
1532372708.165,13.672,39.062,50.781,22.949,14.648
1532372708.169,22.461,43.457,46.875,20.996,61.523
1532372708.173,19.043,53.711,35.645,17.090,79.102
1532372708.177,8.789,52.246,38.086,16.602,24.902
1532372708.181,1.465,48.828,44.922,13.672,4.395
1532372708.185,3.906,44.434,47.852,16.602,54.688
1532372708.189,7.324,40.527,46.875,18.555,36.133
1532372708.193,15.137,40.039,44.922,22.461,-11.719
1532372708.197,19.043,40.527,47.852,27.344,18.555
1532372708.201,5.859,38.086,51.270,23.926,47.363
1532372708.204,4.395,32.715,52.734,25.879,79.590
1532372708.208,17.578,32.227,51.270,39.062,61.523
1532372708.212,16.602,34.180,51.758,38.086,11.230
1532372708.216,14.160,30.273,52.734,28.809,39.551
1532372708.220,20.996,30.273,55.664,33.691,69.824
1532372708.224,33.203,35.645,57.129,40.039,38.086
1532372708.228,32.715,38.574,50.293,33.691,1.465
1532372708.232,21.484,41.016,44.434,22.949,8.301
1532372708.236,14.160,39.551,46.875,22.461,54.199
1532372708.240,16.113,36.133,49.805,27.832,67.383
1532372708.244,24.414,34.668,51.270,33.691,45.898
1532372708.247,24.414,33.203,52.734,35.645,32.715
1532372708.251,22.949,31.250,52.246,39.062,43.945
1532372708.255,23.926,31.738,48.340,41.504,69.824
1532372708.259,25.879,32.227,43.457,33.203,88.379
1532372708.263,28.809,32.715,42.969,34.180,59.082
1532372708.267,31.250,31.738,40.039,42.480,45.410
1532372708.271,35.156,29.297,38.086,43.457,82.031
1532372708.275,41.016,29.297,41.504,42.480,64.453
1532372708.279,36.133,28.320,41.992,41.992,27.344
1532372708.283,32.227,28.320,45.410,44.434,46.387
1532372708.286,37.109,27.832,46.875,46.875,51.270
1532372708.290,40.527,26.855,43.457,45.410,19.531
1532372708.294,41.016,27.344,41.016,51.758,15.137
1532372708.298,43.457,28.320,41.992,53.711,41.992
1532372708.302,47.852,28.320,44.922,47.852,68.359
1532372708.306,49.805,29.785,45.410,47.852,75.195
1532372708.310,51.270,28.320,43.945,48.340,57.617
1532372708.314,49.805,28.320,43.457,49.805,42.480
1532372708.318,48.340,27.344,41.016,49.316,31.738
1532372708.322,42.969,22.949,43.457,39.551,63.965
1532372708.326,42.969,21.484,44.922,33.691,15.137
1532372708.329,44.434,26.855,42.969,36.133,-49.316
1532372708.333,41.016,27.344,42.480,43.945,0.000
1532372708.337,41.016,24.414,43.457,49.805,57.129
1532372708.341,46.387,26.367,45.410,54.199,78.613
1532372708.345,52.246,30.273,44.434,58.594,29.297
1532372708.349,52.246,34.668,43.945,61.523,5.859
1532372708.353,54.199,33.691,44.434,63.477,62.988
1532372708.357,52.734,29.297,43.945,56.152,73.242
1532372708.361,40.527,28.320,43.457,48.828,3.906
1532372708.365,34.668,27.344,42.969,45.898,-10.742
1532372708.369,34.180,26.367,42.969,41.504,41.016
1532372708.372,35.156,27.344,42.969,40.039,65.918
1532372708.376,32.227,27.832,44.434,42.480,39.062
1532372708.380,32.715,25.391,44.922,44.434,23.926
1532372708.384,31.738,24.414,43.457,45.410,62.500
1532372708.388,30.762,26.367,43.945,49.316,75.684
1532372708.392,30.762,22.949,43.457,56.152,43.945
1532372708.396,40.527,23.438,42.969,59.082,9.277
1532372708.400,50.781,29.785,46.387,59.570,40.039
1532372708.404,41.992,27.344,47.363,56.641,48.828
1532372708.408,34.668,23.438,43.457,47.363,9.277
1532372708.411,36.133,25.879,38.574,45.898,2.441
1532372708.415,35.156,26.367,41.992,46.387,-13.184
1532372708.419,34.180,26.367,43.457,46.387,26.367
1532372708.423,36.621,26.855,39.062,43.457,49.805
1532372708.427,38.574,27.832,42.969,42.480,5.859
1532372708.431,36.133,27.344,47.852,42.480,-17.578
1532372708.435,38.086,28.320,47.852,40.527,40.527
1532372708.439,47.363,32.715,42.969,41.016,94.727
1532372708.443,45.410,34.668,45.898,44.922,70.801
1532372708.447,39.551,32.227,47.852,45.898,27.832
1532372708.451,39.062,30.762,44.434,39.551,43.457
1532372708.454,35.645,32.227,46.387,41.992,66.895
1532372708.458,35.156,33.203,44.434,44.434,42.969
1532372708.462,34.668,30.762,45.898,40.039,0.977
1532372708.466,38.086,33.203,48.340,36.621,4.395
1532372708.470,40.527,35.645,50.293,35.645,21.484
1532372708.474,41.016,33.203,51.270,38.086,21.973
1532372708.478,43.457,31.738,49.805,39.551,21.484
1532372708.482,37.598,32.715,52.246,35.645,14.160
1532372708.486,30.273,33.691,54.688,31.738,40.527
1532372708.490,32.715,33.691,53.711,31.738,67.871
1532372708.494,30.762,31.738,51.758,32.227,47.852
1532372708.497,25.391,33.203,55.176,29.785,23.438
1532372708.501,24.902,34.668,55.176,30.762,63.477
1532372708.505,31.250,32.715,52.734,32.227,45.898
1532372708.509,31.738,34.180,51.758,28.809,-18.555
1532372708.513,21.973,32.715,51.758,27.832,-19.043
1532372708.517,18.066,32.227,52.734,29.297,33.691
1532372708.521,24.414,33.203,54.688,32.715,76.172
1532372708.525,30.273,31.738,55.664,30.762,34.180
1532372708.529,24.902,29.297,51.270,27.832,-28.320
1532372708.533,27.344,30.762,47.363,34.668,21.484
1532372708.536,27.832,35.156,52.246,38.086,89.844
1532372708.540,23.438,32.715,55.664,34.180,58.105
1532372708.544,25.879,30.762,54.199,33.691,20.020
1532372708.548,31.738,33.203,53.223,33.691,3.418
1532372708.552,26.855,35.156,53.223,34.668,31.738
1532372708.556,22.949,34.180,53.711,33.203,45.898
1532372708.560,23.926,35.156,55.176,32.715,21.973
1532372708.564,22.949,37.109,57.129,28.809,35.645
1532372708.568,24.414,37.109,58.594,20.996,21.973
1532372708.572,22.949,38.086,57.617,17.090,1.465
1532372708.576,21.484,39.062,59.570,20.508,4.395
1532372708.579,22.949,38.574,58.594,20.996,-8.301
1532372708.583,19.043,40.039,56.152,17.090,31.250
1532372708.587,16.602,41.992,60.059,16.602,57.129
1532372708.591,16.602,42.480,61.523,14.160,11.230
1532372708.595,13.184,38.574,57.129,10.742,-18.555
1532372708.599,18.066,38.086,60.059,17.578,-2.441
1532372708.603,16.113,36.621,66.895,32.715,45.410
1532372708.607,20.020,36.621,67.871,29.785,39.551
1532372708.611,20.020,41.504,62.988,15.137,0.000
1532372708.615,13.672,42.480,57.129,14.160,5.371
1532372708.618,23.926,44.434,52.246,16.113,41.016
1532372708.622,22.949,48.340,48.340,11.719,35.645
1532372708.626,6.348,48.828,54.199,-1.465,-25.391
1532372708.630,2.930,46.875,60.059,-2.930,-24.414
1532372708.634,15.625,42.480,61.035,11.230,6.836
1532372708.638,26.367,42.480,58.594,13.184,40.039
1532372708.642,32.227,49.316,48.828,0.977,46.387
1532372708.646,34.180,46.875,50.293,5.371,10.254
1532372708.650,31.738,43.945,58.105,16.113,-9.766
1532372708.654,31.738,48.340,53.223,17.090,33.203
1532372708.658,34.180,50.293,48.828,20.020,60.547
1532372708.661,22.949,45.410,55.664,29.297,15.625
1532372708.665,7.812,39.062,65.430,39.062,15.625
1532372708.669,11.719,36.133,66.895,41.504,41.992
1532372708.673,13.672,35.156,63.965,37.598,58.594
1532372708.677,10.742,38.086,54.199,31.738,42.480
1532372708.681,9.766,38.086,52.246,28.320,21.484
1532372708.685,7.324,31.738,60.547,21.484,32.715
1532372708.689,6.836,29.785,57.129,20.508,36.133
1532372708.693,14.648,34.180,49.805,22.461,14.648
1532372708.697,21.484,35.156,48.828,19.531,32.715
1532372708.701,21.973,32.715,48.828,26.855,62.500
1532372708.704,37.598,31.738,45.410,37.109,83.984
1532372708.708,42.969,32.227,43.457,35.645,24.414
1532372708.712,37.598,31.738,50.293,38.086,-20.020
1532372708.716,45.410,30.273,55.176,50.293,31.250
1532372708.720,47.852,30.762,50.293,54.688,67.383
1532372708.724,41.504,29.297,47.363,51.758,42.480
1532372708.728,37.109,29.297,49.805,49.805,-16.602
1532372708.732,36.621,31.250,47.852,45.898,6.348
1532372708.736,38.086,30.273,44.922,42.969,50.781
1532372708.740,41.992,29.785,46.387,41.504,26.855
1532372708.743,41.016,27.344,46.875,43.945,5.859
1532372708.747,43.945,30.273,46.875,46.387,1.465
1532372708.751,50.293,35.156,48.828,49.316,25.879
1532372708.755,47.852,30.762,46.387,54.688,91.797
1532372708.759,46.875,30.762,41.504,47.363,55.176
1532372708.763,46.875,32.715,43.945,41.992,-8.301
1532372708.767,36.621,27.832,47.363,41.504,5.371
1532372708.771,37.598,26.367,50.781,45.410,16.113
1532372708.775,42.480,28.809,48.828,44.922,27.832
1532372708.779,36.621,27.832,46.387,40.527,20.020
1532372708.783,34.180,26.367,46.387,41.504,21.484
1532372708.786,34.180,29.785,44.922,41.992,37.598
1532372708.790,42.969,30.273,44.922,41.016,23.926
1532372708.794,42.480,29.785,43.457,42.969,12.695
1532372708.798,37.598,31.738,44.922,46.875,18.066
1532372708.802,48.340,34.180,49.805,52.246,41.992
1532372708.806,48.828,34.180,48.340,53.223,24.414
1532372708.810,47.363,32.227,44.922,48.340,0.977
1532372708.814,51.270,33.691,45.410,44.922,24.414
1532372708.818,50.293,32.227,46.387,46.875,35.156
1532372708.822,43.945,30.762,44.922,44.922,41.016
1532372708.826,41.992,34.180,44.434,38.086,11.719
1532372708.829,44.922,33.691,43.457,37.109,-18.555
1532372708.833,44.922,32.715,41.992,36.133,0.488
1532372708.837,42.480,34.180,48.340,34.668,53.711
1532372708.841,39.551,33.203,52.734,36.133,36.621
1532372708.845,44.922,33.691,50.293,38.574,-20.020
1532372708.849,51.270,37.109,49.316,37.109,-24.414
1532372708.853,45.898,38.574,48.828,38.574,22.949
1532372708.857,44.922,38.574,47.363,42.480,33.203
1532372708.861,43.945,37.109,47.363,41.016,-12.695
1532372708.865,45.410,34.668,48.828,38.574,-7.324
1532372708.868,44.922,37.109,47.363,38.086,-7.324
1532372708.872,40.039,38.086,47.363,40.527,22.461
1532372708.876,41.992,38.574,50.293,41.992,20.996
1532372708.880,41.992,39.062,51.758,42.969,-20.996
1532372708.884,41.504,37.598,50.781,42.480,-3.906
1532372708.888,38.574,40.039,50.293,34.668,-5.859
1532372708.892,39.062,43.945,51.758,32.715,-6.348
1532372708.896,46.387,45.898,51.758,39.551,8.301
1532372708.900,43.457,45.410,53.711,41.016,11.719
1532372708.904,39.551,44.434,57.617,38.086,20.020
1532372708.908,33.691,48.340,59.570,39.551,20.020
1532372708.911,31.250,47.852,61.523,41.016,11.719
1532372708.915,34.668,44.434,61.523,38.574,38.086
1532372708.919,28.809,47.363,62.988,35.156,68.848
1532372708.923,21.484,50.293,64.453,33.691,47.363
1532372708.927,20.020,48.828,63.965,33.691,-20.508
1532372708.931,18.555,50.293,64.941,35.645,-18.066
1532372708.935,11.719,50.781,65.430,29.297,36.133
1532372708.939,9.277,48.828,61.523,19.043,32.715
1532372708.943,9.766,49.316,60.059,20.020,-15.625
1532372708.947,12.207,48.340,61.035,18.066,-35.156
1532372708.950,13.672,42.969,63.965,20.508,-14.648
1532372708.954,12.695,40.527,69.336,25.391,20.508
1532372708.958,17.578,41.504,70.801,18.555,18.066
1532372708.962,20.508,41.504,66.406,22.461,-3.418
1532372708.966,11.230,43.945,61.523,28.809,5.371
1532372708.970,0.977,43.945,66.406,20.020,29.785
1532372708.974,10.254,40.039,66.406,24.414,32.715
1532372708.978,22.949,40.527,59.570,34.180,6.348
1532372708.982,16.113,42.480,62.012,29.785,-3.906
1532372708.986,14.648,37.109,63.477,29.785,23.926
1532372708.990,27.344,28.809,62.500,34.180,39.551
1532372708.993,38.086,29.297,62.500,42.480,3.906
1532372708.997,43.457,32.715,59.082,49.805,-9.277
1532372709.001,46.875,30.762,56.152,51.758,25.391
1532372709.005,43.457,27.344,55.176,50.781,23.438
1532372709.009,40.527,26.855,56.152,48.340,-10.742
1532372709.013,39.062,24.414,53.711,45.898,6.348
1532372709.017,46.387,22.461,53.711,48.340,26.855
1532372709.021,55.664,24.414,56.641,54.688,30.273
1532372709.025,58.594,24.414,52.734,55.664,3.418
1532372709.029,55.176,23.926,49.805,56.152,-20.020
1532372709.033,48.340,22.949,50.293,57.617,15.137
1532372709.036,50.293,23.438,49.805,52.246,47.363
1532372709.040,49.316,23.438,45.410,49.316,49.316
1532372709.044,53.223,23.926,45.410,57.129,15.137
1532372709.048,59.570,25.391,49.316,55.176,-20.996
1532372709.052,63.965,26.855,50.781,50.781,15.137
1532372709.056,62.988,25.879,49.316,54.199,63.965
1532372709.060,53.223,24.414,44.922,52.734,39.551
1532372709.064,50.293,23.926,42.969,50.781,7.324
1532372709.068,51.758,23.438,44.922,50.293,9.766
1532372709.072,51.758,25.391,45.410,46.387,7.812
1532372709.075,50.293,25.391,46.875,44.434,-9.277
1532372709.079,46.387,24.902,46.387,45.410,6.836
1532372709.083,54.199,27.832,47.363,51.270,38.574
1532372709.087,56.641,28.320,51.758,49.805,65.430
1532372709.091,47.363,26.367,48.340,43.945,62.012
1532372709.095,45.898,25.391,45.410,45.410,28.320
1532372709.099,48.340,28.320,48.340,44.922,3.906
1532372709.103,46.875,29.785,49.316,46.387,18.555
1532372709.107,53.223,29.297,48.340,48.828,22.461
1532372709.111,53.711,28.320,48.828,47.852,1.465
1532372709.115,43.945,26.855,52.734,49.316,-12.207
1532372709.118,43.457,28.809,52.246,46.387,9.766
1532372709.122,48.828,33.203,53.223,47.852,35.645
1532372709.126,46.875,35.156,55.664,48.828,-0.977
1532372709.130,42.969,34.180,54.199,40.039,-51.270
1532372709.134,44.434,35.156,51.270,41.016,7.324
1532372709.138,40.527,34.668,48.828,40.527,65.430
1532372709.142,40.527,32.715,45.898,40.039,42.480
1532372709.146,43.457,34.180,48.828,44.434,0.000
1532372709.150,42.969,35.156,54.199,44.922,7.812
1532372709.154,39.062,35.156,52.734,45.898,55.176
1532372709.158,39.551,35.156,49.316,39.551,53.223
1532372709.161,41.016,35.645,45.410,35.156,25.391
1532372709.165,38.086,34.668,45.898,40.039,2.930
1532372709.169,35.156,31.738,47.363,32.715,15.137
1532372709.173,35.156,33.203,46.875,32.715,49.316
1532372709.177,34.180,36.133,48.828,37.598,33.203
1532372709.181,32.227,36.133,50.781,30.273,19.043
1532372709.185,38.086,36.133,51.270,34.180,29.297
1532372709.189,32.227,35.156,49.316,39.062,38.574
1532372709.193,27.344,34.180,52.246,35.645,12.695
1532372709.197,34.668,33.203,55.176,36.133,20.020
1532372709.200,35.156,34.668,53.223,38.086,47.363
1532372709.204,32.715,35.645,54.688,37.598,46.387
1532372709.208,30.273,36.621,50.781,35.156,26.855
1532372709.212,27.832,38.086,46.387,30.273,3.418
1532372709.216,25.391,35.156,49.805,30.273,32.715
1532372709.220,23.926,34.180,48.828,33.203,71.777
1532372709.224,26.367,34.180,47.852,33.691,60.547
1532372709.228,28.809,34.180,49.805,31.250,3.418
1532372709.232,29.785,33.691,51.270,33.203,-11.719
1532372709.236,26.855,34.180,52.246,38.574,45.898
1532372709.240,28.809,36.133,49.805,39.551,56.152
1532372709.243,32.227,37.109,47.363,37.109,5.371
1532372709.247,27.344,37.109,46.875,26.367,-19.043
1532372709.251,26.855,35.156,48.828,22.949,6.348
1532372709.255,29.297,32.715,49.805,28.809,4.883
1532372709.259,28.320,33.203,49.316,30.762,-1.465
1532372709.263,26.855,34.668,51.270,27.344,15.625
1532372709.267,30.273,35.156,52.246,23.926,21.973
1532372709.271,33.691,36.621,48.828,29.297,26.367
1532372709.275,26.855,35.645,46.387,34.180,27.832
1532372709.279,27.344,33.691,45.898,30.762,13.184
1532372709.282,34.180,35.156,47.852,31.738,38.086
1532372709.286,34.668,37.598,50.781,32.715,78.125
1532372709.290,33.691,40.039,52.734,33.203,58.594
1532372709.294,37.598,37.598,52.246,30.273,2.930
1532372709.298,32.715,35.645,52.734,28.320,-4.883
1532372709.302,21.484,37.109,55.664,29.297,35.156
1532372709.306,22.949,37.109,54.688,24.902,45.410
1532372709.310,20.996,36.621,52.734,16.602,-25.391
1532372709.314,20.996,35.156,48.340,15.625,-40.039
1532372709.318,32.715,37.109,48.828,26.855,27.832
1532372709.322,38.086,40.039,50.781,27.344,46.387
1532372709.325,33.203,40.039,48.340,20.996,20.508
1532372709.329,35.645,38.086,46.875,15.625,26.855
1532372709.333,37.598,39.062,45.410,11.230,41.016
1532372709.337,41.992,41.016,42.969,13.184,70.801
1532372709.341,43.945,40.039,41.016,15.137,89.844
1532372709.345,41.016,38.574,41.504,25.391,32.715
1532372709.349,37.109,38.574,42.480,35.156,-4.395
1532372709.353,31.738,40.527,42.480,37.109,22.461
1532372709.357,28.809,38.086,41.504,38.574,19.531
1532372709.361,26.855,35.645,41.504,39.551,-0.977
1532372709.365,24.902,38.086,41.016,41.016,40.039
1532372709.368,24.902,40.039,43.945,37.109,58.594
1532372709.372,26.855,43.457,46.875,39.551,18.555
1532372709.376,25.879,41.992,42.969,39.062,-11.230
1532372709.380,31.738,33.691,41.016,34.668,-15.625
1532372709.384,36.133,34.180,42.969,34.180,5.859
1532372709.388,34.180,37.109,42.969,34.668,55.176
1532372709.392,27.832,35.156,41.992,29.785,37.109
1532372709.396,28.320,36.133,46.387,30.762,11.230
1532372709.400,33.691,41.504,50.781,31.738,28.809
1532372709.404,31.250,41.992,47.363,26.367,65.430
1532372709.407,30.762,37.109,46.387,26.855,30.273
1532372709.411,31.250,37.598,47.852,28.809,-17.578
1532372709.415,28.320,40.039,48.828,29.297,28.809
1532372709.419,27.832,41.016,49.316,27.832,63.477
1532372709.423,26.367,39.551,47.852,24.414,65.430
1532372709.427,23.926,39.062,49.316,17.090,13.672
1532372709.431,30.762,39.551,50.781,18.555,-20.996
1532372709.435,29.785,40.527,51.758,24.902,24.902
1532372709.439,22.949,42.969,48.340,21.973,56.152
1532372709.443,20.996,39.551,48.340,20.020,19.531
1532372709.447,22.461,41.992,50.293,21.973,-10.254
1532372709.450,23.926,45.898,49.805,17.578,3.906
1532372709.454,25.391,41.504,51.758,20.020,59.082
1532372709.458,23.926,44.922,53.711,21.973,34.180
1532372709.462,30.273,49.316,48.340,21.973,-26.855
1532372709.466,38.574,44.434,45.898,29.785,-12.695
1532372709.470,20.508,38.574,57.617,21.973,31.250
1532372709.474,7.324,33.203,66.406,15.625,38.086
1532372709.478,26.367,27.832,64.453,34.180,13.184
1532372709.482,56.152,28.809,60.059,57.129,1.465
1532372709.486,72.266,32.227,54.199,66.895,44.922
1532372709.489,60.547,30.762,49.805,63.965,26.367
1532372709.493,44.922,28.809,49.805,52.734,-24.414
1532372709.497,47.363,23.926,50.781,54.688,-12.695
1532372709.501,54.688,20.508,52.734,60.547,23.438
1532372709.505,70.312,20.020,53.223,66.895,30.762
1532372709.509,86.426,22.461,56.152,80.078,-23.438
1532372709.513,82.031,23.926,57.129,79.102,-18.066
1532372709.517,74.219,20.020,53.711,77.637,22.461
1532372709.521,75.195,17.578,51.758,84.961,57.129
1532372709.525,80.566,17.578,50.781,87.891,64.941
1532372709.529,81.543,18.066,48.828,84.961,24.414
1532372709.532,82.520,21.484,49.316,86.914,11.719
1532372709.536,84.961,21.973,51.758,86.426,49.316
1532372709.540,84.473,19.043,55.176,80.078,66.895
1532372709.544,83.008,26.367,53.711,81.543,10.254
1532372709.548,76.660,26.855,49.316,79.102,-50.781
1532372709.552,72.266,20.020,51.270,75.684,-11.230
1532372709.556,74.219,24.414,55.664,78.125,38.086
1532372709.560,75.684,28.320,55.664,76.660,16.602
1532372709.564,71.777,28.320,53.711,74.219,30.762
1532372709.568,68.359,31.250,54.688,71.289,53.223
1532372709.572,67.871,34.180,54.688,63.477,58.105
1532372709.575,66.406,31.738,52.734,61.035,12.207
1532372709.579,66.895,33.203,49.805,59.570,-24.902
1532372709.583,60.059,33.203,49.805,58.594,-16.113
1532372709.587,52.734,29.297,49.805,53.223,-6.836
1532372709.591,54.688,35.645,51.270,53.223,-5.371
1532372709.595,60.547,37.109,55.176,61.035,-19.043
1532372709.599,57.617,29.785,54.688,62.500,-1.465
1532372709.603,59.570,33.203,54.199,63.477,48.340
1532372709.607,56.152,34.180,54.199,55.664,39.062
1532372709.611,50.293,29.297,51.270,51.758,-2.441
1532372709.614,49.316,29.297,52.734,51.270,12.695
1532372709.618,43.945,34.668,55.176,46.387,54.199
1532372709.622,40.527,35.156,56.152,51.270,74.707
1532372709.626,41.504,33.203,55.176,46.875,27.832
1532372709.630,39.551,32.715,54.199,35.156,-3.906
1532372709.634,34.668,32.715,54.688,34.668,42.480
1532372709.638,32.715,37.598,53.711,34.180,69.824
1532372709.642,31.738,37.598,53.223,30.273,38.086
1532372709.646,27.832,34.180,54.199,28.320,10.742
1532372709.650,30.273,33.203,56.641,30.273,17.578
1532372709.654,36.621,36.133,60.059,38.574,39.062
1532372709.657,30.762,38.086,57.617,34.180,48.828
1532372709.661,27.832,38.086,52.246,32.227,32.715
1532372709.665,39.062,38.574,52.734,32.715,18.066
1532372709.669,36.133,38.574,54.688,21.973,18.555
1532372709.673,26.855,37.598,53.223,24.902,26.367
1532372709.677,30.762,34.668,50.293,30.273,21.973
1532372709.681,34.180,34.668,50.781,28.320,20.996
1532372709.685,33.691,35.156,51.758,23.926,54.688
1532372709.689,32.715,37.109,54.199,24.414,28.320
1532372709.693,29.785,38.574,52.734,25.391,5.371
1532372709.697,25.879,36.621,53.711,26.855,24.902
1532372709.700,28.809,36.621,56.152,28.809,41.016
1532372709.704,33.203,37.109,56.152,30.273,44.434
1532372709.708,27.832,41.016,55.664,25.879,35.645
1532372709.712,20.508,38.086,50.781,21.484,18.555
1532372709.716,29.297,35.156,53.223,28.320,7.812
1532372709.720,24.902,41.504,55.664,28.809,44.434
1532372709.724,21.973,41.016,54.688,33.203,48.828
1532372709.728,30.762,46.387,59.570,39.062,18.066
1532372709.732,25.879,47.363,59.082,35.156,-19.043
1532372709.736,23.926,38.086,49.805,30.273,9.277
1532372709.739,22.949,22.949,40.527,27.832,44.922
1532372709.743,19.043,24.414,43.457,26.855,28.809
1532372709.747,21.973,36.621,47.852,28.809,17.090
1532372709.751,29.297,35.156,47.363,32.715,38.086
1532372709.755,24.414,38.574,42.969,30.762,30.762
1532372709.759,18.066,31.250,35.156,20.996,25.391
1532372709.763,20.020,21.484,40.527,23.926,34.180
1532372709.767,21.484,27.344,45.410,31.738,22.461
1532372709.771,23.926,31.738,42.480,27.344,55.664
1532372709.775,21.973,31.250,42.480,25.879,35.156
1532372709.779,20.508,30.762,40.527,25.391,0.488
1532372709.782,19.531,30.762,37.109,23.438,30.762
1532372709.786,21.484,32.715,36.621,26.367,58.594
1532372709.790,19.531,32.227,39.062,23.438,13.184
1532372709.794,22.461,31.738,40.527,23.926,11.719
1532372709.798,31.250,34.180,38.574,31.738,53.223
1532372709.802,29.785,34.668,40.527,37.109,67.383
1532372709.806,32.715,33.691,40.039,40.527,62.988
1532372709.810,35.156,34.668,35.645,36.621,4.883
1532372709.814,28.320,34.668,37.598,28.320,-22.461
1532372709.818,28.809,34.668,39.551,27.832,10.254
1532372709.821,34.180,34.180,41.504,28.320,48.340
1532372709.825,35.645,32.715,40.527,24.902,35.645
1532372709.829,28.320,33.203,38.086,19.043,-14.160
1532372709.833,23.926,34.668,37.598,18.066,-9.277
1532372709.837,25.391,35.645,37.598,25.391,27.832
1532372709.841,26.855,34.668,39.551,27.832,28.809
1532372709.845,27.344,33.691,41.504,29.785,21.484
1532372709.849,34.668,36.621,39.551,34.180,23.926
1532372709.853,29.785,37.109,40.039,27.832,39.551
1532372709.857,23.438,33.691,41.016,19.043,36.621
1532372709.861,30.273,31.738,40.527,22.949,16.602
1532372709.864,30.762,31.738,43.945,29.297,16.113
1532372709.868,31.738,34.180,48.340,32.227,15.137
1532372709.872,29.297,34.180,45.410,27.344,31.738
1532372709.876,27.344,33.203,41.016,26.855,16.602
1532372709.880,32.715,34.180,44.434,36.621,-3.906
1532372709.884,36.621,35.645,46.875,32.227,19.531
1532372709.888,33.203,38.086,46.387,21.484,27.832
1532372709.892,31.738,37.598,47.363,22.461,31.738
1532372709.896,32.715,35.645,44.434,22.949,53.223
1532372709.900,32.715,35.645,41.504,24.414,65.430
1532372709.904,30.762,36.621,44.922,24.414,62.012
1532372709.907,27.344,36.621,46.875,29.785,36.133
1532372709.911,29.297,35.645,44.434,33.203,4.395
1532372709.915,29.785,34.668,45.410,31.250,14.160
1532372709.919,34.668,35.645,46.875,33.691,41.016
1532372709.923,40.039,35.156,45.898,32.715,48.828
1532372709.927,37.598,34.668,46.875,33.691,4.395
1532372709.931,39.062,36.621,47.363,36.133,0.977
1532372709.935,36.621,33.691,47.363,34.668,34.180
1532372709.939,39.551,32.227,46.387,35.645,38.086
1532372709.943,42.480,36.621,48.340,38.086,16.602
1532372709.946,40.527,40.527,47.363,36.133,-32.227
1532372709.950,36.621,39.551,42.969,33.691,5.859
1532372709.954,34.180,37.598,43.945,32.227,39.551
1532372709.958,33.691,38.086,45.898,32.227,12.695
1532372709.962,30.762,37.109,46.387,29.785,0.977
1532372709.966,41.016,39.062,49.316,32.227,5.859
1532372709.970,45.898,40.039,47.852,31.738,27.832
1532372709.974,39.062,39.062,48.340,33.691,30.273
1532372709.978,45.410,41.504,54.688,45.898,26.855
1532372709.982,52.734,48.340,59.082,53.223,41.504
1532372709.986,58.594,48.828,59.082,52.734,49.316
1532372709.989,55.176,45.410,57.617,47.852,72.266
1532372709.993,41.992,47.852,51.270,40.527,45.410
1532372709.997,40.039,46.875,46.875,35.645,17.578
1532372710.001,46.387,43.945,45.898,33.691,41.992
1532372710.005,50.293,43.945,44.434,32.715,39.551
1532372710.009,53.711,43.945,41.504,26.855,17.578
1532372710.013,55.176,42.969,42.969,27.344,18.555
1532372710.017,50.293,40.039,45.898,38.086,12.695
1532372710.021,52.246,41.992,44.922,46.875,49.805
1532372710.025,49.805,41.992,43.457,46.387,64.941
1532372710.029,40.039,39.551,41.016,42.969,16.113
1532372710.032,34.180,38.574,40.039,45.410,23.438
1532372710.036,34.180,35.156,47.852,51.270,57.129
1532372710.040,31.738,33.203,48.828,49.316,61.035
1532372710.044,28.320,35.645,49.316,39.551,57.129
1532372710.048,26.367,39.062,53.711,37.109,35.645
1532372710.052,27.832,40.039,51.758,40.039,22.461
1532372710.056,37.109,38.086,53.711,41.504,46.387
1532372710.060,37.598,38.574,53.711,35.645,28.320
1532372710.064,33.691,39.551,50.293,28.320,-7.324
1532372710.068,30.762,36.133,51.270,31.250,7.324
1532372710.071,32.227,35.645,56.152,40.527,51.758
1532372710.075,35.645,37.109,56.152,41.504,52.734
1532372710.079,42.480,36.621,50.781,36.621,16.113
1532372710.083,41.504,38.086,50.293,38.574,20.996
1532372710.087,32.715,35.645,52.734,38.574,49.805
1532372710.091,39.551,36.621,51.270,32.715,10.742
1532372710.095,40.527,40.039,44.434,31.738,-13.184
1532372710.099,40.527,38.574,45.410,36.133,9.277
1532372710.103,43.457,39.551,47.852,37.598,35.645
1532372710.107,41.992,40.039,41.992,29.785,31.738
1532372710.111,42.480,39.551,39.551,23.926,-14.160
1532372710.114,40.527,39.551,39.551,23.926,1.465
1532372710.118,45.898,40.039,40.039,32.227,63.477
1532372710.122,49.805,38.086,42.969,40.039,61.523
1532372710.126,47.852,35.645,44.434,43.457,25.391
1532372710.130,47.363,34.668,43.457,47.363,7.324
1532372710.134,47.363,33.203,43.945,44.922,43.457
1532372710.138,43.457,31.250,45.898,44.434,80.078
1532372710.142,48.828,32.227,44.434,46.875,69.824
1532372710.146,45.898,32.227,41.992,45.410,2.441
1532372710.150,41.992,33.203,42.480,48.340,-26.367
1532372710.153,48.340,33.691,43.457,45.898,63.965
1532372710.157,43.945,31.738,43.457,40.527,76.660
1532372710.161,42.969,32.227,40.527,39.062,34.668
1532372710.165,44.434,29.785,41.504,37.598,31.250
1532372710.169,41.016,29.785,41.504,38.086,43.457
1532372710.173,44.434,30.762,43.457,41.504,61.523
1532372710.177,48.340,27.344,48.828,41.016,31.738
1532372710.181,42.969,25.879,44.434,41.992,3.418
1532372710.185,41.504,26.855,41.016,47.852,43.457
1532372710.189,45.898,28.320,44.922,51.758,63.477
1532372710.193,47.363,26.367,43.457,53.223,20.996
1532372710.196,50.293,26.855,42.480,51.270,-6.836
1532372710.200,50.293,29.297,45.898,52.734,6.836
1532372710.204,43.457,25.879,45.898,51.270,36.133
1532372710.208,42.969,23.438,43.457,41.504,7.324
1532372710.212,42.480,23.926,44.922,38.086,-20.020
1532372710.216,41.016,28.320,44.434,36.621,24.414
1532372710.220,38.574,31.738,43.457,31.250,73.242
1532372710.224,35.156,28.809,43.457,29.785,66.895
1532372710.228,42.969,30.273,41.992,30.762,10.254
1532372710.232,50.781,32.715,43.457,36.133,5.371
1532372710.236,44.922,32.715,43.457,39.551,54.199
1532372710.239,48.340,33.691,41.504,39.062,44.434
1532372710.243,49.316,35.156,41.992,40.039,6.836
1532372710.247,38.574,33.203,44.434,34.180,-3.418
1532372710.251,40.039,34.180,43.457,22.461,11.719
1532372710.255,40.527,35.156,40.039,29.297,47.363
1532372710.259,37.109,30.762,41.992,41.016,28.320
1532372710.263,31.250,27.832,44.434,36.133,20.508
1532372710.267,26.855,30.273,44.434,30.273,31.250
1532372710.271,24.902,31.738,41.992,27.832,49.805
1532372710.275,25.879,29.297,40.527,26.367,55.176
1532372710.278,27.832,28.320,42.969,27.832,39.551
1532372710.282,27.832,30.273,43.945,31.738,36.621
1532372710.286,28.809,30.273,43.945,31.250,46.387
1532372710.290,23.438,28.320,41.504,25.879,53.711
1532372710.294,22.461,30.762,38.086,27.832,15.137
1532372710.298,25.391,32.227,40.527,29.297,-10.742
1532372710.302,25.391,31.738,41.016,27.832,49.805
1532372710.306,23.926,30.273,39.062,30.273,65.430
1532372710.310,22.461,31.738,39.551,21.973,-25.391
1532372710.314,23.438,29.297,36.133,18.555,-21.973
1532372710.318,22.461,25.879,33.203,23.438,25.391
1532372710.321,16.113,29.785,35.645,20.508,42.480
1532372710.325,20.508,30.273,35.156,26.367,53.223
1532372710.329,26.367,29.297,32.227,30.273,8.301
1532372710.333,27.344,30.273,34.180,26.367,16.113
1532372710.337,23.438,31.250,37.109,23.926,65.430
1532372710.341,23.926,31.250,36.133,23.438,45.410
1532372710.345,26.855,29.297,35.645,25.879,18.555
1532372710.349,24.414,29.785,37.598,22.949,-0.977
1532372710.353,24.902,29.785,38.574,24.414,34.668
1532372710.357,28.809,31.250,35.645,31.250,54.688
1532372710.361,25.879,30.273,35.645,27.344,12.207
1532372710.364,22.949,27.832,38.574,23.926,5.859
1532372710.368,22.949,27.832,38.574,25.391,36.133
1532372710.372,28.320,23.438,38.086,29.297,80.078
1532372710.376,27.832,21.973,38.574,27.832,49.805
1532372710.380,20.996,24.902,37.598,20.508,9.766
1532372710.384,21.973,24.414,37.109,19.043,41.504
1532372710.388,22.949,23.926,37.109,16.602,34.668
1532372710.392,20.020,23.438,34.668,15.137,16.602
1532372710.396,19.531,20.996,34.180,22.461,18.066
1532372710.400,19.531,22.461,34.180,20.508,35.645
1532372710.403,18.555,23.926,32.715,18.555,62.012
1532372710.407,20.020,23.438,31.250,20.996,36.133
1532372710.411,20.020,22.461,32.227,15.137,27.344
1532372710.415,26.855,22.949,33.203,16.113,47.852
1532372710.419,29.785,24.902,33.691,23.926,67.871
1532372710.423,26.855,25.391,33.691,21.973,53.223
1532372710.427,26.855,26.367,34.668,20.508,18.066
1532372710.431,23.926,24.414,34.180,22.949,0.977
1532372710.435,21.484,22.949,34.180,26.367,16.113
1532372710.439,25.391,21.484,36.133,24.414,64.453
1532372710.443,24.902,21.484,34.668,24.414,62.988
1532372710.446,29.297,21.973,33.691,32.227,-0.488
1532372710.450,27.832,19.043,33.691,30.762,27.832
1532372710.454,24.902,17.578,33.203,27.832,67.383
1532372710.458,31.250,18.555,32.227,30.273,21.484
1532372710.462,34.668,20.996,33.691,31.250,20.996
1532372710.466,39.062,22.461,33.203,32.715,32.715
1532372710.470,39.062,24.414,31.738,32.715,32.227
1532372710.474,37.598,27.832,34.180,31.738,37.598
1532372710.478,33.203,25.391,35.645,30.762,19.043
1532372710.482,30.273,22.461,35.645,29.297,3.906
1532372710.485,34.180,24.902,33.691,29.785,7.812
1532372710.489,33.203,25.879,34.668,23.926,-3.906
1532372710.493,29.297,21.973,34.668,24.414,-13.672
1532372710.497,28.320,21.484,31.738,22.949,8.789
1532372710.501,29.297,25.391,32.715,23.926,26.367
1532372710.505,34.668,24.414,35.645,29.785,33.691
1532372710.509,30.273,22.461,33.203,26.367,15.625
1532372710.513,23.926,21.484,33.691,27.832,5.859
1532372710.517,31.250,21.484,36.621,26.855,31.250
1532372710.521,33.203,22.461,35.156,28.809,52.734
1532372710.525,26.367,23.438,35.156,29.785,39.062
1532372710.528,23.926,23.438,35.156,16.602,-5.371
1532372710.532,31.738,24.902,34.668,18.066,-16.602
1532372710.536,36.621,23.926,36.133,30.273,30.273
1532372710.540,33.203,25.391,34.180,28.320,59.082
1532372710.544,30.273,23.926,30.762,25.879,31.250
1532372710.548,30.762,20.508,30.762,24.902,-7.324
1532372710.552,31.250,20.996,32.715,26.367,52.734
1532372710.556,32.715,20.020,32.227,27.832,93.262
1532372710.560,35.645,19.531,32.227,30.273,53.711
1532372710.564,31.250,19.531,33.203,29.785,36.133
1532372710.568,33.691,19.531,33.691,30.273,42.969
1532372710.571,32.715,20.020,32.227,29.297,73.730
1532372710.575,27.344,18.555,31.738,24.902,59.082
1532372710.579,35.156,20.508,31.250,31.250,19.043
1532372710.583,36.621,22.949,29.297,31.738,39.062
1532372710.587,35.645,23.438,33.203,31.738,45.898
1532372710.591,37.109,23.926,33.203,33.691,35.645
1532372710.595,37.109,23.926,34.180,36.133,24.902
1532372710.599,44.434,25.879,36.133,35.645,4.883
1532372710.603,34.668,28.320,37.598,35.156,49.316
1532372710.607,29.297,26.367,38.086,31.250,42.480
1532372710.610,35.156,23.926,33.691,28.809,-1.465
1532372710.614,29.785,25.391,33.691,31.250,22.461
1532372710.618,29.785,25.879,34.668,28.320,36.133
1532372710.622,36.621,24.414,35.645,29.297,51.758
1532372710.626,37.109,24.902,36.133,25.391,18.555
1532372710.630,32.715,23.926,33.691,19.043,-13.672
1532372710.634,30.762,24.902,33.691,25.879,49.805
1532372710.638,34.180,27.832,36.133,32.715,65.918
1532372710.642,39.062,29.297,37.598,33.691,40.527
1532372710.646,37.109,30.762,39.062,32.227,16.602
1532372710.650,34.668,29.785,38.086,29.297,39.062
1532372710.653,38.086,30.273,36.621,28.320,73.242
1532372710.657,36.621,31.250,34.180,26.855,66.406
1532372710.661,39.551,31.738,35.156,29.297,27.832
1532372710.665,36.621,33.203,35.645,31.738,-1.953
1532372710.669,31.738,33.691,34.668,28.809,34.668
1532372710.673,30.762,32.227,34.668,25.391,53.223
1532372710.677,36.621,28.809,35.645,23.438,27.344
1532372710.681,36.621,29.785,39.551,21.484,21.973
1532372710.685,29.297,28.320,41.016,17.578,46.387
1532372710.689,32.715,27.832,41.016,14.648,40.527
1532372710.693,32.227,28.809,40.527,15.625,14.648
1532372710.696,26.367,25.391,40.527,22.949,-5.859
1532372710.700,26.855,24.414,42.480,30.273,35.645
1532372710.704,24.902,24.902,42.969,29.297,59.570
1532372710.708,23.926,25.879,42.969,31.250,49.805
1532372710.712,23.926,25.391,45.410,36.133,41.016
1532372710.716,22.949,25.391,44.922,39.062,24.902
1532372710.720,23.438,27.344,41.016,39.062,64.453
1532372710.724,24.414,27.344,40.527,36.133,74.707
1532372710.728,28.320,26.367,42.480,36.621,28.320
1532372710.732,32.227,25.391,42.480,32.227,13.672
1532372710.735,34.180,23.438,43.457,26.367,58.105
1532372710.739,30.273,26.855,39.551,21.973,74.219
1532372710.743,26.855,26.367,37.598,23.438,22.949
1532372710.747,26.855,26.367,38.086,27.344,-15.137
1532372710.751,31.738,31.250,38.574,28.320,5.859
1532372710.755,28.809,29.785,39.062,27.344,63.965
1532372710.759,23.438,29.297,37.109,25.879,43.945
1532372710.763,31.738,28.320,36.133,24.902,46.387
1532372710.767,34.668,28.809,37.109,25.391,49.805
1532372710.771,32.715,31.250,36.621,27.832,45.898
1532372710.775,38.574,29.785,35.156,33.203,48.340
1532372710.778,40.039,27.344,35.156,32.227,6.348
1532372710.782,33.691,29.297,32.715,28.809,3.418
1532372710.786,34.668,30.762,33.691,30.762,42.480
1532372710.790,36.133,29.297,37.598,30.273,44.434
1532372710.794,33.691,26.855,35.156,30.762,35.645
1532372710.798,30.762,25.391,35.645,29.297,38.086
1532372710.802,25.391,26.855,35.645,21.484,48.340
1532372710.806,26.855,26.855,36.621,22.461,48.340
1532372710.810,28.809,28.320,39.551,27.344,4.883
1532372710.814,26.855,29.785,39.062,29.297,-3.418
1532372710.817,26.855,28.320,40.039,29.297,24.902
1532372710.821,28.809,30.273,41.016,29.785,57.129
1532372710.825,30.273,33.203,40.039,30.273,44.922
1532372710.829,26.855,31.738,39.062,26.855,-12.207
1532372710.833,26.855,30.273,39.062,26.855,-7.324
1532372710.837,30.762,29.785,41.016,29.297,39.551
1532372710.841,21.973,30.273,38.574,24.414,29.785
1532372710.845,23.438,33.203,37.109,26.855,29.297
1532372710.849,26.367,32.227,39.551,26.367,14.160
1532372710.853,20.996,29.785,41.016,23.926,16.113
1532372710.857,26.855,34.180,40.039,32.715,46.387
1532372710.860,32.715,33.691,39.551,37.598,46.387
1532372710.864,26.855,31.250,38.086,30.762,36.621
1532372710.868,29.297,34.668,36.621,26.855,40.039
1532372710.872,33.203,34.668,39.062,30.273,62.500
1532372710.876,24.902,34.180,39.062,29.297,49.316
1532372710.880,25.391,33.691,38.574,26.855,32.715
1532372710.884,25.391,30.762,39.062,24.414,56.641
1532372710.888,25.391,31.738,37.598,23.926,63.477
1532372710.892,26.855,31.738,35.645,20.020,36.621
1532372710.896,29.785,30.762,37.598,22.461,21.484
1532372710.900,33.691,28.809,39.551,23.438,23.438
1532372710.903,35.156,27.832,38.086,26.367,59.082
1532372710.907,33.691,31.250,37.109,26.367,35.645
1532372710.911,24.414,33.203,34.668,20.508,-30.273
1532372710.915,22.949,29.297,32.715,20.020,9.766
1532372710.919,23.926,25.879,33.203,20.020,65.918
1532372710.923,16.602,26.855,31.250,17.578,46.875
1532372710.927,18.555,28.320,28.809,16.602,-14.648
1532372710.931,24.902,29.297,32.715,22.461,-33.691
1532372710.935,33.691,29.785,32.715,21.973,22.461
1532372710.939,33.203,30.762,30.273,20.996,72.266
1532372710.942,23.926,30.762,32.715,25.879,31.738
1532372710.946,23.438,27.832,33.691,24.902,5.859
1532372710.950,23.438,27.344,35.156,24.902,15.137
1532372710.954,23.926,27.344,36.133,30.762,46.875
1532372710.958,24.414,26.855,36.621,31.250,37.598
1532372710.962,25.879,24.902,35.156,29.297,0.488
1532372710.966,22.949,19.531,39.062,33.691,16.602
1532372710.970,35.156,19.531,47.363,53.223,68.848
1532372710.974,51.270,28.320,38.574,59.082,53.711
1532372710.978,41.992,37.109,27.832,38.574,12.695
1532372710.982,20.996,40.039,27.832,20.508,38.574
1532372710.985,18.555,41.016,28.320,14.160,70.312
1532372710.989,26.855,41.016,27.832,17.090,65.430
1532372710.993,23.926,44.922,26.367,17.090,19.043
1532372710.997,21.484,44.434,26.855,17.578,17.090
1532372711.001,20.508,39.551,31.250,20.996,54.688
1532372711.005,27.344,38.574,32.227,26.855,85.449
1532372711.009,34.180,40.039,30.762,29.297,39.551
1532372711.013,36.621,40.527,34.180,32.227,12.695
1532372711.017,40.527,39.551,34.668,38.574,42.969
1532372711.021,38.086,39.062,33.691,34.668,53.711
1532372711.024,31.250,38.574,30.762,26.855,52.734
1532372711.028,31.738,38.574,28.809,27.344,19.531
1532372711.032,33.691,39.062,31.250,29.785,15.625
1532372711.036,33.203,39.062,34.180,33.203,40.527
1532372711.040,33.203,35.156,35.156,39.551,62.500
1532372711.044,30.762,31.738,36.133,41.504,53.223
1532372711.048,29.785,33.691,34.668,41.016,0.488
1532372711.052,36.133,36.133,33.203,41.016,24.414
1532372711.056,35.156,35.156,33.691,42.480,80.078
1532372711.060,32.227,30.762,34.180,42.969,60.059
1532372711.064,37.109,30.273,37.109,41.992,52.246
1532372711.067,34.668,35.156,35.645,31.250,44.434
1532372711.071,35.645,37.598,33.203,24.414,33.691
1532372711.075,35.645,34.668,36.621,33.203,48.828
1532372711.079,31.250,32.715,35.156,30.762,42.969
1532372711.083,34.180,34.180,32.227,33.203,55.664
1532372711.087,36.133,34.668,34.180,34.668,37.598
1532372711.091,33.691,33.203,34.180,30.762,14.160
1532372711.095,33.203,32.227,30.762,37.109,25.391
1532372711.099,31.738,34.180,31.250,40.039,48.340
1532372711.103,27.344,34.668,31.738,34.180,67.383
1532372711.107,32.715,37.598,30.762,33.203,54.688
1532372711.110,39.551,41.016,35.156,37.109,30.762
1532372711.114,37.109,42.480,41.016,39.551,23.926
1532372711.118,43.945,47.852,45.410,44.922,49.805
1532372711.122,53.711,51.270,50.781,51.758,60.547
1532372711.126,59.082,55.176,53.711,53.711,25.879
1532372711.130,61.523,60.059,56.641,57.617,13.184
1532372711.134,65.918,65.918,59.570,65.430,20.508
1532372711.138,62.988,68.848,58.594,65.430,59.082
1532372711.142,55.176,62.012,55.176,59.570,61.035
1532372711.146,58.105,59.570,53.711,55.664,33.691
1532372711.149,59.082,58.594,49.805,49.316,22.949
1532372711.153,51.758,53.711,46.875,47.363,53.223
1532372711.157,48.828,50.293,45.410,51.270,52.734
1532372711.161,44.434,47.852,44.434,50.293,9.766
1532372711.165,41.016,47.363,42.480,47.852,7.324
1532372711.169,43.457,49.316,42.969,45.410,7.812
1532372711.173,50.781,49.316,42.480,47.852,24.414
1532372711.177,53.711,47.852,39.062,49.805,10.742
1532372711.181,48.340,47.852,39.551,49.316,7.812
1532372711.185,46.387,46.387,39.551,49.316,32.715
1532372711.189,44.434,44.434,38.086,47.852,45.898
1532372711.192,43.945,44.922,35.645,43.945,29.297
1532372711.196,50.293,44.922,33.691,43.457,4.395
1532372711.200,51.758,45.898,31.738,45.898,22.949
1532372711.204,44.922,48.340,30.762,45.410,65.918
1532372711.208,43.945,45.898,30.762,45.410,49.805
1532372711.212,48.340,45.410,31.250,46.875,0.977
1532372711.216,52.246,48.828,30.273,49.316,8.301
1532372711.220,60.547,47.852,30.762,49.316,77.637
1532372711.224,55.176,46.387,27.832,46.875,84.473
1532372711.228,52.246,44.922,25.391,41.992,34.668
1532372711.232,55.176,43.457,31.738,42.969,31.738
1532372711.235,48.828,42.969,33.691,50.781,70.312
1532372711.239,50.293,44.434,33.691,55.664,91.797
1532372711.243,44.434,44.434,33.691,51.758,54.688
1532372711.247,43.457,43.457,32.227,43.945,-5.371
1532372711.251,48.340,42.969,28.809,44.434,30.762
1532372711.255,45.898,42.969,26.855,44.922,98.633
1532372711.259,42.969,43.457,28.320,40.039,55.664
1532372711.263,44.922,42.969,29.297,41.504,-18.066
1532372711.267,48.828,43.457,28.809,44.434,6.836
1532372711.271,50.293,42.969,26.855,45.410,44.922
1532372711.274,46.875,42.969,26.855,44.922,6.836
1532372711.278,42.969,42.480,26.367,43.945,11.719
1532372711.282,38.574,42.969,25.879,41.504,47.363
1532372711.286,41.504,43.945,23.926,36.621,36.133
1532372711.290,40.039,45.410,20.020,32.715,28.809
1532372711.294,41.016,45.410,17.090,35.645,26.367
1532372711.298,42.969,41.992,19.531,39.062,33.203
1532372711.302,45.898,45.410,19.531,43.457,69.336
1532372711.306,45.410,46.875,17.090,40.039,51.758
1532372711.310,40.039,41.504,16.602,30.273,17.578
1532372711.314,36.133,39.062,14.648,30.762,5.859
1532372711.317,36.133,38.574,17.578,36.133,26.855
1532372711.321,36.621,40.039,19.531,41.016,59.082
1532372711.325,38.574,39.551,19.043,41.016,21.973
1532372711.329,41.016,37.598,19.043,33.203,-30.762
1532372711.333,37.109,39.551,16.602,28.809,-23.926
1532372711.337,36.133,40.039,15.137,25.391,34.668
1532372711.341,47.852,41.016,15.137,26.855,60.059
1532372711.345,48.828,41.016,14.648,34.180,17.090
1532372711.349,32.715,38.574,13.672,34.180,19.531
1532372711.353,40.527,38.086,17.090,40.039,44.434
1532372711.356,49.316,38.086,16.113,40.039,41.504
1532372711.360,52.246,39.551,14.648,37.598,38.574
1532372711.364,61.035,41.016,15.137,37.598,10.742
1532372711.368,65.918,42.969,12.695,33.691,3.906
1532372711.372,57.129,41.992,15.137,38.086,37.109
1532372711.376,48.828,38.574,15.625,45.410,21.973
1532372711.380,45.898,38.086,13.672,47.363,2.930
1532372711.384,38.574,39.062,12.695,51.270,30.273
1532372711.388,33.691,36.621,12.207,50.293,42.969
1532372711.392,32.715,31.738,16.113,49.316,40.527
1532372711.396,31.250,30.762,17.090,45.898,20.996
1532372711.399,30.762,31.738,14.648,43.457,29.297
1532372711.403,31.250,32.227,12.207,44.434,75.684
1532372711.407,39.551,31.738,11.230,45.898,65.918
1532372711.411,48.340,32.715,12.695,50.293,12.207
1532372711.415,44.922,34.180,17.090,58.105,4.395
1532372711.419,45.898,35.645,18.066,57.617,34.180
1532372711.423,52.246,37.109,16.113,52.734,41.504
1532372711.427,50.293,35.156,14.648,50.293,12.695
1532372711.431,39.551,35.156,11.719,39.551,-6.836
1532372711.435,36.133,33.691,12.207,34.180,38.086
1532372711.439,36.621,32.715,12.695,42.480,68.848
1532372711.442,37.598,36.133,11.230,42.969,40.039
1532372711.446,39.551,35.645,11.719,40.527,33.691
1532372711.450,35.645,35.156,11.230,36.621,55.664
1532372711.454,32.715,35.645,8.301,35.156,76.660
1532372711.458,39.062,37.598,10.254,37.598,53.711
1532372711.462,38.574,34.180,11.719,34.180,17.578
1532372711.466,35.645,33.203,9.277,31.250,39.551
1532372711.470,31.738,33.203,10.254,32.227,61.523
1532372711.474,25.879,32.227,10.254,26.855,42.480
1532372711.478,30.273,32.227,9.277,27.344,26.855
1532372711.481,32.715,34.180,10.254,37.109,38.086
1532372711.485,29.297,39.062,9.766,38.086,45.410
1532372711.489,32.227,38.086,9.277,32.227,32.715
1532372711.493,32.227,34.668,9.766,32.715,17.090
1532372711.497,28.809,35.645,10.254,33.203,12.695
1532372711.501,30.273,35.645,9.277,32.715,16.113
1532372711.505,28.320,35.645,10.254,33.203,26.855
1532372711.509,25.391,32.715,11.230,29.785,23.926
1532372711.513,26.855,32.227,9.277,29.785,-1.953
1532372711.517,29.297,35.156,10.742,34.180,5.859
1532372711.521,32.715,34.668,14.648,37.598,56.641
1532372711.524,32.715,35.645,13.672,39.551,35.645
1532372711.528,32.227,35.156,13.184,29.785,-16.602
1532372711.532,34.668,34.668,13.184,30.762,-9.277
1532372711.536,33.203,33.203,14.160,39.062,48.340
1532372711.540,31.250,33.203,14.160,36.133,73.730
1532372711.544,33.691,32.715,12.695,37.598,20.020
1532372711.548,33.691,31.738,11.230,34.668,-27.832
1532372711.552,32.227,32.715,9.766,30.762,8.301
1532372711.556,34.180,35.156,10.254,36.133,44.434
1532372711.560,36.133,33.691,11.230,37.109,7.812
1532372711.564,39.551,33.203,13.672,33.691,4.395
1532372711.567,33.203,32.715,12.695,33.203,17.578
1532372711.571,27.832,30.762,11.719,31.250,39.062
1532372711.575,28.809,30.762,13.184,29.785,46.875
1532372711.579,30.762,31.250,14.160,33.691,-2.441
1532372711.583,34.180,31.250,13.672,36.621,-3.418
1532372711.587,30.273,30.762,12.207,28.809,44.922
1532372711.591,25.879,30.273,12.207,28.320,55.664
1532372711.595,27.832,31.250,12.207,33.203,21.973
1532372711.599,37.109,33.691,15.625,36.621,-17.090
1532372711.603,41.016,33.691,17.090,41.992,32.227
1532372711.606,37.109,33.691,19.043,46.387,69.824
1532372711.610,34.668,33.691,19.043,41.016,-0.488
1532372711.614,30.762,34.180,18.555,35.156,-18.066
1532372711.618,26.367,34.668,20.020,42.480,35.156
1532372711.622,26.855,32.227,21.484,45.410,69.336
1532372711.626,25.391,29.785,22.461,41.992,17.090
1532372711.630,23.926,30.273,20.996,41.016,-25.391
1532372711.634,26.367,32.715,21.973,42.969,18.066
1532372711.638,28.809,33.691,22.461,41.504,51.270
1532372711.642,30.762,34.668,24.414,47.363,42.969
1532372711.646,29.297,33.691,23.926,42.969,19.531
1532372711.649,24.414,34.180,17.090,27.832,13.672
1532372711.653,21.484,33.691,17.090,29.785,52.246
1532372711.657,26.367,32.227,19.531,36.621,53.711
1532372711.661,36.133,34.180,21.484,42.969,33.691
1532372711.665,41.504,37.598,23.438,49.316,29.785
1532372711.669,39.551,41.504,27.344,48.828,21.484
1532372711.673,35.156,41.992,28.809,45.410,49.316
1532372711.677,31.250,41.016,23.926,39.551,20.020
1532372711.681,30.762,40.039,21.973,35.645,-13.184
1532372711.685,35.156,40.039,23.438,36.621,29.785
1532372711.688,31.250,38.086,22.949,35.156,65.918
1532372711.692,31.738,36.133,19.531,34.668,18.066
1532372711.696,33.203,36.133,20.996,35.645,-24.902
1532372711.700,33.691,36.133,24.414,39.062,4.395
1532372711.704,36.621,37.598,23.926,37.598,39.551
1532372711.708,33.203,37.109,22.461,31.738,42.969
1532372711.712,36.621,35.645,23.438,34.180,18.066
1532372711.716,38.574,37.598,25.391,37.598,-7.812
1532372711.720,36.133,38.574,23.438,36.621,21.973
1532372711.724,32.715,37.598,19.531,34.668,33.691
1532372711.728,35.645,35.645,20.020,32.227,-19.531
1532372711.731,37.109,35.645,19.531,31.250,-56.641
1532372711.735,35.645,35.645,19.043,35.645,16.602
1532372711.739,33.203,31.738,20.020,37.598,39.551
1532372711.743,33.691,28.809,18.066,34.668,-2.441
1532372711.747,38.086,31.738,19.531,31.250,-12.695
1532372711.751,38.086,36.621,19.531,30.273,-7.812
1532372711.755,38.574,35.156,17.090,32.715,46.387
1532372711.759,37.598,32.227,16.602,34.668,45.410
1532372711.763,33.203,32.715,18.555,35.156,9.277
1532372711.767,33.691,34.180,14.648,33.691,22.461
1532372711.771,35.645,34.668,15.625,33.203,65.918
1532372711.774,31.738,31.738,20.508,32.227,55.664
1532372711.778,35.645,33.691,17.578,28.809,-2.441
1532372711.782,32.715,35.156,16.602,29.785,12.207
1532372711.786,28.809,33.691,19.043,35.156,28.320
1532372711.790,31.250,34.668,19.043,34.180,28.809
1532372711.794,32.227,36.133,18.066,30.273,16.113
1532372711.798,35.645,37.598,19.531,30.762,12.207
1532372711.802,32.227,38.086,21.973,35.156,40.039
1532372711.806,32.715,39.062,20.508,33.691,45.898
1532372711.810,34.668,39.551,19.043,30.762,11.719
1532372711.813,33.203,38.086,18.555,26.855,5.371
1532372711.817,33.203,36.621,16.602,30.762,34.668
1532372711.821,38.574,34.180,19.531,36.621,73.242
1532372711.825,42.480,34.180,22.461,33.203,66.895
1532372711.829,37.598,33.203,20.996,23.438,-5.371
1532372711.833,34.180,33.203,21.973,25.391,-17.090
1532372711.837,37.109,33.691,21.484,36.133,52.246
1532372711.841,42.969,32.715,22.949,41.016,57.129
1532372711.845,43.457,33.203,22.949,41.016,36.621
1532372711.849,39.062,34.668,21.973,39.551,31.738
1532372711.853,38.574,34.668,21.973,39.551,48.828
1532372711.856,36.621,33.691,20.508,37.109,62.988
1532372711.860,40.039,33.203,21.484,36.133,39.551
1532372711.864,46.387,33.203,23.926,39.551,9.766
1532372711.868,43.457,34.668,25.879,37.109,-6.348
1532372711.872,38.574,34.668,26.855,33.691,26.367
1532372711.876,35.645,33.203,24.414,36.621,47.852
1532372711.880,32.227,34.668,20.996,34.668,37.598
1532372711.884,33.203,34.668,20.020,35.645,52.734
1532372711.888,38.086,33.203,20.020,39.062,35.645
1532372711.892,34.668,30.762,19.043,32.715,20.508
1532372711.896,29.297,31.250,20.508,31.250,20.996
1532372711.899,33.203,32.227,22.949,34.180,25.391
1532372711.903,37.109,29.297,23.438,32.715,57.617
1532372711.907,31.250,28.809,22.461,30.273,76.172
1532372711.911,28.809,30.273,24.414,33.691,57.617
1532372711.915,24.414,28.809,23.438,34.668,3.906
1532372711.919,21.973,27.832,20.020,33.203,35.645
1532372711.923,29.785,27.832,22.949,38.574,73.242
1532372711.927,38.086,25.879,23.438,43.457,1.465
1532372711.931,37.598,26.367,22.949,49.805,-15.137
1532372711.935,35.645,28.320,23.926,56.641,48.828
1532372711.938,34.668,27.832,20.996,51.270,41.016
1532372711.942,29.297,21.484,20.996,41.992,34.180
1532372711.946,29.785,22.949,20.508,38.086,16.113
1532372711.950,37.598,30.273,16.602,50.293,7.324
1532372711.954,39.551,31.250,16.602,55.176,32.227
1532372711.958,27.832,24.902,19.531,41.016,37.598
1532372711.962,20.020,20.020,23.926,38.574,16.602
1532372711.966,34.668,21.484,22.949,46.875,6.348
1532372711.970,45.898,22.461,20.020,52.734,21.973
1532372711.974,45.898,20.020,22.461,54.688,40.527
1532372711.978,42.480,18.066,21.484,57.617,32.227
1532372711.981,37.109,18.555,18.555,58.594,22.461
1532372711.985,36.621,18.066,18.066,49.805,41.992
1532372711.989,41.016,20.508,20.508,49.805,53.711
1532372711.993,37.598,19.531,19.531,58.594,62.988
1532372711.997,38.574,16.113,19.531,55.664,23.438
1532372712.001,37.109,17.090,19.531,50.781,17.090
1532372712.005,34.180,17.578,20.508,50.781,55.176
1532372712.009,31.738,17.578,20.996,46.875,41.504
1532372712.013,30.273,16.602,18.555,40.527,42.480
1532372712.017,36.621,15.625,22.461,41.992,41.016
1532372712.020,44.922,16.602,28.809,49.316,59.082
1532372712.024,48.828,18.066,23.438,50.293,44.434
1532372712.028,48.828,17.090,20.996,43.457,-11.230
1532372712.032,47.852,16.113,25.391,33.691,-23.926
1532372712.036,49.316,14.648,25.391,30.273,31.250
1532372712.040,60.059,15.137,27.832,39.062,52.246
1532372712.044,61.523,18.555,29.297,43.945,21.484
1532372712.048,50.781,16.602,24.414,42.480,2.441
1532372712.052,47.852,13.184,22.461,45.410,32.227
1532372712.056,41.016,12.207,25.391,48.828,78.613
1532372712.060,36.133,10.742,25.391,54.199,45.410
1532372712.063,34.668,10.742,22.949,54.199,19.531
1532372712.067,35.156,13.672,24.414,51.758,19.043
1532372712.071,34.180,12.207,24.902,49.805,68.848
1532372712.075,36.621,11.719,23.926,44.434,62.012
1532372712.079,40.527,14.648,21.973,42.480,23.438
1532372712.083,33.691,15.625,24.902,46.875,58.594
1532372712.087,36.621,15.137,26.855,43.945,53.711
1532372712.091,38.086,11.230,23.926,38.086,16.113
1532372712.095,40.039,10.254,25.879,47.852,7.812
1532372712.099,40.039,9.766,28.320,50.781,10.742
1532372712.103,42.480,9.766,29.785,50.293,46.387
1532372712.106,42.969,11.230,29.785,51.270,58.105
1532372712.110,34.180,9.277,27.344,44.434,40.039
1532372712.114,40.527,7.812,27.344,49.805,32.715
1532372712.118,43.457,10.254,29.785,54.688,49.316
1532372712.122,40.039,11.230,31.738,52.246,80.566
1532372712.126,39.551,11.230,29.785,48.340,26.367
1532372712.130,38.086,12.695,28.320,43.457,-21.973
1532372712.134,33.691,12.695,30.273,40.039,20.996
1532372712.138,27.832,12.207,29.785,37.109,55.664
1532372712.142,33.691,15.137,27.344,43.945,51.758
1532372712.145,37.598,16.113,26.367,42.480,-2.930
1532372712.149,32.715,12.695,28.320,35.645,-7.812
1532372712.153,32.715,15.137,27.832,36.621,82.031
1532372712.157,37.109,16.113,28.320,41.504,70.801
1532372712.161,41.016,15.137,32.227,46.875,20.996
1532372712.165,49.316,19.043,32.227,49.316,13.184
1532372712.169,55.664,16.602,32.227,54.199,20.508
1532372712.173,49.805,13.184,32.715,54.199,59.082
1532372712.177,47.852,15.625,33.203,52.246,44.434
1532372712.181,45.898,15.137,34.180,56.641,3.418
1532372712.185,41.992,14.160,34.668,57.129,35.645
1532372712.188,40.527,16.113,35.156,50.781,62.500
1532372712.192,38.086,18.066,34.668,46.875,41.992
1532372712.196,40.527,17.090,34.668,51.270,17.578
1532372712.200,44.922,15.137,36.133,49.316,30.762
1532372712.204,43.945,15.137,37.109,50.781,81.543
1532372712.208,43.457,15.137,36.133,51.758,76.660
1532372712.212,44.922,14.160,33.203,52.246,20.508
1532372712.216,46.875,16.602,32.715,56.641,16.113
1532372712.220,42.969,19.043,31.738,47.363,53.711
1532372712.224,42.969,20.508,33.203,43.945,60.059
1532372712.228,47.363,21.973,33.691,47.363,13.184
1532372712.231,45.410,19.531,32.715,45.410,7.812
1532372712.235,41.992,17.578,34.180,45.410,35.645
1532372712.239,42.480,15.625,31.738,43.945,40.039
1532372712.243,50.293,14.160,30.273,42.969,39.551
1532372712.247,47.363,17.090,30.273,41.992,4.395
1532372712.251,40.527,16.602,31.738,41.992,-13.672
1532372712.255,36.621,16.602,32.227,39.551,10.742
1532372712.259,34.180,18.066,31.738,36.621,14.160
1532372712.263,40.527,16.602,34.180,40.527,25.391
1532372712.267,45.410,18.066,35.645,47.852,-2.930
1532372712.270,45.898,18.555,35.645,42.969,-13.672
1532372712.274,47.852,19.043,34.180,40.039,0.000
1532372712.278,47.852,20.996,34.668,44.922,-7.324
1532372712.282,44.922,18.555,36.133,44.434,-3.418
1532372712.286,39.551,15.625,36.133,41.016,20.996
1532372712.290,39.062,16.602,33.691,37.109,37.109
1532372712.294,42.480,17.578,33.203,37.109,21.484
1532372712.298,42.480,18.555,31.250,39.551,-1.465
1532372712.302,44.922,19.531,30.273,40.527,12.207
1532372712.306,45.898,19.043,30.273,42.969,28.809
1532372712.310,42.480,19.043,31.250,39.062,-42.969
1532372712.313,40.527,19.531,32.227,35.645,-38.086
1532372712.317,37.598,20.996,34.668,46.387,14.160
1532372712.321,31.738,18.555,30.273,50.781,54.199
1532372712.325,28.809,14.648,30.273,45.898,32.227
1532372712.329,35.645,15.137,37.598,50.293,0.000
1532372712.333,34.180,15.137,35.156,52.246,12.695
1532372712.337,32.227,15.137,32.227,46.875,36.133
1532372712.341,29.297,12.207,28.809,38.086,32.715
1532372712.345,27.344,7.812,24.902,29.785,-7.324
1532372712.349,32.715,14.160,30.762,41.504,-23.926
1532372712.352,33.203,16.602,29.785,45.898,14.160
1532372712.356,31.738,14.160,23.438,41.016,46.387
1532372712.360,34.180,19.043,32.227,47.363,32.715
1532372712.364,33.691,20.020,35.645,42.969,7.324
1532372712.368,30.762,16.602,33.691,38.086,-2.441
1532372712.372,30.273,17.578,34.668,33.691,7.324
1532372712.376,28.809,16.113,32.227,28.809,17.578
1532372712.380,27.344,13.672,30.762,33.691,33.203
1532372712.384,27.832,13.672,31.250,39.062,29.297
1532372712.388,29.785,16.113,31.250,38.574,42.969
1532372712.392,33.691,18.066,31.250,39.551,49.316
1532372712.395,35.156,19.043,26.367,39.062,9.766
1532372712.399,35.645,19.043,25.879,38.574,-0.977
1532372712.403,35.156,17.578,27.344,35.645,30.273
1532372712.407,32.715,19.043,25.391,26.855,34.668
1532372712.411,35.156,19.531,28.809,33.691,-0.977
1532372712.415,37.598,20.020,27.344,41.992,-9.277
1532372712.419,36.133,20.020,24.902,41.504,25.879
1532372712.423,34.180,16.602,27.832,40.039,63.477
1532372712.427,32.227,15.625,28.320,35.645,21.484
1532372712.431,37.109,17.090,28.809,39.062,14.160
1532372712.435,33.203,14.648,33.203,38.574,44.434
1532372712.438,27.832,12.695,34.180,38.086,70.801
1532372712.442,30.762,14.160,34.668,43.945,57.617
1532372712.446,33.691,17.090,36.133,45.898,17.578
1532372712.450,34.668,17.578,33.203,42.969,34.180
1532372712.454,41.016,14.160,33.691,41.016,57.617
1532372712.458,39.062,12.207,34.180,37.109,53.223
1532372712.462,32.227,12.207,30.762,35.645,28.809
1532372712.466,39.062,12.207,30.762,40.527,12.207
1532372712.470,39.551,15.625,32.227,40.527,5.371
1532372712.474,36.133,16.113,33.203,38.086,47.852
1532372712.477,38.574,15.625,34.180,40.527,51.270
1532372712.481,37.598,17.578,36.133,41.504,37.598
1532372712.485,39.551,19.043,34.180,40.039,62.012
1532372712.489,48.828,20.020,32.715,43.945,51.758
1532372712.493,47.852,19.531,32.227,45.410,31.738
1532372712.497,43.945,17.090,31.738,43.945,15.137
1532372712.501,42.480,14.648,37.109,44.434,43.457
1532372712.505,33.203,12.207,34.668,40.039,74.219
1532372712.509,35.645,11.719,32.715,40.527,33.691
1532372712.513,41.992,14.160,33.203,42.480,-4.883
1532372712.517,36.133,14.160,32.227,41.504,22.461
1532372712.520,37.109,14.648,36.621,40.527,71.289
1532372712.524,37.109,18.555,34.668,39.551,63.965
1532372712.528,35.645,16.602,31.250,36.133,3.906
1532372712.532,37.109,15.137,31.738,36.133,-5.859
1532372712.536,40.039,16.602,33.691,36.133,12.695
1532372712.540,40.039,15.625,36.133,39.551,28.320
1532372712.544,38.574,15.137,32.227,37.109,6.348
1532372712.548,39.062,15.137,32.227,33.691,-4.883
1532372712.552,33.203,13.184,33.691,32.715,43.945
1532372712.556,28.809,11.719,33.691,28.320,48.828
1532372712.559,34.180,13.672,34.180,30.273,30.762
1532372712.563,38.086,15.625,35.645,38.086,30.762
1532372712.567,36.133,16.113,36.133,36.621,11.230
1532372712.571,33.203,15.137,36.133,32.227,25.391
1532372712.575,37.109,13.672,35.156,35.645,44.434
1532372712.579,40.039,17.090,35.645,40.039,-1.953
1532372712.583,33.691,18.066,35.645,42.969,4.395
1532372712.587,28.809,16.602,33.691,39.062,53.223
1532372712.591,27.832,16.113,36.133,34.180,35.156
1532372712.595,23.926,16.113,35.645,33.691,16.113
1532372712.599,26.367,16.113,35.156,34.668,27.344
1532372712.602,31.250,13.672,39.062,31.738,43.457
1532372712.606,24.902,11.230,36.621,26.855,28.320
1532372712.610,20.508,9.277,30.273,22.949,20.508
1532372712.614,18.555,9.277,31.738,23.926,-2.441
1532372712.618,26.367,14.648,35.645,35.645,-15.137
1532372712.622,34.180,17.090,38.574,45.898,49.805
1532372712.626,33.203,18.555,37.109,43.945,43.457
1532372712.630,34.180,21.484,35.645,39.062,-35.645
1532372712.634,39.062,20.996,37.598,41.016,-15.625
1532372712.638,38.574,24.902,38.086,41.016,50.781
1532372712.642,33.203,27.344,39.551,41.016,50.781
1532372712.645,31.738,26.855,39.062,39.551,5.371
1532372712.649,29.297,26.855,38.574,38.086,-1.953
1532372712.653,28.809,28.809,41.016,38.086,31.250
1532372712.657,25.879,32.227,37.598,33.203,37.598
1532372712.661,17.090,28.320,38.086,23.926,17.090
1532372712.665,14.160,24.414,47.852,27.832,-2.930
1532372712.669,26.367,27.344,45.898,35.156,-1.953
1532372712.673,29.297,37.109,33.203,27.344,23.438
1532372712.677,11.719,42.969,29.785,10.254,15.625
1532372712.681,-4.883,39.551,38.086,-0.488,-4.395
1532372712.684,-0.977,37.598,42.480,8.789,14.648
1532372712.688,10.742,40.039,35.156,14.648,41.992
1532372712.692,9.766,45.410,30.273,6.836,30.762
1532372712.696,0.977,44.922,33.203,-0.977,12.695
1532372712.700,0.488,42.480,31.738,-1.953,21.973
1532372712.704,9.766,42.480,30.762,3.418,64.941
1532372712.708,12.207,40.039,34.180,2.441,37.598
1532372712.712,15.137,41.504,33.203,-1.953,-25.391
1532372712.716,20.020,41.016,27.344,0.488,20.996
1532372712.720,27.344,39.062,24.414,1.465,76.172
1532372712.724,26.367,40.039,23.438,2.930,59.570
1532372712.727,21.484,34.668,20.996,8.301,4.883
1532372712.731,20.020,30.762,22.461,13.184,-11.719
1532372712.735,17.578,30.762,22.949,22.461,34.668
1532372712.739,23.438,28.809,19.043,33.203,59.570
1532372712.743,26.367,27.832,19.043,37.109,34.180
1532372712.747,22.461,26.367,20.020,35.645,9.766
1532372712.751,22.949,23.926,18.066,41.504,26.367
1532372712.755,27.832,25.879,16.113,47.363,53.711
1532372712.759,32.227,26.367,15.625,45.410,20.508
1532372712.763,33.203,23.438,16.602,42.969,5.859
1532372712.767,42.480,26.855,16.602,42.969,3.418
1532372712.770,41.504,29.297,14.648,44.434,22.949
1532372712.774,33.203,24.414,13.184,49.316,38.574
1532372712.778,38.574,22.461,15.137,49.805,25.879
1532372712.782,43.457,24.902,16.113,48.828,43.457
1532372712.786,43.457,25.879,13.672,45.898,26.367
1532372712.790,38.574,25.879,9.277,38.086,9.766
1532372712.794,36.133,25.879,5.859,37.598,0.977
1532372712.798,42.480,27.832,5.371,42.480,3.418
1532372712.802,45.410,26.855,6.348,46.387,41.992
1532372712.806,45.410,26.367,7.812,48.340,35.156
1532372712.809,49.805,25.391,6.348,46.387,31.250
1532372712.813,44.922,23.926,6.836,42.480,20.508
1532372712.817,44.434,24.414,5.859,40.527,-12.695
1532372712.821,47.363,23.438,5.859,45.898,37.598
1532372712.825,44.434,25.391,4.883,52.246,30.762
1532372712.829,49.805,28.809,1.465,44.434,-12.695
1532372712.833,46.387,28.809,1.465,41.016,5.371
1532372712.837,42.480,28.809,-0.977,47.363,50.293
1532372712.841,44.922,28.809,0.488,44.434,60.547
1532372712.845,41.992,27.832,3.906,41.504,4.883
1532372712.849,42.480,26.855,0.977,42.480,-16.602
1532372712.852,43.457,28.320,0.488,44.434,9.766
1532372712.856,44.922,30.762,0.488,47.363,46.387
1532372712.860,48.340,30.273,-1.953,48.828,56.152
1532372712.864,50.293,30.273,-0.488,47.852,35.645
1532372712.868,54.688,30.273,0.000,44.434,11.719
1532372712.872,47.363,31.738,-2.930,41.016,6.348
1532372712.876,42.969,31.250,-4.883,42.969,9.277
1532372712.880,47.852,27.832,-3.418,43.945,7.324
1532372712.884,48.340,24.902,-3.418,41.504,-3.906
1532372712.888,45.898,26.855,-5.371,39.551,33.203
1532372712.891,43.457,28.320,-6.836,38.086,42.969
1532372712.895,47.363,27.344,-7.812,37.598,1.465
1532372712.899,50.781,26.855,-9.277,39.551,6.836
1532372712.903,48.340,27.344,-10.742,40.527,26.367
1532372712.907,48.828,28.320,-11.719,41.016,33.203
1532372712.911,51.270,28.320,-12.207,43.945,31.738
1532372712.915,52.246,29.297,-13.672,48.828,20.020
1532372712.919,55.664,30.762,-13.672,49.805,46.875
1532372712.923,56.641,31.738,-14.160,49.805,83.984
1532372712.927,54.688,29.785,-16.113,46.387,42.480
1532372712.931,54.688,29.785,-14.160,47.363,-10.254
1532372712.934,54.688,28.809,-12.695,50.781,30.273
1532372712.938,53.223,28.809,-14.648,48.828,73.242
1532372712.942,60.547,29.785,-15.625,50.293,35.645
1532372712.946,57.617,26.367,-16.113,50.293,-10.254
1532372712.950,54.199,27.832,-19.531,47.363,-5.371
1532372712.954,58.594,31.250,-20.508,50.781,27.344
1532372712.958,56.641,30.762,-21.484,51.270,46.875
1532372712.962,56.152,28.320,-22.461,50.293,22.949
1532372712.966,58.594,32.227,-20.996,55.176,-4.883
1532372712.970,61.523,34.668,-22.949,59.082,27.832
1532372712.974,59.570,32.227,-23.438,57.129,51.758
1532372712.977,56.152,32.227,-22.949,56.152,36.133
1532372712.981,58.105,32.715,-23.438,60.547,44.922
1532372712.985,55.664,32.227,-22.949,61.523,45.410
1532372712.989,52.246,33.203,-23.438,59.082,42.969
1532372712.993,49.316,33.691,-24.414,58.105,19.043
1532372712.997,46.875,33.691,-23.926,57.617,-0.488
1532372713.001,52.734,34.668,-22.949,62.012,47.852
1532372713.005,53.223,35.645,-25.391,61.035,63.965
1532372713.009,55.176,36.133,-27.344,52.246,15.137
1532372713.013,53.223,36.621,-30.762,52.734,-4.395
1532372713.016,50.293,37.109,-30.762,59.082,21.484
1532372713.020,55.176,38.086,-26.367,61.035,62.988
1532372713.024,54.199,36.621,-27.344,58.594,47.363
1532372713.028,51.758,35.645,-31.738,54.199,22.461
1532372713.032,53.711,36.133,-29.297,57.129,29.785
1532372713.036,59.082,35.645,-27.344,62.500,55.664
1532372713.040,59.082,36.621,-31.250,60.547,71.777
1532372713.044,60.059,36.133,-29.297,62.012,44.434
1532372713.048,64.941,34.668,-27.832,61.523,8.301
1532372713.052,56.152,33.203,-32.715,58.105,17.578
1532372713.056,47.363,32.715,-36.133,57.129,64.941
1532372713.059,50.293,30.762,-36.133,57.617,58.105
1532372713.063,51.758,27.832,-32.227,65.430,31.738
1532372713.067,51.270,27.832,-31.250,60.547,13.672
1532372713.071,55.664,29.785,-32.227,53.223,24.414
1532372713.075,58.594,31.250,-34.668,55.176,37.598
1532372713.079,56.152,30.273,-36.621,53.711,16.113
1532372713.083,55.176,29.785,-32.715,52.734,9.277
1532372713.087,51.758,31.738,-30.273,46.387,41.504
1532372713.091,51.270,34.180,-31.250,44.434,42.480
1532372713.095,51.758,32.227,-33.203,46.875,2.441
1532372713.099,44.922,29.297,-35.645,46.875,-4.395
1532372713.102,44.434,28.809,-34.180,51.758,43.457
1532372713.106,49.805,28.809,-32.715,51.758,54.199
1532372713.110,45.410,27.344,-39.062,42.480,23.926
1532372713.114,40.039,26.367,-40.039,42.969,46.875
1532372713.118,51.758,31.250,-35.156,49.316,71.289
1532372713.122,56.152,31.738,-35.156,53.223,55.664
1532372713.126,50.293,26.367,-35.156,53.711,7.324
1532372713.130,47.852,23.438,-37.109,50.781,-8.301
1532372713.134,43.945,25.391,-39.062,52.734,38.086
1532372713.138,40.039,30.273,-38.086,52.246,43.945
1532372713.141,42.969,33.203,-33.691,49.316,41.992
1532372713.145,44.922,33.203,-35.156,50.781,24.414
1532372713.149,41.016,34.180,-34.668,44.434,-26.855
1532372713.153,39.551,33.203,-32.715,38.574,21.973
1532372713.157,42.969,31.738,-35.645,47.363,49.805
1532372713.161,43.457,32.227,-38.086,49.316,24.414
1532372713.165,43.457,34.180,-37.109,47.363,37.598
1532372713.169,46.875,36.133,-33.691,52.734,50.293
1532372713.173,52.246,33.203,-36.133,54.688,56.641
1532372713.177,57.617,31.738,-38.086,59.082,52.734
1532372713.181,57.617,34.668,-34.180,64.453,27.344
1532372713.184,57.129,32.227,-30.762,63.965,34.180
1532372713.188,55.176,31.250,-34.180,58.594,48.828
1532372713.192,54.199,32.715,-38.574,55.664,22.949
1532372713.196,56.641,32.715,-35.156,58.594,14.160
1532372713.200,55.664,34.668,-31.738,59.570,22.949
1532372713.204,55.176,36.621,-33.203,62.500,48.828
1532372713.208,62.012,38.574,-34.180,62.988,27.344
1532372713.212,66.406,39.551,-31.738,61.523,-0.488
1532372713.216,61.035,41.504,-30.273,59.082,13.672
1532372713.220,60.059,43.945,-29.297,61.035,37.598
1532372713.223,63.965,41.992,-27.832,63.965,57.617
1532372713.227,63.477,41.016,-28.809,64.941,26.367
1532372713.231,58.105,39.062,-30.273,62.988,5.371
1532372713.235,56.152,41.992,-32.227,63.965,31.738
1532372713.239,59.570,41.504,-32.715,65.430,48.340
1532372713.243,60.059,37.109,-33.203,64.941,36.133
1532372713.247,53.223,39.062,-33.691,64.941,16.113
1532372713.251,58.105,43.457,-32.715,63.965,20.020
1532372713.255,63.477,44.434,-31.250,65.918,40.039
1532372713.259,57.129,42.480,-31.738,62.012,43.945
1532372713.263,52.734,41.504,-32.227,59.570,30.273
1532372713.266,54.199,41.504,-29.785,60.059,20.996
1532372713.270,58.105,39.062,-30.273,57.617,45.898
1532372713.274,56.641,38.574,-33.691,57.617,54.199
1532372713.278,51.758,41.504,-33.203,56.641,33.203
1532372713.282,55.176,43.945,-30.762,59.570,26.367
1532372713.286,56.641,43.945,-31.250,61.523,41.504
1532372713.290,55.176,41.504,-34.668,55.176,60.547
1532372713.294,53.223,41.504,-34.668,52.246,41.504
1532372713.298,50.293,41.992,-34.180,53.223,15.625
1532372713.302,49.316,43.457,-35.156,53.223,31.738
1532372713.306,49.316,42.480,-33.203,54.199,37.598
1532372713.309,55.176,38.574,-32.715,47.852,1.465
1532372713.313,54.688,40.527,-33.691,48.340,-18.066
1532372713.317,50.781,41.016,-30.762,55.664,5.371
1532372713.321,56.641,39.062,-32.227,57.129,69.824
1532372713.325,50.293,38.574,-38.086,50.293,59.570
1532372713.329,46.875,40.527,-43.457,42.969,7.324
1532372713.333,58.105,44.922,-41.016,52.734,1.465
1532372713.337,59.570,44.922,-39.062,59.570,29.297
1532372713.341,56.152,41.504,-41.992,51.270,73.730
1532372713.345,56.152,42.480,-43.945,47.852,37.109
1532372713.348,55.176,42.480,-45.410,47.852,1.465
1532372713.352,55.176,43.457,-44.922,48.340,47.363
1532372713.356,53.223,43.457,-46.387,49.805,51.758
1532372713.360,54.688,41.504,-49.316,52.734,22.461
1532372713.364,52.734,40.039,-48.828,54.199,15.625
1532372713.368,50.293,40.527,-46.875,53.223,10.742
1532372713.372,56.641,42.480,-46.875,57.129,56.641
1532372713.376,57.129,40.039,-46.875,58.105,65.918
1532372713.380,52.734,39.551,-47.852,53.223,25.879
1532372713.384,50.293,40.039,-50.781,49.316,17.578
1532372713.388,51.758,39.062,-49.805,44.922,44.434
1532372713.391,54.199,40.527,-51.758,41.016,32.715
1532372713.395,54.688,41.992,-57.129,39.551,22.461
1532372713.399,66.406,41.992,-54.688,41.504,23.438
1532372713.403,75.195,41.504,-52.734,44.922,59.570
1532372713.407,72.266,40.039,-52.246,47.852,56.152
1532372713.411,71.777,41.504,-50.781,52.734,13.184
1532372713.415,66.895,42.480,-51.758,58.594,29.785
1532372713.419,57.617,41.016,-50.781,62.988,36.133
1532372713.423,51.270,41.016,-52.246,62.500,46.875
1532372713.427,44.922,41.016,-53.223,61.523,11.719
1532372713.431,41.504,40.039,-49.316,59.570,-23.926
1532372713.434,41.504,39.551,-48.340,56.152,5.371
1532372713.438,43.945,40.039,-47.363,64.941,49.316
1532372713.442,49.316,41.504,-49.316,72.754,60.547
1532372713.446,51.270,40.039,-50.781,61.523,16.602
1532372713.450,50.781,39.551,-50.293,51.758,-0.977
1532372713.454,49.805,40.039,-50.293,53.711,32.715
1532372713.458,50.781,39.062,-49.316,60.059,43.945
1532372713.462,55.664,40.527,-46.387,58.594,28.320
1532372713.466,53.223,41.016,-48.828,55.176,21.484
1532372713.470,53.711,41.504,-50.781,53.711,50.781
1532372713.473,57.617,42.969,-49.316,58.105,78.125
1532372713.477,59.082,45.410,-48.828,62.500,33.203
1532372713.481,61.035,44.922,-46.875,59.082,0.488
1532372713.485,56.152,45.898,-46.875,54.199,27.832
1532372713.489,55.176,46.875,-46.875,52.734,69.336
1532372713.493,53.223,43.945,-42.969,54.199,38.086
1532372713.497,50.781,42.480,-42.480,54.688,-16.113
1532372713.501,54.688,44.922,-42.969,57.129,10.742
1532372713.505,56.152,44.434,-39.551,62.988,45.410
1532372713.509,53.223,43.945,-37.109,60.059,28.320
1532372713.513,50.781,43.457,-41.504,50.293,-23.438
1532372713.516,49.316,42.969,-46.387,50.293,-3.418
1532372713.520,50.293,44.922,-44.922,51.758,45.898
1532372713.524,50.293,43.945,-42.480,48.828,40.527
1532372713.528,48.828,42.969,-42.480,46.875,5.859
1532372713.532,50.293,44.434,-41.016,49.805,-22.949
1532372713.536,48.340,42.480,-39.062,52.734,31.250
1532372713.540,45.410,41.504,-40.039,51.758,50.293
1532372713.544,50.293,41.016,-41.504,47.363,23.926
1532372713.548,51.758,40.039,-40.039,46.875,23.438
1532372713.552,49.805,40.039,-37.598,50.781,39.551
1532372713.555,50.293,41.504,-37.598,52.734,35.645
1532372713.559,51.758,40.527,-35.645,50.293,12.207
1532372713.563,54.199,41.992,-36.621,50.781,20.996
1532372713.567,56.641,44.434,-37.109,45.898,11.230
1532372713.571,56.152,40.039,-36.621,36.621,18.066
1532372713.575,50.293,35.156,-39.062,37.109,37.598
1532372713.579,45.410,33.203,-39.062,41.992,23.926
1532372713.583,50.293,35.156,-37.598,47.363,21.973
1532372713.587,55.176,36.133,-33.691,50.781,49.805
1532372713.591,55.664,36.133,-37.598,46.387,52.734
1532372713.595,55.176,36.621,-40.039,43.457,19.531
1532372713.598,52.734,41.016,-36.133,43.945,24.902
1532372713.602,51.270,44.434,-37.109,38.574,62.988
1532372713.606,48.340,38.574,-37.109,34.668,63.477
1532372713.610,41.992,37.598,-37.598,32.715,7.812
1532372713.614,40.039,41.016,-37.109,32.715,3.418
1532372713.618,44.434,41.992,-35.645,35.156,47.852
1532372713.622,43.457,41.504,-37.598,36.621,85.449
1532372713.626,30.762,40.039,-36.133,35.645,37.109
1532372713.630,28.809,41.016,-32.227,34.668,-13.672
1532372713.634,35.156,41.992,-31.250,35.156,18.555
1532372713.638,36.133,42.969,-32.227,36.133,49.316
1532372713.641,36.621,44.434,-31.738,35.156,47.852
1532372713.645,37.109,42.480,-31.250,34.668,19.043
1532372713.649,38.086,40.039,-30.762,31.250,-36.621
1532372713.653,39.551,40.527,-27.344,35.645,-2.441
1532372713.657,41.016,44.434,-26.855,43.945,38.086
1532372713.661,40.527,44.922,-28.809,37.109,5.371
1532372713.665,40.039,44.434,-29.785,40.039,-1.953
1532372713.669,40.039,44.922,-29.785,44.434,2.930
1532372713.673,41.992,41.992,-31.738,42.969,16.602
1532372713.677,45.898,42.969,-31.250,50.781,41.992
1532372713.680,47.852,45.898,-30.762,51.758,28.809
1532372713.684,46.875,45.410,-35.156,48.828,47.363
1532372713.688,50.781,43.945,-34.668,52.246,75.684
1532372713.692,53.711,45.898,-33.203,56.641,42.480
1532372713.696,52.246,44.922,-35.645,55.664,4.395
1532372713.700,52.246,45.410,-36.621,52.246,13.184
1532372713.704,45.410,46.875,-35.156,47.363,70.801
1532372713.708,37.598,45.410,-35.156,41.016,61.035
1532372713.712,37.598,45.410,-35.645,40.039,21.973
1532372713.716,38.574,42.480,-33.691,43.457,6.836
1532372713.720,35.156,43.945,-33.203,40.527,48.828
1532372713.723,34.668,46.875,-36.133,34.668,75.684
1532372713.727,37.109,42.480,-34.668,37.598,46.387
1532372713.731,35.156,41.992,-33.203,39.551,-6.836
1532372713.735,44.922,44.922,-34.668,43.457,13.672
1532372713.739,45.898,45.410,-35.156,48.828,72.754
1532372713.743,39.551,45.898,-34.668,41.504,37.109
1532372713.747,40.039,46.387,-30.762,35.645,-7.324
1532372713.751,41.992,44.922,-31.738,34.180,-3.418
1532372713.755,41.504,44.922,-34.668,38.574,29.785
1532372713.759,41.016,43.945,-32.227,41.992,26.855
1532372713.763,42.969,44.922,-31.250,41.016,-6.348
1532372713.766,41.992,44.922,-31.250,37.598,7.324
1532372713.770,41.992,42.969,-28.809,38.574,60.547
1532372713.774,45.410,42.480,-29.297,44.922,62.500
1532372713.778,43.457,44.434,-31.250,48.340,26.855
1532372713.782,37.598,43.457,-34.180,46.875,0.977
1532372713.786,38.086,40.039,-32.715,46.387,42.969
1532372713.790,42.480,41.016,-28.809,44.922,83.984
1532372713.794,45.410,41.504,-30.273,40.527,26.855
1532372713.798,40.527,41.992,-30.762,41.504,19.531
1532372713.802,39.551,46.387,-27.832,43.945,56.152
1532372713.805,42.969,48.340,-27.832,41.504,62.500
1532372713.809,46.387,46.387,-27.344,34.180,0.000
1532372713.813,45.410,43.945,-28.809,32.715,-22.949
1532372713.817,41.504,41.504,-33.691,38.574,25.391
1532372713.821,42.480,39.062,-33.203,42.480,55.664
1532372713.825,41.992,39.062,-29.297,43.945,47.363
1532372713.829,41.992,39.062,-29.785,41.016,14.648
1532372713.833,39.551,36.133,-32.715,40.039,10.254
1532372713.837,35.156,33.691,-31.250,40.039,39.062
1532372713.841,31.738,34.668,-30.273,38.574,51.270
1532372713.845,33.691,38.574,-27.832,38.086,17.578
1532372713.848,34.180,41.016,-26.855,36.621,4.395
1532372713.852,34.668,44.434,-28.320,38.574,33.203
1532372713.856,36.621,44.434,-28.809,38.574,41.016
1532372713.860,38.086,41.504,-28.320,38.086,41.992
1532372713.864,38.574,43.457,-26.367,37.109,33.691
1532372713.868,37.109,46.875,-24.902,32.715,17.090
1532372713.872,33.691,46.875,-21.973,32.227,48.828
1532372713.876,31.738,47.852,-21.484,32.227,63.477
1532372713.880,34.180,47.363,-20.508,28.809,20.996
1532372713.884,38.086,44.434,-17.578,30.273,48.828
1532372713.887,36.133,42.969,-16.113,27.832,69.824
1532372713.891,32.715,44.922,-19.531,22.461,14.648
1532372713.895,34.668,44.922,-21.973,28.809,-1.465
1532372713.899,30.762,43.457,-17.578,32.715,8.789
1532372713.903,24.902,44.434,-15.137,28.320,59.570
1532372713.907,26.855,45.898,-14.648,21.484,49.805
1532372713.911,24.902,48.828,-14.648,20.996,4.395
1532372713.915,23.926,49.805,-14.160,23.438,24.414
1532372713.919,29.297,52.246,-12.695,26.367,46.387
1532372713.923,23.438,49.805,-8.789,29.785,62.988
1532372713.927,23.926,47.363,-4.883,27.832,36.133
1532372713.930,32.227,51.270,-8.301,27.832,-1.465
1532372713.934,29.785,56.641,-8.301,25.879,17.578
1532372713.938,22.461,55.664,-3.906,20.020,38.086
1532372713.942,21.973,51.758,-2.930,22.461,30.762
1532372713.946,23.926,54.688,-7.812,21.484,18.066
1532372713.950,32.227,60.059,-11.719,20.020,17.578
1532372713.954,39.551,60.059,-10.254,25.391,75.195
1532372713.958,34.180,56.152,-4.883,24.414,77.148
1532372713.962,32.227,55.176,-1.465,24.902,52.734
1532372713.966,38.574,53.711,-0.977,33.203,61.035
1532372713.970,33.691,53.223,-0.977,31.738,53.223
1532372713.973,34.668,52.734,-2.441,31.738,38.086
1532372713.977,42.969,49.316,-5.371,36.621,1.953
1532372713.981,46.875,49.316,-6.836,40.039,6.348
1532372713.985,44.922,49.805,-7.324,42.480,35.645
1532372713.989,46.387,46.875,-6.348,44.922,36.621
1532372713.993,43.945,47.852,-8.301,40.527,33.203
1532372713.997,37.598,49.316,-7.812,32.715,18.555
1532372714.001,41.992,50.293,-4.883,36.133,47.852
1532372714.005,50.781,52.734,-4.395,41.992,68.359
1532372714.009,52.246,50.781,-4.883,39.551,6.836
1532372714.012,46.387,49.316,-8.301,36.621,17.090
1532372714.016,44.434,48.828,-10.742,41.992,39.062
1532372714.020,45.898,46.875,-7.812,42.480,63.965
1532372714.024,51.758,45.898,-7.324,45.898,69.824
1532372714.028,55.664,45.898,-6.836,50.293,17.578
1532372714.032,53.223,45.898,-5.859,49.316,20.020
1532372714.036,49.805,44.922,-5.859,47.363,53.223
1532372714.040,49.316,46.387,-5.859,45.410,40.527
1532372714.044,49.316,45.898,-8.301,39.062,24.414
1532372714.048,52.246,43.457,-7.324,37.109,-2.930
1532372714.052,48.828,44.922,-5.859,40.039,3.418
1532372714.055,49.316,46.387,-6.836,44.922,71.777
1532372714.059,49.805,45.410,-6.348,46.875,41.504
1532372714.063,41.992,41.992,-7.812,40.527,4.883
1532372714.067,43.945,41.992,-5.371,45.410,1.953
1532372714.071,49.805,42.480,-3.906,50.293,26.855
1532372714.075,48.828,41.016,-6.348,44.434,55.176
1532372714.079,47.363,40.527,-3.906,44.434,24.414
1532372714.083,50.293,41.504,-2.441,46.387,-2.930
1532372714.087,51.758,41.504,-0.977,40.527,32.715
1532372714.091,52.734,39.551,-1.953,35.156,27.344
1532372714.095,55.664,39.551,-7.812,32.715,-10.254
1532372714.098,55.176,40.527,-6.836,34.180,4.883
1532372714.102,53.223,42.480,-5.371,40.039,34.668
1532372714.106,46.387,42.969,-6.348,47.363,41.504
1532372714.110,41.504,42.480,-4.883,50.293,26.855
1532372714.114,41.504,41.992,-1.465,47.363,32.227
1532372714.118,40.039,42.480,-2.930,50.781,41.992
1532372714.122,39.062,42.969,-4.395,54.199,54.199
1532372714.126,40.039,41.016,-4.395,49.316,48.828
1532372714.130,40.527,40.039,-3.418,50.781,23.438
1532372714.134,40.527,42.480,2.441,55.664,26.367
1532372714.137,42.480,44.922,0.000,52.734,62.012
1532372714.141,41.992,42.969,-1.465,52.734,49.805
1532372714.145,36.133,41.016,-0.488,45.898,26.367
1532372714.149,33.203,39.551,-2.930,40.039,6.348
1532372714.153,35.645,39.551,-1.465,43.945,41.992
1532372714.157,40.039,40.527,-0.977,43.945,68.359
1532372714.161,47.852,41.016,0.000,41.504,40.527
1532372714.165,48.828,45.410,2.441,41.992,24.902
1532372714.169,46.387,46.875,1.953,44.434,61.035
1532372714.173,45.898,42.969,0.977,46.875,86.426
1532372714.177,40.527,43.457,0.000,43.457,54.199
1532372714.180,38.086,45.898,-0.488,39.551,38.574
1532372714.184,35.645,43.945,0.000,37.598,18.066
1532372714.188,38.086,43.457,1.465,40.527,40.527
1532372714.192,39.062,42.969,1.953,40.527,50.781
1532372714.196,36.621,42.969,0.488,38.086,19.043
1532372714.200,40.039,42.480,0.000,41.016,62.012
1532372714.204,43.457,44.922,1.953,44.434,75.684
1532372714.208,38.086,44.434,1.953,37.109,42.480
1532372714.212,36.621,41.016,1.465,33.203,52.734
1532372714.216,38.086,41.992,3.906,40.527,37.109
1532372714.219,36.621,42.480,3.906,39.551,46.387
1532372714.223,35.156,41.504,0.977,37.109,85.449
1532372714.227,33.203,40.527,2.441,37.598,25.879
1532372714.231,32.715,41.504,3.906,31.738,-32.715
1532372714.235,34.668,39.551,3.906,40.527,13.184
1532372714.239,27.344,38.086,3.906,39.551,62.012
1532372714.243,30.273,41.992,6.836,35.645,37.598
1532372714.247,40.039,42.969,11.230,47.363,16.602
1532372714.251,36.621,42.969,11.719,46.875,12.207
1532372714.255,33.203,42.480,9.766,40.527,39.062
1532372714.259,39.551,42.969,10.254,37.109,65.918
1532372714.262,36.621,42.480,9.766,35.156,31.738
1532372714.266,26.367,41.016,7.812,35.156,5.859
1532372714.270,32.715,41.992,11.230,38.086,45.410
1532372714.274,40.039,44.434,11.719,44.922,54.688
1532372714.278,42.969,44.922,10.254,43.457,26.367
1532372714.282,43.945,41.016,9.277,41.992,21.484
1532372714.286,42.969,42.480,5.371,44.922,26.367
1532372714.290,40.527,45.410,10.254,42.969,41.504
1532372714.294,41.504,42.969,15.137,39.551,0.977
1532372714.298,41.504,41.992,13.184,41.016,-9.277
1532372714.302,37.109,41.504,12.695,38.574,46.387
1532372714.305,37.109,43.945,9.766,31.250,50.781
1532372714.309,36.133,44.922,6.348,25.879,20.020
1532372714.313,32.227,41.992,5.859,22.461,-0.977
1532372714.317,30.273,42.480,7.812,23.438,-3.418
1532372714.321,33.691,43.457,9.766,29.785,37.109
1532372714.325,33.691,40.527,10.742,33.691,20.996
1532372714.329,33.203,40.039,11.230,32.715,5.859
1532372714.333,33.203,41.992,8.789,27.832,28.809
1532372714.337,26.855,40.039,6.836,23.926,39.062
1532372714.341,30.273,41.016,6.836,26.367,47.852
1532372714.344,36.621,41.992,6.836,31.250,18.066
1532372714.348,39.062,42.480,8.789,27.832,-3.418
1532372714.352,41.016,42.480,13.184,30.762,13.672
1532372714.356,38.086,43.457,14.160,38.086,46.875
1532372714.360,40.527,45.410,10.742,35.156,27.344
1532372714.364,45.410,43.457,13.184,35.645,7.812
1532372714.368,38.574,44.434,16.602,36.621,1.465
1532372714.372,36.133,43.945,13.184,39.062,37.109
1532372714.376,38.574,44.922,12.695,41.992,61.035
1532372714.380,40.039,51.270,19.043,43.457,34.668
1532372714.384,42.969,53.223,25.391,49.316,25.879
1532372714.387,47.852,56.152,30.762,55.176,58.105
1532372714.391,50.293,61.523,33.691,62.012,46.387
1532372714.395,53.223,62.500,37.109,65.430,11.230
1532372714.399,56.641,63.965,41.016,68.359,16.113
1532372714.403,55.664,65.918,40.527,71.289,44.922
1532372714.407,58.594,63.477,41.016,67.871,41.016
1532372714.411,60.059,61.035,42.480,65.918,-0.488
1532372714.415,53.711,59.082,40.527,66.406,-1.953
1532372714.419,46.387,56.152,35.645,63.477,39.551
1532372714.423,43.945,56.641,32.227,63.965,54.688
1532372714.426,43.945,52.246,29.785,56.152,11.719
1532372714.430,39.551,47.363,29.297,51.270,-30.762
1532372714.434,39.551,47.852,29.297,53.711,0.488
1532372714.438,40.527,48.340,28.809,48.828,47.852
1532372714.442,40.039,50.293,27.832,44.434,45.410
1532372714.446,38.086,49.316,26.367,42.969,18.066
1532372714.450,34.668,50.293,24.902,37.598,24.902
1532372714.454,34.180,52.246,22.949,35.645,64.941
1532372714.458,33.203,51.758,20.996,33.203,51.270
1532372714.462,28.809,50.781,21.973,31.250,17.090
1532372714.466,28.809,49.316,23.926,35.156,4.395
1532372714.469,28.809,45.410,23.926,37.598,20.020
1532372714.473,24.902,41.504,20.020,28.320,53.711
1532372714.477,22.949,40.039,19.043,27.344,37.598
1532372714.481,27.344,41.992,20.020,34.180,18.555
1532372714.485,33.691,42.969,18.555,34.180,18.555
1532372714.489,29.785,42.480,16.113,29.785,18.555
1532372714.493,26.367,41.504,16.113,30.762,18.555
1532372714.497,30.273,39.062,17.090,32.227,-5.859
1532372714.501,30.273,41.016,15.625,26.367,-6.348
1532372714.505,30.273,40.527,17.578,26.855,42.969
1532372714.509,28.320,39.062,17.578,22.461,37.109
1532372714.512,29.785,38.086,13.672,20.996,-11.719
1532372714.516,33.691,36.133,18.555,30.762,12.695
1532372714.520,32.715,35.156,20.996,29.785,48.340
1532372714.524,31.250,34.668,18.066,29.785,38.086
1532372714.528,24.902,36.133,16.602,27.832,25.391
1532372714.532,22.949,38.086,17.578,21.973,17.578
1532372714.536,24.414,37.598,16.602,17.578,27.344
1532372714.540,25.879,36.621,16.602,19.043,73.730
1532372714.544,32.715,36.133,16.602,20.996,23.438
1532372714.548,37.598,36.621,15.625,23.926,-11.719
1532372714.551,30.762,38.574,18.555,27.832,30.273
1532372714.555,25.391,38.086,17.090,21.973,46.387
1532372714.559,27.832,36.621,13.672,20.508,34.668
1532372714.563,27.832,34.668,16.602,24.414,-0.977
1532372714.567,26.855,36.133,18.066,19.531,-11.719
1532372714.571,28.320,36.621,18.066,19.531,17.578
1532372714.575,24.902,34.180,18.066,21.973,42.969
1532372714.579,20.996,31.250,19.043,21.484,22.949
1532372714.583,20.020,31.738,20.020,21.973,19.531
1532372714.587,19.531,32.227,15.625,14.648,51.270
1532372714.591,23.438,29.785,14.160,14.648,49.316
1532372714.594,23.926,30.762,15.625,20.020,20.996
1532372714.598,16.602,31.250,16.113,18.555,2.930
1532372714.602,13.672,29.297,18.066,23.438,16.602
1532372714.606,15.625,29.785,18.066,19.043,33.691
1532372714.610,16.602,32.715,20.020,19.043,15.137
1532372714.614,18.555,32.227,20.020,26.855,-9.277
1532372714.618,16.602,32.227,20.508,26.855,0.000
1532372714.622,20.020,32.715,23.438,25.879,40.039
1532372714.626,20.508,28.809,22.949,25.391,26.367
1532372714.630,17.090,28.809,20.020,20.020,-9.766
1532372714.634,20.996,30.273,21.973,20.996,6.836
1532372714.637,20.508,29.785,21.484,21.484,46.875
1532372714.641,20.508,32.227,22.949,25.391,35.645
1532372714.645,24.414,37.109,23.926,29.297,10.742
1532372714.649,23.438,36.621,21.973,25.391,-1.953
1532372714.653,21.973,35.156,22.461,24.902,8.789
1532372714.657,25.391,35.645,23.438,31.738,32.227
1532372714.661,25.391,34.180,23.926,31.250,13.672
1532372714.665,22.461,33.691,24.414,26.855,-3.906
1532372714.669,23.438,36.133,25.879,31.738,32.227
1532372714.673,23.926,36.621,25.879,34.180,71.289
1532372714.676,17.578,33.203,26.855,27.832,42.480
1532372714.680,22.461,30.762,29.297,30.762,8.789
1532372714.684,21.484,30.273,30.762,36.133,40.039
1532372714.688,13.672,32.227,26.367,28.320,65.918
1532372714.692,14.648,34.180,22.949,22.949,50.293
1532372714.696,15.625,32.715,27.344,27.832,6.348
1532372714.700,18.066,32.227,27.344,28.320,10.742
1532372714.704,20.508,29.785,25.879,22.949,31.250
1532372714.708,17.578,29.297,29.297,20.996,10.254
1532372714.712,7.324,30.273,30.762,25.879,13.672
1532372714.716,8.301,31.738,31.250,27.832,11.719
1532372714.719,10.254,33.691,30.273,23.926,32.715
1532372714.723,11.719,31.738,31.738,23.926,42.480
1532372714.727,16.113,30.762,35.645,24.902,26.367
1532372714.731,14.648,28.320,32.715,20.508,33.203
1532372714.735,13.184,29.785,29.785,18.555,36.133
1532372714.739,21.484,31.738,33.691,25.391,36.621
1532372714.743,27.344,30.273,35.156,28.320,32.715
1532372714.747,22.949,30.762,33.691,21.973,6.836
1532372714.751,19.043,31.738,33.691,20.020,11.230
1532372714.755,20.996,32.227,33.691,27.344,74.219
1532372714.758,21.973,32.227,34.180,27.344,62.500
1532372714.762,21.973,32.227,34.668,26.367,35.645
1532372714.766,30.273,33.691,31.738,24.902,34.668
1532372714.770,32.227,36.621,29.785,21.973,52.734
1532372714.774,30.762,34.180,33.203,21.973,66.895
1532372714.778,32.715,30.762,32.715,18.555,55.176
1532372714.782,30.273,32.715,32.227,16.113,47.852
1532372714.786,31.738,34.668,35.645,20.020,32.227
1532372714.790,36.621,36.621,34.180,12.207,14.160
1532372714.794,36.621,37.598,32.715,10.254,12.695
1532372714.798,28.809,34.180,31.738,11.719,12.207
1532372714.801,21.484,30.273,33.203,16.113,36.133
1532372714.805,23.438,33.691,41.504,26.855,59.082
1532372714.809,16.113,33.203,41.992,26.367,41.504
1532372714.813,9.766,28.809,39.062,28.809,20.020
1532372714.817,11.719,28.320,42.969,32.715,1.953
1532372714.821,7.812,26.855,42.480,28.320,41.016
1532372714.825,11.230,28.809,43.457,31.250,38.574
1532372714.829,13.672,32.227,43.945,36.133,15.137
1532372714.833,15.625,33.691,41.504,35.645,22.949
1532372714.837,15.137,33.691,41.504,29.297,36.621
1532372714.841,14.160,34.668,41.992,22.461,60.059
1532372714.844,14.160,37.598,40.527,20.020,41.016
1532372714.848,6.836,36.621,38.574,14.648,-3.906
1532372714.852,11.719,34.180,40.527,13.184,10.254
1532372714.856,14.648,34.180,42.480,19.531,41.992
1532372714.860,8.301,35.156,41.504,18.066,41.992
1532372714.864,8.789,35.156,40.039,13.672,10.742
1532372714.868,7.324,34.668,41.992,16.113,-11.230
1532372714.872,5.371,33.691,43.457,15.137,33.691
1532372714.876,2.930,32.715,41.504,11.230,56.152
1532372714.880,-0.977,31.250,41.016,8.301,36.133
1532372714.883,-6.348,28.809,44.434,5.859,20.508
1532372714.887,-4.395,30.762,47.852,7.324,38.574
1532372714.891,3.906,33.691,47.363,12.695,41.016
1532372714.895,6.348,38.086,45.898,12.695,6.348
1532372714.899,-5.371,36.621,43.945,4.883,-17.090
1532372714.903,-1.465,35.156,47.363,7.324,-9.766
1532372714.907,10.254,38.086,49.316,14.160,10.254
1532372714.911,4.883,40.527,45.410,9.277,-7.812
1532372714.915,-6.348,41.992,43.457,-2.441,-15.625
1532372714.919,-3.418,41.992,41.992,-6.348,26.855
1532372714.923,4.883,42.480,42.480,0.977,52.246
1532372714.926,-7.324,43.457,42.969,-8.789,13.672
1532372714.930,-9.277,46.875,36.133,-21.484,-14.648
1532372714.934,-1.465,50.781,34.180,-15.137,2.441
1532372714.938,-11.230,49.805,38.574,-16.602,46.875
1532372714.942,-8.301,50.781,37.598,-18.555,44.434
1532372714.946,-7.324,48.340,40.527,-13.672,9.277
1532372714.950,-21.484,40.527,44.434,-20.508,15.137
1532372714.954,-20.996,38.086,46.387,-16.602,32.715
1532372714.958,-9.766,36.621,46.387,-11.719,54.199
1532372714.962,-5.371,40.527,40.527,-16.602,50.293
1532372714.966,-4.395,42.969,37.109,-18.555,16.113
1532372714.969,-12.207,42.480,38.574,-17.578,8.301
1532372714.973,-17.578,41.016,39.062,-23.438,45.410
1532372714.977,-7.812,37.598,40.039,-19.531,21.484
1532372714.981,-5.371,40.527,40.039,-11.230,10.742
1532372714.985,-5.371,41.992,40.527,-8.789,59.570
1532372714.989,-2.930,37.109,41.992,-7.812,54.199
1532372714.993,8.301,34.668,40.527,-6.348,13.184
1532372714.997,17.090,34.180,38.574,6.348,0.977
1532372715.001,10.254,33.203,37.109,7.324,27.344
1532372715.005,11.719,33.691,39.062,1.465,43.457
1532372715.008,16.113,32.715,38.574,6.348,46.875
1532372715.012,24.414,32.227,32.715,12.695,31.250
1532372715.016,24.902,30.762,32.715,18.066,6.348
1532372715.020,20.996,28.809,36.133,18.555,21.484
1532372715.024,21.973,27.832,36.621,18.066,44.922
1532372715.028,23.926,27.344,35.156,18.066,3.418
1532372715.032,28.809,30.762,33.203,22.461,-28.320
1532372715.036,26.367,30.273,29.785,22.461,20.996
1532372715.040,23.438,30.762,30.273,23.438,36.133
1532372715.044,28.320,33.691,31.738,27.832,16.602
1532372715.048,29.785,30.762,30.273,22.461,-3.418
1532372715.051,26.367,27.344,31.250,23.926,-4.395
1532372715.055,25.879,27.344,30.762,28.320,19.043
1532372715.059,26.367,27.832,27.832,27.344,21.484
1532372715.063,29.785,27.832,31.250,31.250,22.949
1532372715.067,32.227,27.832,32.715,34.668,19.043
1532372715.071,26.855,26.855,32.227,33.203,35.645
1532372715.075,22.949,25.391,35.645,31.738,43.945
1532372715.079,20.996,27.344,37.109,34.668,30.762
1532372715.083,20.020,26.367,35.156,34.668,34.180
1532372715.087,12.695,20.996,31.738,24.414,42.969
1532372715.090,10.742,21.484,30.273,19.531,38.086
1532372715.094,16.113,25.391,32.227,23.926,33.691
1532372715.098,18.066,26.855,31.738,26.367,42.969
1532372715.102,20.508,27.344,32.227,25.879,71.777
1532372715.106,20.508,27.344,31.738,20.508,55.176
1532372715.110,17.090,28.809,31.738,19.531,26.367
1532372715.114,18.066,28.320,33.691,21.973,17.090
1532372715.118,21.973,31.250,32.715,24.902,12.207
1532372715.122,21.484,31.738,33.203,26.855,75.684
1532372715.126,20.020,28.809,32.227,24.902,60.059
1532372715.130,20.996,32.715,32.715,23.438,-31.250
1532372715.133,22.949,33.691,35.645,29.297,-3.418
1532372715.137,29.297,35.156,36.621,33.203,62.500
1532372715.141,28.320,32.227,36.133,34.180,43.945
1532372715.145,28.320,30.273,38.086,34.180,0.000
1532372715.149,27.832,31.250,40.039,36.133,4.883
1532372715.153,25.879,31.738,41.504,41.992,40.527
1532372715.157,27.344,31.738,42.480,41.016,69.824
1532372715.161,26.367,29.785,42.480,29.785,20.508
1532372715.165,18.066,28.320,45.410,24.902,3.906
1532372715.169,13.184,26.855,47.852,24.902,16.602
1532372715.173,16.602,29.297,43.945,20.020,11.230
1532372715.176,16.113,27.832,36.621,11.719,8.789
1532372715.180,21.973,28.809,38.574,7.812,15.625
1532372715.184,28.809,30.273,41.016,10.254,34.180
1532372715.188,24.902,30.273,39.062,10.254,38.086
1532372715.192,22.949,30.762,41.016,9.766,47.852
1532372715.196,25.879,30.762,40.527,8.301,19.043
1532372715.200,22.461,31.250,39.551,1.953,-9.766
1532372715.204,17.578,33.691,38.086,-2.930,30.273
1532372715.208,23.926,32.227,40.039,3.418,39.551
1532372715.212,27.832,30.273,43.945,13.184,22.949
1532372715.215,22.461,30.273,43.945,18.066,31.250
1532372715.219,22.461,28.809,44.434,24.902,41.016
1532372715.223,22.461,30.762,44.922,26.367,71.289
1532372715.227,18.066,31.738,44.434,23.926,44.434
1532372715.231,15.137,29.785,43.457,29.297,1.953
1532372715.235,19.531,29.297,44.922,29.297,30.273
1532372715.239,24.414,30.762,46.387,27.344,53.711
1532372715.243,16.602,28.809,44.434,25.879,40.039
1532372715.247,12.695,25.879,43.457,21.484,15.625
1532372715.251,17.578,26.855,44.922,23.926,12.695
1532372715.255,19.043,26.367,45.410,28.809,47.363
1532372715.258,18.066,25.391,41.992,23.438,35.156
1532372715.262,20.996,28.320,41.016,23.438,16.602
1532372715.266,22.949,27.344,42.969,20.996,0.977
1532372715.270,21.973,28.320,45.410,11.230,-2.930
1532372715.274,23.438,32.227,41.016,7.324,31.738
1532372715.278,34.180,33.691,39.551,15.625,15.137
1532372715.282,30.762,33.691,42.969,20.508,6.836
1532372715.286,24.902,34.180,44.922,17.090,41.504
1532372715.290,30.762,35.156,42.969,16.602,70.801
1532372715.294,30.762,35.645,41.504,15.625,51.758
1532372715.298,26.367,35.156,43.945,14.160,20.020
1532372715.301,25.879,34.668,43.945,13.184,22.461
1532372715.305,24.414,35.645,45.898,17.090,57.129
1532372715.309,22.949,32.715,48.340,18.066,30.762
1532372715.313,28.809,31.738,47.363,21.484,8.301
1532372715.317,30.273,33.203,48.340,29.785,41.504
1532372715.321,24.414,33.203,51.758,29.297,48.340
1532372715.325,22.461,34.668,52.734,31.250,41.016
1532372715.329,23.438,33.691,51.270,31.738,26.855
1532372715.333,24.414,34.668,50.293,29.297,27.832
1532372715.337,25.879,33.203,53.223,32.227,64.941
1532372715.340,21.973,30.273,54.199,31.738,80.566
1532372715.344,23.926,34.180,52.734,27.832,39.551
1532372715.348,23.926,35.645,53.223,22.949,7.324
1532372715.352,26.855,37.598,52.246,16.113,31.250
1532372715.356,24.414,35.156,55.664,19.043,61.035
1532372715.360,12.695,30.273,56.641,20.996,31.738
1532372715.364,17.578,26.855,59.570,23.926,15.137
1532372715.368,28.320,29.297,61.035,27.344,19.043
1532372715.372,29.785,43.457,43.457,13.672,41.016
1532372715.376,22.461,47.363,39.062,7.812,54.688
1532372715.380,6.348,37.109,51.270,2.930,11.719
1532372715.383,-1.465,36.133,56.152,1.465,18.555
1532372715.387,-5.371,36.621,58.105,1.465,45.410
1532372715.391,-5.371,37.109,54.199,-1.953,27.344
1532372715.395,-5.859,39.062,50.781,-1.465,11.230
1532372715.399,-10.742,39.551,52.734,-8.301,13.672
1532372715.403,-5.859,40.039,50.781,-10.254,76.660
1532372715.407,3.906,41.504,46.875,-3.906,81.055
1532372715.411,10.742,41.016,43.945,-3.418,37.109
1532372715.415,20.020,41.992,45.410,-0.488,20.020
1532372715.419,19.043,39.551,45.410,6.348,30.762
1532372715.422,31.738,33.203,45.410,16.602,75.195
1532372715.426,41.016,32.715,40.527,19.531,28.320
1532372715.430,29.297,34.180,36.621,13.184,-27.832
1532372715.434,30.273,34.668,42.480,15.137,20.508
1532372715.438,30.762,29.785,45.898,22.949,53.711
1532372715.442,20.996,25.879,43.457,20.020,47.852
1532372715.446,11.230,23.438,45.898,9.766,-0.488
1532372715.450,8.789,21.973,49.316,15.137,-48.828
1532372715.454,11.719,24.414,45.898,23.438,8.301
1532372715.458,22.949,25.879,45.898,30.273,59.082
1532372715.462,27.832,26.855,50.781,39.062,53.223
1532372715.465,21.484,26.367,50.293,38.086,26.855
1532372715.469,20.996,24.414,48.340,38.086,40.527
1532372715.473,21.973,22.949,49.805,40.527,63.965
1532372715.477,20.020,21.484,48.828,34.668,34.668
1532372715.481,22.949,21.973,48.340,31.738,21.973
1532372715.485,27.344,21.973,51.758,28.809,30.762
1532372715.489,31.250,21.484,48.828,37.598,39.551
1532372715.493,36.133,23.926,47.852,68.359,26.367
1532372715.497,38.086,23.438,52.246,92.773,0.977
1532372715.501,30.273,20.996,53.223,107.422,24.414
1532372715.505,22.949,19.043,52.734,117.188,49.805
1532372715.508,26.855,20.508,52.734,116.211,20.020
1532372715.512,29.785,20.508,52.246,113.281,-4.395
1532372715.516,31.738,19.043,52.734,121.094,23.926
1532372715.520,33.203,21.484,54.199,119.141,77.148
1532372715.524,35.645,21.973,55.664,112.793,83.496
1532372715.528,35.156,24.414,54.688,106.934,28.320
1532372715.532,27.344,25.391,49.316,95.215,2.930
1532372715.536,27.344,22.461,49.805,88.867,56.152
1532372715.540,27.832,22.949,55.664,89.844,80.078
1532372715.544,23.926,23.926,57.617,90.820,48.340
1532372715.547,23.438,25.391,56.641,89.844,1.465
1532372715.551,17.578,26.855,58.594,84.961,-0.488
1532372715.555,9.766,25.879,56.641,79.590,54.199
1532372715.559,11.230,22.461,51.758,76.172,50.781
1532372715.563,16.113,21.973,51.758,72.754,0.977
1532372715.567,14.160,24.902,53.711,67.871,9.277
1532372715.571,11.230,27.344,52.246,62.500,58.594
1532372715.575,14.160,27.832,49.805,60.059,45.898
1532372715.579,14.160,28.320,49.316,55.664,10.742
1532372715.583,10.254,29.297,44.922,46.875,13.672
1532372715.587,14.160,31.738,44.434,40.527,21.973
1532372715.590,18.066,30.273,45.410,38.574,15.625
1532372715.594,21.484,28.320,43.945,38.086,41.504
1532372715.598,20.996,28.320,46.387,38.574,34.180
1532372715.602,14.648,30.273,43.457,33.203,27.832
1532372715.606,16.602,29.297,41.504,33.691,57.617
1532372715.610,20.996,25.391,48.828,41.504,33.203
1532372715.614,24.414,25.879,51.270,43.457,0.977
1532372715.618,27.832,28.809,50.293,44.434,18.066
1532372715.622,28.809,31.250,50.293,45.898,74.219
1532372715.626,31.738,31.250,50.781,45.898,54.688
1532372715.630,34.180,30.762,50.293,45.410,-4.883
1532372715.633,32.715,34.180,47.852,39.062,20.020
1532372715.637,32.227,35.156,47.852,37.109,62.012
1532372715.641,34.180,32.715,46.875,39.062,51.270
1532372715.645,31.738,32.715,43.457,34.180,13.184
1532372715.649,28.320,33.691,44.922,35.645,-0.488
1532372715.653,31.250,38.086,50.293,40.039,36.133
1532372715.657,38.574,42.969,58.594,46.387,56.641
1532372715.661,47.363,44.434,61.523,52.734,38.574
1532372715.665,44.922,43.945,58.105,48.340,36.621
1532372715.669,40.039,41.016,55.176,40.039,43.457
1532372715.672,38.574,39.551,54.688,41.992,58.594
1532372715.676,35.156,39.062,52.734,42.969,40.527
1532372715.680,40.039,38.574,52.246,45.410,19.043
1532372715.684,44.434,39.062,52.734,47.852,42.969
1532372715.688,42.480,38.574,51.758,35.645,40.039
1532372715.692,40.527,39.062,51.758,33.691,44.434
1532372715.696,43.945,40.039,49.316,41.992,41.016
1532372715.700,39.551,38.086,49.316,41.016,14.160
1532372715.704,37.109,36.133,53.711,41.992,40.527
1532372715.708,40.039,37.598,52.246,41.504,51.270
1532372715.712,34.180,36.621,46.875,39.551,6.348
1532372715.715,33.691,34.668,46.387,39.062,21.484
1532372715.719,34.668,38.086,49.805,36.621,47.852
1532372715.723,32.227,37.109,50.781,33.203,62.500
1532372715.727,32.227,35.645,46.387,28.809,23.438
1532372715.731,37.109,38.574,45.410,30.762,-5.859
1532372715.735,35.645,39.551,48.828,32.227,58.594
1532372715.739,30.273,39.062,45.410,25.391,80.078
1532372715.743,29.785,36.621,43.457,25.879,50.293
1532372715.747,27.344,35.156,47.363,26.855,11.230
1532372715.751,33.203,35.645,46.387,27.344,33.203
1532372715.754,33.691,35.645,44.434,30.273,61.035
1532372715.758,24.902,35.645,42.969,28.320,66.406
1532372715.762,29.297,36.133,44.434,29.297,54.688
1532372715.766,32.715,36.133,45.898,34.180,10.742
1532372715.770,30.273,35.645,45.898,34.180,40.527
1532372715.774,28.320,32.715,46.875,34.668,71.289
1532372715.778,24.902,33.691,45.410,35.156,38.086
1532372715.782,23.926,35.156,43.945,34.180,24.414
1532372715.786,21.484,34.180,46.387,29.785,34.180
1532372715.790,20.020,35.645,50.293,19.043,11.719
1532372715.794,19.043,34.180,46.875,20.996,14.160
1532372715.797,16.602,35.156,45.410,27.344,41.992
1532372715.801,17.578,32.715,46.387,28.320,53.711
1532372715.805,15.625,28.809,47.363,22.461,52.734
1532372715.809,11.230,30.273,47.852,19.043,7.812
1532372715.813,9.766,30.273,45.898,26.367,-14.160
1532372715.817,12.207,30.762,48.340,29.297,0.977
1532372715.821,12.695,31.738,48.340,26.367,50.781
1532372715.825,17.090,29.297,48.340,32.227,41.016
1532372715.829,19.531,29.785,51.270,33.203,7.324
1532372715.833,17.578,31.250,49.805,29.297,1.953
1532372715.837,16.602,31.738,50.781,29.297,42.969
1532372715.840,14.648,30.273,47.363,27.832,64.941
1532372715.844,15.137,31.738,43.945,26.367,25.391
1532372715.848,23.438,33.203,46.875,28.320,11.719
1532372715.852,20.020,31.738,45.898,28.809,42.969
1532372715.856,9.766,29.785,44.922,23.926,51.270
1532372715.860,9.766,27.344,45.898,21.484,28.809
1532372715.864,12.695,25.879,45.410,27.344,-8.301
1532372715.868,16.602,28.809,46.387,32.715,10.254
1532372715.872,17.578,28.320,46.875,30.273,39.062
1532372715.876,17.578,25.879,44.922,31.250,13.184
1532372715.879,18.555,27.344,46.387,34.180,1.465
1532372715.883,25.879,27.344,48.340,35.156,28.320
1532372715.887,26.367,29.297,51.270,34.668,32.227
1532372715.891,20.508,26.855,48.828,32.715,-9.766
1532372715.895,20.508,23.926,45.898,30.273,-11.719
1532372715.899,16.602,26.855,47.363,28.809,18.066
1532372715.903,17.090,28.809,45.898,29.785,29.297
1532372715.907,16.113,26.855,46.875,29.785,30.762
1532372715.911,12.207,24.414,46.387,25.879,25.391
1532372715.915,14.160,25.879,46.387,28.809,3.906
1532372715.919,19.531,26.855,49.805,34.180,26.367
1532372715.922,23.438,24.902,47.363,37.598,54.199
1532372715.926,22.461,25.879,46.387,40.039,27.344
1532372715.930,20.508,28.320,47.363,33.691,-28.320
1532372715.934,23.438,27.344,47.363,32.715,1.465
1532372715.938,25.879,24.902,45.898,34.668,65.430
1532372715.942,29.297,25.391,44.922,33.691,32.227
1532372715.946,28.809,26.855,44.922,29.785,11.230
1532372715.950,25.879,26.367,41.504,23.438,32.227
1532372715.954,30.762,25.879,42.969,29.297,70.801
1532372715.958,31.738,23.926,45.410,34.180,68.359
1532372715.961,31.738,21.484,44.922,31.250,12.207
1532372715.965,27.832,23.438,49.805,33.203,31.738
1532372715.969,22.461,25.879,52.734,28.320,28.320
1532372715.973,18.066,26.855,47.363,28.320,42.480
1532372715.977,17.578,24.414,47.363,39.551,25.879
1532372715.981,16.113,21.484,48.340,37.109,9.277
1532372715.985,13.672,23.926,45.898,28.320,23.438
1532372715.989,16.113,24.414,43.457,26.367,25.391
1532372715.993,16.113,22.949,41.992,29.297,38.086
1532372715.997,13.672,23.926,41.992,30.273,23.438
1532372716.001,18.555,25.879,44.922,31.738,28.320
1532372716.004,23.926,29.297,44.922,29.785,53.223
1532372716.008,21.973,29.297,41.504,21.973,25.879
1532372716.012,20.508,27.344,41.016,20.020,-24.414
1532372716.016,23.438,28.320,41.992,24.414,-0.488
1532372716.020,34.180,29.297,41.992,27.344,53.711
1532372716.024,32.715,27.344,42.480,28.320,51.270
1532372716.028,22.949,27.344,45.410,28.320,4.395
1532372716.032,26.855,30.762,44.922,29.785,0.000
1532372716.036,25.879,32.715,43.945,25.391,27.832
1532372716.040,19.531,34.180,41.504,17.090,34.180
1532372716.044,16.602,34.180,40.039,18.555,18.555
1532372716.047,22.949,32.715,44.434,20.996,7.324
1532372716.051,23.926,34.180,42.969,20.508,16.602
1532372716.055,17.090,33.691,42.969,21.973,27.832
1532372716.059,15.137,30.762,42.969,24.414,13.184
1532372716.063,14.648,29.297,42.480,26.855,5.371
1532372716.067,13.184,29.297,44.922,22.461,-11.230
1532372716.071,12.695,27.832,46.387,23.438,36.621
1532372716.075,8.789,26.855,43.457,24.414,80.078
1532372716.079,7.324,25.879,43.945,20.996,50.293
1532372716.083,15.625,24.414,48.828,24.414,50.293
1532372716.086,18.555,27.344,48.340,29.785,50.293
1532372716.090,23.438,29.297,45.410,31.250,49.805
1532372716.094,22.461,27.344,42.969,21.973,20.508
1532372716.098,20.020,29.785,44.434,18.066,13.184
1532372716.102,27.832,30.762,43.457,21.484,39.062
1532372716.106,28.320,29.297,41.504,20.508,38.574
1532372716.110,28.320,30.762,41.016,14.648,5.859
1532372716.114,30.762,30.273,41.016,15.137,-16.113
1532372716.118,29.785,30.273,39.062,16.602,15.625
1532372716.122,37.109,33.203,38.086,17.578,63.965
1532372716.126,38.574,34.668,39.062,26.367,33.691
1532372716.129,29.297,34.180,41.016,25.391,17.090
1532372716.133,27.344,34.668,40.527,22.949,30.762
1532372716.137,28.320,35.156,39.062,21.484,40.039
1532372716.141,24.414,30.762,41.016,17.090,42.480
1532372716.145,23.438,29.785,41.504,18.066,30.762
1532372716.149,25.879,32.227,42.480,14.648,11.230
1532372716.153,21.484,30.273,44.922,12.207,21.973
1532372716.157,21.484,27.832,41.992,14.160,59.082
1532372716.161,27.344,29.297,42.480,15.625,39.062
1532372716.165,25.391,28.809,43.945,19.531,9.766
1532372716.169,22.949,27.832,41.504,15.137,23.438
1532372716.172,29.785,29.297,41.992,16.113,49.316
1532372716.176,34.668,29.297,41.016,15.625,48.828
1532372716.180,34.180,28.320,41.504,14.160,3.906
1532372716.184,38.574,26.855,42.969,14.160,1.953
1532372716.188,44.922,25.879,43.457,17.090,43.457
1532372716.192,42.480,26.367,42.480,28.809,31.738
1532372716.196,38.574,25.879,42.480,33.691,14.648
1532372716.200,29.297,26.367,43.945,33.691,23.438
1532372716.204,24.414,27.832,45.898,37.109,42.969
1532372716.208,20.020,28.320,43.945,34.180,40.527
1532372716.211,11.230,25.391,45.410,30.762,9.277
1532372716.215,10.254,23.926,46.875,34.180,3.906
1532372716.219,5.371,24.414,43.457,28.320,34.180
1532372716.223,8.789,23.926,45.898,24.902,42.969
1532372716.227,13.184,25.391,43.945,22.461,14.160
1532372716.231,15.137,24.414,40.039,20.508,17.578
1532372716.235,21.484,24.902,47.363,24.902,29.785
1532372716.239,23.438,28.809,46.875,21.484,38.086
1532372716.243,29.785,30.273,44.434,21.973,37.109
1532372716.247,29.785,27.832,44.922,22.461,8.789
1532372716.251,29.297,27.344,42.480,23.926,20.020
1532372716.254,31.738,31.250,41.504,23.926,45.410
1532372716.258,31.738,31.250,42.480,21.973,39.551
1532372716.262,31.250,28.809,41.504,22.949,29.297
1532372716.266,22.949,26.855,40.039,17.090,17.578
1532372716.270,22.461,25.879,42.480,19.531,18.555
1532372716.274,26.855,25.391,44.922,24.414,39.062
1532372716.278,24.414,23.926,43.457,22.949,23.926
1532372716.282,22.949,22.949,41.016,27.344,39.062
1532372716.286,20.020,25.391,41.504,27.832,53.223
1532372716.290,22.461,25.391,41.992,21.484,7.324
1532372716.293,26.367,25.391,44.922,27.344,-17.578
1532372716.297,25.391,27.344,45.898,35.156,18.555
1532372716.301,18.555,25.391,41.016,28.809,41.016
1532372716.305,26.855,27.344,39.551,27.344,43.457
1532372716.309,33.691,26.367,41.504,32.715,55.664
1532372716.313,18.066,21.484,42.969,27.832,27.832
1532372716.317,18.066,24.414,42.480,24.414,38.574
1532372716.321,31.738,31.738,47.363,37.598,59.082
1532372716.325,31.250,31.738,46.875,41.016,46.875
1532372716.329,26.367,29.297,41.992,29.785,23.926
1532372716.333,31.738,31.250,44.434,25.391,-4.883
1532372716.336,32.715,31.738,45.410,26.855,19.043
1532372716.340,33.691,31.250,46.875,26.855,51.758
1532372716.344,30.273,29.785,46.387,23.438,61.035
1532372716.348,18.555,28.320,43.945,22.461,16.602
1532372716.352,17.090,28.809,44.434,20.020,0.000
1532372716.356,17.578,31.738,40.527,18.555,72.266
1532372716.360,18.555,32.715,39.062,19.043,58.594
1532372716.364,22.461,30.762,41.992,20.996,15.137
1532372716.368,22.461,29.297,43.457,24.414,30.273
1532372716.372,24.902,30.273,44.434,27.344,45.898
1532372716.376,25.391,28.320,41.504,23.926,30.273
1532372716.379,24.414,25.391,43.945,21.973,13.672
1532372716.383,23.438,26.367,44.434,24.902,14.648
1532372716.387,18.555,27.832,42.480,18.555,35.156
1532372716.391,19.531,27.832,41.016,11.719,19.043
1532372716.395,24.902,27.832,41.504,15.137,8.301
1532372716.399,24.414,27.344,40.527,15.137,18.066
1532372716.403,22.461,27.344,40.039,15.137,28.809
1532372716.407,19.531,25.391,41.992,9.766,47.852
1532372716.411,20.996,25.391,41.016,8.789,50.781
1532372716.415,23.926,22.461,41.016,16.113,24.414
1532372716.418,11.230,21.484,41.016,8.789,22.949
1532372716.422,12.695,24.414,39.062,4.883,40.527
1532372716.426,18.555,23.926,37.109,10.742,8.301
1532372716.430,12.207,22.949,33.203,8.789,-38.574
1532372716.434,11.719,25.391,28.809,11.230,-1.953
1532372716.438,4.883,24.414,27.344,6.348,50.293
1532372716.442,2.930,23.438,26.855,7.324,36.621
1532372716.446,4.883,24.902,26.367,9.277,-5.371
1532372716.450,10.742,25.879,25.879,8.301,-18.555
1532372716.454,13.672,27.344,24.414,8.789,36.621
1532372716.458,4.395,24.902,23.926,5.371,65.918
1532372716.461,-3.906,20.020,27.832,7.324,30.762
1532372716.465,0.000,17.578,32.227,11.719,19.043
1532372716.469,7.324,18.066,33.203,20.020,50.781
1532372716.473,11.719,17.578,38.574,30.273,48.340
1532372716.477,17.578,17.090,40.039,36.621,17.578
1532372716.481,19.531,14.648,35.645,37.598,19.531
1532372716.485,24.902,14.648,37.109,34.180,29.785
1532372716.489,20.508,17.578,39.551,27.832,17.578
1532372716.493,15.137,18.066,36.621,36.621,14.160
1532372716.497,22.461,17.090,35.156,42.969,11.230
1532372716.501,24.902,17.090,35.156,40.527,30.273
1532372716.504,19.531,17.578,35.645,43.945,62.012
1532372716.508,21.973,14.160,34.668,44.434,40.039
1532372716.512,39.551,10.254,35.645,49.805,-4.883
1532372716.516,46.387,13.184,33.203,54.199,-5.859
1532372716.520,40.039,19.531,29.785,48.828,19.531
1532372716.524,30.762,20.020,30.762,40.039,28.320
1532372716.528,23.438,15.137,32.715,33.691,-8.301
1532372716.532,21.973,12.695,37.109,29.785,-31.250
1532372716.536,13.184,10.742,37.109,29.785,14.648
1532372716.540,16.602,11.719,30.762,31.250,48.828
1532372716.543,24.414,14.160,32.227,35.156,32.715
1532372716.547,21.973,12.695,33.691,37.598,14.648
1532372716.551,27.344,14.648,31.250,35.156,54.199
1532372716.555,30.762,18.066,31.250,33.691,87.402
1532372716.559,29.785,17.090,33.691,40.527,56.641
1532372716.563,29.785,18.555,32.715,45.410,20.020
1532372716.567,34.668,21.973,32.227,47.852,17.090
1532372716.571,35.645,20.020,33.691,49.805,34.180
1532372716.575,38.574,20.996,30.762,49.805,32.715
1532372716.579,39.062,19.531,31.250,49.316,32.715
1532372716.583,34.180,18.555,35.645,51.758,39.551
1532372716.586,35.645,20.020,39.551,44.922,58.105
1532372716.590,37.109,21.973,39.551,32.715,40.039
1532372716.594,25.391,20.996,39.062,32.227,11.719
1532372716.598,16.113,17.578,40.039,34.668,2.441
1532372716.602,20.996,20.996,42.480,38.574,30.762
1532372716.606,20.996,24.902,44.434,35.645,74.707
1532372716.610,22.949,23.438,43.457,34.180,55.664
1532372716.614,23.926,23.438,42.969,38.086,36.133
1532372716.618,22.461,22.949,42.969,34.180,28.809
1532372716.622,29.785,25.879,44.434,37.109,42.969
1532372716.625,35.645,27.832,42.969,40.527,54.199
1532372716.629,36.621,24.902,42.969,36.133,-9.277
1532372716.633,35.156,23.926,46.875,34.180,-9.277
1532372716.637,26.367,22.461,49.316,34.668,63.477
1532372716.641,27.832,20.996,50.293,35.645,78.613
1532372716.645,29.785,21.973,49.805,40.039,47.852
1532372716.649,29.297,22.949,50.293,43.945,14.648
1532372716.653,32.227,22.461,52.734,38.574,29.785
1532372716.657,26.855,23.926,51.758,36.133,56.152
1532372716.661,23.926,23.438,49.805,35.645,35.645
1532372716.665,26.367,27.344,48.828,35.645,17.090
1532372716.668,32.227,31.738,50.781,41.016,35.645
1532372716.672,31.738,31.738,50.781,37.109,78.125
1532372716.676,28.320,32.227,51.270,32.227,43.945
1532372716.680,29.297,32.715,53.223,35.156,-3.906
1532372716.684,27.832,31.250,51.758,32.715,22.949
1532372716.688,24.902,31.250,50.781,25.391,29.297
1532372716.692,26.367,29.785,51.270,27.832,0.977
1532372716.696,35.156,25.391,55.176,33.203,-28.809
1532372716.700,37.598,28.809,56.641,33.691,-7.812
1532372716.704,33.691,32.227,53.223,36.621,53.223
1532372716.708,34.180,27.832,52.246,30.273,37.109
1532372716.711,32.715,29.297,49.805,20.020,-36.621
1532372716.715,35.645,31.250,47.363,24.902,-32.715
1532372716.719,40.527,33.203,50.293,32.227,6.836
1532372716.723,40.527,36.621,49.805,31.738,46.387
1532372716.727,38.574,34.668,48.340,20.020,61.035
1532372716.731,33.203,35.645,47.852,17.090,21.484
1532372716.735,28.320,39.062,49.805,23.438,34.180
1532372716.739,33.691,37.109,48.828,24.414,43.945
1532372716.743,30.762,34.180,45.898,20.020,43.945
1532372716.747,28.320,32.227,42.480,15.625,3.906
1532372716.750,31.250,31.250,41.992,17.090,-12.695
1532372716.754,35.156,34.668,42.969,23.926,38.574
1532372716.758,34.180,35.645,40.039,22.949,37.598
1532372716.762,31.738,34.180,36.133,18.555,12.695
1532372716.766,32.715,35.645,34.180,16.113,-24.902
1532372716.770,31.250,37.109,34.180,12.695,-28.320
1532372716.774,30.762,35.645,30.762,12.695,22.949
1532372716.778,26.367,32.227,28.320,10.742,28.809
1532372716.782,23.926,34.668,28.809,13.184,24.414
1532372716.786,24.414,37.598,29.297,18.066,37.109
1532372716.790,23.438,33.203,30.762,17.578,27.344
1532372716.793,23.926,31.738,27.344,20.508,19.043
1532372716.797,27.832,32.715,25.879,21.484,20.508
1532372716.801,25.391,30.762,27.832,19.531,26.855
1532372716.805,24.414,34.180,26.855,20.996,40.527
1532372716.809,27.344,35.156,24.902,18.555,16.602
1532372716.813,30.273,33.691,22.949,20.996,-11.719
1532372716.817,34.668,36.133,23.926,26.367,11.230
1532372716.821,31.250,33.203,24.902,20.996,45.410
1532372716.825,28.320,29.297,27.832,22.461,34.668
1532372716.829,30.273,29.785,31.250,29.785,-5.859
1532372716.833,24.414,29.785,29.785,23.438,-8.789
1532372716.836,20.996,29.297,30.273,18.555,36.621
1532372716.840,25.879,28.809,30.762,23.926,39.062
1532372716.844,20.996,28.320,29.297,20.996,10.742
1532372716.848,21.973,29.785,30.273,20.508,3.418
1532372716.852,29.785,35.645,31.250,25.391,16.602
1532372716.856,32.715,36.133,29.785,23.926,45.410
1532372716.860,30.762,33.203,28.320,18.555,37.598
1532372716.864,32.227,31.738,30.273,19.043,-11.230
1532372716.868,36.133,32.227,32.715,16.113,-13.184
1532372716.872,35.645,35.156,34.668,12.695,35.156
1532372716.875,40.527,33.203,34.668,19.043,36.621
1532372716.879,39.551,31.738,33.691,19.531,11.719
1532372716.883,37.109,31.250,35.156,23.438,15.137
1532372716.887,30.762,27.344,37.109,27.832,28.809
1532372716.891,23.438,26.855,38.086,28.320,41.016
1532372716.895,21.973,27.832,36.133,30.273,20.508
1532372716.899,21.973,28.320,35.156,33.203,12.207
1532372716.903,21.973,31.738,36.621,30.273,56.641
1532372716.907,25.391,32.227,38.086,30.762,38.086
1532372716.911,24.902,30.273,39.062,31.250,0.977
1532372716.915,24.414,29.785,36.133,27.344,10.742
1532372716.918,30.273,30.762,39.062,27.832,36.133
1532372716.922,27.832,29.785,41.992,29.297,59.570
1532372716.926,26.855,30.762,42.969,26.367,18.066
1532372716.930,34.668,32.715,46.387,26.855,6.836
1532372716.934,38.574,31.738,45.898,28.809,42.969
1532372716.938,32.715,33.691,44.922,31.250,58.105
1532372716.942,31.738,34.668,42.480,31.250,57.617
1532372716.946,33.691,29.297,44.434,28.320,30.762
1532372716.950,29.297,27.832,46.875,24.414,18.066
1532372716.954,27.832,30.273,43.457,23.926,35.156
1532372716.957,20.996,29.297,41.016,17.090,41.016
1532372716.961,13.672,28.809,41.504,12.207,52.246
1532372716.965,23.926,30.762,43.945,23.926,11.719
1532372716.969,23.438,31.250,46.387,24.414,12.207
1532372716.973,20.996,32.715,45.898,18.066,59.570
1532372716.977,22.949,32.227,46.387,19.531,29.785
1532372716.981,20.020,33.203,49.805,21.973,2.441
1532372716.985,19.043,35.156,50.293,22.461,14.648
1532372716.989,18.066,33.691,50.781,25.391,10.254
1532372716.993,20.996,33.203,51.758,24.902,-5.371
1532372716.997,22.949,34.668,51.270,18.066,-2.441
1532372717.000,13.672,34.180,51.758,14.648,40.039
1532372717.004,10.254,29.297,58.594,17.090,51.270
1532372717.008,27.344,29.297,63.477,24.902,19.043
1532372717.012,29.785,43.945,50.781,13.184,0.977
1532372717.016,12.695,52.734,41.016,-7.812,46.387
1532372717.020,10.742,54.199,42.480,-9.277,81.543
1532372717.024,12.207,55.664,40.039,-6.348,68.848
1532372717.028,8.301,49.805,43.945,-4.395,25.879
1532372717.032,7.324,51.270,50.293,-0.488,-15.137
1532372717.036,2.441,60.059,44.434,-10.742,1.465
1532372717.040,-3.418,62.988,40.527,-18.555,41.504
1532372717.043,0.977,60.547,44.922,-11.719,21.484
1532372717.047,5.859,59.082,47.363,-11.719,-3.418
1532372717.051,7.324,59.082,43.945,-14.160,0.488
1532372717.055,3.906,56.641,43.457,-8.789,37.598
1532372717.059,-6.836,58.594,48.340,-15.625,60.547
1532372717.063,-12.207,61.035,47.852,-24.414,38.574
1532372717.067,-10.742,62.012,49.805,-25.879,29.785
1532372717.071,-18.066,62.988,52.246,-24.902,15.625
1532372717.075,-20.020,62.500,50.781,-26.855,29.785
1532372717.079,-15.137,62.012,47.363,-27.832,20.020
1532372717.082,-15.137,58.594,48.828,-16.602,-21.973
1532372717.086,-18.555,57.129,58.105,-14.160,0.000
1532372717.090,-13.184,61.035,53.711,-18.066,6.836
1532372717.094,-6.348,63.477,42.480,-17.578,-19.531
1532372717.098,-10.254,60.547,44.434,-17.578,-20.996
1532372717.102,-12.207,60.547,49.316,-16.113,-0.488
