timestamps,TP9,AF7,AF8,TP10,Right AUX
1532280035.897,29.785,33.691,17.090,37.109,317.383
1532280035.900,23.438,30.762,20.020,24.414,164.551
1532280035.904,20.508,36.133,20.020,26.855,-194.824
1532280035.908,37.109,34.180,22.949,53.711,-133.301
1532280035.912,38.086,30.762,27.344,55.664,240.234
1532280035.916,31.250,35.645,23.926,42.969,225.586
1532280035.920,43.457,36.621,26.855,33.691,-166.992
1532280035.924,47.852,38.086,31.738,43.945,-223.633
1532280035.928,45.898,38.574,30.762,53.223,164.062
1532280035.932,37.598,33.691,32.227,66.895,323.730
1532280035.936,37.598,41.992,28.809,53.223,-31.738
1532280035.939,43.457,48.828,27.832,22.461,-251.465
1532280035.943,41.504,48.828,26.367,47.363,36.621
1532280035.947,54.199,54.688,26.855,72.754,316.406
1532280035.951,41.992,58.105,33.691,52.246,98.145
1532280035.955,34.668,53.223,38.574,45.898,-260.254
1532280035.959,30.762,52.734,36.621,25.879,-80.566
1532280035.963,31.738,56.641,31.738,24.414,317.383
1532280035.967,44.434,55.176,34.668,46.875,197.266
1532280035.971,34.668,56.641,37.598,34.668,-200.195
1532280035.975,40.039,56.641,38.574,54.199,-156.738
1532280035.979,41.504,55.176,35.156,58.594,204.102
1532280035.982,25.879,53.711,34.668,49.316,244.141
1532280035.986,32.715,50.293,39.551,42.969,-110.352
1532280035.990,36.621,46.875,38.574,40.527,-223.633
1532280035.994,26.367,43.945,32.715,53.711,143.066
1532280035.998,37.109,42.480,31.250,64.941,312.012
1532280036.002,57.129,48.828,33.203,70.312,-7.324
1532280036.006,58.105,50.781,36.621,82.031,-242.676
1532280036.010,59.570,46.875,34.180,85.449,10.254
1532280036.014,57.617,48.828,35.645,80.566,333.984
1532280036.018,53.711,44.922,38.574,64.453,118.164
1532280036.022,36.133,41.504,40.039,56.152,-282.227
1532280036.025,34.668,44.434,36.133,44.922,-120.605
1532280036.029,50.293,42.480,38.574,57.617,282.227
1532280036.033,50.781,40.527,42.969,78.125,212.891
1532280036.037,49.805,41.504,40.527,65.918,-197.754
1532280036.041,44.922,43.945,40.039,58.594,-222.168
1532280036.045,32.227,39.551,43.457,72.754,189.453
1532280036.049,45.410,37.109,40.039,80.566,290.527
1532280036.053,48.340,42.969,40.039,61.523,-86.914
1532280036.057,54.688,43.945,41.992,50.293,-261.230
1532280036.061,53.711,41.016,37.109,54.199,64.941
1532280036.064,31.250,39.551,34.668,41.504,285.645
1532280036.068,29.785,33.691,35.645,36.621,3.418
1532280036.072,29.297,33.691,35.156,61.035,-263.184
1532280036.076,47.363,35.156,34.668,63.965,-60.059
1532280036.080,45.898,32.715,40.527,67.871,280.273
1532280036.084,46.875,32.715,39.551,72.266,148.926
1532280036.088,52.246,33.203,37.598,73.242,-226.074
1532280036.092,52.734,35.645,38.086,70.801,-149.414
1532280036.096,60.059,36.621,29.785,64.941,242.188
1532280036.100,45.410,35.156,34.668,63.965,213.867
1532280036.104,47.852,38.086,40.039,64.941,-178.223
1532280036.107,57.129,41.504,35.156,63.965,-225.098
1532280036.111,41.992,40.039,37.598,52.734,170.898
1532280036.115,29.297,40.039,39.551,56.641,309.082
1532280036.119,43.457,40.039,41.016,58.105,-59.082
1532280036.123,47.852,36.133,37.109,58.594,-247.070
1532280036.127,40.527,35.156,33.691,65.918,89.844
1532280036.131,38.086,38.086,38.086,54.688,359.863
1532280036.135,33.691,40.039,39.062,61.035,83.008
1532280036.139,41.016,39.062,38.086,63.965,-263.672
1532280036.143,42.969,36.133,39.551,62.012,-65.430
1532280036.147,43.945,39.062,35.645,59.570,299.805
1532280036.150,44.922,41.016,37.598,48.828,166.992
1532280036.154,33.691,45.410,34.668,35.156,-238.281
1532280036.158,27.344,43.945,34.180,50.781,-173.340
1532280036.162,29.785,38.086,37.109,63.477,233.398
1532280036.166,26.367,39.062,35.645,50.781,255.859
1532280036.170,25.879,42.969,37.598,52.246,-135.254
1532280036.174,22.949,43.457,35.645,61.523,-219.727
1532280036.178,29.297,39.551,32.715,57.129,143.066
1532280036.182,43.457,42.969,34.180,48.340,303.223
1532280036.186,40.527,42.969,38.574,38.086,4.395
1532280036.189,26.855,37.109,38.574,37.598,-224.609
1532280036.193,24.902,41.016,35.645,51.270,60.059
1532280036.197,23.926,42.969,34.668,47.852,338.379
1532280036.201,34.180,43.945,33.691,43.457,76.660
1532280036.205,32.715,42.969,36.133,34.668,-268.066
1532280036.209,28.809,40.039,36.621,33.691,-77.637
1532280036.213,36.621,41.504,40.527,50.781,298.828
1532280036.217,26.367,37.109,45.898,42.969,191.406
1532280036.221,24.902,36.621,39.062,33.203,-208.008
1532280036.225,39.062,41.992,36.133,50.293,-181.641
1532280036.229,46.875,44.434,35.156,40.527,233.398
1532280036.232,21.484,42.969,33.691,32.715,288.086
1532280036.236,21.973,43.457,34.668,43.457,-123.535
1532280036.240,40.527,44.922,35.156,34.180,-253.906
1532280036.244,22.461,42.480,31.738,31.250,110.840
1532280036.248,30.273,41.992,28.809,42.969,301.270
1532280036.252,36.621,40.527,28.809,40.527,-16.602
1532280036.256,23.926,41.992,27.344,31.738,-273.926
1532280036.260,35.645,40.527,30.273,36.133,-39.062
1532280036.264,33.691,41.504,31.250,28.809,278.809
1532280036.268,20.508,40.039,33.203,28.809,94.238
1532280036.271,22.949,33.691,34.180,39.062,-256.348
1532280036.275,29.297,30.762,32.715,35.156,-84.961
1532280036.279,36.133,34.668,29.785,43.457,302.246
1532280036.283,37.598,38.086,27.344,50.293,225.098
1532280036.287,39.062,33.691,29.785,52.734,-189.941
1532280036.291,37.598,34.180,29.297,52.246,-198.730
1532280036.295,39.551,35.156,23.438,60.059,214.844
1532280036.299,40.039,34.180,20.996,48.340,271.484
1532280036.303,39.062,36.133,24.902,48.340,-107.910
1532280036.307,34.668,36.133,20.996,50.293,-227.539
1532280036.311,37.109,32.715,19.531,27.344,118.652
1532280036.314,40.039,31.738,24.902,22.949,347.656
1532280036.318,42.480,31.738,30.273,68.359,49.316
1532280036.322,56.152,38.086,27.344,80.566,-247.070
1532280036.326,47.363,39.062,26.855,63.477,-13.184
1532280036.330,38.086,34.180,27.832,56.152,312.500
1532280036.334,38.574,39.551,25.391,52.246,147.461
1532280036.338,50.293,40.039,29.785,60.547,-217.285
1532280036.342,53.711,38.574,28.320,50.293,-143.066
1532280036.346,34.668,36.621,28.809,55.176,226.562
1532280036.350,31.250,34.180,31.250,59.570,227.051
1532280036.354,44.922,35.645,30.273,41.016,-143.555
1532280036.357,54.199,36.621,28.809,56.152,-200.195
1532280036.361,50.293,33.691,30.762,61.523,145.020
1532280036.365,45.410,33.691,33.203,58.105,288.574
1532280036.369,30.273,32.227,32.715,56.641,-48.340
1532280036.373,28.320,29.297,34.668,41.016,-250.977
1532280036.377,51.758,37.109,34.180,64.453,61.035
1532280036.381,49.316,41.992,26.855,53.711,310.547
1532280036.385,40.527,34.668,29.297,41.504,45.410
1532280036.389,40.527,29.785,33.203,54.199,-275.391
1532280036.393,40.527,34.180,30.273,39.551,-63.477
1532280036.396,34.180,31.738,30.762,37.109,307.617
1532280036.400,34.180,30.762,26.855,50.781,149.414
1532280036.404,37.109,33.203,24.414,48.828,-222.168
1532280036.408,56.152,29.785,28.809,51.758,-115.234
1532280036.412,46.875,27.832,27.832,48.340,270.508
1532280036.416,24.414,28.320,29.297,41.504,245.605
1532280036.420,38.086,30.762,30.273,46.387,-159.668
1532280036.424,33.203,28.320,32.715,45.410,-209.961
1532280036.428,32.715,28.809,30.762,48.340,167.969
1532280036.432,36.133,33.691,27.344,53.223,305.176
1532280036.436,43.457,32.715,32.715,57.617,-24.414
1532280036.439,41.504,31.250,30.762,44.434,-286.621
1532280036.443,37.598,32.715,28.320,52.734,5.371
1532280036.447,33.691,33.691,27.344,40.039,326.172
1532280036.451,35.645,30.762,28.809,35.156,98.145
1532280036.455,41.992,31.250,26.367,44.922,-240.234
1532280036.459,45.410,31.250,26.367,45.898,-71.777
1532280036.463,41.504,26.855,31.738,58.105,293.457
1532280036.467,47.363,29.785,31.250,41.992,171.387
1532280036.471,54.199,31.250,29.785,33.691,-206.543
1532280036.475,25.391,28.320,29.785,38.086,-188.965
1532280036.479,34.668,31.738,28.320,33.691,194.824
1532280036.482,44.922,31.738,31.738,48.828,257.324
1532280036.486,8.301,27.344,30.273,41.992,-115.234
1532280036.490,25.391,32.715,24.414,44.434,-239.746
1532280036.494,46.387,35.645,24.902,60.059,112.305
1532280036.498,40.039,31.250,30.762,55.664,312.988
1532280036.502,27.832,31.250,29.785,48.828,-15.137
1532280036.506,34.668,34.668,31.738,42.969,-242.676
1532280036.510,27.344,33.203,30.762,24.414,-1.465
1532280036.514,21.973,30.762,31.250,32.715,293.457
1532280036.518,41.504,32.715,32.715,64.941,123.535
1532280036.521,44.922,34.180,28.809,61.523,-237.793
1532280036.525,43.457,36.621,27.832,44.922,-114.258
1532280036.529,46.875,37.598,27.344,41.504,288.574
1532280036.533,44.434,40.527,27.344,54.199,238.770
1532280036.537,30.273,42.480,26.855,23.926,-180.176
1532280036.541,35.156,40.039,31.250,39.551,-212.402
1532280036.545,53.711,40.527,35.156,61.035,209.961
1532280036.549,56.152,41.992,34.180,38.574,312.012
1532280036.553,45.410,43.457,35.156,54.199,-56.152
1532280036.557,35.156,44.434,35.156,47.852,-224.121
1532280036.561,42.969,43.945,38.086,51.758,101.562
1532280036.564,38.086,44.922,37.598,67.383,342.285
1532280036.568,47.852,45.898,33.203,59.570,34.668
1532280036.572,53.711,44.434,31.738,40.527,-276.855
1532280036.576,54.199,45.898,32.715,46.387,-37.109
1532280036.580,49.316,50.781,29.785,35.156,315.430
1532280036.584,35.645,50.781,28.809,24.414,160.156
1532280036.588,48.340,50.781,31.250,54.199,-223.633
1532280036.592,57.129,48.828,33.691,48.340,-120.605
1532280036.596,46.387,47.852,36.133,44.922,296.875
1532280036.600,29.785,47.852,34.180,41.504,279.297
1532280036.604,29.785,46.387,30.762,25.879,-151.367
1532280036.607,29.785,42.480,27.344,46.875,-229.492
1532280036.611,48.828,45.410,25.391,56.641,171.387
1532280036.615,56.641,53.223,24.414,39.551,311.523
1532280036.619,24.902,44.434,31.250,27.344,-71.777
1532280036.623,33.691,42.480,33.691,37.109,-304.199
1532280036.627,51.758,49.316,26.855,39.551,44.922
1532280036.631,46.875,45.410,27.832,21.484,331.055
1532280036.635,37.598,43.457,27.344,26.367,45.410
1532280036.639,18.555,45.898,24.414,13.672,-281.250
1532280036.643,15.625,42.969,31.250,16.602,-72.754
1532280036.646,38.086,40.527,31.738,26.367,295.410
1532280036.650,25.879,42.969,31.738,24.902,168.945
1532280036.654,22.949,47.363,34.180,22.949,-232.910
1532280036.658,26.367,42.480,34.180,13.184,-172.363
1532280036.662,41.992,40.039,32.227,48.340,237.793
1532280036.666,39.551,40.527,32.715,60.547,245.605
1532280036.670,35.645,38.086,34.180,48.340,-155.762
1532280036.674,32.715,31.738,39.062,44.434,-274.902
1532280036.678,26.367,33.203,30.273,49.316,108.398
1532280036.682,36.621,35.645,27.344,56.641,278.320
1532280036.686,57.617,31.738,31.738,65.430,-83.008
1532280036.689,51.758,32.715,30.273,65.918,-293.945
1532280036.693,49.805,33.203,27.344,72.754,24.414
1532280036.697,49.316,30.762,26.855,70.801,297.852
1532280036.701,35.156,30.762,26.367,59.082,62.500
1532280036.705,41.016,28.809,26.367,68.848,-276.367
1532280036.709,38.086,26.367,28.809,75.195,-112.305
1532280036.713,40.527,26.367,25.391,69.336,269.043
1532280036.717,46.875,23.926,27.344,69.824,153.320
1532280036.721,34.668,22.949,26.367,64.453,-280.273
1532280036.725,39.551,23.438,25.391,65.918,-238.281
1532280036.728,42.969,24.414,27.344,74.219,198.730
1532280036.732,36.133,25.879,23.926,70.312,258.789
1532280036.736,43.457,26.855,21.484,85.449,-138.672
1532280036.740,51.758,26.367,20.996,86.914,-257.812
1532280036.744,56.641,23.926,20.996,79.590,112.793
1532280036.748,46.387,22.461,21.973,88.379,318.848
1532280036.752,39.551,19.531,22.949,84.473,5.371
1532280036.756,47.852,21.973,21.484,83.496,-282.715
1532280036.760,40.039,24.414,21.484,78.125,-50.781
1532280036.764,34.180,23.438,22.461,79.590,254.395
1532280036.768,40.039,26.367,22.461,85.449,76.172
1532280036.771,35.645,26.855,24.902,80.566,-254.395
1532280036.775,33.203,25.391,22.949,71.289,-122.559
1532280036.779,23.926,24.902,21.484,68.359,242.188
1532280036.783,20.020,22.949,21.973,59.082,174.316
1532280036.787,22.461,19.531,22.461,49.316,-183.105
1532280036.791,24.414,17.090,23.926,57.129,-176.758
1532280036.795,25.391,17.578,26.367,50.293,197.754
1532280036.799,23.438,13.672,29.297,52.246,293.457
1532280036.803,15.625,14.648,25.391,51.758,-57.617
1532280036.807,1.465,19.043,16.602,26.855,-232.910
1532280036.811,-5.371,15.625,22.461,38.086,110.352
1532280036.814,-12.207,14.648,30.762,44.434,358.398
1532280036.818,-4.883,15.137,30.762,25.391,27.832
1532280036.822,5.371,17.090,28.320,9.277,-287.109
1532280036.826,-2.441,18.555,26.855,17.578,-23.926
1532280036.830,3.418,20.020,27.832,36.133,339.844
1532280036.834,-3.906,20.020,31.738,29.297,166.504
1532280036.838,-9.766,20.996,32.227,10.742,-246.582
1532280036.842,-1.953,23.926,31.250,14.160,-143.555
1532280036.846,-1.953,20.508,34.180,30.762,265.625
1532280036.850,-1.465,20.508,35.156,17.090,240.723
1532280036.853,-2.930,24.902,34.180,11.230,-148.926
1532280036.857,-8.789,26.367,35.156,23.926,-229.492
1532280036.861,-3.418,27.344,36.621,28.320,143.555
1532280036.865,3.418,25.879,37.109,27.832,290.039
1532280036.869,-16.113,24.902,37.109,18.555,-63.477
1532280036.873,-10.254,24.902,35.645,20.996,-247.070
1532280036.877,4.395,29.785,30.762,22.949,67.871
1532280036.881,-16.602,29.785,29.785,9.277,333.496
1532280036.885,-20.508,30.273,35.156,13.672,58.594
1532280036.889,-5.859,35.156,36.621,19.043,-269.531
1532280036.893,-4.883,35.645,37.109,7.812,-34.668
1532280036.896,1.953,37.109,34.668,12.207,311.523
1532280036.900,0.977,37.598,32.227,15.625,153.320
1532280036.904,-15.625,34.668,33.691,10.254,-213.379
1532280036.908,-26.367,29.785,38.086,8.789,-104.980
1532280036.912,-15.137,28.320,39.551,31.250,293.457
1532280036.916,-7.812,29.785,40.527,29.297,268.066
1532280036.920,11.230,32.227,39.551,22.949,-112.305
1532280036.924,17.578,35.645,36.133,33.203,-204.590
1532280036.928,-6.348,36.621,35.156,19.531,148.438
1532280036.932,-19.531,35.645,34.668,8.789,318.848
1532280036.936,-12.207,36.621,32.715,12.695,-15.137
1532280036.939,-11.230,39.062,30.762,6.836,-254.395
1532280036.943,-9.766,40.527,34.180,10.254,26.367
1532280036.947,3.418,42.480,31.250,26.855,308.594
1532280036.951,-2.930,39.551,32.715,11.719,98.145
1532280036.955,-8.301,38.574,37.598,3.906,-233.398
1532280036.959,-0.488,42.969,33.691,20.020,-94.727
1532280036.963,9.277,44.434,36.133,35.156,275.391
1532280036.967,17.578,43.457,34.668,42.480,198.730
1532280036.971,14.160,42.480,35.645,33.691,-175.781
1532280036.975,12.207,45.410,38.086,31.738,-144.043
1532280036.978,7.812,46.875,35.156,35.645,222.168
1532280036.982,-0.977,45.410,36.621,40.527,279.785
1532280036.986,0.977,48.828,35.645,29.297,-72.754
1532280036.990,9.766,49.805,32.715,30.273,-223.145
1532280036.994,15.137,49.805,30.273,32.715,117.188
1532280036.998,10.254,50.781,29.785,21.484,302.734
1532280037.002,5.371,49.805,32.227,17.090,-27.832
1532280037.006,4.395,46.875,32.715,27.832,-258.301
1532280037.010,9.277,49.316,34.180,36.133,12.695
1532280037.014,16.602,53.711,36.133,31.738,325.684
1532280037.018,11.719,51.270,39.062,25.879,104.004
1532280037.021,4.883,50.293,39.551,23.926,-267.578
1532280037.025,6.836,49.316,37.109,33.691,-101.562
1532280037.029,15.625,48.340,36.133,40.527,310.059
1532280037.033,15.625,49.805,39.062,34.668,228.516
1532280037.037,8.789,49.316,39.551,25.879,-191.406
1532280037.041,4.883,47.363,36.621,32.715,-206.055
1532280037.045,6.836,47.852,30.762,35.645,190.430
1532280037.049,15.625,51.758,24.414,19.043,287.109
1532280037.053,25.391,54.688,26.367,19.531,-94.727
1532280037.057,28.809,53.223,27.344,33.203,-284.668
1532280037.061,22.461,49.316,29.297,41.992,46.387
1532280037.064,16.113,48.828,36.133,43.945,320.801
1532280037.068,20.508,50.293,34.180,40.039,20.996
1532280037.072,24.414,50.781,29.297,36.133,-298.340
1532280037.076,21.484,50.293,28.320,35.156,-30.273
1532280037.080,25.391,51.270,28.809,32.715,314.941
1532280037.084,28.320,52.734,29.297,32.227,133.301
1532280037.088,24.902,48.828,30.273,33.203,-236.328
1532280037.092,17.578,44.434,31.738,39.062,-126.953
1532280037.096,11.719,46.875,33.691,34.668,297.363
1532280037.100,5.371,51.758,32.715,23.438,233.887
1532280037.103,9.766,53.711,28.809,26.367,-178.223
1532280037.107,19.531,52.734,25.391,28.320,-198.730
1532280037.111,6.348,47.363,27.344,27.344,182.129
1532280037.115,-1.465,44.434,30.762,32.715,320.312
1532280037.119,14.160,47.363,31.250,32.227,-60.059
1532280037.123,29.297,50.781,27.344,28.320,-282.715
1532280037.127,29.297,49.805,23.438,34.180,75.195
1532280037.131,24.902,50.781,24.902,34.668,346.191
1532280037.135,26.855,49.316,27.832,30.762,59.570
1532280037.139,29.297,48.340,27.832,30.762,-286.621
1532280037.143,25.391,46.875,27.344,34.668,-64.453
1532280037.146,19.043,42.969,26.367,39.551,324.707
1532280037.150,14.160,41.504,27.832,36.133,181.152
1532280037.154,12.695,40.527,29.297,42.969,-203.125
1532280037.158,15.625,42.480,26.855,53.223,-139.648
1532280037.162,17.578,45.410,22.949,49.805,280.762
1532280037.166,17.578,46.387,21.973,44.922,289.062
1532280037.170,7.812,42.969,23.926,37.598,-132.324
1532280037.174,6.836,39.551,22.461,39.062,-215.820
1532280037.178,20.508,43.457,22.949,46.387,152.832
1532280037.182,26.367,44.922,22.461,44.922,316.895
1532280037.185,33.203,44.922,21.484,43.457,-20.996
1532280037.189,39.062,45.898,20.996,41.504,-266.602
1532280037.193,30.273,43.945,19.531,44.434,17.090
1532280037.197,24.414,44.434,18.555,40.039,291.504
1532280037.201,22.461,46.387,20.996,40.527,65.430
1532280037.205,29.297,44.922,20.508,49.316,-241.211
1532280037.209,41.504,43.945,17.578,49.316,-72.754
1532280037.213,43.457,43.457,17.578,51.270,300.781
1532280037.217,41.504,44.434,20.508,53.223,208.496
1532280037.221,42.480,46.387,19.043,47.852,-169.434
1532280037.225,41.992,44.434,18.066,53.711,-160.645
1532280037.228,36.133,43.945,19.043,53.223,218.750
1532280037.232,30.273,45.898,17.090,43.457,292.480
1532280037.236,28.809,47.852,16.113,42.969,-117.676
1532280037.240,28.320,47.852,18.066,26.855,-270.996
1532280037.244,23.438,43.457,15.137,24.414,105.469
1532280037.248,27.832,40.039,9.766,35.645,325.684
1532280037.252,27.344,41.016,13.184,42.480,14.648
1532280037.256,39.062,41.016,14.648,43.945,-274.414
1532280037.260,45.410,37.598,17.090,51.270,-20.020
1532280037.264,37.109,35.645,15.625,53.223,335.938
1532280037.268,43.945,38.574,13.184,42.969,144.043
1532280037.271,42.969,37.598,12.695,42.480,-222.168
1532280037.275,40.527,36.133,11.719,45.410,-98.145
1532280037.279,42.480,37.598,15.625,41.016,263.184
1532280037.283,40.039,38.086,16.113,38.574,239.746
1532280037.287,43.457,37.109,14.160,43.457,-142.578
1532280037.291,42.969,38.574,15.625,46.875,-177.734
1532280037.295,39.062,38.086,17.090,45.410,188.965
1532280037.299,38.086,38.086,17.090,45.898,289.062
1532280037.303,40.039,38.086,14.160,32.227,-44.922
1532280037.307,43.945,35.645,12.695,32.715,-238.770
1532280037.310,42.969,36.133,14.648,44.922,91.309
1532280037.314,32.715,35.645,13.672,41.016,354.980
1532280037.318,25.879,35.156,12.695,37.598,76.172
1532280037.322,30.762,33.203,11.719,40.039,-249.023
1532280037.326,34.668,31.250,11.719,45.410,-16.602
1532280037.330,35.156,33.691,13.184,38.086,329.102
1532280037.334,33.691,37.109,13.184,34.180,147.461
1532280037.338,33.691,37.598,14.648,37.598,-254.883
1532280037.342,31.250,34.668,15.137,38.086,-154.297
1532280037.346,31.738,34.668,14.648,38.086,277.344
1532280037.350,34.180,37.109,16.113,36.621,251.465
1532280037.353,22.461,34.180,17.090,30.273,-146.973
1532280037.357,19.043,34.668,17.090,29.297,-222.656
1532280037.361,21.973,37.109,13.672,32.227,149.902
1532280037.365,23.926,38.086,16.602,37.598,323.242
1532280037.369,27.344,41.016,18.555,30.273,-49.805
1532280037.373,32.715,40.527,19.043,32.227,-271.484
1532280037.377,37.109,39.551,20.996,46.387,68.848
1532280037.381,30.273,39.551,20.508,39.551,325.195
1532280037.385,28.320,39.551,18.555,34.668,66.406
1532280037.389,29.297,40.039,17.090,30.273,-241.211
1532280037.393,30.762,39.062,19.043,42.969,-28.320
1532280037.396,32.227,41.504,20.020,51.758,299.805
1532280037.400,31.250,43.945,20.020,43.945,145.508
1532280037.404,29.785,44.434,20.508,39.062,-204.590
1532280037.408,26.855,42.969,20.020,41.504,-124.023
1532280037.412,27.344,40.039,18.555,42.969,260.742
1532280037.416,29.785,41.992,18.066,43.945,256.836
1532280037.420,29.297,44.922,21.484,39.062,-153.809
1532280037.424,29.297,41.992,21.973,42.480,-220.215
1532280037.428,21.973,40.527,20.996,47.852,174.316
1532280037.432,20.508,43.457,20.508,41.504,348.633
1532280037.435,27.344,44.922,22.461,41.016,-15.625
1532280037.439,25.391,43.457,22.949,41.016,-305.176
1532280037.443,18.555,40.039,23.438,43.945,18.066
1532280037.447,19.531,40.527,25.391,47.852,345.703
1532280037.451,22.949,44.434,23.926,42.480,91.309
1532280037.455,20.020,46.387,20.996,36.133,-270.020
1532280037.459,14.160,42.480,21.484,41.504,-94.238
1532280037.463,16.602,43.457,21.973,40.527,276.367
1532280037.467,22.949,46.387,22.461,38.086,160.645
1532280037.471,18.066,44.922,26.855,36.621,-225.586
1532280037.475,14.160,42.969,28.320,40.039,-188.965
1532280037.478,7.812,42.480,27.832,41.992,187.988
1532280037.482,5.859,41.504,23.926,21.484,242.676
1532280037.486,8.301,41.016,25.391,22.949,-98.145
1532280037.490,9.277,44.922,23.438,29.785,-241.211
1532280037.494,9.277,46.387,20.996,23.438,129.395
1532280037.498,5.859,45.410,26.367,31.738,330.566
1532280037.502,10.742,45.410,28.320,34.180,28.809
1532280037.506,16.602,46.875,26.367,27.832,-225.098
1532280037.510,11.719,45.898,26.367,27.344,26.855
1532280037.514,7.812,44.434,28.809,32.715,332.031
1532280037.518,10.742,46.387,25.879,23.438,85.449
1532280037.521,11.719,44.434,25.391,16.602,-291.016
1532280037.525,6.348,43.457,27.344,27.344,-127.441
1532280037.529,4.883,43.457,29.297,37.109,293.457
1532280037.533,11.230,44.434,32.227,34.668,245.117
1532280037.537,17.090,45.898,27.832,26.367,-169.434
1532280037.541,18.066,47.363,21.973,24.414,-197.754
1532280037.545,15.137,46.387,22.949,24.414,177.734
1532280037.549,10.254,46.387,28.320,19.531,281.738
1532280037.553,5.371,48.828,30.273,21.484,-51.758
1532280037.557,8.301,44.922,30.762,22.949,-238.281
1532280037.560,11.230,47.363,28.320,21.484,59.082
1532280037.564,16.113,52.734,27.344,26.855,297.363
1532280037.568,13.184,52.246,29.785,24.902,24.902
1532280037.572,4.395,51.758,30.762,18.555,-271.973
1532280037.576,8.789,53.711,27.832,22.949,-34.180
1532280037.580,10.742,50.293,29.297,34.180,321.289
1532280037.584,1.465,48.340,32.227,24.414,167.969
1532280037.588,5.371,51.270,28.320,16.602,-205.566
1532280037.592,9.766,48.828,27.832,27.832,-111.816
1532280037.596,10.254,48.340,29.785,33.203,278.320
1532280037.600,8.301,51.270,27.832,24.414,273.926
1532280037.603,6.836,49.316,29.297,29.297,-125.488
1532280037.607,7.324,47.852,30.762,29.785,-213.867
1532280037.611,11.230,46.875,29.297,27.344,188.965
1532280037.615,13.184,45.898,27.832,25.879,333.496
1532280037.619,15.625,46.875,28.320,20.020,-51.270
1532280037.623,15.625,45.410,28.809,20.996,-246.582
1532280037.627,11.230,42.969,27.832,26.855,66.406
1532280037.631,7.324,42.969,26.855,31.738,339.355
1532280037.635,8.301,42.480,24.902,34.668,89.355
1532280037.639,10.742,41.016,24.414,28.320,-270.020
1532280037.642,11.719,40.039,23.438,24.414,-82.031
1532280037.646,16.113,39.062,25.391,37.598,296.387
1532280037.650,13.184,42.480,23.926,38.574,154.297
1532280037.654,13.184,42.969,24.414,36.621,-252.441
1532280037.658,15.625,41.016,24.902,34.180,-192.871
1532280037.662,14.160,42.480,23.438,28.320,181.641
1532280037.666,19.531,43.945,26.855,37.109,216.797
1532280037.670,14.648,42.480,25.879,34.668,-125.977
1532280037.674,15.137,42.480,24.902,35.645,-206.543
1532280037.678,22.949,42.969,25.391,43.945,163.574
1532280037.682,20.996,43.457,25.391,43.457,318.848
1532280037.685,15.137,43.457,23.926,36.133,-10.742
1532280037.689,15.137,44.434,20.996,24.902,-264.160
1532280037.693,25.879,42.969,21.973,35.645,5.859
1532280037.697,33.203,42.969,22.461,43.457,311.035
1532280037.701,21.484,42.480,22.461,32.227,71.289
1532280037.705,14.648,40.039,22.949,36.133,-262.207
1532280037.709,16.602,41.504,22.949,37.598,-78.125
1532280037.713,18.555,41.016,22.461,38.086,303.711
1532280037.717,25.391,41.016,24.414,41.016,212.402
1532280037.721,24.414,40.039,24.902,43.457,-186.035
1532280037.725,18.066,40.527,20.996,41.504,-172.363
1532280037.728,19.043,39.062,21.973,42.969,229.004
1532280037.732,18.555,35.645,24.902,45.898,283.203
1532280037.736,13.672,34.180,20.508,32.715,-100.586
1532280037.740,16.602,33.691,18.066,34.180,-241.699
1532280037.744,17.578,34.180,18.066,46.387,99.121
1532280037.748,16.602,34.668,18.555,41.016,297.363
1532280037.752,24.414,35.156,20.020,41.504,-11.719
1532280037.756,24.902,35.156,18.555,40.527,-273.926
1532280037.760,13.672,34.668,16.602,32.227,-17.578
1532280037.764,9.766,34.180,18.066,33.691,302.734
1532280037.767,16.113,36.621,20.508,43.457,124.023
1532280037.771,21.484,36.621,20.508,41.504,-234.863
1532280037.775,25.391,36.133,20.996,40.039,-123.047
1532280037.779,21.484,37.598,20.508,42.480,266.602
1532280037.783,20.996,41.504,18.555,35.645,211.914
1532280037.787,24.414,43.457,16.113,32.715,-182.617
1532280037.791,26.855,45.898,14.160,33.203,-212.402
1532280037.795,32.715,48.340,15.137,34.180,192.383
1532280037.799,38.086,49.316,16.602,35.645,300.293
1532280037.803,32.227,48.828,19.043,36.133,-99.121
1532280037.807,27.344,45.898,18.066,45.410,-260.742
1532280037.810,23.926,42.969,17.090,51.270,70.801
1532280037.814,11.230,41.992,18.555,48.828,300.781
1532280037.818,8.301,45.410,19.531,41.992,28.320
1532280037.822,18.066,44.922,17.090,46.387,-268.555
1532280037.826,19.531,41.992,18.066,52.734,-45.410
1532280037.830,13.672,39.551,20.020,49.316,317.871
1532280037.834,18.066,38.574,18.555,45.410,139.648
1532280037.838,22.949,39.551,18.066,42.480,-248.047
1532280037.842,24.902,39.062,18.066,40.527,-154.297
1532280037.846,20.508,36.621,16.113,42.480,262.695
1532280037.850,21.973,37.109,17.578,42.969,250.977
1532280037.853,29.297,40.039,19.531,43.457,-152.832
1532280037.857,33.691,41.016,17.090,43.945,-230.469
1532280037.861,33.203,41.504,17.578,43.457,142.090
1532280037.865,32.715,42.969,18.555,48.340,300.781
1532280037.869,36.133,43.945,18.066,46.875,-33.203
1532280037.873,36.621,42.969,14.648,49.316,-227.051
1532280037.877,35.156,41.016,13.672,48.340,78.613
1532280037.881,31.250,38.574,13.184,43.945,357.422
1532280037.885,32.227,41.016,15.137,48.828,57.129
1532280037.889,34.180,45.898,17.090,47.363,-283.691
1532280037.892,36.133,42.969,16.113,48.340,-44.434
1532280037.896,31.738,39.062,14.160,49.316,320.801
1532280037.900,26.367,40.527,14.160,38.574,145.996
1532280037.904,28.809,40.527,15.137,35.156,-228.027
1532280037.908,31.250,36.133,13.184,41.504,-167.480
1532280037.912,28.809,33.691,11.719,38.086,232.910
1532280037.916,25.391,35.645,13.184,36.621,287.598
1532280037.920,23.438,39.062,15.137,41.504,-119.141
1532280037.924,23.926,40.039,17.090,39.551,-243.164
1532280037.928,23.926,39.551,16.602,45.898,132.324
1532280037.932,23.438,39.551,12.695,44.922,322.754
1532280037.935,26.367,42.969,13.672,41.504,-22.461
1532280037.939,26.367,44.434,15.137,37.109,-293.945
1532280037.943,25.879,42.969,13.184,33.691,3.906
1532280037.947,24.902,42.480,11.719,41.016,342.773
1532280037.951,21.484,42.969,14.160,44.434,94.238
1532280037.955,21.973,39.551,17.090,41.504,-281.250
1532280037.959,26.855,40.527,15.137,44.922,-107.422
1532280037.963,33.203,42.969,15.137,52.734,283.691
1532280037.967,33.691,41.992,17.090,52.246,198.730
1532280037.971,27.344,41.504,14.160,45.898,-192.383
1532280037.975,25.879,41.016,11.230,45.898,-174.316
1532280037.978,28.809,35.645,14.160,48.340,179.199
1532280037.982,27.344,27.344,14.648,40.527,247.070
1532280037.986,26.855,23.438,15.625,42.480,-96.680
1532280037.990,30.273,22.461,15.137,45.898,-232.910
1532280037.994,34.180,20.508,11.230,46.875,120.605
1532280037.998,37.109,21.973,11.719,49.316,315.430
1532280038.002,37.109,24.414,11.230,39.062,-8.789
1532280038.006,37.109,24.902,10.742,42.480,-285.645
1532280038.010,36.133,23.438,15.137,51.270,-48.828
1532280038.014,32.227,20.020,15.137,42.969,276.855
1532280038.017,29.297,20.508,15.137,41.992,110.840
1532280038.021,31.738,20.996,16.113,37.109,-263.184
1532280038.025,33.203,21.973,15.137,34.668,-128.906
1532280038.029,24.414,22.949,15.625,34.180,266.113
1532280038.033,14.648,21.484,19.043,29.785,222.656
1532280038.037,14.160,20.996,20.996,25.879,-194.824
1532280038.041,16.602,21.484,20.508,21.973,-259.277
1532280038.045,14.648,22.461,18.555,23.926,152.832
1532280038.049,17.090,22.461,18.555,25.391,304.199
1532280038.053,15.625,20.508,20.508,34.180,-55.664
1532280038.057,5.859,19.531,20.996,30.762,-264.648
1532280038.060,4.883,19.043,22.461,25.879,79.102
1532280038.064,10.254,21.973,22.461,30.273,337.402
1532280038.068,14.648,22.949,22.461,25.391,36.133
1532280038.072,14.648,20.508,25.879,24.902,-273.438
1532280038.076,6.836,18.066,24.414,24.414,-31.738
1532280038.080,-3.906,17.578,22.461,21.973,287.598
1532280038.084,-2.441,20.020,22.461,16.602,121.094
1532280038.088,4.883,20.996,20.996,15.625,-236.816
1532280038.092,6.836,21.973,20.020,19.043,-140.137
1532280038.096,5.859,23.926,19.043,22.461,275.391
1532280038.099,1.953,24.414,18.066,23.926,252.930
1532280038.103,-1.953,24.414,17.578,12.695,-166.504
1532280038.107,0.000,26.855,18.555,15.137,-236.328
1532280038.111,0.977,26.855,18.066,25.879,171.875
1532280038.115,4.395,27.832,20.996,25.879,328.613
1532280038.119,4.883,28.809,26.855,19.531,-60.547
1532280038.123,4.395,27.344,26.855,18.555,-303.711
1532280038.127,13.672,24.902,26.367,24.414,36.621
1532280038.131,13.184,29.785,22.949,23.926,345.215
1532280038.135,0.488,36.133,16.113,13.184,74.219
1532280038.139,-2.441,37.598,16.113,1.953,-283.203
1532280038.142,-6.348,38.574,17.578,2.441,-81.055
1532280038.146,-20.996,34.180,21.973,2.930,302.734
1532280038.150,-20.508,33.691,28.809,8.301,163.086
1532280038.154,-6.348,34.668,32.715,17.578,-226.562
1532280038.158,-2.930,35.156,29.785,15.625,-156.250
1532280038.162,-7.812,38.574,23.926,11.719,248.047
1532280038.166,-15.137,38.086,25.391,4.883,281.250
1532280038.170,-22.461,36.133,29.297,-3.418,-124.512
1532280038.174,-14.648,35.156,28.320,0.000,-252.930
1532280038.178,-5.371,32.715,27.344,3.906,117.188
1532280038.182,-5.859,33.691,26.855,0.488,291.504
1532280038.185,-3.906,35.156,26.855,-2.441,-29.297
1532280038.189,-3.906,34.180,27.832,4.395,-269.043
1532280038.193,-1.953,31.250,27.344,17.090,23.926
1532280038.197,2.930,30.762,27.832,21.484,317.383
1532280038.201,4.883,35.156,24.414,13.184,102.539
1532280038.205,4.883,38.574,19.531,9.277,-222.656
1532280038.209,3.418,37.598,20.020,15.625,-67.871
1532280038.213,0.977,36.133,20.996,12.695,321.777
1532280038.217,-1.465,34.180,19.043,6.836,208.984
1532280038.221,3.418,31.738,18.066,5.371,-223.633
1532280038.224,-0.977,30.273,18.066,-1.953,-201.660
1532280038.228,-0.977,30.273,22.461,7.812,201.172
1532280038.232,3.906,29.785,24.902,23.926,272.461
1532280038.236,5.859,32.715,20.508,16.602,-110.840
1532280038.240,5.859,33.203,18.555,18.066,-270.020
1532280038.244,2.930,29.785,20.996,30.762,122.070
1532280038.248,0.000,28.320,23.926,29.785,339.844
1532280038.252,3.418,30.273,23.926,26.855,12.695
1532280038.256,3.906,32.715,22.949,23.926,-250.000
1532280038.260,-3.906,30.762,21.973,14.160,-21.484
1532280038.264,-1.465,32.715,20.508,14.160,300.293
1532280038.267,1.953,36.133,18.555,10.742,145.996
1532280038.271,0.488,37.109,14.648,3.906,-207.520
1532280038.275,-7.324,34.668,14.648,5.859,-114.258
1532280038.279,-5.859,31.250,19.043,6.348,233.887
1532280038.283,-3.418,32.715,18.066,8.789,225.098
1532280038.287,-1.953,36.133,18.555,14.160,-164.062
1532280038.291,3.418,37.109,20.996,18.066,-210.449
1532280038.295,1.953,36.133,19.043,20.996,202.148
1532280038.299,0.977,36.621,20.020,17.578,307.129
1532280038.303,6.348,37.598,22.949,14.648,-70.801
1532280038.307,1.465,36.621,22.461,12.207,-256.836
1532280038.310,0.000,34.668,22.949,13.184,73.730
1532280038.314,0.488,35.156,21.973,18.066,323.730
1532280038.318,0.488,37.598,19.043,6.836,56.152
1532280038.322,1.953,35.645,22.461,-0.977,-291.992
1532280038.326,0.977,31.250,26.367,16.113,-59.082
1532280038.330,4.883,32.227,25.391,20.020,332.031
1532280038.334,5.859,34.668,23.926,14.648,161.621
1532280038.338,2.930,35.645,21.484,13.672,-220.703
1532280038.342,-1.953,35.645,22.949,18.555,-128.906
1532280038.346,-2.930,32.227,25.879,20.020,279.785
1532280038.349,2.441,33.691,24.414,18.066,277.344
1532280038.353,9.277,38.086,24.414,16.113,-145.508
1532280038.357,13.184,38.086,23.438,18.555,-262.207
1532280038.361,10.742,35.645,21.973,20.996,146.484
1532280038.365,5.371,36.621,23.438,22.461,339.355
1532280038.369,4.395,35.645,24.414,12.695,-16.113
1532280038.373,7.324,33.691,26.855,21.484,-242.188
1532280038.377,10.742,35.156,26.855,37.598,35.156
1532280038.381,8.789,37.109,23.438,24.414,306.152
1532280038.385,4.883,40.039,19.531,17.578,62.988
1532280038.389,5.859,41.016,19.531,19.531,-265.137
1532280038.392,13.672,39.551,22.461,26.367,-83.984
1532280038.396,13.184,36.621,21.484,27.344,283.691
1532280038.400,6.348,37.109,21.973,20.508,191.406
1532280038.404,14.160,39.062,23.438,17.578,-192.871
1532280038.408,19.043,38.574,23.926,20.020,-143.555
1532280038.412,14.648,37.109,22.461,25.879,243.164
1532280038.416,9.766,36.621,20.996,27.344,251.465
1532280038.420,9.277,35.156,23.438,16.113,-159.668
1532280038.424,16.113,33.203,21.973,17.090,-259.766
1532280038.428,14.160,32.715,17.578,23.926,149.902
1532280038.431,9.766,33.203,19.043,24.902,316.895
1532280038.435,11.230,31.250,22.949,22.461,-32.715
1532280038.439,13.184,27.832,24.414,17.578,-290.527
1532280038.443,16.602,30.273,23.438,25.391,-19.043
1532280038.447,11.230,28.809,25.391,30.273,310.059
1532280038.451,9.766,27.344,29.297,23.926,93.750
1532280038.455,22.949,29.785,29.297,32.715,-234.375
1532280038.459,30.762,30.762,26.855,38.574,-86.426
1532280038.463,35.156,32.227,23.438,31.738,273.926
1532280038.467,30.762,32.227,23.926,28.809,194.824
1532280038.471,26.367,32.715,24.902,27.344,-206.543
1532280038.474,27.344,33.203,22.949,33.691,-211.914
1532280038.478,25.879,34.668,18.066,40.527,185.059
1532280038.482,24.414,32.715,19.043,38.574,265.137
1532280038.486,15.137,30.273,24.902,34.180,-115.234
1532280038.490,8.789,32.227,25.391,38.086,-259.766
1532280038.494,12.695,34.668,22.461,39.062,102.539
1532280038.498,15.137,34.668,24.414,40.527,328.613
1532280038.502,8.789,33.691,26.855,34.668,2.930
1532280038.506,8.789,32.715,26.367,28.809,-277.344
1532280038.510,12.207,33.203,25.879,31.738,-11.230
1532280038.514,9.277,37.109,26.367,23.926,312.988
1532280038.517,10.742,39.551,23.926,17.578,128.418
1532280038.521,13.184,39.062,20.996,19.531,-220.215
1532280038.525,9.277,41.016,20.996,19.531,-112.305
1532280038.529,10.742,41.504,20.508,24.414,274.902
1532280038.533,11.719,39.551,20.996,20.020,237.793
1532280038.537,6.348,40.527,23.438,11.719,-164.062
1532280038.541,5.859,40.039,27.344,25.879,-213.379
1532280038.545,14.160,37.109,26.367,38.574,171.875
1532280038.549,21.973,36.133,23.438,35.156,281.738
1532280038.553,20.020,36.133,24.902,31.738,-100.586
1532280038.556,16.602,36.621,22.461,28.320,-296.875
1532280038.560,18.066,35.645,19.043,30.273,57.617
1532280038.564,18.066,37.109,15.137,34.668,349.609
1532280038.568,16.113,37.109,13.184,28.320,56.641
1532280038.572,16.113,34.668,16.113,25.391,-256.836
1532280038.576,18.066,34.668,17.578,31.738,-58.594
1532280038.580,14.160,35.645,20.508,26.855,275.391
1532280038.584,22.461,35.156,20.996,26.855,146.973
1532280038.588,27.832,38.086,16.113,30.273,-232.422
1532280038.592,24.902,43.945,14.648,29.785,-142.090
1532280038.596,24.902,42.969,16.602,32.715,263.672
1532280038.599,26.367,41.992,18.555,28.320,237.305
1532280038.603,31.250,41.992,20.996,27.832,-178.223
1532280038.607,27.344,41.504,21.973,31.738,-228.027
1532280038.611,25.391,40.039,22.949,34.668,154.785
1532280038.615,22.949,40.527,23.926,31.738,319.336
1532280038.619,14.160,41.016,22.949,26.367,-31.738
1532280038.623,16.113,42.480,22.949,27.344,-278.320
1532280038.627,19.531,43.945,23.926,31.250,37.109
1532280038.631,23.438,43.945,22.949,27.832,340.332
1532280038.635,24.902,42.480,22.461,25.391,80.566
1532280038.639,22.461,41.992,25.879,28.320,-257.324
1532280038.642,21.484,40.039,26.367,33.691,-41.016
1532280038.646,27.832,35.645,25.879,40.527,334.473
1532280038.650,30.273,35.156,27.344,35.645,209.473
1532280038.654,22.949,35.645,27.344,35.645,-184.082
1532280038.658,23.926,37.109,26.367,35.156,-174.805
1532280038.662,26.855,40.039,24.414,34.180,226.074
1532280038.666,21.973,40.527,21.973,31.738,286.621
1532280038.670,19.531,40.039,20.508,21.973,-115.234
1532280038.674,17.090,41.992,20.020,18.555,-223.633
1532280038.678,18.066,41.016,20.020,19.043,132.324
1532280038.681,19.531,41.992,21.973,20.508,291.992
1532280038.685,23.926,43.457,23.926,26.367,-32.715
1532280038.689,22.461,43.945,23.438,25.879,-275.879
1532280038.693,21.484,44.922,24.902,32.715,11.230
1532280038.697,24.902,43.945,26.367,30.273,308.594
1532280038.701,23.926,44.922,25.879,20.996,64.941
1532280038.705,24.414,46.387,25.391,31.250,-252.441
1532280038.709,30.273,44.922,24.414,35.645,-89.355
1532280038.713,28.809,44.434,24.902,32.715,278.809
1532280038.717,31.250,44.922,27.832,37.109,210.449
1532280038.721,34.180,45.898,29.785,35.645,-184.570
1532280038.724,29.297,44.922,28.809,33.691,-198.730
1532280038.728,24.902,43.945,26.367,32.715,182.617
1532280038.732,23.438,45.410,28.320,27.832,249.023
1532280038.736,27.832,46.875,29.297,24.414,-124.023
1532280038.740,30.762,48.828,29.297,29.297,-299.316
1532280038.744,27.832,47.363,31.250,29.297,47.363
1532280038.748,25.391,47.363,31.738,31.250,303.711
1532280038.752,22.949,46.875,32.227,35.156,-5.859
1532280038.756,21.973,43.457,33.203,34.180,-257.324
1532280038.760,25.391,44.922,32.227,38.574,13.184
1532280038.764,29.785,45.898,31.250,41.016,326.660
1532280038.767,29.785,45.898,31.250,37.598,140.625
1532280038.771,27.344,44.922,33.203,35.645,-240.234
1532280038.775,29.785,45.410,33.203,39.551,-129.883
1532280038.779,38.574,46.387,33.691,42.969,243.652
1532280038.783,39.551,44.434,35.156,38.086,208.496
1532280038.787,31.738,46.875,33.203,33.203,-168.457
1532280038.791,28.809,49.316,33.691,41.016,-208.008
1532280038.795,24.414,47.363,35.156,41.992,209.473
1532280038.799,27.832,47.852,37.598,39.551,306.152
1532280038.803,29.785,47.852,38.086,44.922,-90.820
1532280038.806,33.691,47.363,36.621,43.945,-260.742
1532280038.810,35.645,43.945,38.086,48.828,57.129
1532280038.814,29.785,41.016,36.133,46.875,302.734
1532280038.818,38.086,45.410,34.180,45.898,55.664
1532280038.822,40.039,47.852,36.621,43.945,-249.023
1532280038.826,31.738,45.410,38.086,43.945,-32.227
1532280038.830,34.180,44.434,39.551,42.480,333.496
1532280038.834,33.691,43.945,36.621,35.645,200.684
1532280038.838,31.738,45.410,35.156,38.086,-195.312
1532280038.842,35.156,44.922,40.039,41.992,-149.902
1532280038.846,33.203,41.992,38.574,45.898,247.070
1532280038.849,28.320,43.457,38.574,42.969,261.719
1532280038.853,32.227,44.434,41.016,41.504,-122.070
1532280038.857,31.738,41.992,39.062,40.527,-211.426
1532280038.861,32.715,41.016,35.156,45.898,160.645
1532280038.865,42.969,43.945,34.180,46.875,319.824
1532280038.869,41.992,46.387,36.621,46.387,-37.598
1532280038.873,40.039,46.875,37.598,49.805,-282.227
1532280038.877,40.527,47.852,38.086,49.805,11.230
1532280038.881,38.086,48.340,36.621,41.992,296.875
1532280038.885,34.668,47.363,35.156,32.227,67.383
1532280038.888,35.156,47.852,36.133,37.109,-248.535
1532280038.892,40.527,47.852,35.156,41.992,-56.152
1532280038.896,40.527,47.852,37.109,45.410,301.270
1532280038.900,39.062,47.852,37.598,40.039,168.457
1532280038.904,39.062,45.898,37.598,42.480,-200.684
1532280038.908,36.133,46.387,36.133,49.805,-173.340
1532280038.912,38.574,44.922,32.227,45.898,220.703
1532280038.916,40.039,43.945,33.691,50.293,245.117
1532280038.920,39.062,44.922,35.645,41.992,-166.992
1532280038.924,38.086,43.945,37.109,37.598,-245.117
1532280038.928,36.133,43.457,38.086,43.457,125.977
1532280038.931,36.621,44.922,39.062,45.410,324.219
1532280038.935,36.621,46.387,37.598,38.086,6.348
1532280038.939,39.062,45.898,37.109,38.086,-295.410
1532280038.943,39.062,44.434,37.598,45.898,1.465
1532280038.947,42.969,45.410,34.180,46.387,329.590
1532280038.951,42.969,45.898,34.668,46.387,104.004
1532280038.955,36.621,41.992,36.621,46.387,-240.723
1532280038.959,33.203,39.551,35.645,45.898,-91.797
1532280038.963,31.250,37.109,33.691,47.363,274.414
1532280038.967,30.273,35.156,34.180,38.574,166.992
1532280038.971,30.273,34.668,34.668,35.645,-217.285
1532280038.974,31.250,32.227,35.645,42.969,-204.102
1532280038.978,32.715,29.785,34.668,40.039,170.410
1532280038.982,35.645,31.738,35.645,37.109,258.789
1532280038.986,37.109,32.715,35.156,37.598,-74.707
1532280038.990,35.645,33.203,30.762,41.016,-241.211
1532280038.994,38.086,34.668,29.785,44.434,85.938
1532280038.998,37.109,31.738,32.715,44.434,319.336
1532280039.002,30.762,29.785,33.691,44.434,33.203
1532280039.006,33.691,31.250,32.715,40.039,-249.512
1532280039.010,37.109,31.738,32.715,40.039,-32.227
1532280039.013,37.109,30.273,32.715,41.016,331.055
1532280039.017,34.180,28.809,34.180,34.668,137.207
1532280039.021,32.715,28.320,33.203,28.320,-257.324
1532280039.025,33.691,30.762,29.297,32.227,-118.164
1532280039.029,30.273,33.203,27.832,33.203,265.625
1532280039.033,24.902,35.156,27.344,33.203,226.074
1532280039.037,20.020,35.645,28.809,26.367,-204.590
1532280039.041,17.578,34.668,31.250,20.508,-250.977
1532280039.045,17.090,31.738,31.250,27.832,166.992
1532280039.049,16.113,27.344,36.133,30.273,301.758
1532280039.053,19.531,27.832,32.715,23.438,-67.383
1532280039.056,21.973,31.738,24.414,20.508,-277.344
1532280039.060,19.043,35.156,24.902,18.066,51.270
1532280039.064,17.090,35.645,25.879,17.578,319.824
1532280039.068,11.719,32.227,26.367,19.043,50.781
1532280039.072,11.719,30.762,25.879,19.531,-276.855
1532280039.076,15.137,29.785,28.320,28.320,-60.547
1532280039.080,17.578,29.297,29.785,30.762,307.617
1532280039.084,21.973,32.227,29.297,27.344,162.109
1532280039.088,26.855,35.156,26.855,26.855,-229.004
1532280039.092,29.785,37.598,28.320,30.273,-164.062
1532280039.096,25.391,35.645,31.250,31.738,249.512
1532280039.099,24.902,34.668,32.227,27.344,269.531
1532280039.103,31.738,37.109,31.738,29.297,-145.508
1532280039.107,32.715,35.156,29.297,34.180,-233.398
1532280039.111,30.762,32.227,30.273,38.086,137.695
1532280039.115,34.668,34.180,32.227,41.992,299.805
1532280039.119,38.574,36.621,31.250,36.621,-24.414
1532280039.123,38.574,35.645,30.762,35.645,-274.414
1532280039.127,38.086,31.738,32.227,45.410,42.480
1532280039.131,36.133,31.250,31.250,43.457,336.426
1532280039.135,34.668,34.180,32.227,39.551,78.613
1532280039.138,36.621,37.109,34.668,43.457,-246.582
1532280039.142,37.598,35.156,32.227,39.551,-81.055
1532280039.146,35.645,35.156,33.203,42.969,300.293
1532280039.150,32.715,38.574,33.691,41.016,207.031
1532280039.154,32.715,37.598,30.273,35.156,-209.473
1532280039.158,33.691,36.621,28.320,33.203,-198.242
1532280039.162,33.691,37.109,27.832,28.809,225.098
1532280039.166,30.273,36.621,29.297,30.273,289.062
1532280039.170,30.273,35.156,31.738,32.227,-126.465
1532280039.174,35.156,33.691,29.297,30.762,-251.465
1532280039.178,38.574,31.738,27.832,37.109,136.230
1532280039.181,40.039,31.250,29.785,34.180,338.379
1532280039.185,37.598,31.250,31.738,29.785,-6.836
1532280039.189,41.016,31.738,29.297,38.086,-275.879
1532280039.193,42.969,32.227,28.320,45.410,7.324
1532280039.197,34.668,32.715,29.785,41.504,295.410
1532280039.201,26.855,31.738,29.785,33.203,62.012
1532280039.205,23.438,32.227,28.809,33.691,-253.906
1532280039.209,26.855,33.691,27.832,40.039,-90.332
1532280039.213,28.320,35.645,28.320,40.039,275.879
1532280039.217,25.391,38.086,29.297,32.715,204.102
1532280039.221,17.090,38.574,31.738,27.344,-204.590
1532280039.224,15.625,36.621,31.250,25.879,-198.242
1532280039.228,19.043,37.109,28.320,26.367,192.383
1532280039.232,19.043,37.109,30.762,27.344,269.043
1532280039.236,20.996,37.109,34.180,25.879,-95.703
1532280039.240,27.344,39.551,31.250,25.391,-277.832
1532280039.244,25.879,38.574,27.832,29.785,70.312
1532280039.248,24.414,34.668,29.785,24.902,321.289
1532280039.252,24.902,33.203,34.668,23.926,25.879
1532280039.256,23.926,33.691,35.156,33.203,-277.832
1532280039.260,22.461,30.273,33.691,31.738,-62.988
1532280039.263,15.137,29.785,34.668,28.320,275.879
1532280039.267,14.648,31.738,33.691,24.414,140.137
1532280039.271,17.090,30.762,34.180,22.949,-230.469
1532280039.275,24.414,32.227,30.273,30.273,-126.953
1532280039.279,28.320,33.203,31.250,33.203,285.645
1532280039.283,22.461,34.668,33.203,24.902,228.027
1532280039.287,20.508,36.133,35.645,20.020,-180.176
1532280039.291,26.367,34.180,33.203,30.273,-214.844
1532280039.295,32.227,32.227,30.762,40.039,170.410
1532280039.299,33.203,33.691,33.203,35.645,270.996
1532280039.303,26.855,36.133,33.203,20.996,-89.355
1532280039.306,23.438,35.645,35.645,26.367,-267.578
1532280039.310,28.809,35.645,32.715,35.156,61.035
1532280039.314,28.809,32.715,29.785,31.250,317.383
1532280039.318,30.762,33.203,33.203,26.367,33.691
1532280039.322,25.879,33.691,32.715,26.855,-279.297
1532280039.326,15.625,32.227,27.832,27.832,-64.453
1532280039.330,16.113,35.156,26.855,19.043,305.664
1532280039.334,17.090,32.227,27.344,18.555,177.246
1532280039.338,17.578,31.738,30.273,22.461,-253.906
1532280039.342,15.625,32.715,33.203,25.391,-196.289
1532280039.345,15.137,29.297,34.668,35.156,272.949
1532280039.349,15.625,28.809,34.180,31.250,288.574
1532280039.353,18.066,29.785,34.180,30.762,-112.793
1532280039.357,19.531,31.738,30.762,25.879,-205.566
1532280039.361,21.973,32.227,32.227,26.855,160.645
1532280039.365,23.926,31.250,35.645,38.086,327.148
1532280039.369,24.414,33.691,33.691,33.691,-27.344
1532280039.373,25.391,33.203,34.180,31.738,-257.324
1532280039.377,26.367,31.738,32.227,36.621,41.504
1532280039.381,27.832,29.297,30.273,28.809,309.082
1532280039.385,30.273,27.832,31.738,28.320,64.453
1532280039.388,37.109,31.250,32.715,37.598,-251.953
1532280039.392,39.062,35.156,27.832,34.180,-74.219
1532280039.396,36.133,36.133,25.879,35.156,304.688
1532280039.400,35.645,35.156,29.785,35.156,176.270
1532280039.404,36.621,34.668,30.762,35.156,-223.633
1532280039.408,32.227,32.715,29.785,41.992,-152.344
1532280039.412,30.273,32.715,27.344,46.387,236.816
1532280039.416,26.367,35.645,26.367,40.527,266.602
1532280039.420,18.555,35.645,29.297,31.738,-141.113
1532280039.424,21.973,32.715,28.809,29.297,-250.000
1532280039.428,27.344,30.762,28.809,34.180,139.160
1532280039.431,21.973,30.273,32.227,38.574,306.152
1532280039.435,25.391,31.738,33.203,37.109,-11.719
1532280039.439,29.785,32.715,30.762,29.785,-273.926
1532280039.443,30.762,35.156,26.367,28.320,-25.879
1532280039.447,35.645,38.574,23.438,36.621,293.457
1532280039.451,36.621,38.086,25.391,35.156,116.211
1532280039.455,26.855,34.668,28.320,31.738,-222.656
1532280039.459,20.020,32.227,29.297,34.668,-106.445
1532280039.463,23.926,31.738,29.785,40.527,291.504
1532280039.467,33.203,31.250,27.344,40.527,229.492
1532280039.470,41.016,32.715,25.879,40.039,-177.734
1532280039.474,38.574,35.156,27.344,42.480,-166.016
1532280039.478,30.273,36.133,26.855,33.691,230.957
1532280039.482,28.809,35.645,29.297,37.598,301.758
1532280039.486,28.320,34.180,32.715,43.457,-74.219
1532280039.490,34.180,34.180,34.180,42.480,-227.051
1532280039.494,40.039,34.180,34.180,45.410,116.211
1532280039.498,34.668,35.156,33.691,37.598,281.738
1532280039.502,28.809,35.156,37.109,26.855,-36.133
1532280039.506,29.297,36.133,38.086,25.879,-270.996
1532280039.510,32.227,35.645,37.109,33.203,-8.789
1532280039.513,31.250,36.133,36.621,33.691,321.777
1532280039.517,32.227,37.109,36.133,26.367,135.742
1532280039.521,27.832,36.133,39.551,28.809,-234.863
1532280039.525,29.785,36.621,37.109,36.133,-136.230
1532280039.529,35.156,37.109,36.621,39.551,259.766
1532280039.533,32.715,36.133,41.504,35.156,254.395
1532280039.537,27.344,32.715,40.527,28.320,-152.832
1532280039.541,23.926,31.738,37.109,30.273,-219.238
1532280039.545,21.973,33.203,37.109,32.715,167.480
1532280039.549,21.484,32.715,39.551,28.320,296.387
1532280039.553,20.508,31.250,41.992,16.113,-71.289
1532280039.556,24.414,32.227,40.527,22.461,-268.555
1532280039.560,32.227,37.109,37.598,41.504,62.012
1532280039.564,34.668,39.551,34.180,37.598,296.875
1532280039.568,34.180,38.574,34.180,33.203,11.719
1532280039.572,33.203,37.109,35.645,30.762,-272.461
1532280039.576,32.715,35.156,33.203,32.715,-62.500
1532280039.580,33.691,35.156,32.227,27.832,266.602
1532280039.584,29.785,33.691,33.203,24.902,127.441
1532280039.588,28.320,34.180,33.691,30.273,-221.191
1532280039.592,28.320,34.668,33.691,30.762,-150.879
1532280039.595,28.320,33.691,33.691,35.156,213.867
1532280039.599,29.785,34.668,34.668,34.668,228.027
1532280039.603,27.832,32.715,32.227,33.203,-129.883
1532280039.607,29.297,32.227,28.809,36.133,-216.797
1532280039.611,29.297,31.250,30.273,42.969,140.137
1532280039.615,25.879,28.809,31.738,49.316,299.805
1532280039.619,23.926,30.273,33.691,40.039,-36.621
1532280039.623,25.879,30.762,37.109,37.109,-276.855
1532280039.627,28.320,30.762,37.598,43.457,38.574
1532280039.631,28.320,30.762,38.086,45.410,344.238
1532280039.635,28.809,31.738,39.062,41.504,77.148
1532280039.638,28.809,33.203,36.621,35.156,-271.484
1532280039.642,26.855,32.227,33.691,36.133,-67.383
1532280039.646,27.344,30.273,32.715,39.551,325.684
1532280039.650,30.762,30.762,32.227,35.645,189.941
1532280039.654,31.738,33.691,33.691,34.180,-213.867
1532280039.658,29.297,34.180,36.133,37.109,-175.293
1532280039.662,26.367,32.227,36.621,37.598,207.031
1532280039.666,26.855,32.715,36.133,35.645,248.535
1532280039.670,32.715,34.180,35.645,35.645,-113.770
1532280039.674,32.227,34.180,34.668,40.039,-233.398
1532280039.678,34.668,33.203,36.133,41.992,115.723
1532280039.681,40.039,33.203,38.086,41.504,311.035
1532280039.685,42.969,36.133,39.062,40.527,16.602
1532280039.689,43.945,35.645,38.574,43.945,-244.141
1532280039.693,41.016,32.227,38.574,48.340,9.277
1532280039.697,41.016,34.180,40.527,40.527,305.664
1532280039.701,37.109,34.668,41.504,31.738,84.961
1532280039.705,38.086,34.180,41.504,34.668,-248.047
1532280039.709,35.645,35.156,40.527,35.156,-87.891
1532280039.713,33.203,36.133,37.598,37.109,292.969
1532280039.717,34.668,37.598,39.062,36.133,220.703
1532280039.720,26.855,39.062,42.480,23.438,-165.039
1532280039.724,23.438,35.645,44.434,29.297,-184.570
1532280039.728,20.508,31.738,43.457,33.691,200.195
1532280039.732,17.090,31.250,44.434,24.902,301.270
1532280039.736,21.973,32.227,43.457,27.832,-73.730
1532280039.740,29.785,34.180,41.016,28.809,-258.301
1532280039.744,28.320,34.668,39.062,25.879,95.703
1532280039.748,26.367,36.621,38.574,22.461,353.516
1532280039.752,28.320,39.551,39.062,17.578,59.082
1532280039.756,20.508,38.574,38.574,18.066,-244.141
1532280039.760,13.184,35.156,40.527,19.531,-5.371
1532280039.763,20.996,32.715,41.992,21.484,347.656
1532280039.767,24.414,32.715,39.062,23.438,165.527
1532280039.771,21.484,33.691,37.109,19.531,-219.238
1532280039.775,20.508,32.715,38.086,23.926,-111.328
1532280039.779,19.531,35.156,38.574,25.879,247.070
1532280039.783,18.066,37.598,37.109,24.414,228.516
1532280039.787,17.578,37.109,36.133,24.414,-168.945
1532280039.791,18.066,36.621,38.086,24.414,-226.074
1532280039.795,17.578,38.086,38.086,29.785,171.875
1532280039.799,16.113,41.504,36.133,21.973,280.273
1532280039.802,19.531,42.480,35.156,18.066,-54.688
1532280039.806,20.996,40.527,35.645,27.832,-268.555
1532280039.810,22.949,40.039,36.621,29.297,65.430
1532280039.814,21.973,40.039,39.551,27.344,358.398
1532280039.818,19.043,39.551,40.527,21.484,52.246
1532280039.822,20.020,41.016,39.551,17.090,-284.180
1532280039.826,17.090,39.551,38.086,22.949,-68.848
1532280039.830,15.137,37.109,39.551,25.879,312.500
1532280039.834,15.625,39.062,42.480,21.484,202.148
1532280039.838,14.648,37.598,42.969,20.020,-208.008
1532280039.842,16.113,36.621,43.945,26.367,-180.176
1532280039.845,19.531,38.086,44.922,35.156,238.770
1532280039.849,19.043,39.062,42.480,29.785,244.141
1532280039.853,16.113,40.039,42.480,21.973,-149.414
1532280039.857,18.066,40.039,45.410,25.391,-238.770
1532280039.861,17.090,40.039,44.922,24.902,101.074
1532280039.865,10.742,40.527,41.504,22.949,288.086
1532280039.869,13.184,37.598,38.574,21.973,-21.484
1532280039.873,13.184,35.156,40.039,24.414,-244.629
1532280039.877,10.254,33.203,39.062,27.344,20.020
1532280039.881,11.719,31.738,38.086,20.996,305.176
1532280039.885,8.789,29.297,37.109,15.625,101.074
1532280039.888,6.348,29.297,32.715,6.348,-228.027
1532280039.892,9.766,29.297,34.668,7.812,-76.660
1532280039.896,15.625,30.273,32.715,18.066,268.066
1532280039.900,20.020,33.691,30.273,12.695,177.246
1532280039.904,13.672,33.203,32.715,13.184,-200.684
1532280039.908,7.812,31.250,32.227,22.949,-179.199
1532280039.912,8.301,31.250,32.715,33.203,230.957
1532280039.916,8.301,31.738,32.715,31.738,285.156
1532280039.920,12.695,30.273,32.227,21.973,-137.207
1532280039.924,15.137,25.879,31.738,19.531,-278.809
1532280039.927,8.789,23.926,32.715,28.320,122.070
1532280039.931,6.348,26.367,29.297,24.902,318.848
1532280039.935,9.277,26.367,28.809,20.020,-12.695
1532280039.939,9.277,25.391,28.809,24.414,-262.695
1532280039.943,9.277,26.367,25.879,25.391,12.207
1532280039.947,14.160,26.367,28.809,30.273,319.336
1532280039.951,15.137,25.391,31.250,25.879,108.887
1532280039.955,16.602,25.391,29.785,25.391,-236.328
1532280039.959,23.438,24.414,28.809,31.738,-117.188
1532280039.963,24.902,23.438,29.297,31.738,261.230
1532280039.967,15.137,23.926,27.832,25.391,208.008
1532280039.970,10.742,25.391,26.367,27.344,-198.730
1532280039.974,14.160,25.879,25.879,29.785,-187.012
1532280039.978,17.090,24.902,27.344,28.809,218.262
1532280039.982,20.020,26.367,28.320,39.551,285.645
1532280039.986,23.926,28.320,26.855,37.598,-92.773
1532280039.990,25.391,27.344,27.832,38.086,-248.047
1532280039.994,21.973,24.414,28.320,39.551,103.027
1532280039.998,20.996,22.461,26.367,37.598,312.988
1532280040.002,21.484,23.926,25.391,30.762,4.395
1532280040.006,26.367,25.879,22.949,32.227,-247.070
1532280040.010,27.832,28.809,20.508,40.039,-8.789
1532280040.013,27.832,29.297,21.484,35.156,324.219
1532280040.017,22.949,26.367,24.414,27.832,170.898
1532280040.021,23.438,27.832,20.996,23.438,-227.539
1532280040.025,25.879,29.297,18.066,27.832,-130.859
1532280040.029,22.949,27.344,20.996,36.133,261.719
1532280040.033,23.438,25.391,23.438,37.598,234.375
1532280040.037,23.438,24.902,26.367,34.180,-153.320
1532280040.041,21.973,23.438,26.855,27.832,-233.398
1532280040.045,21.973,24.414,24.414,32.227,151.855
1532280040.049,23.926,25.391,24.414,40.039,275.391
1532280040.052,27.832,25.391,27.344,39.062,-84.961
1532280040.056,28.320,27.344,27.832,37.598,-257.812
1532280040.060,25.879,25.879,24.414,39.551,55.176
1532280040.064,22.949,24.414,23.438,40.527,349.609
1532280040.068,25.391,25.391,23.438,28.809,79.102
1532280040.072,27.344,21.973,21.484,25.391,-259.766
1532280040.076,27.344,19.531,22.949,38.086,-41.016
1532280040.080,25.391,21.973,22.949,40.039,294.922
1532280040.084,23.926,23.926,23.438,35.156,146.973
1532280040.088,21.973,24.902,26.367,34.668,-224.609
1532280040.092,26.855,25.391,26.367,39.062,-163.574
1532280040.095,32.227,27.344,24.414,43.945,246.582
1532280040.099,33.691,30.273,22.461,36.621,257.324
1532280040.103,37.109,32.227,21.484,32.715,-142.578
1532280040.107,32.227,30.273,21.484,37.109,-218.750
1532280040.111,25.879,31.738,24.902,37.598,131.348
1532280040.115,27.832,32.227,27.832,33.203,325.684
1532280040.119,26.855,32.227,28.809,25.391,-28.320
1532280040.123,25.879,32.227,25.879,23.926,-296.387
1532280040.127,29.297,30.762,24.902,32.227,46.387
1532280040.131,24.902,30.762,25.879,33.691,354.492
1532280040.135,19.043,31.738,27.344,28.809,123.047
1532280040.138,20.508,31.250,30.762,24.902,-259.277
1532280040.142,28.320,32.227,29.297,30.762,-110.840
1532280040.146,30.273,33.203,27.344,36.133,313.477
1532280040.150,27.344,34.668,27.344,31.738,213.867
1532280040.154,27.344,35.645,28.320,35.645,-173.340
1532280040.158,24.902,36.133,28.809,38.574,-177.734
1532280040.162,24.902,39.551,27.344,38.086,216.309
1532280040.166,29.785,40.039,23.926,37.598,303.711
1532280040.170,26.367,39.551,23.926,25.391,-106.934
1532280040.174,15.137,39.551,27.344,19.531,-240.234
1532280040.177,15.137,39.551,25.879,25.391,100.586
1532280040.181,19.043,40.039,25.879,24.414,313.477
1532280040.185,13.672,38.574,29.785,21.484,22.461
1532280040.189,9.277,35.645,31.738,26.855,-250.488
1532280040.193,10.254,36.621,30.273,28.320,13.672
1532280040.197,12.695,40.039,27.344,22.949,319.336
1532280040.201,14.648,38.574,26.855,19.043,102.051
1532280040.205,17.578,37.109,29.297,26.367,-224.121
1532280040.209,14.648,38.574,27.832,24.414,-80.566
1532280040.213,14.160,42.480,23.926,22.949,316.406
1532280040.217,21.973,44.434,23.438,26.855,250.000
1532280040.220,17.090,41.504,26.855,14.648,-189.453
1532280040.224,4.883,40.039,26.855,13.184,-188.477
1532280040.228,7.324,39.551,26.855,18.555,208.008
1532280040.232,13.672,38.086,27.344,22.949,297.363
1532280040.236,15.625,40.527,25.391,25.879,-46.387
1532280040.240,14.648,42.480,24.902,19.531,-236.816
1532280040.244,14.648,40.039,26.367,21.484,73.730
1532280040.248,16.113,37.109,27.832,27.344,329.590
1532280040.252,15.137,34.668,29.297,26.367,17.578
1532280040.256,11.719,33.691,28.320,20.020,-280.273
1532280040.259,11.719,32.227,28.320,23.438,-25.879
1532280040.263,13.184,32.227,27.832,27.832,323.730
1532280040.267,15.625,35.156,27.832,18.066,167.480
1532280040.271,14.648,35.645,29.785,11.719,-241.211
1532280040.275,12.695,35.156,27.344,16.602,-158.203
1532280040.279,16.602,35.156,25.391,17.578,235.352
1532280040.283,18.066,39.062,22.461,7.324,207.031
1532280040.287,6.836,37.109,21.484,1.465,-151.367
1532280040.291,-4.395,33.203,24.414,6.836,-205.566
1532280040.295,1.465,33.203,27.832,11.719,158.203
1532280040.299,6.836,34.180,30.762,17.090,297.363
1532280040.302,6.348,34.180,30.762,19.043,-60.547
1532280040.306,6.348,34.668,32.715,15.625,-265.137
1532280040.310,12.695,33.691,33.203,23.438,47.363
1532280040.314,17.578,35.645,35.645,27.344,316.895
1532280040.318,17.090,36.133,39.062,24.414,62.012
1532280040.322,19.043,37.598,38.574,24.902,-272.949
1532280040.326,18.555,37.598,41.016,32.227,-85.449
1532280040.330,16.113,35.645,45.410,31.738,272.461
1532280040.334,11.719,34.668,44.922,29.297,168.457
1532280040.338,13.184,33.203,46.875,32.715,-226.562
1532280040.342,19.531,33.203,47.363,30.762,-213.867
1532280040.345,22.949,34.180,42.969,31.738,214.844
1532280040.349,21.484,36.621,42.969,35.645,262.207
1532280040.353,21.484,40.527,43.457,32.227,-148.438
1532280040.357,23.438,41.992,43.457,33.203,-250.000
1532280040.361,26.367,41.992,44.434,37.598,109.375
1532280040.365,29.785,40.527,41.992,32.715,291.504
1532280040.369,26.855,38.086,43.457,29.785,-44.434
1532280040.373,25.391,40.527,46.387,35.645,-286.133
1532280040.377,23.926,37.109,43.945,39.551,13.672
1532280040.381,24.414,35.645,42.480,30.762,298.340
1532280040.384,24.414,37.109,45.410,30.273,54.199
1532280040.388,20.020,36.133,44.434,36.133,-273.926
1532280040.392,19.043,36.133,42.969,38.574,-81.543
1532280040.396,19.531,34.668,45.898,37.598,265.137
1532280040.400,16.602,35.645,43.945,32.715,189.453
1532280040.404,15.625,36.621,42.969,30.762,-176.270
1532280040.408,20.508,36.621,42.969,35.156,-196.777
1532280040.412,25.879,36.621,41.992,41.016,209.961
1532280040.416,28.809,36.621,43.457,41.992,301.758
1532280040.420,26.855,38.086,41.992,37.109,-96.191
1532280040.424,29.785,38.574,42.969,37.109,-249.023
1532280040.427,35.156,38.086,43.945,40.039,118.652
1532280040.431,34.180,38.574,42.969,40.527,326.172
1532280040.435,32.715,37.598,42.480,40.527,-10.742
1532280040.439,35.156,38.086,42.480,41.504,-304.688
1532280040.443,35.645,39.551,39.062,39.062,-10.254
1532280040.447,36.133,40.527,35.156,40.039,316.895
1532280040.451,31.738,42.480,35.645,34.668,84.473
1532280040.455,23.926,41.992,35.645,21.973,-243.164
1532280040.459,16.113,40.039,36.621,18.555,-108.887
1532280040.463,13.184,38.086,39.062,24.414,258.301
1532280040.467,18.066,36.621,40.039,27.832,238.770
1532280040.470,25.391,37.109,40.039,30.273,-154.297
1532280040.474,32.715,36.133,39.062,37.109,-193.848
1532280040.478,34.668,37.109,36.621,41.992,177.734
1532280040.482,36.621,40.039,37.109,39.551,257.812
1532280040.486,38.574,40.039,39.551,40.527,-84.473
1532280040.490,36.133,37.598,41.992,46.875,-228.516
1532280040.494,34.180,36.621,42.480,47.852,86.426
1532280040.498,33.203,37.109,41.016,45.410,313.965
1532280040.502,35.156,39.062,39.062,42.480,36.621
1532280040.506,30.762,41.016,36.621,39.062,-263.672
1532280040.509,22.949,39.062,36.133,37.598,-21.484
1532280040.513,26.855,39.062,37.109,38.086,308.594
1532280040.517,34.180,42.969,35.645,37.598,122.070
1532280040.521,37.109,44.922,34.668,27.344,-241.211
1532280040.525,35.156,44.434,33.203,36.133,-146.973
1532280040.529,34.180,43.457,34.180,46.387,244.141
1532280040.533,31.738,42.480,37.598,41.016,258.789
1532280040.537,27.832,41.992,36.621,34.180,-126.465
1532280040.541,23.438,38.086,34.668,31.250,-230.957
1532280040.545,18.066,35.156,34.180,31.250,164.551
1532280040.549,18.555,37.109,35.156,28.809,328.125
1532280040.552,28.320,37.109,37.109,28.809,-46.387
1532280040.556,31.738,37.109,36.133,31.738,-268.555
1532280040.560,26.367,35.156,34.180,34.180,41.504
1532280040.564,24.414,35.156,35.156,31.250,319.824
1532280040.568,22.949,36.621,33.691,26.855,67.871
1532280040.572,32.227,35.645,32.715,33.691,-229.980
1532280040.576,40.527,36.133,32.227,41.504,-17.090
1532280040.580,39.551,39.062,33.691,39.551,321.289
1532280040.584,39.551,37.598,36.621,41.016,190.918
1532280040.588,37.598,36.621,35.156,39.551,-213.867
1532280040.592,38.086,38.086,34.668,38.086,-164.551
1532280040.595,36.621,40.039,36.133,43.945,229.004
1532280040.599,26.367,39.062,39.062,39.551,246.582
1532280040.603,19.531,36.133,40.527,30.762,-131.348
1532280040.607,21.484,36.621,39.551,28.320,-259.766
1532280040.611,27.832,35.156,37.598,30.762,129.395
1532280040.615,36.133,34.180,41.016,33.691,330.078
1532280040.619,41.016,35.645,43.457,24.902,-32.227
1532280040.623,45.898,38.086,41.016,21.484,-284.668
1532280040.627,45.410,36.133,38.086,31.250,46.875
1532280040.631,35.156,34.180,37.598,34.668,332.520
1532280040.634,29.785,35.156,42.480,36.621,65.918
1532280040.638,27.832,35.156,43.457,36.621,-275.391
1532280040.642,27.344,35.156,42.969,43.945,-113.770
1532280040.646,29.785,34.668,45.898,50.781,288.086
1532280040.650,30.273,35.156,45.898,51.270,199.707
1532280040.654,32.227,36.621,45.898,49.805,-210.938
1532280040.658,29.785,34.668,46.875,44.922,-192.383
1532280040.662,23.926,31.250,47.363,40.039,205.566
1532280040.666,24.902,32.227,45.898,39.062,294.434
1532280040.670,33.203,33.691,46.387,37.598,-90.332
1532280040.674,33.203,30.762,46.875,37.598,-244.629
1532280040.677,26.855,27.344,45.410,38.086,109.863
1532280040.681,23.926,29.785,46.875,34.668,301.758
1532280040.685,22.461,30.273,48.340,31.250,12.207
1532280040.689,29.297,31.738,48.828,31.250,-245.117
1532280040.693,34.180,32.227,50.293,35.645,5.859
1532280040.697,31.738,30.762,50.293,40.527,308.105
1532280040.701,32.227,34.668,50.293,32.715,92.285
1532280040.705,34.180,38.086,47.363,34.668,-248.535
1532280040.709,33.691,41.016,42.969,40.527,-125.977
1532280040.713,28.809,43.457,42.480,37.109,253.906
1532280040.716,23.438,43.945,43.457,31.250,212.891
1532280040.720,13.672,39.551,44.434,23.438,-180.176
1532280040.724,11.230,36.621,46.875,22.461,-215.820
1532280040.728,20.020,38.574,48.828,30.273,168.457
1532280040.732,23.926,39.551,49.316,34.180,273.926
1532280040.736,25.391,37.109,51.270,34.180,-74.219
1532280040.740,27.832,34.668,52.734,36.621,-250.000
1532280040.744,24.414,31.250,50.293,39.551,40.527
1532280040.748,22.949,32.715,46.387,39.551,291.016
1532280040.752,27.344,32.715,46.387,37.109,70.801
1532280040.756,25.879,30.762,47.363,35.645,-225.098
1532280040.759,23.926,34.180,46.875,35.156,-63.477
1532280040.763,24.902,34.180,46.387,39.062,272.461
1532280040.767,24.902,35.156,45.410,34.668,156.250
1532280040.771,25.391,39.062,41.504,28.320,-192.871
1532280040.775,31.250,41.504,36.621,36.133,-112.793
1532280040.779,33.203,43.457,37.598,36.621,250.977
1532280040.783,30.762,42.480,40.527,30.762,247.070
1532280040.787,27.832,41.992,41.504,26.367,-145.020
1532280040.791,21.973,39.551,41.016,27.832,-250.000
1532280040.795,25.879,35.156,39.062,37.598,137.695
1532280040.799,26.367,34.180,37.109,33.691,297.363
1532280040.802,20.508,32.227,37.598,24.902,-83.496
1532280040.806,21.973,33.691,36.133,20.996,-294.434
1532280040.810,20.508,35.645,32.227,20.020,54.688
1532280040.814,18.066,31.738,31.738,26.855,346.680
1532280040.818,18.555,30.762,31.738,20.996,58.105
1532280040.822,15.137,30.273,28.809,13.184,-260.742
1532280040.826,16.602,29.785,26.367,15.137,-46.387
1532280040.830,21.973,26.855,27.344,22.949,305.664
1532280040.834,19.043,25.879,25.879,22.949,178.223
1532280040.838,13.672,27.832,27.832,19.531,-229.492
1532280040.841,15.137,28.320,27.832,20.508,-208.496
1532280040.845,16.113,29.297,24.902,20.020,197.754
1532280040.849,16.602,29.297,27.344,19.531,252.441
1532280040.853,17.578,25.879,29.785,20.020,-113.770
1532280040.857,23.438,24.902,29.297,23.438,-237.793
1532280040.861,26.855,27.832,27.832,28.809,102.539
1532280040.865,23.926,30.762,27.832,24.414,305.664
1532280040.869,23.438,31.738,29.297,20.996,-10.254
1532280040.873,23.438,30.762,28.320,17.090,-247.559
1532280040.877,24.414,32.715,26.367,18.066,18.555
1532280040.881,21.484,33.203,29.785,23.926,312.500
1532280040.884,20.020,30.762,30.762,25.391,90.332
1532280040.888,24.414,30.273,30.273,24.902,-268.555
1532280040.892,26.367,33.203,29.297,23.438,-84.473
1532280040.896,20.996,36.133,24.902,26.855,298.828
1532280040.900,14.160,38.086,25.879,18.555,195.801
1532280040.904,19.043,36.621,29.297,13.184,-187.012
1532280040.908,18.066,32.715,26.855,22.949,-168.945
1532280040.912,14.648,33.203,22.949,21.973,236.816
1532280040.916,20.508,34.180,20.996,22.461,287.109
1532280040.920,22.949,34.668,20.508,26.855,-93.750
1532280040.924,21.973,33.691,23.926,27.344,-249.023
1532280040.927,19.043,31.250,26.367,23.438,84.473
1532280040.931,13.672,31.738,25.879,20.996,306.641
1532280040.935,13.184,30.762,26.855,24.414,0.000
1532280040.939,13.672,30.762,26.855,19.531,-272.949
1532280040.943,13.672,30.273,27.832,17.578,-38.574
1532280040.947,17.578,30.762,27.832,23.438,301.758
1532280040.951,16.113,33.203,25.391,17.578,124.023
1532280040.955,10.254,34.668,23.438,5.859,-246.094
1532280040.959,9.766,33.691,22.949,14.648,-134.766
1532280040.963,14.160,30.273,24.414,29.785,255.859
1532280040.966,18.555,32.227,21.973,25.391,233.398
1532280040.970,19.043,34.668,20.508,20.508,-163.086
1532280040.974,19.531,32.227,22.461,22.461,-189.453
1532280040.978,16.113,32.227,24.414,25.391,186.523
1532280040.982,15.137,35.156,26.367,22.949,288.086
1532280040.986,20.508,35.156,24.902,21.973,-70.801
1532280040.990,28.320,33.203,24.902,27.832,-273.438
1532280040.994,25.879,31.738,25.879,27.832,87.891
1532280040.998,15.137,29.785,25.879,23.438,338.379
1532280041.002,16.602,33.203,27.832,22.461,34.180
1532280041.006,18.555,37.109,27.832,24.902,-250.977
1532280041.009,20.996,35.645,28.809,32.715,-22.461
1532280041.013,29.297,32.227,28.320,39.551,326.172
1532280041.017,25.391,32.227,27.344,34.180,164.551
1532280041.021,23.926,34.180,26.855,30.273,-221.191
1532280041.025,27.344,33.203,25.879,38.086,-140.625
1532280041.029,22.949,28.320,26.367,38.574,274.414
1532280041.033,20.020,28.809,26.855,28.809,242.188
1532280041.037,22.949,32.227,27.832,30.762,-174.316
1532280041.041,29.785,31.250,23.926,30.273,-271.484
1532280041.045,26.855,32.227,23.438,27.832,107.910
1532280041.049,20.508,34.180,24.902,28.320,300.293
1532280041.052,20.020,35.645,24.902,24.414,-32.227
1532280041.056,21.973,35.156,24.414,27.344,-253.906
1532280041.060,23.438,31.738,25.391,32.715,33.203
1532280041.064,27.832,29.785,26.367,36.621,312.988
1532280041.068,30.762,32.227,25.391,34.668,81.543
1532280041.072,25.391,33.691,26.855,37.109,-245.117
1532280041.076,24.902,32.715,28.809,40.527,-88.379
1532280041.080,24.902,31.250,26.855,33.203,254.395
1532280041.084,15.137,30.273,26.367,23.438,136.230
1532280041.088,15.625,32.715,26.367,23.438,-222.168
1532280041.091,28.809,36.133,24.902,33.203,-145.508
1532280041.095,28.809,33.691,25.391,35.645,213.867
1532280041.099,21.484,31.738,26.367,26.855,214.844
1532280041.103,21.973,30.762,28.320,22.949,-154.785
1532280041.107,26.367,30.273,29.785,25.879,-260.742
1532280041.111,29.785,32.227,28.320,34.668,136.719
1532280041.115,33.203,32.227,27.832,33.691,337.891
1532280041.119,27.832,31.738,29.297,26.855,-13.672
1532280041.123,20.508,30.273,28.809,28.320,-259.277
1532280041.127,21.484,32.227,26.367,31.250,18.555
1532280041.131,26.367,35.645,29.785,34.180,337.402
1532280041.134,25.879,33.203,31.738,32.715,109.375
1532280041.138,23.438,30.762,29.297,29.297,-276.855
1532280041.142,21.484,33.691,28.809,28.320,-134.766
1532280041.146,20.996,33.203,25.879,30.273,281.738
1532280041.150,20.508,33.203,23.926,23.438,231.934
1532280041.154,21.484,33.203,27.344,21.484,-172.363
1532280041.158,25.391,30.762,28.809,25.391,-208.008
1532280041.162,24.902,28.320,29.785,25.391,183.594
1532280041.166,25.879,27.344,36.133,28.809,260.254
1532280041.170,35.156,31.738,31.738,31.738,-109.375
1532280041.173,39.551,36.621,26.367,33.203,-235.840
1532280041.177,36.621,38.574,27.344,34.668,106.934
1532280041.181,32.227,39.062,25.879,32.227,316.895
1532280041.185,32.715,39.551,26.367,29.297,16.602
1532280041.189,29.297,37.598,28.809,25.879,-268.066
1532280041.193,22.461,34.180,31.738,29.297,3.418
1532280041.197,25.391,33.203,33.203,31.738,331.055
1532280041.201,31.250,34.668,34.180,29.785,134.277
1532280041.205,28.320,37.109,34.668,30.273,-220.215
1532280041.209,26.367,36.133,33.203,26.855,-133.789
1532280041.213,26.855,35.156,35.645,27.344,248.535
1532280041.216,30.762,37.109,38.574,32.715,220.215
1532280041.220,36.621,40.039,36.133,30.273,-178.223
1532280041.224,34.668,43.945,35.645,26.855,-223.633
1532280041.228,33.203,45.898,38.086,30.273,144.531
1532280041.232,36.133,45.410,38.574,33.691,272.949
1532280041.236,36.133,43.945,38.574,35.645,-74.219
1532280041.240,40.039,44.434,39.062,40.527,-255.859
1532280041.244,41.992,45.410,36.621,44.434,90.820
1532280041.248,37.598,42.969,38.086,44.922,365.234
1532280041.252,32.227,39.062,41.016,40.527,72.754
1532280041.256,34.180,39.551,38.086,35.645,-250.977
1532280041.259,37.598,41.504,39.062,42.480,-46.387
1532280041.263,40.039,42.969,39.551,41.016,305.664
1532280041.267,41.504,44.922,40.527,39.551,156.738
1532280041.271,38.086,43.457,41.504,37.109,-244.629
1532280041.275,32.227,42.969,39.551,35.645,-157.715
1532280041.279,30.762,41.992,40.527,42.969,247.559
1532280041.283,27.344,40.039,42.480,44.434,244.141
1532280041.287,29.297,40.039,44.922,44.434,-129.883
1532280041.291,44.434,45.898,40.527,48.828,-204.590
1532280041.295,47.852,48.828,32.715,42.480,173.828
1532280041.298,35.645,45.410,35.156,40.527,328.613
1532280041.302,28.809,45.410,41.992,45.410,-17.090
1532280041.306,25.879,44.434,42.480,44.434,-273.438
1532280041.310,25.391,45.898,39.062,50.293,15.137
1532280041.314,33.203,46.875,39.551,48.828,330.566
1532280041.318,34.668,44.922,39.551,38.086,64.941
1532280041.322,33.203,42.969,40.039,32.715,-277.832
1532280041.326,36.621,41.504,40.527,36.621,-51.270
1532280041.330,35.156,45.410,37.109,33.691,324.707
1532280041.334,38.086,47.852,33.203,24.902,193.359
1532280041.338,43.457,47.852,33.691,25.391,-219.238
1532280041.341,44.434,47.363,34.180,30.273,-199.707
1532280041.345,45.898,47.363,33.203,29.297,223.145
1532280041.349,46.875,44.922,34.668,34.180,255.371
1532280041.353,43.945,41.016,37.598,38.086,-142.578
1532280041.357,38.574,41.016,41.016,40.039,-258.789
1532280041.361,30.762,40.039,42.480,44.922,80.566
1532280041.365,27.832,39.062,43.457,51.758,295.410
1532280041.369,29.785,38.574,43.457,49.805,5.371
1532280041.373,28.320,38.574,40.527,41.504,-268.555
1532280041.377,30.273,41.016,36.621,43.457,-4.883
1532280041.381,30.273,41.992,34.180,43.457,304.199
1532280041.384,25.391,39.551,35.156,38.574,92.285
1532280041.388,22.461,37.598,38.086,34.668,-270.996
1532280041.392,20.508,35.645,40.039,35.156,-131.348
1532280041.396,22.461,34.180,39.551,33.203,280.273
1532280041.400,26.855,33.691,39.062,32.227,205.078
1532280041.404,36.133,34.668,37.109,41.504,-207.031
1532280041.408,41.016,38.086,34.180,43.945,-197.266
1532280041.412,35.645,40.527,32.227,41.504,220.703
1532280041.416,29.297,37.598,32.715,36.621,295.410
1532280041.420,29.297,38.574,35.645,30.762,-84.961
1532280041.423,32.227,39.551,33.691,31.738,-242.188
1532280041.427,26.367,35.156,30.762,36.133,89.844
1532280041.431,24.414,31.250,31.738,38.086,328.125
1532280041.435,28.809,28.809,30.762,37.598,24.414
1532280041.439,32.715,29.297,32.715,41.504,-267.090
1532280041.443,33.691,30.762,31.738,44.434,-32.715
1532280041.447,29.785,32.715,31.250,45.898,296.875
1532280041.451,29.297,34.668,35.645,41.992,133.301
1532280041.455,29.297,35.156,33.203,37.598,-250.977
1532280041.459,30.273,37.109,26.855,41.016,-162.598
1532280041.463,32.227,38.086,24.414,41.992,237.793
1532280041.466,24.902,36.133,26.367,39.062,221.191
1532280041.470,20.508,34.180,31.738,32.227,-171.875
1532280041.474,25.879,33.691,28.320,32.227,-210.938
1532280041.478,33.691,35.156,27.832,46.387,166.992
1532280041.482,40.527,36.133,31.738,48.828,298.340
1532280041.486,40.039,37.109,29.297,39.551,-67.383
1532280041.490,37.109,37.598,27.832,37.109,-261.230
1532280041.494,33.691,37.598,27.832,40.039,62.012
1532280041.498,33.691,36.133,28.320,37.598,294.434
1532280041.502,37.598,37.109,29.785,34.668,7.324
1532280041.506,38.086,37.598,29.785,36.133,-296.875
1532280041.509,39.062,35.156,30.273,43.945,-47.852
1532280041.513,41.504,34.180,32.715,48.340,322.266
1532280041.517,36.133,32.715,32.715,37.598,139.160
1532280041.521,30.273,31.738,31.738,28.320,-250.000
1532280041.525,29.297,31.738,32.227,32.715,-139.648
1532280041.529,31.738,30.762,30.762,35.645,270.508
1532280041.533,33.691,28.809,30.762,36.133,288.574
1532280041.537,33.691,30.762,30.762,38.574,-119.629
1532280041.541,37.598,34.180,27.832,40.527,-231.445
1532280041.545,39.551,36.621,25.391,39.551,140.625
1532280041.548,38.574,38.086,23.926,36.621,312.988
1532280041.552,32.227,36.133,27.832,28.320,-42.969
1532280041.556,29.785,34.180,29.785,32.227,-272.461
1532280041.560,31.250,33.203,28.320,35.645,45.898
1532280041.564,27.344,32.715,28.320,34.668,328.613
1532280041.568,28.320,32.715,29.297,36.621,81.055
1532280041.572,31.738,34.668,30.762,36.133,-256.836
1532280041.576,37.598,34.668,30.273,37.109,-101.074
1532280041.580,44.922,35.645,28.320,39.062,256.836
1532280041.584,41.504,37.109,29.785,41.016,186.035
1532280041.588,34.668,36.621,30.762,41.504,-198.242
1532280041.591,34.180,37.109,28.809,43.945,-184.570
1532280041.595,35.645,37.598,30.762,43.945,197.754
1532280041.599,33.691,34.668,33.203,40.039,221.680
1532280041.603,33.691,32.715,32.227,38.574,-126.953
1532280041.607,33.203,34.180,30.762,36.621,-234.863
1532280041.611,28.320,34.180,34.180,38.574,108.887
1532280041.615,27.344,32.715,34.668,43.457,329.590
1532280041.619,27.832,33.691,30.273,39.551,-11.230
1532280041.623,27.832,35.156,28.809,35.156,-275.879
1532280041.627,30.273,37.109,30.762,38.574,31.738
1532280041.630,31.738,38.086,30.762,35.645,322.754
1532280041.634,27.832,36.133,31.738,31.738,97.656
1532280041.638,26.367,35.645,31.738,30.273,-274.414
1532280041.642,29.297,36.621,28.320,30.273,-138.672
1532280041.646,29.785,36.133,26.855,36.133,278.809
1532280041.650,28.809,36.621,28.809,37.109,213.867
1532280041.654,30.273,37.109,30.273,31.738,-180.664
1532280041.658,32.227,36.621,30.273,37.598,-197.266
1532280041.662,28.320,37.598,28.809,40.527,213.867
1532280041.666,22.949,38.086,28.809,34.668,319.824
1532280041.670,25.391,38.574,28.809,35.645,-53.711
1532280041.673,29.297,39.551,29.785,37.109,-229.980
1532280041.677,27.344,37.598,34.180,41.992,88.379
1532280041.681,28.809,36.133,34.668,42.480,342.285
1532280041.685,30.273,36.133,36.621,37.109,48.340
1532280041.689,23.438,35.156,39.062,33.203,-263.184
1532280041.693,20.996,33.691,39.551,35.645,-9.277
1532280041.697,25.879,32.715,39.551,37.109,310.547
1532280041.701,28.809,39.551,35.645,25.391,88.867
1532280041.705,28.320,45.898,33.203,19.043,-293.945
1532280041.709,23.438,41.992,38.574,28.809,-140.625
1532280041.713,20.508,39.062,38.574,28.809,278.809
1532280041.716,21.484,41.504,37.109,27.832,239.258
1532280041.720,22.461,43.457,39.551,30.273,-161.621
1532280041.724,23.438,42.480,40.527,28.320,-213.867
1532280041.728,23.438,40.039,39.551,28.809,148.438
1532280041.732,19.043,41.016,38.574,31.250,278.809
1532280041.736,18.066,41.504,41.016,29.297,-54.199
1532280041.740,23.926,39.551,41.992,26.855,-250.000
1532280041.744,28.809,39.062,38.574,34.180,82.031
1532280041.748,28.809,41.016,36.133,37.109,329.102
1532280041.752,25.879,41.016,38.574,35.156,57.129
1532280041.755,20.996,37.109,36.621,33.203,-262.695
1532280041.759,20.508,34.668,33.203,28.809,-84.961
1532280041.763,20.996,34.668,33.203,34.180,298.828
1532280041.767,17.578,32.715,33.203,29.785,165.039
1532280041.771,17.578,31.250,31.738,21.484,-235.352
1532280041.775,22.949,30.762,28.320,27.832,-181.152
1532280041.779,25.879,30.762,28.320,35.645,220.703
1532280041.783,28.320,31.738,28.809,30.762,239.258
1532280041.787,28.320,30.762,30.273,30.762,-150.391
1532280041.791,25.879,27.832,28.809,30.762,-208.984
1532280041.795,24.414,24.414,25.879,29.785,153.320
1532280041.798,23.926,26.367,25.391,31.738,335.938
1532280041.802,23.926,28.809,24.414,29.297,-6.348
1532280041.806,24.414,28.320,26.367,32.227,-285.645
1532280041.810,26.367,29.785,25.391,33.691,21.484
1532280041.814,25.879,28.320,23.438,27.832,322.266
1532280041.818,21.973,27.344,24.902,22.949,65.430
1532280041.822,23.438,27.344,23.926,25.879,-278.320
1532280041.826,26.367,24.902,22.461,26.855,-92.285
1532280041.830,20.508,22.949,21.973,23.926,288.574
1532280041.834,22.461,23.926,20.996,20.508,201.660
1532280041.838,27.344,22.949,20.996,13.672,-190.918
1532280041.841,22.461,20.508,22.949,16.113,-174.316
1532280041.845,20.508,20.996,24.902,27.832,224.609
1532280041.849,22.461,21.973,27.832,27.344,279.785
1532280041.853,25.879,19.531,28.320,26.855,-97.656
1532280041.857,29.785,20.020,26.367,32.715,-220.703
1532280041.861,27.832,24.414,21.973,35.645,126.953
1532280041.865,23.926,23.926,25.391,31.250,308.594
1532280041.869,21.484,22.461,32.715,26.367,-21.973
1532280041.873,21.484,21.484,29.297,24.414,-250.977
1532280041.877,21.973,23.926,24.414,24.902,36.621
1532280041.880,18.555,27.344,25.879,20.508,314.453
1532280041.884,19.043,25.391,27.832,17.090,102.051
1532280041.888,22.949,24.414,27.344,22.461,-235.840
1532280041.892,22.461,24.902,26.367,25.391,-86.426
1532280041.896,27.832,25.391,28.320,29.785,313.477
1532280041.900,30.762,23.438,30.762,28.320,234.863
1532280041.904,29.297,23.438,27.832,27.832,-160.645
1532280041.908,39.062,27.832,23.438,35.156,-160.156
1532280041.912,41.992,30.273,23.438,37.598,226.074
1532280041.916,33.691,30.762,23.438,33.203,318.848
1532280041.920,26.855,29.297,21.973,27.344,-81.543
1532280041.923,27.832,27.344,20.996,26.855,-268.555
1532280041.927,37.598,27.832,22.461,36.133,88.867
1532280041.931,39.551,27.344,21.484,41.016,321.777
1532280041.935,38.086,25.879,19.531,40.039,39.062
1532280041.939,39.551,25.879,20.508,40.527,-243.164
1532280041.943,41.016,25.879,20.996,43.945,-19.043
1532280041.947,37.598,25.391,20.508,46.387,324.707
1532280041.951,34.180,25.391,20.996,37.598,141.602
1532280041.955,36.133,27.344,19.531,41.016,-246.094
1532280041.959,35.156,27.832,19.043,50.781,-149.902
1532280041.962,30.762,24.902,18.555,46.875,250.488
1532280041.966,32.715,23.438,18.066,44.434,245.117
1532280041.970,37.109,22.461,16.113,43.945,-143.555
1532280041.974,35.156,20.020,15.137,51.758,-206.055
1532280041.978,32.715,18.555,15.137,50.781,166.992
1532280041.982,35.645,20.020,16.602,43.945,281.738
1532280041.986,33.691,21.484,17.090,44.922,-68.848
1532280041.990,30.762,18.555,16.602,46.875,-276.855
1532280041.994,33.203,18.555,16.113,49.805,62.500
1532280041.998,36.621,19.043,16.113,50.293,331.543
1532280042.002,38.574,18.555,16.113,48.340,53.223
1532280042.005,39.551,19.531,14.160,49.805,-235.840
1532280042.009,41.016,21.484,12.207,50.293,-45.410
1532280042.013,41.504,22.949,13.672,48.828,307.129
1532280042.017,40.527,24.414,15.625,46.875,166.504
1532280042.021,42.480,24.414,15.625,41.016,-242.188
1532280042.025,43.457,24.902,15.625,41.016,-161.621
1532280042.029,43.945,25.879,16.113,49.316,253.418
1532280042.033,44.922,26.367,16.602,48.340,241.699
1532280042.037,43.945,26.367,17.090,43.457,-141.113
1532280042.041,45.898,27.832,15.137,47.363,-228.027
1532280042.045,46.875,27.832,15.625,53.223,145.996
1532280042.048,45.410,27.344,16.113,54.199,335.449
1532280042.052,45.898,27.832,13.672,53.223,-5.859
1532280042.056,49.316,26.367,14.160,55.176,-271.973
1532280042.060,49.316,25.879,14.160,62.500,17.090
1532280042.064,49.805,25.879,14.160,57.617,322.754
1532280042.068,53.711,26.855,15.625,52.734,73.730
1532280042.072,57.617,28.809,16.602,57.129,-290.039
1532280042.076,55.664,27.344,15.625,55.176,-99.121
1532280042.080,54.199,25.879,13.184,53.223,300.293
1532280042.084,53.711,24.902,13.672,54.688,213.867
1532280042.087,50.781,26.855,15.625,57.129,-191.895
1532280042.091,50.293,29.785,17.090,62.012,-177.246
1532280042.095,50.781,28.320,20.996,68.848,217.285
1532280042.099,46.875,27.832,20.996,68.848,276.855
1532280042.103,41.504,27.344,20.508,59.570,-115.723
1532280042.107,37.109,24.902,21.484,54.199,-262.207
1532280042.111,34.180,25.391,20.020,56.641,105.469
1532280042.115,34.668,26.367,18.066,55.176,331.055
1532280042.119,38.086,27.344,18.066,48.340,-31.738
1532280042.123,41.504,27.832,19.531,48.828,-295.898
1532280042.127,41.992,29.785,18.555,55.664,5.371
1532280042.130,38.574,30.273,19.043,56.641,311.035
1532280042.134,40.527,29.785,21.484,50.293,122.559
1532280042.138,42.480,30.762,19.531,45.410,-248.535
1532280042.142,41.504,31.738,18.555,42.969,-148.438
1532280042.146,41.016,30.273,19.043,48.340,278.320
1532280042.150,40.527,27.832,19.531,52.246,240.234
1532280042.154,41.504,25.879,21.484,50.781,-176.758
1532280042.158,40.527,26.855,23.926,51.270,-203.613
1532280042.162,41.016,29.297,21.973,49.316,165.527
1532280042.166,37.598,27.832,20.020,47.363,270.020
1532280042.170,35.156,28.809,23.438,45.898,-83.008
1532280042.173,37.598,29.297,22.949,48.340,-236.816
1532280042.177,40.527,29.297,21.973,53.223,120.605
1532280042.181,41.504,31.250,22.949,50.293,339.355
1532280042.185,41.504,30.273,23.926,50.781,20.996
1532280042.189,41.504,29.785,21.484,51.270,-240.234
1532280042.193,42.969,31.250,20.508,53.711,-1.465
1532280042.197,45.410,30.762,24.414,55.176,315.918
1532280042.201,44.922,30.273,24.902,48.828,145.996
1532280042.205,45.898,33.691,25.391,51.270,-243.652
1532280042.209,46.875,34.180,24.414,53.223,-121.582
1532280042.212,43.945,32.715,24.414,49.805,274.902
1532280042.216,40.527,33.203,24.902,44.434,235.352
1532280042.220,34.668,31.250,23.926,42.480,-172.852
1532280042.224,33.691,29.785,23.926,48.828,-224.121
1532280042.228,36.621,29.785,26.367,54.199,190.918
1532280042.232,33.691,28.320,24.414,52.246,308.105
1532280042.236,35.645,29.785,21.484,51.270,-33.691
1532280042.240,41.016,30.762,22.461,51.270,-254.395
1532280042.244,46.387,30.273,23.926,56.152,49.805
1532280042.248,49.805,33.691,26.367,64.453,338.379
1532280042.252,47.363,35.156,27.344,57.129,59.082
1532280042.255,43.457,32.715,28.320,54.199,-254.883
1532280042.259,47.363,31.738,29.297,52.734,-39.062
1532280042.263,52.246,34.668,29.785,55.664,326.660
1532280042.267,49.316,34.668,29.785,58.594,197.754
1532280042.271,49.805,31.738,29.297,56.152,-215.820
1532280042.275,52.246,29.785,28.320,61.035,-169.434
1532280042.279,53.223,30.762,28.320,64.453,246.094
1532280042.283,54.688,32.715,30.273,60.547,251.465
1532280042.287,55.176,32.227,30.762,59.082,-160.156
1532280042.291,58.594,32.227,27.832,67.871,-257.812
1532280042.295,56.641,31.250,30.762,71.777,157.227
1532280042.298,53.711,31.738,33.203,64.453,339.355
1532280042.302,56.641,31.738,34.668,55.664,-36.133
1532280042.306,54.199,27.832,38.574,57.617,-281.250
1532280042.310,47.363,22.949,39.062,60.547,14.648
1532280042.314,46.875,18.066,39.551,58.594,335.938
1532280042.318,49.316,14.160,41.504,52.246,80.078
1532280042.322,48.340,13.672,43.457,50.781,-284.668
1532280042.326,46.387,12.695,44.922,51.758,-98.145
1532280042.330,48.828,10.254,46.387,49.805,261.719
1532280042.334,47.363,8.789,47.363,45.410,163.086
1532280042.337,37.109,7.324,47.852,35.645,-216.797
1532280042.341,27.344,5.371,50.781,33.203,-208.984
1532280042.345,26.855,1.953,54.688,42.480,217.773
1532280042.349,24.414,-0.977,53.223,40.527,291.992
1532280042.353,19.531,-2.441,53.223,34.180,-89.355
1532280042.357,21.484,-0.488,57.129,34.668,-249.512
1532280042.361,22.461,-0.977,58.105,36.621,93.750
1532280042.365,21.484,-3.906,58.594,34.668,327.637
1532280042.369,27.344,-4.395,61.035,31.738,19.043
1532280042.373,28.809,-5.371,61.523,31.738,-251.465
1532280042.377,25.879,-5.859,62.012,37.598,5.859
1532280042.380,20.996,-0.977,60.059,42.969,307.617
1532280042.384,13.184,1.465,55.664,29.785,124.023
1532280042.388,9.277,1.953,56.152,21.973,-217.773
1532280042.392,10.742,1.953,59.570,31.738,-112.305
1532280042.396,8.789,3.418,58.105,31.738,273.926
1532280042.400,10.254,8.789,53.711,16.113,205.078
1532280042.404,9.277,11.230,52.734,7.324,-195.312
1532280042.408,1.953,6.836,54.199,16.113,-206.055
1532280042.412,3.906,4.883,54.688,21.484,161.133
1532280042.416,7.812,6.348,55.176,20.508,273.438
1532280042.419,11.719,9.277,52.734,19.531,-78.613
1532280042.423,13.184,10.742,48.828,17.578,-240.723
1532280042.427,6.348,9.766,48.340,16.113,83.496
1532280042.431,2.930,6.348,49.316,18.066,309.570
1532280042.435,12.207,5.371,47.852,18.066,51.758
1532280042.439,20.020,11.719,42.480,11.230,-249.512
1532280042.443,17.090,14.648,41.016,13.184,-42.969
1532280042.447,16.113,15.625,45.898,21.973,327.637
1532280042.451,21.973,14.160,49.316,20.996,145.020
1532280042.455,22.949,13.672,48.828,22.461,-250.977
1532280042.459,22.461,14.160,46.875,22.461,-149.414
1532280042.462,23.926,13.672,44.922,25.391,251.953
1532280042.466,26.367,14.160,43.457,28.320,249.023
1532280042.470,29.785,13.184,46.875,23.926,-139.648
1532280042.474,22.461,10.254,47.852,24.902,-202.637
1532280042.478,21.484,10.742,47.363,28.320,168.457
1532280042.482,23.926,11.719,48.340,28.320,308.105
1532280042.486,20.508,8.301,47.363,26.367,-38.574
1532280042.490,23.926,6.348,45.410,26.367,-244.141
1532280042.494,27.344,8.301,44.434,30.762,56.152
1532280042.498,29.297,9.277,45.898,37.109,310.059
1532280042.502,33.203,10.254,48.340,36.621,41.016
1532280042.505,31.738,8.789,47.363,36.621,-254.883
1532280042.509,32.227,8.301,47.852,43.945,-42.480
1532280042.513,38.086,7.324,48.340,45.898,283.691
1532280042.517,40.039,8.789,46.387,38.086,126.465
1532280042.521,41.992,11.719,43.457,36.133,-252.441
1532280042.525,43.457,7.812,45.410,39.551,-166.992
1532280042.529,38.086,7.324,43.945,40.527,230.469
1532280042.533,33.691,9.766,40.527,38.574,241.699
1532280042.537,34.668,9.277,42.480,37.598,-157.227
1532280042.541,38.086,10.254,39.551,38.086,-246.582
1532280042.544,41.504,9.766,37.109,44.922,156.250
1532280042.548,46.387,9.277,38.086,51.758,337.891
1532280042.552,43.945,10.742,38.086,48.828,-28.320
1532280042.556,41.504,10.742,35.645,51.758,-284.180
1532280042.560,46.875,10.742,37.109,51.270,4.883
1532280042.564,49.316,9.277,38.086,49.805,291.504
1532280042.568,47.363,7.324,38.574,51.270,79.102
1532280042.572,43.945,7.812,38.086,46.875,-267.090
1532280042.576,49.805,8.789,37.109,53.711,-92.773
1532280042.580,59.082,8.301,38.086,57.617,284.180
1532280042.584,53.223,8.301,38.086,46.875,173.340
1532280042.587,43.457,6.836,38.086,47.363,-207.031
1532280042.591,41.504,6.348,37.598,50.781,-177.246
1532280042.595,44.434,6.836,36.133,51.270,198.730
1532280042.599,44.434,7.324,34.180,49.316,259.277
1532280042.603,41.504,9.277,35.156,46.875,-88.867
1532280042.607,43.945,9.277,35.645,46.387,-236.816
1532280042.611,48.340,11.230,37.598,56.152,119.141
1532280042.615,49.316,12.695,40.527,60.059,330.566
1532280042.619,53.223,11.719,39.551,51.270,5.859
1532280042.623,55.664,11.719,38.086,49.805,-253.906
1532280042.627,51.270,10.254,36.621,56.152,-15.625
1532280042.630,49.316,8.789,36.621,56.152,291.992
1532280042.634,51.270,8.789,37.109,52.734,116.699
1532280042.638,52.246,10.742,39.062,50.781,-269.043
1532280042.642,47.363,10.254,38.574,49.805,-179.199
1532280042.646,47.363,7.812,36.621,56.152,271.973
1532280042.650,47.363,10.742,39.062,57.129,260.742
1532280042.654,42.480,12.207,40.527,50.293,-154.785
1532280042.658,47.852,11.230,41.016,54.688,-218.262
1532280042.662,49.805,12.695,39.551,59.082,168.945
1532280042.666,42.969,11.719,38.086,53.223,304.688
1532280042.669,40.039,12.695,39.062,50.293,-65.430
1532280042.673,37.109,12.207,39.062,50.293,-230.957
1532280042.677,37.109,11.230,39.062,48.828,73.730
1532280042.681,40.527,13.184,39.551,47.363,310.059
1532280042.685,40.527,15.137,40.527,46.875,34.668
1532280042.689,38.574,16.113,40.039,45.898,-284.180
1532280042.693,38.574,16.113,38.086,47.363,-38.086
1532280042.697,38.086,15.137,39.062,47.852,322.266
1532280042.701,38.574,17.090,42.969,43.945,142.578
1532280042.705,40.527,18.066,43.945,42.969,-224.609
1532280042.709,39.062,17.578,43.457,47.363,-152.832
1532280042.712,36.133,19.043,43.457,46.387,224.609
1532280042.716,35.645,19.531,42.969,41.016,228.516
1532280042.720,32.715,19.043,43.457,37.109,-204.590
1532280042.724,32.227,15.625,44.434,38.574,-269.531
1532280042.728,31.250,12.695,42.480,42.969,175.781
1532280042.732,32.715,15.625,44.434,41.504,327.148
1532280042.736,33.203,14.648,43.945,38.086,-35.645
1532280042.740,30.762,14.160,40.039,34.668,-252.930
1532280042.744,31.738,14.160,40.527,37.109,45.410
1532280042.748,33.691,14.648,42.480,40.527,358.887
1532280042.752,32.715,15.137,42.969,41.504,94.238
1532280042.755,33.691,13.184,44.922,47.852,-269.043
1532280042.759,36.621,10.742,45.898,45.410,-73.730
1532280042.763,36.133,11.230,44.434,44.434,285.156
1532280042.767,36.133,11.230,44.434,42.480,185.547
1532280042.771,37.598,9.766,47.852,42.969,-190.430
1532280042.775,38.086,9.766,47.363,45.898,-154.785
1532280042.779,36.133,8.301,42.969,40.527,208.984
1532280042.783,35.645,9.766,41.016,37.598,221.191
1532280042.787,36.133,8.789,40.039,37.598,-138.672
1532280042.791,37.598,9.766,38.574,39.551,-234.375
1532280042.794,41.992,11.230,38.574,41.992,114.746
1532280042.798,46.387,10.254,39.062,43.457,287.109
1532280042.802,47.852,9.766,38.086,48.340,-21.973
1532280042.806,47.852,9.277,39.062,52.246,-262.695
1532280042.810,47.852,9.766,39.551,56.641,6.348
1532280042.814,42.969,9.766,41.504,55.664,308.105
1532280042.818,36.133,11.230,41.504,51.758,76.172
1532280042.822,29.785,11.230,39.062,44.922,-298.340
1532280042.826,28.809,10.254,38.086,43.945,-105.469
1532280042.830,28.320,11.719,35.645,45.410,288.086
1532280042.834,27.344,10.742,36.133,36.133,180.176
1532280042.837,28.320,11.719,37.598,30.762,-194.824
1532280042.841,27.832,13.184,36.621,34.180,-175.781
1532280042.845,27.344,12.207,35.645,39.062,219.238
1532280042.849,28.809,14.160,36.133,39.551,283.203
1532280042.853,33.203,14.648,37.598,31.738,-112.305
1532280042.857,32.227,12.695,33.203,36.133,-253.418
1532280042.861,33.691,11.230,32.227,41.504,98.145
1532280042.865,35.645,10.254,37.598,39.551,295.410
1532280042.869,35.645,10.742,36.621,42.480,-1.465
1532280042.873,35.156,6.836,36.621,39.062,-244.141
1532280042.876,31.738,4.883,36.133,36.621,11.719
1532280042.880,33.203,6.348,35.156,36.133,297.363
1532280042.884,35.156,7.324,36.133,37.109,110.352
1532280042.888,36.133,6.348,35.156,40.039,-224.121
1532280042.892,38.574,4.395,35.156,39.551,-105.957
1532280042.896,38.574,3.418,36.133,43.945,270.508
1532280042.900,35.645,3.418,38.086,41.992,222.168
1532280042.904,32.715,4.395,38.086,36.133,-172.852
1532280042.908,29.297,3.418,36.621,38.086,-198.730
1532280042.912,26.855,2.930,34.668,35.156,197.266
1532280042.916,25.391,3.906,33.203,28.809,301.270
1532280042.919,29.785,4.883,31.738,26.855,-83.984
1532280042.923,32.715,6.348,30.273,24.414,-278.809
1532280042.927,32.715,4.883,30.273,30.762,60.547
1532280042.931,30.762,3.418,31.250,33.203,337.402
1532280042.935,26.855,5.859,30.762,30.273,44.434
1532280042.939,27.344,7.324,31.738,30.273,-303.711
1532280042.943,27.832,6.836,30.273,31.738,-39.062
1532280042.947,29.297,7.812,27.832,33.691,328.613
1532280042.951,28.809,9.766,31.738,30.273,145.508
1532280042.955,25.391,7.324,34.668,26.855,-219.238
1532280042.959,21.973,5.859,34.180,25.879,-148.438
1532280042.962,20.996,7.324,33.203,24.902,228.027
1532280042.966,20.508,10.254,32.715,20.020,247.559
1532280042.970,17.090,10.254,31.738,16.113,-155.273
1532280042.974,11.230,7.324,30.762,17.578,-232.910
1532280042.978,9.277,8.789,29.785,20.020,148.926
1532280042.982,15.625,13.672,31.250,19.531,293.457
1532280042.986,16.602,14.160,35.645,18.555,-41.992
1532280042.990,16.602,14.160,36.621,19.531,-289.062
1532280042.994,15.625,14.160,36.621,21.973,5.859
1532280042.998,14.160,12.207,37.598,19.043,317.871
1532280043.001,12.207,14.648,37.598,1.953,58.594
1532280043.005,9.277,14.648,35.645,-0.977,-275.879
1532280043.009,13.184,12.207,37.109,11.230,-56.152
1532280043.013,4.883,10.254,38.086,9.766,308.594
1532280043.017,-2.441,10.254,39.062,7.324,163.574
1532280043.021,0.000,13.184,42.480,10.254,-199.219
1532280043.025,0.000,11.230,42.480,11.719,-171.387
1532280043.029,2.930,10.742,41.504,11.719,205.078
1532280043.033,2.930,12.695,41.504,9.277,286.621
1532280043.037,3.906,12.207,41.992,12.207,-106.445
1532280043.041,2.930,10.742,43.457,16.113,-231.445
1532280043.044,3.906,13.184,44.434,13.672,130.371
1532280043.048,9.766,16.602,46.875,13.184,284.180
1532280043.052,4.883,16.602,48.828,3.906,-42.480
1532280043.056,1.465,15.625,46.875,3.418,-279.785
1532280043.060,-0.488,14.648,46.387,1.465,-6.348
1532280043.064,-5.859,15.137,47.852,-5.859,327.637
1532280043.068,-5.371,15.625,49.316,-2.441,122.070
1532280043.072,-1.953,18.066,48.340,-3.418,-255.859
1532280043.076,-5.859,19.043,48.828,-3.906,-110.352
1532280043.080,-12.695,15.625,49.316,-4.395,269.531
1532280043.084,-11.719,14.160,46.875,-6.836,212.891
1532280043.087,-9.766,15.625,47.363,-8.301,-176.758
1532280043.091,-10.254,15.137,48.828,-0.977,-208.008
1532280043.095,-9.766,14.648,44.922,5.859,201.660
1532280043.099,-5.371,19.531,41.016,1.465,279.785
1532280043.103,0.488,19.531,45.410,0.000,-128.906
1532280043.107,2.441,15.625,45.898,2.930,-270.508
1532280043.111,4.395,17.578,43.945,12.207,89.844
1532280043.115,8.789,17.578,48.340,18.066,350.586
1532280043.119,11.230,19.531,47.363,13.184,26.855
1532280043.123,12.695,19.531,43.457,8.789,-274.902
1532280043.126,12.207,16.602,42.969,12.207,12.695
1532280043.130,3.906,18.066,44.922,13.184,315.430
1532280043.134,0.488,18.066,45.410,10.254,126.465
1532280043.138,9.766,20.020,45.898,8.789,-254.883
1532280043.142,10.254,21.973,46.875,8.789,-157.715
1532280043.146,7.324,20.996,44.434,14.160,269.043
1532280043.150,7.812,18.555,43.457,12.695,240.234
1532280043.154,6.348,17.090,43.945,10.742,-163.574
1532280043.158,11.230,20.020,44.922,19.531,-219.727
1532280043.162,11.719,19.531,44.922,22.949,175.293
1532280043.166,11.230,16.113,41.504,18.555,320.801
1532280043.169,18.555,16.113,42.480,17.090,-45.898
1532280043.173,18.555,14.160,43.457,23.926,-255.859
1532280043.177,20.508,14.648,41.504,30.762,73.242
1532280043.181,26.855,17.578,39.062,25.391,302.246
1532280043.185,24.902,14.648,38.086,21.484,41.016
1532280043.189,23.438,14.160,39.551,27.344,-238.770
1532280043.193,29.785,15.625,38.574,33.691,-43.945
1532280043.197,29.785,15.137,37.109,33.203,313.477
1532280043.201,30.762,17.090,38.574,31.250,196.289
1532280043.205,38.574,17.090,36.621,36.621,-188.477
1532280043.209,39.062,16.113,35.156,38.086,-138.184
1532280043.212,41.504,17.090,35.645,39.551,255.371
1532280043.216,42.480,14.160,33.691,40.039,268.066
1532280043.220,42.969,12.695,32.715,39.062,-125.977
1532280043.224,39.062,14.648,33.203,40.039,-211.914
1532280043.228,36.133,13.672,32.715,42.480,151.367
1532280043.232,40.039,13.672,32.715,42.480,318.359
1532280043.236,42.480,14.160,32.227,42.969,-27.344
1532280043.240,43.457,12.695,31.738,41.992,-285.645
1532280043.244,41.016,10.742,31.738,43.457,22.461
1532280043.248,39.062,10.254,31.250,47.363,339.355
1532280043.251,38.086,12.207,31.250,41.016,101.562
1532280043.255,41.992,13.672,32.227,38.086,-241.699
1532280043.259,43.945,11.719,31.250,44.434,-81.543
1532280043.263,43.457,9.766,29.297,44.434,294.922
1532280043.267,40.039,12.695,30.762,42.480,192.871
1532280043.271,40.039,16.602,30.273,41.016,-198.730
1532280043.275,45.898,16.113,30.762,50.293,-189.453
1532280043.279,44.434,14.648,30.273,50.781,205.566
1532280043.283,38.086,15.137,30.273,40.039,250.488
1532280043.287,33.691,15.137,31.250,39.551,-129.395
1532280043.291,35.645,13.672,32.227,45.410,-239.746
1532280043.294,38.086,12.695,31.738,48.340,137.695
1532280043.298,41.992,13.672,32.227,38.574,324.707
1532280043.302,38.574,13.184,32.715,36.621,-18.555
1532280043.306,37.598,14.648,30.273,44.434,-273.438
1532280043.310,45.410,15.137,29.785,46.875,-7.324
1532280043.314,45.898,14.648,30.273,44.434,306.152
1532280043.318,42.480,14.648,30.762,38.086,85.938
1532280043.322,41.504,15.137,31.738,38.086,-284.668
1532280043.326,41.992,16.602,32.227,43.945,-130.859
1532280043.330,41.504,16.602,32.227,41.504,266.113
1532280043.333,39.062,15.625,33.203,37.598,207.520
1532280043.337,41.016,14.648,34.668,38.574,-181.641
1532280043.341,43.945,14.160,35.645,35.645,-188.477
1532280043.345,44.434,12.207,36.621,40.527,192.871
1532280043.349,42.969,10.742,34.180,41.992,278.320
1532280043.353,39.551,11.230,34.180,38.086,-102.539
1532280043.357,38.574,11.719,34.180,38.086,-281.738
1532280043.361,38.574,12.207,30.273,37.598,49.805
1532280043.365,41.016,12.207,32.227,40.527,292.969
1532280043.369,44.922,13.672,34.180,41.504,13.672
1532280043.373,44.434,16.602,32.715,41.016,-277.344
1532280043.376,46.387,15.625,31.738,41.992,-23.438
1532280043.380,48.340,15.137,32.227,45.898,295.898
1532280043.384,41.504,15.625,34.180,39.062,113.281
1532280043.388,35.156,14.648,34.180,36.133,-247.070
1532280043.392,35.645,12.695,33.691,44.922,-135.742
1532280043.396,35.156,13.672,34.668,45.410,255.371
1532280043.400,34.180,14.648,34.668,40.527,211.426
1532280043.404,38.086,16.113,34.180,38.574,-181.152
1532280043.408,37.598,15.137,34.180,38.574,-203.125
1532280043.412,38.086,14.648,32.715,40.039,187.012
1532280043.416,41.016,16.602,32.715,41.016,301.758
1532280043.419,37.598,18.066,33.691,37.598,-74.219
1532280043.423,40.039,17.578,33.203,35.645,-297.852
1532280043.427,38.574,16.602,31.250,38.574,34.668
1532280043.431,36.621,19.043,31.738,40.527,316.895
1532280043.435,39.551,20.508,32.227,39.062,46.875
1532280043.439,44.922,19.531,32.227,40.527,-255.371
1532280043.443,45.898,18.555,33.203,41.992,-45.898
1532280043.447,41.504,17.578,31.738,41.504,297.363
1532280043.451,39.062,19.531,30.762,35.645,171.387
1532280043.455,39.551,20.996,34.668,31.250,-218.750
1532280043.458,41.992,20.996,34.668,40.527,-142.578
1532280043.462,43.945,21.484,30.762,40.039,257.324
1532280043.466,41.992,23.438,32.227,39.062,240.234
1532280043.470,40.527,22.461,33.203,39.062,-126.465
1532280043.474,42.969,21.484,32.715,41.992,-202.637
1532280043.478,47.363,23.926,32.227,42.969,161.621
1532280043.482,48.340,25.879,34.180,34.180,305.176
1532280043.486,45.898,24.902,35.156,35.645,-32.715
1532280043.490,46.387,22.949,35.156,41.016,-247.559
1532280043.494,45.410,20.508,34.668,40.039,42.480
1532280043.498,47.852,20.996,30.273,38.574,319.824
1532280043.501,53.223,21.484,30.762,36.133,63.965
1532280043.505,54.199,21.484,32.715,31.738,-251.465
1532280043.509,51.270,21.973,31.738,36.133,-76.172
1532280043.513,51.758,22.949,33.691,46.387,267.578
1532280043.517,53.223,21.973,35.156,45.410,187.988
1532280043.521,49.316,20.020,35.156,43.945,-250.977
1532280043.525,44.922,19.043,36.621,51.758,-235.840
1532280043.529,43.457,17.578,36.621,59.570,222.656
1532280043.533,40.527,17.090,35.645,57.129,266.113
1532280043.537,45.410,19.531,35.156,50.781,-119.141
1532280043.541,44.922,20.508,33.203,48.828,-254.395
1532280043.544,38.574,20.996,32.227,52.734,123.535
1532280043.548,41.016,23.438,31.738,50.781,319.824
1532280043.552,41.992,24.902,32.715,45.410,-12.207
1532280043.556,44.434,24.902,31.738,42.969,-251.953
1532280043.560,42.480,22.949,31.250,38.574,-3.906
1532280043.564,38.086,21.973,32.715,39.062,301.270
1532280043.568,37.598,22.461,30.762,36.621,113.281
1532280043.572,38.574,23.438,30.762,36.133,-243.652
1532280043.576,40.527,24.414,28.320,43.457,-91.309
1532280043.580,41.504,25.879,27.832,43.945,257.812
1532280043.583,41.992,23.926,30.273,43.457,174.316
1532280043.587,40.527,22.461,30.762,41.504,-197.754
1532280043.591,42.480,21.973,30.273,37.109,-197.754
1532280043.595,41.504,20.020,28.320,39.551,207.520
1532280043.599,38.574,20.996,29.785,40.527,267.090
1532280043.603,37.109,19.531,30.762,36.133,-121.582
1532280043.607,35.645,19.043,31.250,35.645,-270.508
1532280043.611,35.645,20.508,30.762,33.203,68.359
1532280043.615,35.645,20.020,30.273,35.156,336.426
1532280043.619,31.250,19.531,32.715,28.809,20.996
1532280043.623,29.785,19.531,31.250,20.996,-303.223
1532280043.626,31.250,18.066,32.715,34.180,-23.926
1532280043.630,32.227,16.113,34.668,39.551,313.477
1532280043.634,29.785,16.113,36.133,37.109,138.184
1532280043.638,30.273,16.113,36.621,39.062,-227.051
1532280043.642,31.250,15.625,34.668,40.527,-141.602
1532280043.646,29.785,15.625,33.691,39.551,229.492
1532280043.650,29.297,18.555,36.133,44.434,195.312
1532280043.654,26.367,19.043,35.645,42.969,-187.500
1532280043.658,27.344,18.066,34.668,43.457,-254.395
1532280043.662,35.156,19.531,35.156,44.434,100.098
1532280043.666,36.133,20.020,35.156,41.992,280.273
1532280043.669,36.621,20.020,34.668,39.551,-40.039
1532280043.673,39.062,17.090,35.645,37.598,-271.973
1532280043.677,41.992,17.090,37.109,45.898,28.809
1532280043.681,44.922,17.578,35.645,44.434,289.551
1532280043.685,41.016,15.137,36.621,39.062,53.223
1532280043.689,44.922,17.090,38.086,40.527,-258.301
1532280043.693,47.363,17.578,38.086,45.410,-53.711
1532280043.697,42.969,17.090,38.574,45.898,300.293
1532280043.701,43.945,19.043,38.086,41.016,110.840
1532280043.705,44.434,18.066,37.109,39.551,-300.781
1532280043.708,43.945,16.602,35.156,46.387,-207.520
1532280043.712,41.504,15.625,34.668,50.293,221.680
1532280043.716,41.992,17.578,35.645,46.875,229.004
1532280043.720,47.363,19.043,38.574,40.039,-146.484
1532280043.724,47.852,18.066,37.109,45.898,-223.145
1532280043.728,44.434,20.020,34.180,50.781,141.602
1532280043.732,44.434,20.020,34.180,43.945,328.125
1532280043.736,40.527,20.996,33.691,40.527,-4.395
1532280043.740,41.016,22.461,33.203,42.480,-257.324
1532280043.744,41.504,21.484,31.250,41.992,14.160
1532280043.748,39.551,20.996,31.738,37.598,324.707
1532280043.751,38.574,19.531,34.180,36.621,76.172
1532280043.755,38.574,22.461,31.250,37.598,-289.062
1532280043.759,39.551,25.391,32.227,35.156,-127.930
1532280043.763,38.574,24.414,35.645,36.621,249.023
1532280043.767,41.016,23.438,36.133,40.039,190.430
1532280043.771,42.480,22.949,35.645,42.480,-184.082
1532280043.775,42.969,24.414,34.180,48.828,-141.602
1532280043.779,44.922,24.902,33.203,48.828,237.793
1532280043.783,41.992,23.438,33.203,43.457,277.832
1532280043.787,39.062,23.926,34.668,42.480,-83.496
1532280043.790,37.109,26.367,36.133,42.480,-224.121
1532280043.794,39.062,27.832,37.109,42.969,118.652
1532280043.798,36.133,28.809,34.668,36.621,301.758
1532280043.802,31.738,29.297,34.180,28.809,-39.062
1532280043.806,34.180,27.344,35.645,34.668,-291.992
1532280043.810,33.691,27.344,37.598,42.480,-0.977
1532280043.814,30.762,29.297,35.156,42.969,323.730
1532280043.818,34.180,32.227,35.156,38.574,105.957
1532280043.822,40.527,35.645,40.527,38.086,-272.949
1532280043.826,41.016,37.109,42.480,45.410,-123.535
1532280043.830,43.945,38.574,44.922,52.246,269.043
1532280043.833,44.434,38.086,44.922,50.293,228.027
1532280043.837,41.016,37.598,41.504,48.828,-182.129
1532280043.841,41.992,37.109,42.480,45.410,-223.633
1532280043.845,42.480,36.621,41.992,45.898,197.266
1532280043.849,40.039,38.574,40.527,44.922,314.453
1532280043.853,41.992,38.574,40.527,42.480,-43.945
1532280043.857,43.457,39.062,39.551,47.363,-221.191
1532280043.861,41.992,38.086,39.062,49.316,81.543
1532280043.865,42.480,38.086,40.039,50.293,340.820
1532280043.869,41.992,39.551,37.598,47.363,79.590
1532280043.873,40.039,34.668,37.598,44.434,-216.797
1532280043.876,42.480,32.715,40.039,52.246,-34.180
1532280043.880,44.922,37.109,38.086,53.711,283.203
1532280043.884,46.875,37.109,35.645,52.246,115.723
1532280043.888,47.363,36.621,37.598,47.852,-271.484
1532280043.892,49.316,37.598,39.062,50.781,-137.207
1532280043.896,51.758,35.156,38.574,56.641,278.320
1532280043.900,49.805,35.156,40.039,45.898,218.750
1532280043.904,51.270,36.133,44.434,43.945,-190.430
1532280043.908,48.340,32.715,44.922,51.270,-223.633
1532280043.912,46.875,29.785,41.016,52.246,153.809
1532280043.915,47.852,27.344,40.039,50.781,272.461
1532280043.919,42.969,25.391,44.434,48.340,-83.008
1532280043.923,38.574,19.531,42.480,43.945,-273.926
1532280043.927,39.551,16.113,38.086,47.363,53.223
1532280043.931,41.504,13.184,41.016,46.387,312.012
1532280043.935,39.062,13.672,43.945,40.527,49.805
1532280043.939,32.715,13.672,43.945,35.645,-285.156
1532280043.943,34.180,12.207,43.457,32.227,-105.469
1532280043.947,39.551,12.207,42.969,36.621,284.668
1532280043.951,35.156,12.207,44.434,39.062,164.062
1532280043.955,32.227,11.230,44.922,36.621,-229.980
1532280043.958,36.133,10.254,42.480,38.086,-149.414
1532280043.962,37.598,12.207,43.457,45.410,261.719
1532280043.966,35.645,12.207,43.945,41.992,249.023
1532280043.970,36.133,12.207,40.527,35.156,-126.953
1532280043.974,40.039,13.184,40.039,39.062,-206.543
1532280043.978,41.504,12.207,42.969,43.457,127.930
1532280043.982,40.039,13.184,44.434,40.527,309.570
1532280043.986,40.527,14.160,41.016,38.086,-9.766
1532280043.990,41.992,13.184,39.062,37.109,-246.094
1532280043.994,45.898,12.695,37.598,44.434,53.711
1532280043.998,43.945,12.207,38.574,44.434,336.426
1532280044.001,38.574,12.207,41.992,39.062,80.566
1532280044.005,41.504,13.184,42.480,41.504,-265.137
1532280044.009,45.410,15.625,42.969,41.504,-104.492
1532280044.013,41.992,16.602,41.992,41.992,288.574
1532280044.017,38.574,17.578,39.551,35.156,204.590
1532280044.021,38.574,19.043,39.062,31.738,-200.195
1532280044.025,40.527,22.949,37.109,37.598,-174.805
1532280044.029,41.504,23.438,34.668,39.062,211.426
1532280044.033,40.039,22.949,36.133,38.086,268.066
1532280044.037,41.992,26.367,37.109,34.668,-105.957
1532280044.040,44.922,26.367,39.062,35.645,-244.629
1532280044.044,43.457,27.832,39.551,43.457,108.887
1532280044.048,44.922,30.273,38.574,41.992,329.102
1532280044.052,44.922,31.250,41.016,38.086,14.160
1532280044.056,39.551,30.273,41.016,42.969,-259.766
1532280044.060,39.062,32.227,38.574,39.551,-11.719
1532280044.064,41.504,33.691,39.062,40.039,300.781
1532280044.068,41.992,33.691,40.039,41.016,141.602
1532280044.072,41.992,35.645,40.039,41.016,-227.539
1532280044.076,43.945,36.621,41.504,50.293,-130.859
1532280044.080,38.574,38.086,40.039,44.434,251.465
1532280044.083,38.086,40.039,40.527,41.992,214.355
1532280044.087,46.387,40.039,41.992,47.363,-160.645
1532280044.091,48.340,41.016,41.992,51.270,-200.684
1532280044.095,46.875,41.992,43.945,59.570,174.805
1532280044.099,43.945,41.016,46.387,60.547,294.434
1532280044.103,43.945,41.504,45.410,51.758,-108.398
1532280044.107,45.410,42.480,44.922,49.805,-280.273
1532280044.111,42.480,41.016,45.898,55.664,85.449
1532280044.115,45.410,40.527,44.922,53.223,330.566
1532280044.119,42.969,41.016,44.922,42.480,44.922
1532280044.123,37.598,40.039,43.945,36.621,-281.738
1532280044.126,41.992,38.086,41.016,41.016,-23.438
1532280044.130,40.039,38.086,40.527,45.410,333.008
1532280044.134,39.062,38.574,41.504,49.805,137.207
1532280044.138,46.387,39.062,41.992,51.270,-231.934
1532280044.142,50.293,38.086,40.039,49.805,-125.977
1532280044.146,47.363,36.133,39.551,55.176,253.418
1532280044.150,47.852,34.668,38.574,47.363,231.934
1532280044.154,49.316,35.645,38.086,39.551,-149.414
1532280044.158,50.293,36.133,38.574,49.316,-221.191
1532280044.162,50.293,33.691,38.086,59.570,160.156
1532280044.165,47.852,34.668,37.109,59.082,323.730
1532280044.169,46.875,37.109,37.109,47.363,-40.527
1532280044.173,47.363,35.156,37.598,42.480,-278.320
1532280044.177,41.992,33.203,34.668,43.945,23.926
1532280044.181,41.016,34.668,34.180,38.086,278.320
1532280044.185,46.875,35.645,37.109,38.574,12.207
1532280044.189,46.387,35.645,36.621,42.480,-281.250
1532280044.193,42.969,33.691,36.133,45.410,-69.336
1532280044.197,49.316,33.203,35.156,47.852,304.199
1532280044.201,54.199,34.668,33.691,43.457,169.922
1532280044.205,56.641,36.133,34.180,43.945,-248.535
1532280044.208,58.594,37.598,33.203,48.340,-194.824
1532280044.212,54.199,36.621,30.273,51.758,226.562
1532280044.216,50.293,35.156,29.297,53.711,254.883
1532280044.220,45.898,36.133,30.273,48.828,-172.852
1532280044.224,41.992,35.645,31.250,47.363,-260.742
1532280044.228,41.016,34.668,29.785,52.734,132.324
1532280044.232,39.551,36.133,29.297,55.664,310.547
1532280044.236,37.109,34.180,27.832,57.617,-11.230
1532280044.240,34.668,31.250,28.320,47.363,-277.344
1532280044.244,33.691,29.785,25.879,42.480,27.832
1532280044.247,39.062,28.809,24.902,43.945,348.633
1532280044.251,43.457,28.809,24.414,41.992,106.934
1532280044.255,46.387,28.320,23.926,43.945,-268.066
1532280044.259,45.410,28.809,22.461,46.875,-118.164
1532280044.263,41.504,28.320,21.973,46.387,276.367
1532280044.267,40.039,26.367,24.414,43.945,210.449
1532280044.271,41.992,25.879,26.855,44.922,-183.594
1532280044.275,46.875,26.855,25.391,51.758,-175.293
1532280044.279,46.875,27.832,23.926,53.711,203.613
1532280044.283,47.852,31.250,24.414,48.828,233.398
1532280044.287,45.898,31.250,24.902,44.922,-107.910
1532280044.290,43.945,31.738,26.855,44.922,-243.652
1532280044.294,46.387,32.227,26.855,50.293,89.844
1532280044.298,43.945,31.738,26.367,45.898,303.223
1532280044.302,38.574,34.180,29.297,38.086,16.113
1532280044.306,34.668,32.227,30.273,40.039,-234.375
1532280044.310,36.133,26.367,30.762,45.898,-17.578
1532280044.314,34.668,26.367,30.273,45.410,300.293
1532280044.318,32.715,27.832,30.762,39.551,122.070
1532280044.322,33.691,26.855,32.227,35.645,-250.488
1532280044.326,32.715,24.902,30.762,39.062,-115.234
1532280044.330,31.250,21.973,31.250,45.898,286.133
1532280044.333,32.715,23.438,32.227,49.316,247.559
1532280044.337,35.645,25.879,30.273,45.410,-164.551
1532280044.341,35.645,24.902,29.297,45.410,-219.238
1532280044.345,35.645,24.414,29.785,48.828,196.777
1532280044.349,35.156,23.926,32.715,44.434,307.129
1532280044.353,32.715,23.438,31.250,36.621,-93.750
1532280044.357,34.180,24.902,29.297,38.086,-284.180
1532280044.361,34.668,22.949,29.297,41.016,41.016
1532280044.365,32.715,22.949,28.809,38.086,309.570
1532280044.369,33.203,24.902,28.809,39.551,62.988
1532280044.372,37.598,24.414,29.297,39.551,-258.789
1532280044.376,40.039,25.391,27.832,45.410,-43.945
1532280044.380,38.086,25.879,26.367,43.945,312.988
1532280044.384,39.551,26.367,27.832,39.062,166.992
1532280044.388,39.551,27.832,28.320,37.109,-218.262
1532280044.392,37.109,26.367,28.809,40.527,-136.719
1532280044.396,38.574,25.879,28.809,48.340,262.207
1532280044.400,38.574,26.855,27.832,43.457,230.957
1532280044.404,39.062,25.391,29.297,41.992,-155.762
1532280044.408,43.457,25.391,31.250,46.387,-204.590
1532280044.412,44.434,26.367,29.297,44.922,159.668
1532280044.415,41.016,27.832,28.320,44.434,303.711
1532280044.419,43.457,28.320,30.273,38.574,-54.199
1532280044.423,44.434,28.320,29.785,36.621,-269.531
1532280044.427,38.086,27.832,27.344,40.527,54.688
1532280044.431,35.645,28.809,29.297,41.992,338.867
1532280044.435,37.598,28.320,31.250,39.551,98.145
1532280044.439,38.086,26.367,31.250,36.621,-250.000
1532280044.443,41.992,25.879,30.273,41.504,-61.523
1532280044.447,42.480,26.367,29.297,43.945,313.965
1532280044.451,43.457,26.855,29.785,40.527,170.898
1532280044.455,43.945,26.367,31.250,36.133,-197.266
1532280044.458,38.574,25.391,31.250,41.504,-166.992
1532280044.462,39.062,24.902,30.273,46.875,213.867
1532280044.466,40.527,24.902,31.250,45.898,253.906
1532280044.470,41.992,26.855,31.250,42.480,-154.785
1532280044.474,40.039,25.391,29.297,41.504,-226.074
1532280044.478,32.715,22.461,27.344,36.621,147.949
1532280044.482,34.668,23.926,25.391,34.180,331.055
1532280044.486,35.645,21.973,23.926,33.691,9.277
1532280044.490,29.785,21.973,25.391,30.762,-239.258
1532280044.494,30.762,22.949,24.902,36.621,41.504
1532280044.497,29.297,21.484,24.902,33.691,322.266
1532280044.501,30.273,21.973,28.320,25.391,96.680
1532280044.505,31.738,20.508,28.320,33.203,-238.770
1532280044.509,29.297,19.043,24.414,37.598,-83.008
1532280044.513,26.367,20.508,21.973,34.180,311.523
1532280044.517,22.949,20.508,23.926,30.273,203.125
1532280044.521,23.438,20.996,25.879,26.367,-189.941
1532280044.525,22.949,20.508,21.973,30.762,-181.641
1532280044.529,21.973,18.066,18.066,33.203,183.105
1532280044.533,20.508,19.043,20.996,30.273,278.809
1532280044.537,22.949,19.043,23.438,29.785,-82.520
1532280044.540,24.902,19.043,22.949,30.273,-270.996
1532280044.544,24.902,20.508,22.949,33.203,61.035
1532280044.548,23.926,18.555,21.484,37.598,316.406
1532280044.552,24.902,20.020,21.973,38.574,33.203
1532280044.556,30.762,20.996,23.926,38.574,-256.836
1532280044.560,29.297,18.066,20.508,39.062,-39.062
1532280044.564,22.949,17.090,19.531,37.598,309.570
1532280044.568,21.973,18.066,22.949,37.109,144.531
1532280044.572,23.926,20.020,23.926,34.180,-219.727
1532280044.576,25.879,19.531,21.973,33.203,-102.539
1532280044.580,23.926,16.602,23.438,36.621,247.070
1532280044.583,21.973,17.090,25.879,34.180,205.078
1532280044.587,21.973,20.020,26.367,27.832,-166.016
1532280044.591,25.391,19.531,25.391,30.273,-209.961
1532280044.595,26.367,18.066,24.414,35.156,164.062
1532280044.599,24.414,19.043,25.879,33.203,272.949
1532280044.603,23.926,19.043,24.902,26.855,-81.543
1532280044.607,22.461,16.602,23.926,28.809,-256.348
1532280044.611,21.973,19.043,23.438,33.203,86.426
1532280044.615,20.996,20.020,26.855,34.668,348.145
1532280044.619,21.973,19.531,30.762,37.598,59.570
1532280044.622,24.902,20.508,30.273,35.156,-244.141
1532280044.626,31.250,21.973,29.297,39.062,-19.531
1532280044.630,30.273,21.973,28.320,47.852,307.129
1532280044.634,23.438,21.484,27.832,39.551,157.227
1532280044.638,24.414,22.949,28.320,27.832,-220.215
1532280044.642,29.785,26.367,28.320,23.438,-160.645
1532280044.646,30.762,27.344,27.832,28.809,240.723
1532280044.650,30.762,22.949,27.832,30.273,251.953
1532280044.654,27.832,19.043,28.809,28.320,-132.324
1532280044.658,28.320,20.996,27.832,29.785,-207.031
1532280044.662,35.156,24.414,25.879,36.621,152.832
1532280044.665,35.645,22.949,25.879,38.574,292.480
1532280044.669,31.738,21.973,23.926,31.738,-52.246
1532280044.673,33.691,21.484,22.949,33.203,-240.723
1532280044.677,37.109,20.996,23.926,40.527,59.570
1532280044.681,31.250,20.020,21.973,34.180,309.570
1532280044.685,26.367,19.531,21.484,31.738,67.871
1532280044.689,31.250,18.555,24.414,35.645,-271.973
1532280044.693,32.227,16.113,22.461,37.109,-75.684
1532280044.697,30.273,16.602,21.484,37.109,276.855
1532280044.701,29.785,19.043,24.902,31.738,121.094
1532280044.704,31.738,20.020,23.926,36.621,-248.535
1532280044.708,31.738,17.090,20.508,42.969,-177.246
1532280044.712,30.273,15.137,20.508,41.016,232.422
1532280044.716,27.344,14.160,21.973,38.086,298.340
1532280044.720,28.320,14.160,20.508,34.180,-100.586
1532280044.724,30.273,15.625,21.484,34.180,-251.465
1532280044.728,30.273,17.578,21.484,37.598,109.375
1532280044.732,29.785,19.043,19.043,35.156,322.754
1532280044.736,24.902,12.695,22.461,26.367,19.531
1532280044.740,32.227,8.789,29.785,36.133,-254.395
1532280044.744,41.504,14.160,26.367,44.922,8.789
1532280044.747,37.109,23.438,15.625,34.668,312.012
1532280044.751,34.668,26.367,16.113,31.250,84.961
1532280044.755,33.691,24.902,20.020,32.715,-251.465
1532280044.759,34.668,24.902,15.137,31.738,-81.055
1532280044.763,35.645,28.320,10.742,29.297,297.363
1532280044.767,26.855,29.297,10.742,19.043,214.844
1532280044.771,21.973,27.344,13.184,14.648,-192.871
1532280044.775,23.926,26.855,14.160,22.949,-213.379
1532280044.779,25.391,25.879,12.695,22.949,179.688
1532280044.783,26.367,26.367,14.160,20.508,264.648
1532280044.787,28.809,28.320,14.648,27.344,-103.027
1532280044.790,32.715,27.832,13.672,29.297,-250.977
1532280044.794,31.738,24.902,15.625,37.598,99.609
1532280044.798,30.762,24.902,19.043,44.434,310.059
1532280044.802,33.691,24.902,19.531,38.086,9.277
1532280044.806,33.203,23.926,18.066,36.133,-258.301
1532280044.810,34.668,24.902,17.578,37.598,-18.555
1532280044.814,34.180,24.902,21.484,34.180,315.918
1532280044.818,30.762,26.367,22.461,29.785,125.000
1532280044.822,29.785,25.879,21.484,31.250,-245.605
1532280044.826,31.250,22.949,20.996,35.156,-129.883
1532280044.829,31.250,21.484,20.508,35.645,251.465
1532280044.833,33.691,23.438,23.438,35.645,223.633
1532280044.837,35.645,22.949,25.391,32.227,-171.387
1532280044.841,39.062,20.996,23.926,29.785,-237.305
1532280044.845,40.527,21.973,22.949,37.109,145.996
1532280044.849,36.133,22.949,24.414,35.156,296.387
1532280044.853,36.133,25.879,24.414,32.227,-37.109
1532280044.857,36.621,26.855,20.996,40.527,-241.699
1532280044.861,37.109,24.902,22.949,43.945,43.945
1532280044.865,34.180,20.996,25.879,40.039,323.730
1532280044.869,31.738,21.973,24.902,35.645,73.242
1532280044.872,34.180,24.414,26.855,35.645,-258.301
1532280044.876,38.086,22.949,25.391,39.062,-53.223
1532280044.880,37.109,23.438,24.414,33.691,272.461
1532280044.884,36.133,23.438,28.320,30.762,125.977
