timestamps,TP9,AF7,AF8,TP10,Right AUX
1532371484.843,51.758,44.434,46.387,35.645,18.555
1532371484.847,56.641,47.852,41.992,34.668,1.953
1532371484.851,55.176,50.293,41.504,33.691,36.621
1532371484.855,49.805,51.270,45.410,39.062,53.711
1532371484.859,51.758,52.246,44.434,38.086,24.414
1532371484.863,52.246,52.246,45.410,38.086,-4.395
1532371484.867,51.758,52.734,46.387,41.016,20.508
1532371484.870,48.340,51.270,42.969,34.180,50.293
1532371484.874,55.176,51.758,41.016,30.273,35.156
1532371484.878,59.570,57.129,39.062,31.250,-30.273
1532371484.882,43.457,54.688,43.945,24.414,-31.250
1532371484.886,36.133,46.875,52.734,21.484,62.500
1532371484.890,40.527,42.969,54.688,26.855,68.359
1532371484.894,39.551,41.016,53.223,28.809,-27.344
1532371484.898,46.387,41.016,50.293,33.691,-10.742
1532371484.902,50.781,40.527,48.828,35.645,55.664
1532371484.906,53.711,41.016,50.293,35.645,40.527
1532371484.909,56.641,41.016,48.828,40.527,2.441
1532371484.913,50.293,41.016,45.898,43.945,-19.531
1532371484.917,56.152,41.992,47.363,45.410,11.230
1532371484.921,63.477,45.410,47.852,48.340,61.035
1532371484.925,60.059,46.387,46.387,49.805,39.551
1532371484.929,58.594,44.434,47.363,46.387,1.953
1532371484.933,59.082,42.480,47.363,47.363,17.578
1532371484.937,56.152,41.016,46.875,42.480,47.852
1532371484.941,57.617,41.992,46.875,34.180,35.645
1532371484.944,59.082,40.527,45.410,37.109,-22.461
1532371484.948,53.223,39.062,44.922,41.016,2.441
1532371484.952,52.734,40.039,47.852,42.480,61.035
1532371484.956,54.199,44.922,48.828,41.504,33.203
1532371484.960,55.664,44.922,44.922,42.480,-39.062
1532371484.964,54.199,42.480,46.387,46.875,-8.301
1532371484.968,60.547,43.945,49.805,51.270,36.621
1532371484.972,61.035,43.945,48.828,53.223,40.527
1532371484.976,56.152,44.434,47.363,47.363,-15.137
1532371484.980,55.664,44.922,47.852,44.434,-41.992
1532371484.983,50.781,41.504,44.434,41.016,20.020
1532371484.987,48.828,41.504,42.969,39.551,60.547
1532371484.991,44.434,42.969,42.969,39.551,47.363
1532371484.995,44.922,41.992,41.504,37.109,-9.277
1532371484.999,50.293,41.992,42.480,38.086,-4.395
1532371485.003,52.734,44.434,42.969,42.969,34.668
1532371485.007,49.805,43.945,40.039,44.922,29.785
1532371485.011,50.293,41.504,40.039,47.363,-24.902
1532371485.015,53.711,41.016,41.504,45.410,-13.184
1532371485.018,56.152,41.016,41.992,40.039,29.297
1532371485.022,60.547,43.945,44.922,47.363,10.254
1532371485.026,65.918,45.410,46.875,50.781,-19.043
1532371485.030,65.918,47.363,41.992,46.875,-9.277
1532371485.034,57.617,47.852,40.039,46.387,32.227
1532371485.038,54.688,47.363,43.945,45.898,24.414
1532371485.042,62.500,44.434,45.410,41.016,-23.926
1532371485.046,65.430,43.945,41.016,37.109,0.488
1532371485.050,62.012,44.922,37.109,31.738,12.695
1532371485.054,62.012,42.969,39.062,32.715,23.926
1532371485.057,62.500,46.387,43.457,26.367,8.789
1532371485.061,61.035,48.828,44.434,25.879,-62.500
1532371485.065,60.059,45.898,39.062,44.922,-15.137
1532371485.069,58.105,43.457,41.992,52.246,49.805
1532371485.073,51.758,43.457,46.387,53.223,36.621
1532371485.077,51.758,43.945,42.969,52.246,-18.066
1532371485.081,50.781,44.434,41.992,44.434,-3.418
1532371485.085,46.875,45.898,47.852,45.410,50.781
1532371485.089,41.992,49.316,49.805,44.434,47.852
1532371485.092,44.434,46.875,48.340,38.574,12.695
1532371485.096,46.387,44.434,48.828,36.621,-4.883
1532371485.100,42.480,49.805,48.340,41.016,29.785
1532371485.104,50.293,54.199,47.852,45.898,58.105
1532371485.108,50.781,54.688,47.363,43.457,37.109
1532371485.112,49.805,56.152,43.945,39.062,15.625
1532371485.116,52.246,56.641,42.969,36.621,4.395
1532371485.120,56.641,56.152,41.992,34.180,26.855
1532371485.124,59.082,55.176,41.016,35.645,35.645
1532371485.128,57.129,53.223,45.410,38.086,-9.277
1532371485.131,56.641,51.758,47.363,39.551,26.367
1532371485.135,59.082,55.664,49.316,41.016,71.289
1532371485.139,63.965,55.176,47.363,42.480,46.875
1532371485.143,51.758,49.316,42.969,33.691,-20.508
1532371485.147,42.969,49.316,47.363,28.809,-19.043
1532371485.151,47.852,48.340,51.270,35.156,72.754
1532371485.155,52.246,47.363,50.781,36.621,66.406
1532371485.159,49.805,48.340,45.898,34.180,1.953
1532371485.163,43.457,48.340,47.363,35.156,13.672
1532371485.166,47.363,49.316,50.781,35.645,51.270
1532371485.170,48.828,50.293,49.316,37.109,57.617
1532371485.174,45.410,48.340,48.828,41.016,8.789
1532371485.178,43.945,49.316,51.758,40.039,-9.277
1532371485.182,46.387,53.711,52.246,39.062,37.598
1532371485.186,54.688,52.246,47.363,35.645,60.547
1532371485.190,57.129,51.758,44.922,35.156,55.176
1532371485.194,53.223,51.270,46.387,38.086,13.184
1532371485.198,54.688,52.246,45.898,36.621,-20.508
1532371485.202,58.594,52.734,42.480,36.621,16.602
1532371485.205,54.688,52.246,42.969,33.203,74.707
1532371485.209,53.711,52.734,44.434,31.738,34.668
1532371485.213,50.293,50.293,43.945,30.762,-0.977
1532371485.217,50.293,48.828,43.457,30.762,35.645
1532371485.221,52.246,48.340,46.875,32.227,51.758
1532371485.225,44.434,50.781,48.340,28.320,28.809
1532371485.229,43.457,49.805,42.480,28.809,20.996
1532371485.233,42.969,48.340,45.898,34.180,50.293
1532371485.237,45.410,47.363,47.852,34.668,49.316
1532371485.240,54.199,45.898,45.898,38.086,27.344
1532371485.244,44.922,46.387,50.781,39.551,-0.977
1532371485.248,40.039,46.875,48.340,41.504,8.789
1532371485.252,47.852,47.363,45.898,45.898,45.410
1532371485.256,50.293,50.781,47.852,43.945,31.250
1532371485.260,49.805,52.734,46.875,43.457,2.930
1532371485.264,52.246,51.758,47.363,41.504,27.832
1532371485.268,53.711,52.246,44.434,37.598,64.453
1532371485.272,50.293,51.758,43.457,39.551,40.527
1532371485.276,48.340,51.270,43.457,35.645,-17.578
1532371485.279,46.387,49.805,41.992,29.785,-16.602
1532371485.283,45.898,48.828,45.898,33.691,21.973
1532371485.287,43.945,48.340,47.852,39.062,55.176
1532371485.291,45.410,47.852,48.828,38.574,26.367
1532371485.295,46.875,46.875,49.805,36.133,-42.480
1532371485.299,49.805,47.363,45.898,32.227,-15.137
1532371485.303,49.805,46.875,45.898,35.645,57.129
1532371485.307,47.363,44.434,47.363,45.410,50.781
1532371485.311,47.852,43.945,46.387,48.828,11.230
1532371485.314,52.246,43.945,45.410,50.293,18.066
1532371485.318,49.316,45.410,45.410,47.363,34.180
1532371485.322,40.039,45.898,43.945,43.457,25.391
1532371485.326,45.898,46.387,41.992,42.480,-29.785
1532371485.330,53.223,46.387,40.039,43.945,-49.805
1532371485.334,56.641,45.898,41.016,44.922,11.719
1532371485.338,55.176,48.340,42.969,41.016,21.484
1532371485.342,47.363,48.340,41.992,36.621,-10.742
1532371485.346,41.992,47.852,41.016,30.762,-12.207
1532371485.350,40.527,46.875,41.016,29.785,21.484
1532371485.353,42.969,49.316,41.992,31.250,46.387
1532371485.357,46.387,48.340,42.969,27.344,5.371
1532371485.361,47.852,43.457,41.992,28.809,0.488
1532371485.365,45.410,42.969,40.527,32.227,57.617
1532371485.369,42.480,44.922,37.598,28.320,69.824
1532371485.373,41.504,46.387,39.062,31.738,42.969
1532371485.377,43.457,46.875,45.410,37.109,-10.742
1532371485.381,43.457,46.875,47.852,35.156,-16.113
1532371485.385,47.852,45.898,44.922,35.645,39.062
1532371485.388,51.758,45.410,41.992,42.480,55.664
1532371485.392,46.875,46.387,42.969,41.016,0.000
1532371485.396,40.039,46.387,41.016,31.738,-37.109
1532371485.400,41.016,45.410,41.016,29.297,12.207
1532371485.404,41.992,45.410,42.480,27.344,48.340
1532371485.408,41.016,46.875,42.969,26.855,23.926
1532371485.412,35.156,45.410,41.504,30.762,6.348
1532371485.416,34.180,46.387,42.480,28.809,29.785
1532371485.420,42.480,48.340,42.969,30.762,61.035
1532371485.424,41.504,46.875,41.504,32.715,41.016
1532371485.427,38.574,42.969,40.527,32.227,-11.230
1532371485.431,40.527,41.992,42.480,35.645,5.371
1532371485.435,45.898,46.387,46.875,37.109,37.109
1532371485.439,53.711,49.316,48.340,39.551,26.367
1532371485.443,56.641,49.805,49.805,47.363,0.977
1532371485.447,54.688,53.223,50.781,47.363,8.301
1532371485.451,52.246,51.270,48.340,44.434,60.059
1532371485.455,54.688,51.758,47.852,46.387,46.875
1532371485.459,55.176,53.711,46.387,42.969,0.488
1532371485.462,60.547,53.711,45.410,40.039,-14.160
1532371485.466,58.105,55.664,46.875,42.480,25.391
1532371485.470,51.758,53.223,47.852,43.945,63.965
1532371485.474,52.734,48.340,47.363,41.016,24.902
1532371485.478,53.711,49.316,47.852,37.109,-25.391
1532371485.482,55.664,47.852,47.363,40.039,12.695
1532371485.486,61.523,43.945,46.875,43.945,63.477
1532371485.490,64.453,46.875,43.945,44.922,16.113
1532371485.494,65.430,51.270,41.016,48.340,-37.109
1532371485.498,75.684,50.781,40.527,51.758,11.230
1532371485.501,73.242,52.246,41.504,51.758,22.949
1532371485.505,66.895,51.270,41.992,50.781,4.395
1532371485.509,66.406,49.805,40.527,54.199,-18.555
1532371485.513,65.430,46.387,39.062,56.152,-9.277
1532371485.517,65.918,43.457,37.109,55.664,30.762
1532371485.521,63.477,42.969,37.109,53.223,38.574
1532371485.525,61.523,41.016,40.527,51.270,8.301
1532371485.529,62.988,41.504,41.016,51.270,-16.602
1532371485.533,62.500,40.039,40.039,52.246,24.902
1532371485.536,60.059,39.551,40.039,46.875,35.156
1532371485.540,57.617,41.992,39.062,40.527,-0.488
1532371485.544,54.199,41.504,37.598,41.016,-14.160
1532371485.548,48.340,41.992,36.621,38.574,1.953
1532371485.552,49.316,41.016,35.156,38.574,21.973
1532371485.556,54.688,41.016,36.621,39.551,12.207
1532371485.560,57.617,41.992,38.086,39.062,-27.344
1532371485.564,55.664,39.551,38.086,39.551,-10.254
1532371485.568,54.688,43.945,36.621,36.133,54.199
1532371485.572,55.664,49.805,35.645,33.691,60.547
1532371485.575,52.246,46.875,34.668,29.785,-18.066
1532371485.579,50.293,47.363,34.668,26.367,-46.387
1532371485.583,52.734,47.363,34.180,32.227,39.551
1532371485.587,53.711,44.434,37.598,35.645,76.660
1532371485.591,49.316,41.992,37.109,34.180,29.785
1532371485.595,49.316,41.992,33.691,31.738,-22.461
1532371485.599,52.734,42.969,36.621,33.203,3.418
1532371485.603,53.223,43.457,37.109,37.598,58.594
1532371485.607,53.223,44.434,33.203,41.016,57.617
1532371485.611,58.594,42.969,36.621,47.363,7.324
1532371485.614,59.570,43.945,39.551,46.875,0.977
1532371485.618,50.781,44.922,36.621,41.504,20.996
1532371485.622,48.828,46.387,36.133,40.039,32.715
1532371485.626,49.316,44.922,39.551,41.016,-11.719
1532371485.630,50.781,42.969,39.551,41.504,-18.555
1532371485.634,50.781,42.969,41.016,40.039,29.297
1532371485.638,47.363,41.992,39.062,36.621,45.898
1532371485.642,49.805,43.945,35.156,27.344,3.418
1532371485.646,57.617,43.945,37.109,28.320,-19.531
1532371485.649,59.082,43.945,38.574,35.156,31.738
1532371485.653,55.176,45.410,37.109,32.227,49.805
1532371485.657,54.688,45.898,35.645,29.297,20.996
1532371485.661,51.758,45.410,34.668,31.250,-20.020
1532371485.665,44.434,43.945,35.645,30.273,-0.977
1532371485.669,42.480,44.434,34.668,28.809,78.613
1532371485.673,40.039,44.434,33.203,26.367,53.223
1532371485.677,42.480,41.992,33.691,22.949,-19.531
1532371485.681,42.480,40.527,33.691,28.809,16.602
1532371485.685,41.504,40.039,35.645,34.668,58.594
1532371485.688,43.945,41.504,37.109,32.715,43.945
1532371485.692,42.969,39.551,36.133,32.227,17.090
1532371485.696,41.992,38.574,33.691,31.738,6.348
1532371485.700,44.922,40.527,32.715,30.273,41.016
1532371485.704,45.898,39.062,32.227,25.391,52.734
1532371485.708,44.434,40.527,31.738,22.461,-12.207
1532371485.712,40.527,41.016,30.273,22.949,-7.812
1532371485.716,43.457,39.551,33.691,22.949,17.578
1532371485.720,53.223,45.898,37.109,25.879,14.648
1532371485.723,56.152,47.852,34.668,29.297,48.340
1532371485.727,55.664,42.969,32.227,29.297,32.227
1532371485.731,53.223,42.480,29.785,22.949,36.621
1532371485.735,55.176,45.410,31.250,19.531,74.707
1532371485.739,61.523,46.875,33.691,23.926,66.406
1532371485.743,55.176,47.363,34.180,30.762,6.836
1532371485.747,48.340,44.922,35.156,40.039,9.277
1532371485.751,48.828,46.387,36.133,47.852,49.805
1532371485.755,48.340,46.875,37.598,44.922,53.223
1532371485.759,44.922,46.875,42.480,41.504,8.301
1532371485.762,44.434,48.340,41.992,44.434,0.977
1532371485.766,45.410,44.922,38.574,45.898,52.246
1532371485.770,45.898,44.434,40.527,44.922,69.824
1532371485.774,49.805,48.340,38.574,42.969,14.648
1532371485.778,52.246,48.340,38.086,41.016,-4.883
1532371485.782,54.199,47.363,43.457,42.969,42.969
1532371485.786,57.129,48.828,41.016,44.434,58.105
1532371485.790,59.570,48.340,36.133,43.457,34.180
1532371485.794,54.688,44.922,35.645,35.156,-28.809
1532371485.797,47.852,43.945,34.180,29.785,9.766
1532371485.801,49.805,45.410,37.109,35.156,77.637
1532371485.805,51.758,45.898,39.062,36.621,58.594
1532371485.809,54.199,45.410,38.086,38.574,6.348
1532371485.813,54.199,46.387,36.621,35.645,-18.555
1532371485.817,54.199,47.852,36.133,32.715,20.996
1532371485.821,52.246,47.852,34.668,38.086,51.758
1532371485.825,51.758,46.875,33.203,36.133,4.883
1532371485.829,51.270,44.434,33.203,35.645,-8.789
1532371485.833,55.664,45.898,33.691,40.039,30.273
1532371485.836,58.594,47.363,35.156,35.645,36.621
1532371485.840,49.316,45.410,33.691,33.691,22.461
1532371485.844,48.828,47.363,34.668,36.621,4.395
1532371485.848,46.875,45.410,37.109,35.156,41.504
1532371485.852,44.922,44.434,35.156,34.668,83.984
1532371485.856,51.270,49.316,35.645,36.621,50.293
1532371485.860,55.176,49.316,38.574,42.480,-0.977
1532371485.864,56.152,46.387,40.039,46.875,21.484
1532371485.868,60.547,46.387,40.039,45.410,67.383
1532371485.871,62.988,47.852,39.062,43.945,42.480
1532371485.875,60.059,48.340,36.133,44.922,-7.324
1532371485.879,51.270,46.387,38.086,40.039,-1.953
1532371485.883,52.734,47.852,38.086,39.551,41.016
1532371485.887,60.059,50.781,37.598,44.922,44.922
1532371485.891,57.617,50.781,39.551,43.945,1.953
1532371485.895,54.688,47.363,40.039,43.457,-0.977
1532371485.899,53.711,45.898,41.016,43.457,51.758
1532371485.903,48.828,43.457,39.062,39.551,90.332
1532371485.907,45.410,41.016,34.668,32.715,48.828
1532371485.910,46.387,42.969,35.645,28.320,-5.371
1532371485.914,52.246,44.922,38.574,30.762,1.953
1532371485.918,54.688,46.387,37.109,30.273,38.086
1532371485.922,57.617,48.340,34.180,33.203,36.133
1532371485.926,57.129,48.340,33.691,33.691,-6.348
1532371485.930,52.734,49.316,35.156,33.203,13.184
1532371485.934,56.641,49.805,40.039,41.992,56.152
1532371485.938,59.082,47.363,41.992,41.992,48.340
1532371485.942,60.059,48.828,39.551,39.062,-15.625
1532371485.945,63.477,49.316,40.039,37.109,-26.367
1532371485.949,59.082,48.340,40.039,36.621,53.711
1532371485.953,55.176,52.734,38.086,36.133,58.105
1532371485.957,54.199,52.246,36.133,33.203,10.254
1532371485.961,58.105,47.852,37.598,35.156,9.766
1532371485.965,58.105,44.922,39.062,36.133,28.320
1532371485.969,56.641,45.410,39.062,36.621,55.176
1532371485.973,53.223,48.828,38.086,36.621,8.789
1532371485.977,50.293,47.363,37.109,29.785,-39.551
1532371485.981,48.828,46.875,39.062,32.227,6.348
1532371485.984,47.852,48.828,40.039,36.621,28.320
1532371485.988,46.875,47.852,37.109,34.668,14.648
1532371485.992,47.363,44.434,35.645,35.645,-17.090
1532371485.996,46.875,45.410,36.621,37.598,-23.926
1532371486.000,47.363,47.852,39.062,37.109,19.531
1532371486.004,42.969,45.898,38.574,34.668,32.227
1532371486.008,39.551,42.969,38.086,35.156,26.367
1532371486.012,42.969,45.410,38.574,38.086,5.859
1532371486.016,46.875,48.340,38.086,34.668,21.484
1532371486.019,46.387,46.387,38.086,34.180,47.852
1532371486.023,44.434,44.922,39.062,35.156,22.461
1532371486.027,42.480,45.410,37.598,36.133,-6.348
1532371486.031,41.016,43.457,34.668,34.668,21.973
1532371486.035,40.527,42.480,34.668,30.273,47.852
1532371486.039,39.551,41.504,36.133,29.297,17.578
1532371486.043,37.598,40.527,37.109,31.250,5.371
1532371486.047,35.156,37.598,37.109,29.297,36.133
1532371486.051,44.434,33.691,40.039,34.668,62.500
1532371486.055,52.734,41.992,38.086,41.016,54.688
1532371486.058,44.922,49.805,32.227,29.785,6.348
1532371486.062,41.016,46.875,32.715,27.344,-8.789
1532371486.066,43.457,48.340,34.668,35.645,34.180
1532371486.070,45.410,50.781,35.645,36.133,30.762
1532371486.074,41.992,49.805,34.668,32.227,-15.625
1532371486.078,41.992,48.828,32.715,33.691,-21.973
1532371486.082,47.852,49.805,33.203,41.504,25.879
1532371486.086,48.828,48.340,33.691,41.992,55.176
1532371486.090,46.875,47.363,31.250,40.527,7.324
1532371486.093,52.734,49.805,33.203,41.504,-29.297
1532371486.097,55.664,47.363,36.621,40.039,19.043
1532371486.101,51.270,42.969,35.156,43.945,40.039
1532371486.105,49.316,44.434,28.809,43.457,24.414
1532371486.109,51.758,45.410,25.391,40.039,8.789
1532371486.113,54.199,42.480,26.367,39.062,18.555
1532371486.117,47.852,41.992,28.320,39.551,50.781
1532371486.121,45.410,43.945,26.367,40.039,61.523
1532371486.125,48.828,42.969,20.508,41.504,14.648
1532371486.129,54.199,41.504,21.484,44.434,0.000
1532371486.132,60.547,44.922,26.855,50.781,19.531
1532371486.136,56.641,47.852,29.785,49.316,14.648
1532371486.140,55.176,46.387,30.762,44.434,-2.930
1532371486.144,54.688,44.434,28.320,41.504,4.395
1532371486.148,54.688,44.922,24.902,39.551,34.180
1532371486.152,56.641,43.457,24.414,34.180,62.012
1532371486.156,53.223,41.016,21.973,31.738,19.531
1532371486.160,53.223,42.969,22.461,33.691,-8.301
1532371486.164,58.105,47.363,24.414,38.086,23.926
1532371486.167,60.059,44.434,24.414,42.969,44.434
1532371486.171,58.594,43.945,25.391,45.410,7.324
1532371486.175,53.223,47.852,25.391,36.133,-39.062
1532371486.179,49.805,43.945,23.438,33.691,21.484
1532371486.183,51.270,42.969,21.484,40.039,56.152
1532371486.187,48.828,45.410,22.949,35.645,26.367
1532371486.191,50.781,43.945,21.484,34.180,-0.977
1532371486.195,53.711,43.457,22.949,39.062,9.277
1532371486.199,52.246,44.922,24.902,40.527,42.969
1532371486.203,51.758,41.992,24.414,41.504,53.223
1532371486.206,50.781,40.527,23.926,41.504,24.414
1532371486.210,50.293,41.504,23.926,42.480,7.324
1532371486.214,51.758,42.969,25.879,42.480,12.695
1532371486.218,50.293,43.457,25.391,39.551,37.109
1532371486.222,41.504,41.016,21.484,30.273,39.551
1532371486.226,39.062,41.016,23.438,29.297,12.695
1532371486.230,48.828,41.504,29.785,41.016,33.691
1532371486.234,50.781,44.434,28.809,37.109,66.406
1532371486.238,52.246,44.922,26.367,34.180,35.645
1532371486.241,49.316,42.969,28.320,40.527,6.348
1532371486.245,45.898,41.992,29.297,40.039,6.348
1532371486.249,46.875,40.527,29.297,39.062,45.410
1532371486.253,46.387,42.480,32.227,35.645,69.824
1532371486.257,46.387,44.922,32.715,37.598,4.395
1532371486.261,46.387,44.922,33.691,41.504,-1.953
1532371486.265,43.945,43.945,34.668,40.039,40.039
1532371486.269,43.945,41.504,36.133,42.969,50.293
1532371486.273,43.457,40.527,36.133,39.551,21.484
1532371486.277,43.457,40.527,33.203,33.203,-25.879
1532371486.280,45.898,39.551,32.715,38.086,14.648
1532371486.284,46.387,36.621,36.133,41.016,45.410
1532371486.288,44.922,34.180,35.156,37.109,20.020
1532371486.292,45.410,35.156,32.715,33.203,-8.301
1532371486.296,52.246,38.574,37.109,41.504,-3.418
1532371486.300,50.781,40.527,41.016,48.828,45.898
1532371486.304,50.781,38.086,37.109,47.852,54.199
1532371486.308,51.758,37.109,32.715,48.828,15.137
1532371486.312,49.805,37.598,34.668,47.852,22.461
1532371486.315,54.688,41.016,36.621,43.457,39.551
1532371486.319,58.105,42.969,35.645,42.480,29.785
1532371486.323,56.152,41.504,34.180,43.945,19.043
1532371486.327,51.270,39.551,33.691,42.480,23.438
1532371486.331,48.340,38.574,36.133,38.086,48.828
1532371486.335,49.805,41.016,36.133,37.109,56.152
1532371486.339,41.504,39.551,32.715,30.273,25.391
1532371486.343,35.156,35.156,30.273,21.973,10.742
1532371486.347,40.527,38.574,33.691,23.438,18.555
1532371486.351,41.016,41.504,35.645,28.809,42.480
1532371486.354,39.551,39.551,33.691,30.762,38.574
1532371486.358,36.621,38.086,31.738,32.715,6.348
1532371486.362,38.086,39.062,33.203,34.668,6.348
1532371486.366,42.480,38.574,31.250,32.715,57.129
1532371486.370,34.180,38.086,30.273,32.715,79.102
1532371486.374,29.297,36.621,28.320,30.273,-13.672
1532371486.378,36.621,35.645,28.320,29.785,-24.902
1532371486.382,41.992,37.109,31.250,32.715,36.621
1532371486.386,46.387,40.039,34.180,36.621,57.617
1532371486.389,49.805,42.969,36.133,35.156,29.297
1532371486.393,52.734,46.875,36.621,31.738,-11.719
1532371486.397,56.152,48.828,37.109,32.715,17.578
1532371486.401,58.594,51.270,36.621,35.645,59.570
1532371486.405,60.547,53.223,36.621,30.273,13.184
1532371486.409,66.895,53.711,32.715,26.855,-14.648
1532371486.413,74.707,53.223,32.227,26.367,28.809
1532371486.417,66.406,52.246,32.715,25.879,40.527
1532371486.421,55.664,47.363,29.297,31.250,37.109
1532371486.425,53.711,43.945,32.227,41.504,14.648
1532371486.428,53.711,42.969,32.715,49.805,15.137
1532371486.432,45.410,41.504,31.250,46.387,56.641
1532371486.436,40.527,41.504,33.203,41.992,70.312
1532371486.440,43.457,42.480,32.715,42.969,23.926
1532371486.444,43.457,41.992,30.273,42.969,3.906
1532371486.448,39.551,39.062,32.715,41.504,47.363
1532371486.452,40.527,41.992,33.203,36.133,34.668
1532371486.456,38.574,42.969,31.250,32.715,-10.742
1532371486.460,33.691,40.527,29.297,33.203,-24.414
1532371486.463,39.062,40.527,26.367,31.250,4.395
1532371486.467,36.133,39.062,24.902,30.762,46.875
1532371486.471,35.645,40.527,27.344,33.691,20.508
1532371486.475,47.363,41.992,30.762,36.621,-19.043
1532371486.479,50.781,41.992,33.203,38.574,22.461
1532371486.483,53.711,44.922,31.250,39.062,50.781
1532371486.487,57.129,44.434,29.297,37.598,27.832
1532371486.491,49.805,41.504,29.297,32.227,-19.531
1532371486.495,49.805,41.992,26.855,30.273,-22.949
1532371486.499,51.758,41.504,28.320,33.691,40.527
1532371486.502,49.805,41.992,28.320,35.645,83.496
1532371486.506,50.781,42.969,28.809,37.109,27.832
1532371486.510,48.340,39.551,28.809,34.180,-20.508
1532371486.514,49.805,41.016,27.832,30.273,5.371
1532371486.518,46.875,42.969,32.227,32.715,53.223
1532371486.522,46.875,42.969,31.250,36.133,30.273
1532371486.526,48.828,42.480,30.273,37.109,-25.391
1532371486.530,45.410,39.551,32.227,33.691,5.371
1532371486.534,43.945,40.527,30.762,27.832,22.949
1532371486.537,44.922,41.016,29.785,27.832,13.672
1532371486.541,43.457,41.504,24.902,26.855,-0.977
1532371486.545,41.016,39.062,24.414,25.879,23.438
1532371486.549,42.969,38.086,26.855,23.926,59.082
1532371486.553,49.316,41.504,27.832,26.367,11.719
1532371486.557,52.246,42.969,29.785,33.691,-11.230
1532371486.561,52.734,42.969,30.273,37.109,16.113
1532371486.565,49.805,41.016,32.715,39.062,45.898
1532371486.569,47.363,41.016,34.180,40.039,52.246
1532371486.573,42.969,39.551,29.785,37.598,-0.488
1532371486.576,35.156,37.598,26.367,34.668,-22.949
1532371486.580,36.621,38.086,25.879,32.715,20.020
1532371486.584,39.551,40.527,27.344,35.156,47.363
1532371486.588,41.992,41.504,28.809,40.527,5.859
1532371486.592,41.992,38.574,27.832,37.109,-33.203
1532371486.596,40.039,39.551,28.809,34.668,5.859
1532371486.600,43.945,41.504,27.832,37.598,58.105
1532371486.604,49.316,41.504,28.809,37.598,36.133
1532371486.608,49.805,42.480,29.785,36.133,-12.695
1532371486.611,46.875,40.039,27.344,30.762,-1.465
1532371486.615,54.688,41.016,28.809,29.785,26.367
1532371486.619,59.570,41.504,32.715,35.645,22.949
1532371486.623,56.152,41.504,35.156,41.016,-29.297
1532371486.627,54.199,45.410,35.645,42.480,2.441
1532371486.631,49.805,45.410,34.180,39.062,50.781
1532371486.635,45.410,41.992,31.250,37.109,44.922
1532371486.639,43.945,41.016,31.250,40.527,-10.254
1532371486.643,44.434,40.039,30.762,41.016,7.812
1532371486.647,45.410,40.527,30.273,39.062,81.055
1532371486.650,51.758,46.387,31.250,42.480,58.594
1532371486.654,61.035,47.363,30.762,43.945,-43.457
1532371486.658,52.246,40.527,30.762,42.480,-41.992
1532371486.662,44.922,38.086,28.320,40.527,16.113
1532371486.666,47.852,40.039,28.320,40.039,44.922
1532371486.670,47.363,41.992,29.785,36.621,52.246
1532371486.674,46.387,41.504,30.273,34.668,-3.418
1532371486.678,49.805,41.504,28.809,39.551,19.043
1532371486.682,52.734,42.480,27.344,38.086,70.801
1532371486.685,47.852,40.039,30.273,34.668,57.129
1532371486.689,44.434,41.992,29.785,38.086,14.160
1532371486.693,50.293,44.434,26.855,35.156,-16.602
1532371486.697,53.223,41.504,32.227,37.598,30.762
1532371486.701,54.199,41.992,34.668,41.504,67.383
1532371486.705,54.199,44.922,36.133,42.480,10.742
1532371486.709,53.223,45.898,36.621,42.969,-8.301
1532371486.713,49.805,43.945,38.574,42.480,39.062
1532371486.717,44.434,42.969,39.062,42.480,64.453
1532371486.721,48.340,44.922,39.551,42.969,39.062
1532371486.724,49.316,43.945,38.574,43.457,-3.418
1532371486.728,49.805,39.551,37.109,43.945,21.484
1532371486.732,49.316,38.574,38.574,44.434,43.457
1532371486.736,45.410,40.039,38.574,42.480,-0.488
1532371486.740,53.223,40.527,36.133,44.922,-20.996
1532371486.744,57.129,40.039,36.133,45.410,41.504
1532371486.748,50.293,39.062,38.574,50.293,91.797
1532371486.752,46.875,41.504,38.086,46.875,55.664
1532371486.756,44.434,41.016,35.645,41.504,-5.859
1532371486.760,46.875,38.574,34.180,45.898,13.672
1532371486.763,51.758,41.504,37.598,51.758,41.992
1532371486.767,54.199,44.434,40.039,54.688,60.059
1532371486.771,50.781,41.016,38.574,50.781,39.551
1532371486.775,47.363,38.086,36.133,43.945,-0.488
1532371486.779,51.270,40.527,35.645,43.457,26.855
1532371486.783,56.152,41.992,40.039,51.270,71.289
1532371486.787,51.758,41.992,38.574,49.316,69.336
1532371486.791,46.387,42.480,38.086,42.969,-7.812
1532371486.795,47.852,39.551,39.062,41.504,-29.297
1532371486.798,50.781,38.574,36.133,43.945,35.156
1532371486.802,54.199,40.527,36.133,47.852,58.105
1532371486.806,55.176,39.551,34.180,45.898,14.160
1532371486.810,57.617,41.504,33.203,47.363,18.555
1532371486.814,63.965,48.340,40.039,54.688,62.988
1532371486.818,62.012,50.781,47.852,58.594,64.941
1532371486.822,52.734,44.922,41.504,47.852,14.160
1532371486.826,47.363,39.551,32.227,40.527,-28.809
1532371486.830,48.828,42.480,34.180,46.387,24.414
1532371486.834,56.152,45.898,37.109,50.293,63.965
1532371486.837,51.758,45.898,39.551,42.969,1.465
1532371486.841,45.898,45.410,36.621,41.016,-33.203
1532371486.845,42.480,44.434,34.180,42.480,12.207
1532371486.849,36.133,42.969,34.180,38.574,50.781
1532371486.853,36.133,42.480,33.691,37.109,14.160
1532371486.857,39.551,43.945,35.156,40.039,-13.672
1532371486.861,39.062,44.434,36.621,38.574,-16.602
1532371486.865,42.969,43.457,38.574,41.016,23.926
1532371486.869,51.270,45.410,40.527,43.945,53.223
1532371486.872,52.734,44.922,41.504,36.133,-14.160
1532371486.876,47.852,41.992,39.551,28.809,-38.574
1532371486.880,43.457,39.062,32.715,33.203,23.438
1532371486.884,49.805,39.551,32.227,40.527,59.570
1532371486.888,49.316,41.016,36.133,40.039,-6.836
1532371486.892,45.898,40.527,36.133,41.504,-38.574
1532371486.896,48.828,42.480,35.645,45.898,5.859
1532371486.900,49.805,44.434,36.133,45.898,59.082
1532371486.904,53.711,41.504,38.086,41.016,29.297
1532371486.908,57.129,42.969,36.133,40.039,-8.789
1532371486.911,47.852,46.875,32.227,41.992,4.883
1532371486.915,44.434,46.875,33.203,39.062,47.363
1532371486.919,46.387,42.969,34.180,37.598,50.293
1532371486.923,43.945,40.039,36.133,37.109,-14.160
1532371486.927,43.945,39.551,37.598,36.133,-6.836
1532371486.931,42.480,38.574,38.574,34.668,57.129
1532371486.935,36.133,40.039,40.039,30.762,62.988
1532371486.939,37.109,41.016,38.086,33.691,12.695
1532371486.943,42.480,41.016,36.133,36.133,-8.301
1532371486.946,42.969,41.016,38.574,39.062,51.758
1532371486.950,41.992,42.480,41.992,39.062,65.918
1532371486.954,39.551,42.969,39.551,32.227,4.883
1532371486.958,42.969,42.969,38.086,36.133,17.578
1532371486.962,43.945,45.898,39.551,41.992,39.062
1532371486.966,43.945,48.828,39.062,41.504,45.898
1532371486.970,43.945,47.363,38.086,38.086,44.434
1532371486.974,41.992,43.457,38.574,31.738,-9.277
1532371486.978,40.039,44.434,37.109,35.645,24.902
1532371486.982,40.039,47.363,37.598,42.480,72.266
1532371486.985,38.086,45.898,39.062,40.527,35.645
1532371486.989,32.227,43.945,40.039,36.621,-14.648
1532371486.993,36.133,44.922,38.086,34.668,3.418
1532371486.997,39.062,45.898,36.133,37.109,43.945
1532371487.001,41.504,45.898,40.039,40.527,39.062
1532371487.005,40.039,46.387,41.016,40.527,9.277
1532371487.009,39.551,46.875,39.551,35.156,4.395
1532371487.013,41.992,48.340,41.016,31.738,27.344
1532371487.017,48.340,48.828,45.410,37.109,51.758
1532371487.020,42.969,47.852,43.945,39.551,29.785
1532371487.024,40.527,46.875,38.574,37.598,6.836
1532371487.028,46.387,48.340,39.062,41.992,25.391
1532371487.032,49.316,49.805,43.457,47.852,51.758
1532371487.036,54.199,51.758,46.387,49.316,59.570
1532371487.040,54.199,53.711,46.875,47.852,7.812
1532371487.044,53.223,52.734,48.340,51.270,-0.488
1532371487.048,54.688,52.734,48.340,55.664,53.711
1532371487.052,56.152,52.734,46.387,52.734,43.945
1532371487.056,49.805,52.734,43.457,46.875,-20.996
1532371487.059,46.875,50.293,43.457,41.504,-20.020
1532371487.063,54.199,50.781,46.875,42.969,46.875
1532371487.067,56.152,53.711,44.922,45.898,80.566
1532371487.071,52.246,52.734,42.480,38.574,19.531
1532371487.075,57.617,54.199,42.969,33.691,-20.020
1532371487.079,65.430,55.664,41.016,40.039,28.809
1532371487.083,73.242,59.570,41.992,43.945,74.219
1532371487.087,73.730,61.035,40.039,42.969,13.184
1532371487.091,73.242,59.082,39.062,41.504,-41.016
1532371487.094,62.988,56.641,34.668,38.574,14.160
1532371487.098,51.270,51.758,34.668,38.086,74.219
1532371487.102,53.711,49.316,42.480,45.410,46.387
1532371487.106,51.270,47.363,41.992,52.246,-26.855
1532371487.110,50.293,49.805,40.039,53.223,-16.602
1532371487.114,48.340,51.758,39.062,46.875,21.484
1532371487.118,44.434,50.293,38.086,41.992,51.270
1532371487.122,46.875,50.781,33.691,37.109,4.883
1532371487.126,41.504,49.316,30.762,32.227,5.859
1532371487.130,46.387,49.805,33.691,35.156,47.363
1532371487.133,47.852,50.781,34.180,36.621,55.664
1532371487.137,40.039,46.387,33.691,36.621,21.484
1532371487.141,44.922,43.457,32.227,37.109,-20.508
1532371487.145,46.387,46.875,29.297,39.062,31.250
1532371487.149,47.852,46.387,30.273,44.922,80.078
1532371487.153,46.387,41.992,31.250,41.016,28.320
1532371487.157,41.016,40.039,28.809,39.062,-15.137
1532371487.161,47.852,40.039,31.250,45.898,14.648
1532371487.165,49.316,39.062,30.762,45.410,65.430
1532371487.168,48.340,38.086,29.785,43.457,58.594
1532371487.172,49.805,39.551,33.691,41.016,-36.133
1532371487.176,44.434,37.598,31.250,39.551,-27.344
1532371487.180,45.410,38.086,30.762,44.434,50.293
1532371487.184,47.852,40.039,33.203,41.992,35.645
1532371487.188,47.852,35.645,32.715,37.109,0.977
1532371487.192,49.316,36.621,31.250,35.156,-13.672
1532371487.196,53.711,40.527,30.273,35.645,24.902
1532371487.200,52.246,41.992,28.809,35.156,67.383
1532371487.204,51.758,41.504,29.297,38.574,42.480
1532371487.207,57.129,40.527,30.273,41.992,11.230
1532371487.211,55.176,39.062,30.273,37.109,15.137
1532371487.215,47.852,38.086,31.738,33.691,54.199
1532371487.219,43.945,38.086,31.250,33.691,41.016
1532371487.223,40.527,36.621,31.738,30.273,0.000
1532371487.227,37.598,38.086,32.715,30.273,32.715
1532371487.231,39.062,37.109,31.738,31.738,55.664
1532371487.235,43.457,34.668,33.203,32.715,43.457
1532371487.239,50.781,34.180,30.762,33.203,-1.953
1532371487.242,47.363,36.621,25.879,30.762,-13.672
1532371487.246,41.992,39.062,30.273,31.250,20.996
1532371487.250,49.805,37.598,33.691,30.273,53.223
1532371487.254,52.246,37.109,33.203,28.320,16.602
1532371487.258,53.223,36.621,32.715,34.668,-3.906
1532371487.262,52.246,36.133,32.227,34.668,21.973
1532371487.266,53.711,39.062,32.715,35.156,49.805
1532371487.270,55.176,40.527,32.227,32.227,4.395
1532371487.274,56.152,39.551,31.738,27.832,-41.016
1532371487.278,49.805,38.086,30.273,30.762,18.555
1532371487.281,42.969,38.574,32.227,33.203,51.758
1532371487.285,50.781,36.621,35.156,34.668,24.902
1532371487.289,51.758,36.133,34.668,38.574,-4.883
1532371487.293,47.852,39.551,36.621,39.062,9.766
1532371487.297,47.363,41.992,37.598,37.598,32.715
1532371487.301,44.922,41.016,34.180,35.645,27.832
1532371487.305,42.480,40.039,32.715,37.598,9.766
1532371487.309,46.387,41.992,38.086,40.039,1.953
1532371487.313,44.434,42.969,39.551,36.621,11.230
1532371487.316,40.527,43.945,36.133,35.156,30.762
1532371487.320,42.480,41.016,35.156,35.156,5.371
1532371487.324,37.598,36.133,35.156,33.203,-8.301
1532371487.328,36.133,38.086,35.156,35.645,18.555
1532371487.332,38.086,42.480,34.180,38.574,56.641
1532371487.336,35.156,43.945,31.250,38.574,28.320
1532371487.340,35.645,38.574,36.133,39.062,-54.199
1532371487.344,33.203,38.574,42.480,36.133,-19.531
1532371487.348,36.133,45.898,44.922,38.086,48.828
1532371487.352,41.992,47.852,46.387,40.039,14.160
1532371487.355,41.992,46.875,43.945,39.551,-20.020
1532371487.359,38.086,47.852,40.527,40.527,22.461
1532371487.363,41.016,49.805,42.480,42.480,71.777
1532371487.367,49.805,52.734,43.945,42.480,55.176
1532371487.371,41.992,51.270,40.039,34.180,-23.438
1532371487.375,32.715,46.387,36.621,28.809,-35.156
1532371487.379,33.203,43.457,36.621,31.250,39.551
1532371487.383,36.133,45.898,35.645,33.691,80.078
1532371487.387,30.762,47.852,35.156,33.203,13.672
1532371487.390,31.250,46.387,34.668,31.250,-40.527
1532371487.394,35.156,43.945,37.598,33.691,-0.977
1532371487.398,32.715,43.457,39.551,36.133,29.297
1532371487.402,25.391,42.969,36.621,29.297,25.879
1532371487.406,24.902,39.551,35.645,24.902,26.367
1532371487.410,27.832,41.992,36.621,30.273,41.504
1532371487.414,31.738,42.969,38.086,36.621,71.777
1532371487.418,35.156,46.387,38.574,36.621,79.102
1532371487.422,33.203,45.410,37.109,33.203,11.230
1532371487.426,32.227,40.039,37.109,29.785,23.926
1532371487.429,32.715,43.945,33.691,27.344,49.316
1532371487.433,27.344,44.434,32.227,27.832,24.414
1532371487.437,21.484,40.039,35.156,28.809,-21.973
1532371487.441,23.438,38.574,37.109,28.809,-37.598
1532371487.445,24.902,42.480,34.668,29.785,43.945
1532371487.449,27.832,42.969,33.203,26.855,63.965
1532371487.453,32.715,40.039,32.715,25.879,32.227
1532371487.457,25.879,37.598,33.203,32.715,16.602
1532371487.461,27.832,40.527,32.227,34.668,53.223
1532371487.464,30.762,40.527,32.715,36.133,107.910
1532371487.468,28.809,37.109,31.738,33.691,83.984
1532371487.472,27.832,36.621,31.250,32.227,24.414
1532371487.476,24.414,36.133,33.691,33.203,23.926
1532371487.480,24.902,34.668,35.645,29.785,42.480
1532371487.484,27.832,33.203,31.250,27.344,59.570
1532371487.488,26.367,35.645,28.809,28.809,6.836
1532371487.492,33.691,37.109,35.645,36.133,-10.254
1532371487.496,41.016,37.109,35.645,39.551,62.500
1532371487.500,36.133,38.086,32.227,35.645,61.523
1532371487.503,31.738,37.598,31.738,33.203,12.695
1532371487.507,32.715,39.551,32.227,33.203,0.000
1532371487.511,32.715,41.992,30.762,28.320,3.906
1532371487.515,32.227,42.480,31.250,24.414,20.508
1532371487.519,32.715,40.039,30.273,24.902,13.184
1532371487.523,35.156,41.016,27.832,28.809,-20.020
1532371487.527,34.180,42.969,29.785,32.227,2.930
1532371487.531,34.668,42.969,30.273,33.203,30.762
1532371487.535,33.691,44.434,27.344,29.297,8.789
1532371487.538,34.180,42.969,25.879,29.297,-6.836
1532371487.542,33.203,40.039,24.902,30.273,21.973
1532371487.546,30.762,41.504,24.414,26.855,62.988
1532371487.550,36.133,42.969,25.391,27.832,66.406
1532371487.554,39.551,41.504,25.879,32.227,8.789
1532371487.558,40.527,42.969,25.879,33.203,2.441
1532371487.562,42.480,42.480,26.855,35.645,71.777
1532371487.566,41.504,42.969,27.344,41.992,72.266
1532371487.570,42.969,43.945,26.855,41.016,31.250
1532371487.574,47.852,43.945,28.320,41.016,13.672
1532371487.577,46.875,43.945,28.809,41.504,40.039
1532371487.581,41.016,45.410,25.879,37.598,85.449
1532371487.585,40.039,45.898,24.902,35.156,62.012
1532371487.589,40.527,44.922,26.855,34.180,-5.859
1532371487.593,39.551,42.969,28.320,32.227,-4.883
1532371487.597,38.086,40.527,30.762,37.109,38.086
1532371487.601,41.016,37.598,28.809,38.574,58.105
1532371487.605,41.504,37.109,28.320,30.762,38.086
1532371487.609,41.016,38.574,26.855,26.855,35.645
1532371487.612,45.898,40.039,23.438,28.320,68.848
1532371487.616,48.340,43.457,24.414,35.156,56.641
1532371487.620,46.875,40.527,27.344,44.434,-7.812
1532371487.624,44.922,36.621,24.414,41.992,-30.762
1532371487.628,41.016,39.062,20.508,34.180,10.742
1532371487.632,41.016,42.480,23.926,34.668,46.875
1532371487.636,37.109,38.574,23.926,36.133,27.344
1532371487.640,29.785,35.645,24.902,36.133,3.906
1532371487.644,32.227,37.109,28.320,38.086,20.508
1532371487.648,39.062,38.086,28.809,38.574,60.059
1532371487.651,37.109,37.598,28.320,30.762,23.438
1532371487.655,32.227,33.691,28.809,32.227,-30.273
1532371487.659,36.621,36.133,30.273,37.598,20.020
1532371487.663,33.203,38.574,31.250,32.227,51.270
1532371487.667,30.273,35.645,29.297,29.785,28.320
1532371487.671,38.086,36.621,29.785,30.762,-59.082
1532371487.675,37.598,41.016,34.668,28.320,-59.570
1532371487.679,41.016,45.410,36.133,28.809,26.367
1532371487.683,47.852,46.387,37.109,35.156,47.363
1532371487.686,50.293,45.410,36.621,39.062,13.672
1532371487.690,49.316,46.875,33.691,43.457,-25.391
1532371487.694,47.363,46.387,32.715,47.363,12.207
1532371487.698,47.852,45.898,32.227,48.340,72.754
1532371487.702,52.246,44.434,28.809,47.852,20.508
1532371487.706,57.129,41.016,29.785,49.316,-11.719
1532371487.710,56.641,43.945,31.250,48.340,35.156
1532371487.714,57.129,43.457,30.762,45.898,67.383
1532371487.718,58.594,40.527,26.367,46.387,65.918
1532371487.722,55.664,41.504,20.508,35.645,-13.184
1532371487.725,73.730,41.504,20.996,38.086,6.348
1532371487.729,110.352,41.992,25.879,46.387,34.668
1532371487.733,130.371,42.480,27.832,43.945,30.273
1532371487.737,129.883,41.992,25.391,35.156,-5.371
1532371487.741,129.395,41.016,22.949,27.832,-31.738
1532371487.745,134.277,40.527,24.414,30.762,40.039
1532371487.749,140.137,41.992,26.367,28.809,25.879
1532371487.753,140.137,41.504,24.902,23.926,-12.695
1532371487.757,135.254,38.086,20.996,22.949,-19.531
1532371487.760,139.160,37.109,20.020,24.902,5.859
1532371487.764,134.277,40.527,21.484,28.809,76.172
1532371487.768,125.488,42.480,24.902,30.273,19.531
1532371487.772,111.328,40.039,23.438,25.879,-60.547
1532371487.776,95.215,38.086,21.484,30.762,-17.578
1532371487.780,89.844,38.574,23.926,40.527,56.641
1532371487.784,85.449,40.527,26.367,37.598,60.547
1532371487.788,75.684,41.504,23.438,32.715,-13.672
1532371487.792,63.965,37.598,20.508,31.250,4.883
1532371487.796,56.641,38.086,22.461,32.715,69.336
1532371487.799,55.176,39.062,23.438,31.738,61.523
1532371487.803,54.688,37.598,21.484,31.738,13.184
1532371487.807,47.363,36.621,20.996,28.809,-13.672
1532371487.811,44.922,38.574,22.949,27.832,22.461
1532371487.815,43.945,40.039,24.902,32.227,51.270
1532371487.819,39.551,36.133,22.461,32.227,-6.836
1532371487.823,30.762,35.645,21.484,29.785,-8.301
1532371487.827,25.391,35.156,24.902,30.273,38.086
1532371487.831,29.297,34.668,23.926,29.785,60.059
1532371487.834,30.762,38.086,22.949,32.715,49.805
1532371487.838,26.367,38.086,22.949,35.156,26.367
1532371487.842,24.414,33.691,24.414,35.645,46.875
1532371487.846,26.367,31.250,22.949,39.551,72.266
1532371487.850,26.367,33.203,22.949,36.133,51.270
1532371487.854,20.508,33.203,25.879,31.250,5.859
1532371487.858,19.531,34.180,24.414,32.227,10.254
1532371487.862,23.438,37.109,23.926,36.133,59.082
1532371487.866,23.438,36.621,23.438,36.133,80.566
1532371487.870,20.508,35.645,22.949,32.227,2.441
1532371487.873,21.484,38.086,24.414,34.668,-14.160
1532371487.877,17.578,40.039,25.391,37.109,39.062
1532371487.881,14.160,38.574,25.879,37.109,72.266
1532371487.885,18.066,36.621,26.855,40.039,52.734
1532371487.889,21.484,36.133,27.832,36.621,-27.344
1532371487.893,24.414,36.621,28.320,32.227,0.977
1532371487.897,27.344,36.133,31.250,42.969,70.312
1532371487.901,31.738,39.062,28.809,47.363,42.969
1532371487.905,30.762,38.574,23.438,40.039,12.695
1532371487.909,32.715,36.621,24.414,34.668,11.230
1532371487.912,35.156,37.109,28.320,36.133,36.621
1532371487.916,36.621,37.598,29.297,41.504,52.734
1532371487.920,35.156,40.039,26.367,37.109,9.277
1532371487.924,27.832,39.551,23.438,37.598,10.742
1532371487.928,27.344,38.086,26.855,41.504,45.898
1532371487.932,27.832,41.016,25.879,36.133,56.641
1532371487.936,24.902,40.039,22.461,34.668,26.855
1532371487.940,20.996,37.109,24.902,37.109,-9.277
1532371487.944,23.926,40.527,24.414,40.039,46.875
1532371487.947,26.855,41.016,25.391,40.039,69.824
1532371487.951,26.855,41.504,24.414,33.691,4.395
1532371487.955,29.785,41.016,21.973,34.180,-29.785
1532371487.959,32.715,40.527,26.367,43.457,10.742
1532371487.963,24.902,41.504,28.809,44.922,71.777
1532371487.967,21.973,41.016,22.461,37.109,42.480
1532371487.971,21.484,40.039,22.949,32.715,-24.902
1532371487.975,22.461,41.016,25.391,36.621,13.672
1532371487.979,27.344,41.504,25.879,36.621,48.340
1532371487.983,24.414,39.062,26.367,33.691,13.184
1532371487.986,31.250,43.457,25.879,41.016,-20.996
1532371487.990,45.898,48.828,28.320,46.875,-9.277
1532371487.994,44.434,53.711,29.297,42.969,29.297
1532371487.998,42.969,52.246,31.738,43.945,59.570
1532371488.002,47.852,46.875,36.133,48.828,27.832
1532371488.006,47.852,49.805,35.156,51.270,-21.973
1532371488.010,46.875,52.246,33.691,44.922,-15.137
1532371488.014,44.434,50.293,33.691,40.039,33.203
1532371488.018,43.945,48.828,34.180,45.898,31.738
1532371488.021,41.016,48.340,32.227,41.504,-2.930
1532371488.025,40.039,45.898,30.762,41.016,17.090
1532371488.029,42.480,43.945,32.227,47.852,45.410
1532371488.033,41.992,42.480,31.738,46.875,34.180
1532371488.037,38.574,41.992,30.273,43.945,-11.230
1532371488.041,34.668,43.457,29.785,44.922,17.090
1532371488.045,38.086,43.457,30.762,49.805,66.895
1532371488.049,41.992,43.457,32.227,48.828,41.016
1532371488.053,36.133,42.969,29.785,39.551,9.766
1532371488.057,35.156,45.410,30.762,44.434,14.648
1532371488.060,39.551,47.363,29.297,48.828,36.621
1532371488.064,36.133,47.363,24.902,34.668,78.125
1532371488.068,33.203,45.898,25.391,28.320,24.414
1532371488.072,39.551,46.387,26.367,40.039,-13.672
1532371488.076,40.039,45.410,25.879,41.016,24.414
1532371488.080,34.180,41.992,29.785,39.062,63.477
1532371488.084,30.762,41.992,30.762,43.457,36.621
1532371488.088,26.367,41.016,27.344,35.156,-41.016
1532371488.092,26.855,40.527,24.902,29.297,10.254
1532371488.095,34.180,44.434,26.367,32.715,63.965
1532371488.099,37.109,45.410,27.344,31.250,24.414
1532371488.103,35.156,42.969,26.855,31.250,4.395
1532371488.107,34.180,42.969,28.320,31.738,-4.395
1532371488.111,30.273,41.504,27.344,22.461,36.133
1532371488.115,32.227,41.504,26.855,22.461,67.871
1532371488.119,40.527,44.434,27.344,32.227,7.812
1532371488.123,41.016,46.387,27.344,29.785,-0.488
1532371488.127,40.527,46.875,30.762,41.504,21.484
1532371488.131,42.969,44.434,31.738,47.852,55.176
1532371488.134,42.969,42.969,30.762,42.969,43.457
1532371488.138,41.992,42.969,30.762,42.480,-15.137
1532371488.142,41.504,44.922,29.785,41.016,7.812
1532371488.146,40.039,45.410,29.785,39.551,25.879
1532371488.150,38.574,41.016,26.367,35.645,-4.883
1532371488.154,37.598,40.527,22.461,29.785,-17.090
1532371488.158,41.504,44.434,25.879,35.645,35.156
1532371488.162,43.457,45.410,27.344,44.434,61.035
1532371488.166,37.109,43.945,25.879,42.480,11.719
1532371488.169,34.180,41.016,24.414,34.180,-27.344
1532371488.173,39.062,41.992,24.414,38.574,-7.812
1532371488.177,40.039,45.410,27.344,47.363,33.203
1532371488.181,39.551,43.457,26.855,42.480,37.109
1532371488.185,39.551,38.574,24.414,37.109,-12.207
1532371488.189,39.062,39.062,25.879,30.273,-48.340
1532371488.193,41.504,40.527,26.855,31.250,5.859
1532371488.197,44.922,42.480,27.344,40.527,56.152
1532371488.201,41.992,41.992,26.367,39.062,21.973
1532371488.205,41.992,40.527,26.855,35.645,16.602
1532371488.208,41.992,44.434,27.832,35.156,14.648
1532371488.212,36.621,42.969,28.809,33.691,56.152
1532371488.216,37.598,41.016,27.344,31.250,34.668
1532371488.220,36.133,40.039,26.367,32.227,-18.066
1532371488.224,37.109,37.598,27.832,33.691,29.297
1532371488.228,44.434,40.039,28.320,30.273,48.340
1532371488.232,39.062,40.527,30.273,26.855,28.809
1532371488.236,34.180,38.086,28.320,27.832,-1.953
1532371488.240,40.039,37.598,26.855,32.227,-0.488
1532371488.243,41.016,41.992,28.320,39.062,57.129
1532371488.247,38.086,43.945,28.320,31.738,59.082
1532371488.251,35.645,42.969,28.320,25.391,7.324
1532371488.255,38.086,41.016,26.367,30.273,-14.648
1532371488.259,41.016,42.969,23.926,28.320,19.043
1532371488.263,39.551,44.922,22.949,27.832,70.801
1532371488.267,40.527,42.480,22.461,27.344,41.016
1532371488.271,41.992,41.992,23.438,26.855,-6.348
1532371488.275,40.039,43.945,23.926,30.762,4.395
1532371488.279,40.527,45.898,24.414,34.180,50.293
1532371488.282,40.039,46.875,24.902,31.738,31.738
1532371488.286,41.016,44.922,24.414,28.809,-56.641
1532371488.290,45.898,44.434,24.902,32.715,-53.223
1532371488.294,40.039,41.992,24.902,37.598,43.457
1532371488.298,43.945,41.992,25.879,38.086,68.359
1532371488.302,47.852,41.992,27.344,41.504,-6.348
1532371488.306,48.340,45.410,25.879,43.945,-38.086
1532371488.310,52.734,50.781,28.320,46.875,23.926
1532371488.314,53.223,49.316,33.203,49.805,79.102
1532371488.317,51.270,47.363,32.227,47.363,41.992
1532371488.321,46.387,51.758,33.691,42.969,-5.859
1532371488.325,46.875,50.781,36.133,37.109,29.785
1532371488.329,49.805,51.270,33.203,31.250,37.109
1532371488.333,48.340,55.664,30.762,33.203,0.977
1532371488.337,49.805,51.270,31.250,39.062,2.441
1532371488.341,47.363,48.340,31.738,36.133,39.551
1532371488.345,45.898,50.293,33.203,43.945,65.918
1532371488.349,46.875,52.246,34.668,48.340,33.691
1532371488.353,48.340,47.852,35.156,44.922,-10.742
1532371488.356,47.852,46.387,35.156,42.969,12.207
1532371488.360,41.016,48.828,36.133,43.457,44.922
1532371488.364,46.387,49.316,37.109,47.363,60.059
1532371488.368,45.898,45.898,35.645,39.062,0.000
1532371488.372,38.574,46.875,35.156,35.645,-34.180
1532371488.376,39.062,47.852,34.668,42.969,40.039
1532371488.380,41.016,48.828,36.133,39.551,62.500
1532371488.384,41.992,46.875,38.574,37.109,8.789
1532371488.388,38.086,43.457,35.645,37.598,-30.762
1532371488.391,39.551,43.945,33.203,34.180,32.715
1532371488.395,42.969,45.410,35.645,35.645,58.105
1532371488.399,45.410,47.852,36.621,42.969,28.320
1532371488.403,43.945,47.852,37.109,43.945,-10.742
1532371488.407,39.062,45.898,37.109,37.109,5.371
1532371488.411,39.551,44.922,37.109,38.574,54.688
1532371488.415,39.551,43.945,36.621,36.621,38.574
1532371488.419,39.551,42.969,34.180,26.367,-30.762
1532371488.423,37.109,42.480,31.250,24.902,-32.227
1532371488.427,41.504,43.457,32.715,23.438,18.066
1532371488.430,51.270,47.852,33.691,19.531,32.715
1532371488.434,58.105,49.805,32.227,22.949,15.625
1532371488.438,61.523,47.363,31.738,29.785,12.695
1532371488.442,61.035,46.387,33.203,36.621,71.289
1532371488.446,54.199,46.387,33.203,42.969,99.121
1532371488.450,49.316,44.434,31.250,46.387,2.930
1532371488.454,44.922,42.969,32.227,45.410,-35.645
1532371488.458,42.969,45.898,34.668,46.387,19.043
1532371488.462,44.922,47.363,36.133,49.805,44.434
1532371488.465,42.969,41.992,37.109,43.945,27.344
1532371488.469,38.574,41.016,31.738,38.574,10.742
1532371488.473,34.180,43.457,28.809,35.156,18.066
1532371488.477,38.574,45.410,30.762,29.297,43.457
1532371488.481,45.898,44.922,33.203,35.645,38.574
1532371488.485,46.875,43.457,33.691,41.504,-16.602
1532371488.489,46.875,43.457,30.273,31.738,-46.387
1532371488.493,45.898,43.945,30.273,26.855,6.836
1532371488.497,41.992,46.875,33.203,33.203,60.059
1532371488.501,44.434,46.875,32.715,37.598,20.508
1532371488.504,49.805,42.969,31.738,38.086,-10.254
1532371488.508,46.387,44.434,33.691,37.598,15.625
1532371488.512,43.945,45.410,32.715,38.086,65.430
1532371488.516,42.480,43.945,30.762,36.133,47.852
1532371488.520,44.434,43.457,29.297,32.715,12.207
1532371488.524,40.527,42.480,28.320,29.297,31.250
1532371488.528,39.062,41.992,30.762,32.715,45.898
1532371488.532,44.434,43.457,28.320,33.691,52.734
1532371488.536,42.969,43.457,29.785,33.203,17.090
1532371488.539,40.039,43.457,30.273,33.691,-10.742
1532371488.543,40.527,44.434,27.344,32.715,62.988
1532371488.547,38.574,44.434,25.391,27.344,78.125
1532371488.551,36.133,42.969,24.902,24.902,-4.883
1532371488.555,39.551,41.016,27.832,32.715,-19.043
1532371488.559,44.922,43.457,29.297,33.203,31.250
1532371488.563,44.922,44.434,27.344,27.832,77.148
1532371488.567,40.527,42.969,25.879,24.414,9.277
1532371488.571,38.574,44.434,25.391,25.391,-52.246
1532371488.575,34.180,42.969,25.391,33.203,30.273
1532371488.578,34.180,41.992,27.832,39.551,73.242
1532371488.582,36.621,42.480,28.809,37.109,19.043
1532371488.586,38.086,43.457,29.785,34.668,-30.273
1532371488.590,40.039,41.504,31.738,35.645,-8.301
1532371488.594,33.203,41.016,30.273,31.738,51.270
1532371488.598,29.785,42.969,30.273,27.832,54.688
1532371488.602,33.691,41.504,30.762,30.273,-19.043
1532371488.606,36.133,40.039,29.297,30.762,-28.320
1532371488.610,33.691,39.551,27.832,30.273,39.551
1532371488.613,34.180,40.527,29.297,34.668,73.730
1532371488.617,43.457,43.945,30.762,37.109,19.531
1532371488.621,49.316,47.363,31.738,38.574,-3.906
1532371488.625,50.293,46.387,34.180,40.527,18.066
1532371488.629,49.805,45.410,35.156,36.133,26.855
1532371488.633,50.781,47.852,31.738,37.109,-1.465
1532371488.637,52.246,49.805,31.250,39.551,-13.184
1532371488.641,48.828,48.828,33.691,39.551,30.762
1532371488.645,46.875,49.316,33.203,40.527,61.035
1532371488.649,40.039,47.852,32.715,35.645,15.137
1532371488.652,39.062,46.387,31.250,34.180,-28.809
1532371488.656,42.969,47.363,29.785,42.480,15.625
1532371488.660,43.945,48.828,30.762,48.340,62.012
1532371488.664,46.387,47.363,30.762,43.457,29.297
1532371488.668,42.969,43.945,30.273,36.133,-24.902
1532371488.672,38.574,43.945,28.809,36.621,-6.348
1532371488.676,41.016,47.363,27.344,41.016,34.180
1532371488.680,42.969,45.898,32.715,42.480,57.617
1532371488.684,45.410,45.898,32.715,38.574,-9.277
1532371488.687,41.992,46.875,30.762,34.668,-46.387
1532371488.691,41.992,44.922,33.691,34.668,33.691
1532371488.695,43.945,45.898,32.227,33.691,80.566
1532371488.699,38.086,46.875,29.297,29.785,25.391
1532371488.703,40.527,46.387,27.832,29.785,-37.598
1532371488.707,41.016,49.805,26.855,26.855,-13.184
1532371488.711,31.250,49.805,28.320,24.414,28.320
1532371488.715,27.832,46.387,26.855,24.414,28.320
1532371488.719,33.203,45.410,25.879,24.902,-11.719
1532371488.723,33.203,45.410,27.832,32.715,-4.883
1532371488.726,29.785,47.852,30.273,31.250,50.293
1532371488.730,33.691,48.340,30.273,26.855,45.410
1532371488.734,27.832,48.340,32.227,26.855,4.395
1532371488.738,19.531,47.363,32.227,29.297,-21.973
1532371488.742,22.461,45.898,30.762,36.133,19.531
1532371488.746,26.367,48.340,31.250,33.203,31.738
1532371488.750,29.785,50.781,31.250,29.297,-19.531
1532371488.754,28.809,46.387,28.320,31.738,-24.414
1532371488.758,27.832,44.434,29.297,32.715,18.555
1532371488.761,27.344,44.434,31.250,28.320,78.125
1532371488.765,32.715,43.945,29.297,25.391,33.203
1532371488.769,42.480,43.945,27.344,27.344,-3.906
1532371488.773,43.457,42.969,29.297,25.391,25.391
1532371488.777,37.109,46.875,28.809,30.273,43.457
1532371488.781,37.109,48.828,26.855,34.180,35.156
1532371488.785,37.598,46.387,28.320,34.180,-34.668
1532371488.789,35.156,44.434,25.879,30.762,-22.949
1532371488.793,33.203,43.457,24.902,26.855,60.059
1532371488.797,32.715,43.945,28.809,31.738,72.754
1532371488.800,36.133,42.480,29.297,36.621,38.086
1532371488.804,38.574,41.992,29.297,36.621,14.160
1532371488.808,39.551,45.410,31.250,30.273,6.348
1532371488.812,36.621,43.945,31.738,29.297,36.621
1532371488.816,34.180,41.016,27.832,28.320,25.391
1532371488.820,34.668,41.992,26.855,28.809,16.113
1532371488.824,33.691,40.527,29.785,32.227,31.250
1532371488.828,32.227,38.574,26.855,29.785,40.527
1532371488.832,35.156,39.551,25.879,31.738,30.273
1532371488.835,37.109,40.527,25.391,28.320,-20.020
1532371488.839,37.598,40.039,26.855,27.344,6.348
1532371488.843,38.574,41.992,28.809,38.086,61.035
1532371488.847,39.062,41.504,26.367,35.645,16.602
1532371488.851,33.691,38.086,27.832,26.367,-44.434
1532371488.855,31.738,41.016,27.344,28.809,-14.648
1532371488.859,34.668,43.945,24.902,31.738,49.316
1532371488.863,34.668,41.992,24.902,31.738,73.730
1532371488.867,35.645,41.016,24.414,30.273,18.555
1532371488.871,41.504,40.527,26.367,30.273,4.883
1532371488.874,46.387,40.039,30.762,37.598,55.664
1532371488.878,42.480,42.969,31.738,41.016,76.660
1532371488.882,38.574,43.457,31.250,39.062,5.371
1532371488.886,35.645,38.574,30.762,35.645,-45.898
1532371488.890,35.156,39.062,29.785,35.645,7.812
1532371488.894,36.621,39.551,27.832,36.133,77.637
1532371488.898,39.551,38.086,28.320,33.691,41.016
1532371488.902,40.039,38.574,26.855,34.668,-25.391
1532371488.906,37.598,38.574,24.414,31.738,-12.207
1532371488.909,37.109,41.504,25.391,31.738,43.945
1532371488.913,40.527,45.898,28.320,37.109,41.016
1532371488.917,42.480,45.898,33.203,42.480,-11.230
1532371488.921,41.016,44.922,38.574,43.457,-8.789
1532371488.925,47.852,47.852,38.574,46.387,19.043
1532371488.929,50.781,48.340,35.645,46.387,23.926
1532371488.933,43.457,43.945,35.156,41.016,8.301
1532371488.937,41.992,42.480,35.645,37.598,-8.789
1532371488.941,42.480,44.922,36.133,35.645,30.273
1532371488.945,40.527,47.852,33.203,33.691,80.566
1532371488.948,43.945,47.363,31.738,27.344,12.695
1532371488.952,46.387,46.875,34.180,30.273,-35.645
1532371488.956,43.457,46.387,36.133,39.551,12.207
1532371488.960,38.086,42.969,38.086,37.598,59.570
1532371488.964,37.109,42.969,39.551,37.598,48.828
1532371488.968,39.551,43.945,38.574,38.086,-17.090
1532371488.972,38.574,41.992,38.574,35.156,4.395
1532371488.976,39.551,40.527,39.062,35.645,53.711
1532371488.980,38.574,39.551,35.156,34.668,47.852
1532371488.983,39.062,41.016,33.691,31.738,13.672
1532371488.987,37.598,40.039,34.180,28.320,-24.902
1532371488.991,36.133,43.457,32.227,33.691,22.461
1532371488.995,40.527,46.875,31.250,40.527,67.871
1532371488.999,41.504,45.410,31.738,41.504,2.441
1532371489.003,42.969,43.945,31.738,41.016,-8.301
1532371489.007,46.387,44.922,31.250,41.992,35.645
1532371489.011,46.875,45.410,34.668,46.387,44.434
1532371489.015,42.969,43.945,34.180,42.480,26.855
1532371489.019,38.574,41.992,31.250,41.992,4.883
1532371489.022,46.387,38.574,34.668,53.711,12.695
1532371489.026,55.176,40.039,36.621,62.012,39.551
1532371489.030,59.570,41.016,32.715,61.035,40.527
1532371489.034,59.082,41.504,28.809,55.176,-6.836
1532371489.038,61.523,40.527,26.855,54.199,-16.602
1532371489.042,67.871,42.969,32.227,62.012,47.852
1532371489.046,60.059,41.992,31.738,52.246,53.711
1532371489.050,51.758,39.551,23.926,40.527,-24.414
1532371489.054,56.152,42.969,29.297,47.852,-20.020
1532371489.058,57.617,41.504,35.645,54.688,49.805
1532371489.061,49.805,41.016,29.297,51.758,71.777
1532371489.065,49.316,43.945,27.344,47.852,15.625
1532371489.069,47.363,45.898,34.668,49.316,-16.113
1532371489.073,42.969,46.875,35.645,44.922,23.438
1532371489.077,35.156,48.828,33.203,41.992,33.203
1532371489.081,29.297,51.270,31.738,41.504,25.879
1532371489.085,38.086,53.223,34.180,38.086,-11.230
1532371489.089,39.062,58.105,36.621,32.227,-12.695
1532371489.093,39.062,58.105,36.621,27.832,64.453
1532371489.096,41.504,52.246,38.574,26.855,62.012
1532371489.100,39.062,52.734,37.109,24.902,4.395
1532371489.104,38.574,52.246,36.621,22.949,-4.883
1532371489.108,38.086,48.828,39.062,27.344,24.902
1532371489.112,31.738,43.945,42.969,26.367,65.430
1532371489.116,25.879,41.504,46.387,26.855,40.039
1532371489.120,24.414,38.086,45.410,37.598,20.020
1532371489.124,33.203,41.016,41.504,39.551,55.176
1532371489.128,44.922,53.711,33.691,32.227,30.273
1532371489.132,42.969,53.223,30.273,31.250,2.441
1532371489.135,26.855,45.410,32.227,26.855,-14.160
1532371489.139,14.648,43.457,27.344,22.461,8.301
1532371489.143,26.367,39.062,25.879,29.785,57.617
1532371489.147,36.133,41.504,26.855,35.156,32.227
1532371489.151,33.691,42.480,23.926,34.668,0.977
1532371489.155,30.273,38.574,25.391,33.691,0.977
1532371489.159,27.344,38.574,28.809,30.762,35.645
1532371489.163,32.227,39.551,25.879,29.785,67.871
1532371489.167,36.133,40.039,24.902,28.320,-12.695
1532371489.170,41.016,41.016,25.879,30.762,-37.598
1532371489.174,48.340,42.480,24.902,37.109,47.852
1532371489.178,48.828,41.992,23.926,40.527,48.828
1532371489.182,45.898,41.016,24.414,41.504,-12.695
1532371489.186,47.852,41.016,24.414,41.504,-24.414
1532371489.190,51.270,41.992,23.926,45.410,27.344
1532371489.194,52.734,43.457,24.414,51.758,78.125
1532371489.198,57.129,44.922,21.973,51.270,35.645
1532371489.202,57.617,43.945,21.484,50.781,-11.230
1532371489.206,54.199,42.969,22.949,52.734,-4.883
1532371489.209,53.223,45.410,25.879,54.688,32.715
1532371489.213,53.223,44.434,28.809,53.223,41.504
1532371489.217,48.340,42.480,27.832,45.898,-11.230
1532371489.221,45.410,41.992,29.785,48.340,44.922
1532371489.225,47.363,41.016,33.203,48.340,73.730
1532371489.229,50.781,41.992,33.691,43.945,21.973
1532371489.233,52.734,41.992,32.715,47.852,-0.977
1532371489.237,49.316,42.969,30.762,46.875,9.766
1532371489.241,48.340,43.945,30.273,47.363,45.410
1532371489.244,51.758,44.922,31.250,47.852,65.430
1532371489.248,51.758,44.434,29.297,48.828,35.156
1532371489.252,50.293,41.016,28.809,48.828,-0.488
1532371489.256,45.898,41.992,31.738,45.410,14.648
1532371489.260,45.410,42.480,31.738,45.898,59.082
1532371489.264,49.316,40.039,31.250,47.363,46.387
1532371489.268,44.434,41.016,25.879,40.039,-31.738
1532371489.272,44.434,42.480,27.344,42.480,-6.836
1532371489.276,54.688,41.992,34.180,48.340,48.340
1532371489.280,54.199,42.480,33.203,47.852,48.340
1532371489.283,50.293,41.992,32.227,50.781,22.461
1532371489.287,55.176,42.969,34.668,52.246,16.602
1532371489.291,60.059,44.434,37.598,56.152,65.430
1532371489.295,57.617,41.504,38.574,55.664,93.262
1532371489.299,55.664,39.062,37.109,51.758,33.691
1532371489.303,57.129,41.992,37.109,53.223,-13.672
1532371489.307,60.059,45.410,38.574,51.270,27.344
1532371489.311,58.105,44.922,38.574,50.781,54.688
1532371489.315,50.293,43.457,35.645,51.758,15.137
1532371489.318,46.875,41.992,34.180,47.363,-2.441
1532371489.322,48.340,42.480,35.645,45.410,53.223
1532371489.326,48.828,44.434,35.645,48.828,91.797
1532371489.330,43.945,45.410,34.668,50.293,59.570
1532371489.334,41.016,43.457,35.156,49.316,15.625
1532371489.338,39.062,41.992,34.668,50.293,17.578
1532371489.342,36.133,42.969,32.715,49.316,34.180
1532371489.346,36.133,41.992,30.273,45.410,28.320
1532371489.350,38.574,41.016,28.809,41.992,-17.090
1532371489.354,36.621,41.992,28.809,40.039,-19.531
1532371489.357,33.691,41.504,28.809,37.598,57.617
1532371489.361,34.180,41.504,28.809,38.574,80.566
1532371489.365,31.738,42.969,28.320,33.203,0.977
1532371489.369,36.133,43.945,26.367,31.250,-22.461
1532371489.373,40.527,44.434,26.855,41.016,44.434
1532371489.377,46.875,42.480,31.738,45.898,87.891
1532371489.381,43.457,42.969,29.785,42.480,39.551
1532371489.385,30.273,43.457,24.902,33.691,-2.930
1532371489.389,35.156,42.969,27.344,39.551,41.016
1532371489.392,37.598,44.434,26.367,42.969,66.406
1532371489.396,35.645,44.922,24.902,38.086,48.828
1532371489.400,33.203,44.434,25.391,35.156,14.160
1532371489.404,34.180,43.457,25.391,28.809,-21.484
1532371489.408,32.227,42.969,26.855,27.832,4.883
1532371489.412,31.738,44.922,27.344,29.297,52.734
1532371489.416,31.250,44.434,24.414,26.367,29.297
1532371489.420,29.297,42.969,23.926,29.297,8.301
1532371489.424,31.250,44.434,24.902,30.762,25.391
1532371489.428,29.297,45.898,21.973,23.926,63.477
1532371489.431,29.297,42.480,19.043,18.066,22.949
1532371489.435,29.785,41.992,18.066,20.508,-33.691
1532371489.439,31.250,44.434,19.043,26.367,16.113
1532371489.443,33.203,46.387,20.020,25.391,43.457
1532371489.447,34.668,45.898,22.461,25.391,-2.441
1532371489.451,40.039,43.945,24.902,31.250,0.977
1532371489.455,39.551,42.480,22.949,30.273,47.852
1532371489.459,37.598,42.480,20.996,30.762,81.055
1532371489.463,38.574,42.969,22.949,36.621,61.523
1532371489.466,39.062,43.945,25.879,36.621,-3.906
1532371489.470,35.156,43.945,24.414,32.715,16.602
1532371489.474,29.297,41.504,21.973,28.809,54.688
1532371489.478,29.785,39.551,24.902,23.926,58.105
1532371489.482,32.227,41.504,26.855,21.484,-3.418
1532371489.486,29.297,43.457,25.879,24.902,-18.555
1532371489.490,27.344,43.457,20.020,23.926,46.387
1532371489.494,29.785,43.457,23.926,25.391,63.477
1532371489.498,24.902,42.480,28.320,27.832,34.668
1532371489.502,25.879,41.992,27.832,24.902,-3.906
1532371489.505,31.250,43.945,30.762,16.113,-4.395
1532371489.509,26.367,45.898,28.320,16.113,55.664
1532371489.513,25.391,43.457,25.391,26.367,49.805
1532371489.517,20.508,39.551,24.414,21.973,-8.789
1532371489.521,10.254,38.086,22.949,18.066,3.418
1532371489.525,14.160,39.551,18.555,20.508,38.574
1532371489.529,19.043,40.039,18.555,19.043,58.594
1532371489.533,23.438,40.527,23.926,23.438,-3.906
1532371489.537,28.320,42.480,25.879,29.785,4.883
1532371489.540,34.180,47.363,24.902,29.785,65.918
1532371489.544,41.992,52.734,24.902,34.180,60.547
1532371489.548,41.504,46.387,24.902,37.598,-1.465
1532371489.552,38.086,44.922,25.879,38.574,-17.090
1532371489.556,43.945,46.875,25.879,44.434,42.480
1532371489.560,43.945,42.969,26.855,46.387,79.102
1532371489.564,38.574,42.480,26.855,41.504,7.812
1532371489.568,39.551,41.016,27.832,39.062,-68.359
1532371489.572,41.016,41.504,30.273,41.992,9.277
1532371489.576,40.527,41.504,29.785,41.016,62.988
1532371489.579,47.363,39.062,30.762,38.574,24.902
1532371489.583,43.945,40.039,29.297,38.086,-29.785
1532371489.587,32.715,37.109,27.832,36.621,4.883
1532371489.591,31.250,32.715,28.809,35.156,39.062
1532371489.595,34.668,37.598,28.320,34.668,29.297
1532371489.599,34.668,40.039,26.367,33.203,-19.043
1532371489.603,33.691,39.551,25.879,31.250,-38.086
1532371489.607,38.574,40.039,26.855,32.715,6.348
1532371489.611,41.504,43.457,25.391,30.762,42.480
1532371489.614,36.133,45.898,22.949,24.414,2.930
1532371489.618,31.738,42.969,22.949,20.996,-25.391
1532371489.622,34.180,41.992,22.461,20.508,38.574
1532371489.626,32.227,43.945,20.996,19.531,80.078
1532371489.630,29.297,43.945,22.461,20.996,30.273
1532371489.634,37.109,46.387,25.391,26.367,-15.137
1532371489.638,46.875,46.875,26.855,31.738,7.812
1532371489.642,43.945,45.410,25.391,31.250,43.457
1532371489.646,35.645,43.457,22.949,28.320,40.527
1532371489.650,37.598,42.969,21.973,28.320,8.789
1532371489.653,35.645,43.457,21.484,24.414,24.902
1532371489.657,27.832,42.480,20.996,22.461,70.801
1532371489.661,33.203,41.504,23.926,29.297,52.734
1532371489.665,37.598,40.527,23.438,23.438,-24.902
1532371489.669,30.762,40.527,23.926,19.531,-41.504
1532371489.673,33.691,40.039,27.344,28.320,53.223
1532371489.677,36.133,41.992,27.344,27.344,78.125
1532371489.681,32.227,40.039,23.926,20.020,-8.301
1532371489.685,32.227,38.086,23.438,14.648,-21.973
1532371489.688,35.156,40.527,24.902,17.578,15.625
1532371489.692,31.250,40.039,25.391,25.391,54.199
1532371489.696,22.461,41.016,25.879,21.973,46.875
1532371489.700,22.949,41.992,26.367,23.926,0.977
1532371489.704,25.879,42.480,29.785,25.391,7.812
1532371489.708,24.902,43.945,32.715,22.949,59.570
1532371489.712,25.391,44.434,27.832,20.508,62.500
1532371489.716,18.066,41.016,28.320,16.602,20.508
1532371489.720,23.438,32.227,38.086,21.973,7.324
1532371489.724,36.133,36.133,37.109,22.461,40.039
1532371489.727,22.461,49.316,28.320,5.371,18.555
1532371489.731,15.625,52.734,23.438,2.930,-15.625
1532371489.735,22.461,49.805,24.902,15.625,5.859
1532371489.739,27.832,47.363,30.273,20.996,66.406
1532371489.743,36.133,51.758,27.832,21.484,73.242
1532371489.747,24.902,53.711,19.043,10.742,17.578
1532371489.751,19.531,49.805,19.043,1.465,-7.812
1532371489.755,25.879,49.316,19.043,6.348,13.184
1532371489.759,33.691,52.734,18.066,13.672,31.250
1532371489.762,48.340,54.199,16.113,16.602,-2.930
1532371489.766,48.828,51.270,14.648,13.184,-13.184
1532371489.770,44.922,50.781,16.602,17.578,45.410
1532371489.774,43.945,47.852,18.555,30.762,56.152
1532371489.778,39.062,44.922,23.438,36.133,20.020
1532371489.782,30.273,42.480,23.438,33.203,-14.648
1532371489.786,28.809,41.504,16.602,34.668,-33.203
1532371489.790,32.227,41.992,18.066,35.645,33.691
1532371489.794,26.855,39.062,20.996,34.668,45.898
1532371489.798,23.438,37.109,20.508,34.668,-7.324
1532371489.801,30.762,38.086,19.531,37.598,-16.113
1532371489.805,39.062,41.992,19.043,36.621,-1.465
1532371489.809,46.387,41.504,22.461,41.504,35.156
1532371489.813,51.758,38.086,19.531,48.828,0.488
1532371489.817,49.316,35.645,17.090,42.969,-38.574
1532371489.821,52.246,33.203,14.648,41.016,0.488
1532371489.825,55.664,35.156,15.137,41.992,7.812
1532371489.829,50.781,38.086,15.137,37.598,1.953
1532371489.833,48.828,38.086,11.719,32.715,-12.207
1532371489.836,53.223,39.551,17.090,39.551,-7.812
1532371489.840,58.594,42.969,23.926,49.805,40.527
1532371489.844,59.570,44.434,23.438,48.828,42.480
1532371489.848,56.152,42.969,22.461,48.340,-15.137
1532371489.852,54.688,40.039,25.391,50.781,-15.137
1532371489.856,54.199,41.016,27.344,51.758,45.410
1532371489.860,60.059,41.016,25.391,49.805,41.992
1532371489.864,48.828,36.133,19.531,37.109,4.395
1532371489.868,45.410,35.645,20.508,34.180,0.000
1532371489.872,56.152,38.574,24.902,43.457,31.250
1532371489.875,57.617,40.527,26.367,41.992,80.566
1532371489.879,59.570,44.434,24.902,37.598,44.434
1532371489.883,56.641,44.434,22.461,36.621,-25.391
1532371489.887,49.805,43.457,26.367,34.180,-11.719
1532371489.891,52.734,45.410,30.762,38.574,44.434
1532371489.895,57.129,46.387,29.297,41.016,43.457
1532371489.899,50.293,46.387,26.367,38.574,1.953
1532371489.903,50.781,44.922,26.855,36.133,-2.930
1532371489.907,49.316,43.945,28.809,29.785,44.434
1532371489.910,46.387,45.410,32.227,30.273,72.266
1532371489.914,45.898,46.875,31.250,30.273,14.648
1532371489.918,40.527,45.898,30.273,26.367,-19.043
1532371489.922,32.227,41.992,32.715,20.508,20.020
1532371489.926,31.738,43.945,36.133,17.090,18.066
1532371489.930,37.109,48.340,38.086,25.391,-12.207
1532371489.934,32.715,49.316,33.691,27.344,-2.441
1532371489.938,22.949,48.828,35.645,23.926,48.340
1532371489.942,23.438,47.363,42.480,16.113,62.012
1532371489.946,27.344,47.852,42.969,10.254,35.156
1532371489.949,16.113,47.852,43.945,8.301,-11.230
1532371489.953,0.488,47.852,49.316,0.488,24.902
1532371489.957,-5.371,46.387,55.176,-5.371,71.777
1532371489.961,3.418,42.480,54.688,-0.977,37.109
1532371489.965,23.438,49.805,46.387,4.883,-16.113
1532371489.969,24.414,57.129,42.969,7.812,-1.465
1532371489.973,14.160,55.664,46.875,7.812,58.105
1532371489.977,9.766,51.270,46.875,4.395,44.434
1532371489.981,5.371,44.922,50.293,3.906,-6.836
1532371489.984,9.766,42.969,53.223,5.859,-40.527
1532371489.988,23.926,46.875,46.387,12.207,-3.418
1532371489.992,25.879,52.246,42.480,15.625,52.246
1532371489.996,5.371,54.199,49.316,-0.488,17.578
1532371490.000,-9.766,51.758,53.711,-9.766,-21.484
1532371490.004,-4.883,47.852,54.688,2.441,0.977
1532371490.008,0.977,48.340,54.199,14.160,47.363
1532371490.012,-6.348,48.340,53.711,4.395,34.180
1532371490.016,-16.602,42.969,55.176,-6.836,-34.180
1532371490.020,-5.859,38.574,56.641,3.906,12.695
1532371490.023,7.812,46.387,52.246,7.812,37.109
1532371490.027,-1.953,51.758,46.875,-5.371,5.371
1532371490.031,-3.906,48.340,44.434,-10.254,-11.230
1532371490.035,-2.930,48.828,44.922,-3.418,-31.250
1532371490.039,-15.625,45.898,47.852,-0.488,33.203
1532371490.043,-12.695,41.504,49.316,2.441,51.270
1532371490.047,-6.348,41.504,48.340,4.395,-25.879
1532371490.051,-2.441,45.410,41.992,1.465,-43.457
1532371490.055,-0.977,46.875,37.598,2.930,22.949
1532371490.058,0.977,53.711,40.039,5.859,54.688
1532371490.062,0.488,52.246,34.180,0.000,-8.301
1532371490.066,5.371,45.410,33.203,1.953,-32.227
1532371490.070,22.461,62.012,32.227,12.695,12.207
1532371490.074,21.973,69.824,21.484,5.859,74.219
1532371490.078,10.742,54.688,15.137,1.953,72.754
1532371490.082,12.207,45.898,20.508,10.254,-18.555
1532371490.086,21.973,47.852,28.809,15.137,-14.648
1532371490.090,30.273,58.594,23.926,12.207,34.668
1532371490.094,30.273,64.941,14.648,13.672,64.941
1532371490.097,26.855,61.523,19.531,21.484,9.277
1532371490.101,25.391,57.617,29.297,20.996,-22.461
1532371490.105,22.461,62.012,25.879,6.836,21.973
1532371490.109,23.926,65.430,21.973,6.348,54.199
1532371490.113,25.879,65.430,21.484,14.160,29.785
1532371490.117,21.484,64.453,19.531,15.137,-0.488
1532371490.121,15.137,60.059,25.879,18.066,59.082
1532371490.125,13.672,60.059,30.273,16.602,84.961
1532371490.129,20.996,60.059,25.391,14.160,21.973
1532371490.132,26.367,62.500,20.996,14.648,-12.207
1532371490.136,30.762,60.059,20.996,18.555,24.414
1532371490.140,32.227,55.176,25.391,22.461,41.016
1532371490.144,29.297,54.199,33.203,22.949,1.465
1532371490.148,27.832,52.734,37.598,25.391,-49.316
1532371490.152,23.926,49.316,38.086,25.391,-9.277
1532371490.156,29.297,47.363,35.645,26.367,62.012
1532371490.160,40.039,51.758,34.180,32.715,41.016
1532371490.164,41.016,52.734,37.598,37.109,-41.504
1532371490.168,45.898,54.199,36.133,36.621,-18.555
1532371490.171,47.363,58.594,31.738,38.574,44.922
1532371490.175,49.316,58.594,33.203,42.480,45.410
1532371490.179,50.781,54.688,30.762,42.480,-0.977
1532371490.183,56.152,51.270,26.855,52.734,-20.996
1532371490.187,64.453,52.246,28.320,61.523,13.672
1532371490.191,60.059,52.246,29.297,54.688,42.480
1532371490.195,49.805,49.805,30.762,47.363,15.625
1532371490.199,57.617,48.340,29.785,52.734,-21.973
1532371490.203,61.523,45.410,28.809,58.105,-1.953
1532371490.207,54.199,43.457,31.250,56.641,48.340
1532371490.210,54.688,41.504,34.180,62.500,43.945
1532371490.214,62.500,40.527,35.156,67.383,-20.020
1532371490.218,68.359,42.480,32.227,68.848,-6.348
1532371490.222,66.406,43.945,32.227,67.871,40.527
1532371490.226,64.941,43.457,28.809,62.012,66.895
1532371490.230,65.918,44.434,28.809,62.988,38.574
1532371490.234,64.453,43.457,27.832,61.523,18.555
1532371490.238,69.336,40.039,23.926,61.523,44.434
1532371490.242,69.336,39.551,24.414,60.547,62.988
1532371490.245,61.035,38.574,23.926,55.664,-15.137
1532371490.249,60.547,41.016,22.461,58.105,-38.574
1532371490.253,62.500,43.457,23.438,59.570,26.367
1532371490.257,57.617,41.992,22.949,54.688,62.988
1532371490.261,50.781,40.527,21.973,47.852,24.902
1532371490.265,53.711,39.551,23.438,47.363,-16.113
1532371490.269,63.477,42.480,21.484,53.223,26.367
1532371490.273,61.523,42.480,23.926,55.176,65.918
1532371490.277,53.711,41.992,28.809,47.363,66.406
1532371490.281,55.664,43.457,27.344,45.898,17.090
1532371490.284,48.340,46.387,24.414,48.828,-1.465
1532371490.288,50.293,48.340,26.855,49.805,38.086
1532371490.292,53.223,45.410,28.320,48.340,66.406
1532371490.296,43.457,45.410,26.855,43.945,34.180
1532371490.300,44.434,46.387,25.391,41.016,4.883
1532371490.304,41.992,44.922,28.320,35.645,31.738
1532371490.308,40.039,44.922,29.785,38.086,68.359
1532371490.312,40.527,45.898,25.391,39.551,46.875
1532371490.316,41.504,45.898,26.855,39.062,16.602
1532371490.319,43.945,45.410,29.297,39.062,46.875
1532371490.323,42.969,47.852,25.879,37.598,75.195
1532371490.327,47.363,46.387,28.809,43.457,78.125
1532371490.331,50.781,42.480,35.156,45.898,5.859
1532371490.335,41.016,43.945,35.156,35.156,0.977
1532371490.339,33.203,46.387,34.180,27.832,74.219
1532371490.343,35.645,47.363,31.738,28.809,74.219
1532371490.347,38.086,47.363,27.832,32.715,17.578
1532371490.351,37.109,42.969,29.297,30.762,-16.113
1532371490.355,28.809,39.551,34.180,22.461,29.785
1532371490.358,23.926,38.086,35.156,22.461,55.176
1532371490.362,25.391,36.133,35.645,22.461,-1.953
1532371490.366,33.203,33.691,35.645,30.762,-17.578
1532371490.370,38.086,31.250,38.086,42.480,23.438
1532371490.374,35.156,29.297,41.016,39.551,51.758
1532371490.378,38.574,29.297,37.598,41.504,12.695
1532371490.382,39.062,36.133,30.273,39.551,-43.945
1532371490.386,43.457,38.574,27.832,35.645,-22.949
1532371490.390,41.016,37.109,31.738,40.039,58.594
1532371490.393,36.133,36.133,32.227,40.039,49.805
1532371490.397,41.504,33.203,30.762,39.551,-4.883
1532371490.401,45.898,31.250,34.668,38.086,23.926
1532371490.405,49.316,34.180,36.133,41.504,57.129
1532371490.409,54.688,38.086,34.668,41.504,43.457
1532371490.413,59.082,38.574,32.715,33.691,2.441
1532371490.417,56.641,36.621,31.250,28.809,16.602
1532371490.421,46.387,36.621,31.250,25.391,64.453
1532371490.425,41.992,37.109,32.227,29.297,57.617
1532371490.429,36.621,34.668,35.156,32.715,17.578
1532371490.432,31.250,35.156,38.574,38.086,-6.348
1532371490.436,22.949,33.691,34.180,41.504,28.809
1532371490.440,23.926,37.109,35.645,42.969,88.379
1532371490.444,24.902,39.062,39.062,37.598,35.645
1532371490.448,25.391,36.133,35.156,34.668,-23.926
1532371490.452,31.250,38.574,38.086,40.527,26.855
1532371490.456,28.320,37.598,40.039,39.551,83.496
1532371490.460,35.645,35.156,40.527,42.969,63.477
1532371490.464,45.410,43.945,36.621,40.527,-6.348
1532371490.467,44.922,55.176,27.344,34.668,-3.906
1532371490.471,45.898,54.688,29.297,41.016,31.738
1532371490.475,48.828,51.270,35.156,46.387,41.016
1532371490.479,51.270,48.828,35.645,50.781,17.578
1532371490.483,56.641,50.293,32.715,50.293,-39.551
1532371490.487,58.105,55.176,27.344,40.527,6.836
1532371490.491,57.129,56.641,29.297,45.898,86.426
1532371490.495,54.688,53.223,33.691,51.758,43.945
1532371490.499,54.199,52.246,29.297,48.828,-4.883
1532371490.503,60.059,50.781,29.297,52.246,6.348
1532371490.506,61.035,50.293,27.832,50.781,44.434
1532371490.510,55.664,51.270,24.414,44.922,30.762
1532371490.514,58.105,46.387,23.438,44.434,-30.762
1532371490.518,63.477,45.898,25.391,47.363,-14.160
1532371490.522,60.547,48.340,29.297,48.340,32.715
1532371490.526,54.688,45.898,27.832,48.828,18.555
1532371490.530,57.129,43.457,25.879,50.781,-6.348
1532371490.534,55.664,41.992,27.832,47.363,-6.836
1532371490.538,51.270,41.992,26.855,41.016,47.363
1532371490.541,54.688,42.480,29.297,51.270,66.406
1532371490.545,54.199,41.016,28.320,54.688,4.883
1532371490.549,51.270,41.016,23.926,43.945,-3.906
1532371490.553,44.922,41.992,21.484,36.133,47.363
1532371490.557,44.922,45.898,23.438,38.574,77.637
1532371490.561,48.340,44.922,25.879,43.945,33.203
1532371490.565,48.828,42.969,24.902,45.410,-13.672
1532371490.569,48.828,43.457,20.020,45.898,2.930
1532371490.573,50.293,40.527,22.461,44.922,58.594
1532371490.577,52.734,40.039,26.367,45.898,32.715
1532371490.580,50.781,42.969,22.949,43.945,-41.016
1532371490.584,44.922,41.992,20.020,40.039,-16.602
1532371490.588,46.387,39.551,23.438,45.410,39.062
1532371490.592,54.199,41.504,24.902,49.805,49.316
1532371490.596,45.898,41.504,20.996,42.480,36.621
1532371490.600,38.574,42.480,22.461,36.133,0.977
1532371490.604,42.969,42.969,27.344,40.039,12.695
1532371490.608,42.969,41.992,28.320,41.504,67.383
1532371490.612,40.527,43.457,27.344,40.527,35.156
1532371490.615,44.922,43.945,26.855,42.969,0.488
1532371490.619,43.945,45.410,26.367,41.504,31.738
1532371490.623,39.551,46.387,25.391,34.668,62.500
1532371490.627,43.457,46.875,25.391,36.133,51.270
1532371490.631,50.781,45.410,25.879,40.527,-5.371
1532371490.635,48.828,44.434,26.855,38.086,6.348
1532371490.639,47.363,44.434,29.785,37.109,56.152
1532371490.643,47.852,46.387,28.809,35.645,47.852
1532371490.647,49.805,49.316,27.832,33.691,20.020
1532371490.651,45.898,47.852,30.273,31.250,26.367
1532371490.654,37.109,44.922,31.250,32.227,45.898
1532371490.658,41.016,43.945,30.762,36.621,36.621
1532371490.662,46.387,44.922,29.785,32.715,-21.973
1532371490.666,43.945,42.480,30.273,32.715,-6.348
1532371490.670,40.527,40.527,32.715,34.668,70.801
1532371490.674,39.551,39.551,31.738,31.738,77.148
1532371490.678,41.504,37.598,29.785,30.273,37.109
1532371490.682,39.551,38.574,26.855,26.855,-4.395
1532371490.686,36.133,39.062,27.344,26.855,25.391
1532371490.689,39.551,37.598,31.738,30.273,57.129
1532371490.693,43.945,38.086,31.250,33.203,48.340
1532371490.697,43.457,38.086,26.367,33.203,24.414
1532371490.701,39.062,39.551,24.414,32.715,25.879
1532371490.705,39.062,40.039,25.879,34.180,48.828
1532371490.709,42.969,39.551,28.809,38.574,34.180
1532371490.713,40.039,41.016,26.855,34.668,11.230
1532371490.717,39.062,41.016,22.461,31.250,22.461
1532371490.721,43.945,40.039,25.879,34.180,36.621
1532371490.725,32.227,38.574,27.832,26.855,27.832
1532371490.728,23.438,38.086,23.926,25.879,7.324
1532371490.732,26.855,39.551,23.926,33.691,-3.906
1532371490.736,29.785,39.062,28.320,36.621,36.133
1532371490.740,36.621,40.527,28.809,40.039,70.801
1532371490.744,37.598,40.039,24.902,41.016,26.367
1532371490.748,35.645,38.574,24.414,44.434,-8.301
1532371490.752,42.480,38.574,25.879,46.875,10.254
1532371490.756,41.504,40.527,22.461,41.504,49.316
1532371490.760,41.016,42.480,22.949,38.574,31.250
1532371490.763,44.922,40.527,24.414,37.598,-23.438
1532371490.767,44.434,38.086,26.367,37.598,19.531
1532371490.771,46.875,39.551,29.785,45.898,66.406
1532371490.775,48.828,38.086,27.344,43.945,71.289
1532371490.779,45.898,34.180,24.902,30.273,-6.348
1532371490.783,37.109,34.668,19.531,27.344,-26.367
1532371490.787,36.133,36.133,23.926,31.738,32.227
1532371490.791,46.875,41.016,28.809,40.039,46.387
1532371490.795,55.176,42.480,23.926,45.410,19.043
1532371490.799,54.199,42.480,27.344,49.316,-7.324
1532371490.802,52.734,44.922,33.691,52.734,11.230
1532371490.806,52.246,46.875,34.668,54.688,84.473
1532371490.810,49.805,43.945,36.621,58.105,52.734
1532371490.814,52.246,43.457,35.156,58.105,-2.441
1532371490.818,48.828,47.363,34.180,53.711,22.461
1532371490.822,43.945,47.363,34.668,50.781,54.688
1532371490.826,44.922,46.875,32.715,50.293,46.875
1532371490.830,46.387,45.898,30.762,50.293,-6.348
1532371490.834,46.875,46.387,28.809,43.457,4.395
1532371490.837,43.457,47.363,29.785,39.551,78.125
1532371490.841,39.062,46.875,31.738,40.039,83.008
1532371490.845,44.922,46.387,27.344,41.016,8.301
1532371490.849,49.805,44.922,23.926,45.410,7.812
1532371490.853,49.316,45.898,25.391,46.875,70.801
1532371490.857,49.316,46.387,25.391,49.316,104.492
1532371490.861,53.223,45.410,25.879,44.922,64.453
1532371490.865,56.641,42.969,27.832,44.922,12.207
1532371490.869,51.758,41.992,30.762,48.340,22.461
1532371490.873,47.363,43.457,28.320,43.457,55.664
1532371490.876,39.551,41.992,21.484,38.086,47.852
1532371490.880,36.621,42.969,24.414,35.645,-8.301
1532371490.884,42.969,43.945,29.297,41.016,18.555
1532371490.888,41.992,40.527,28.809,46.875,65.430
1532371490.892,41.504,40.039,28.809,44.434,55.176
1532371490.896,41.992,40.039,30.273,46.875,-4.395
1532371490.900,40.527,38.086,29.297,47.363,-21.484
1532371490.904,37.109,37.109,27.832,41.992,32.715
1532371490.908,37.109,38.086,26.855,41.504,54.688
1532371490.911,41.504,38.574,27.344,42.480,21.973
1532371490.915,45.410,38.574,28.809,46.387,15.137
1532371490.919,41.504,41.016,28.320,46.387,50.781
1532371490.923,41.016,41.504,26.855,44.922,87.402
1532371490.927,49.316,43.945,24.902,42.969,23.926
1532371490.931,44.434,41.992,22.461,35.156,-26.367
1532371490.935,41.992,37.598,24.414,41.504,25.879
1532371490.939,44.434,39.062,25.879,44.434,66.895
1532371490.943,40.527,39.551,22.949,33.691,35.156
1532371490.947,39.062,38.086,20.020,32.227,0.977
1532371490.950,43.945,39.551,20.996,35.645,37.109
1532371490.954,48.828,41.016,24.414,37.109,57.617
1532371490.958,54.688,40.039,25.879,38.574,26.855
1532371490.962,53.711,40.527,27.344,42.969,-49.805
1532371490.966,50.781,42.480,29.297,49.805,-29.785
1532371490.970,51.270,43.457,28.809,54.199,72.266
1532371490.974,46.387,44.434,27.344,52.246,77.637
1532371490.978,41.992,43.945,24.902,45.410,-2.441
1532371490.982,37.598,43.945,20.020,37.598,-34.180
1532371490.985,42.480,41.016,22.949,37.109,4.883
1532371490.989,46.387,40.039,26.855,39.551,45.898
1532371490.993,39.551,45.410,25.879,36.621,28.809
1532371490.997,37.598,46.387,23.926,35.645,-27.344
1532371491.001,37.598,42.480,24.414,37.109,-5.859
1532371491.005,36.621,41.504,27.832,37.109,45.410
1532371491.009,40.039,43.457,28.320,42.480,41.016
1532371491.013,41.016,41.992,28.809,41.504,9.766
1532371491.017,40.039,40.527,28.809,37.109,-7.812
1532371491.021,41.504,41.504,26.855,38.086,36.133
1532371491.024,38.574,41.016,26.367,39.551,69.824
1532371491.028,38.086,39.551,25.879,38.574,12.207
1532371491.032,35.156,37.109,26.367,37.109,-12.695
1532371491.036,33.203,34.668,25.879,38.086,49.805
1532371491.040,38.574,37.109,27.344,39.062,69.824
1532371491.044,40.527,36.133,30.762,39.551,4.395
1532371491.048,40.527,34.668,29.297,39.551,6.348
1532371491.052,39.062,35.156,26.367,36.621,49.805
1532371491.056,45.898,33.691,29.785,39.062,71.289
1532371491.059,54.688,32.715,26.855,36.133,39.062
1532371491.063,56.641,30.762,22.461,29.785,1.953
1532371491.067,59.082,32.227,24.902,35.156,37.598
1532371491.071,59.570,34.180,22.949,39.062,79.590
1532371491.075,53.223,32.227,22.949,41.992,67.871
1532371491.079,49.316,30.762,26.367,47.363,-18.066
1532371491.083,42.480,31.250,25.879,41.992,-23.926
1532371491.087,34.668,33.691,26.855,42.969,27.344
1532371491.091,35.156,37.109,29.785,50.781,56.641
1532371491.095,39.062,37.109,27.832,46.875,23.926
1532371491.098,36.133,33.691,27.832,39.062,5.371
1532371491.102,30.762,35.645,26.855,37.109,62.012
1532371491.106,27.832,37.109,23.438,34.668,90.332
1532371491.110,25.879,35.645,24.902,29.785,48.828
1532371491.114,27.832,37.109,24.414,27.344,6.836
1532371491.118,31.250,38.574,26.855,23.926,33.203
1532371491.122,33.691,41.504,32.227,21.973,67.871
1532371491.126,35.156,41.992,33.691,25.391,20.996
1532371491.130,45.410,41.504,33.691,31.738,-32.715
1532371491.133,50.781,47.363,32.715,40.527,-12.207
1532371491.137,42.969,47.363,33.203,40.039,44.922
1532371491.141,34.180,41.504,33.691,28.809,49.805
1532371491.145,34.668,37.109,37.598,35.645,-9.277
1532371491.149,42.480,35.156,40.527,48.828,3.906
1532371491.153,50.293,34.668,34.668,50.781,37.109
1532371491.157,57.129,36.133,32.227,56.152,41.992
1532371491.161,57.617,37.598,30.273,47.363,-16.113
1532371491.165,57.617,35.645,28.809,47.363,-34.180
1532371491.169,58.594,33.691,27.832,62.012,28.809
1532371491.172,55.664,32.715,28.320,63.477,35.156
1532371491.176,53.223,31.738,27.344,62.988,-5.859
1532371491.180,60.059,32.715,25.879,60.059,-36.133
1532371491.184,65.918,32.227,25.391,61.035,1.465
1532371491.188,65.430,30.273,23.438,62.500,44.922
1532371491.192,67.383,30.762,24.902,61.523,4.395
1532371491.196,67.383,32.227,24.902,61.035,-36.621
1532371491.200,61.035,32.227,22.461,56.152,-11.719
1532371491.204,61.035,33.691,24.414,57.617,51.758
1532371491.207,59.570,33.691,24.902,56.641,70.312
1532371491.211,58.594,32.227,25.391,53.711,29.785
1532371491.215,59.570,33.203,25.879,55.176,-1.465
1532371491.219,56.152,32.715,23.438,53.223,30.762
1532371491.223,55.664,31.250,23.438,52.734,52.734
1532371491.227,57.617,30.273,22.461,52.734,2.930
1532371491.231,62.012,31.250,22.461,52.246,-6.836
1532371491.235,64.453,34.668,26.855,57.129,37.598
1532371491.239,63.477,32.715,28.320,58.105,25.391
1532371491.243,63.965,33.203,26.855,52.734,3.906
1532371491.246,62.988,33.203,26.855,51.758,0.488
1532371491.250,57.129,30.273,27.344,51.270,21.484
1532371491.254,58.105,32.715,27.832,46.875,42.969
1532371491.258,62.012,35.645,29.297,46.387,32.715
1532371491.262,57.617,37.109,28.809,47.363,-7.812
1532371491.266,62.500,36.133,26.855,49.805,2.441
1532371491.270,65.430,36.621,27.832,51.270,42.969
1532371491.274,64.453,38.086,29.785,55.176,60.547
1532371491.278,66.406,39.551,27.344,54.199,1.465
1532371491.281,63.477,38.574,23.438,43.457,-42.480
1532371491.285,60.547,37.598,21.973,45.898,20.020
1532371491.289,66.895,39.551,24.902,57.129,59.082
1532371491.293,75.684,39.062,27.832,57.617,27.344
1532371491.297,66.895,36.133,26.367,51.270,-7.324
1532371491.301,55.664,38.086,25.391,45.898,12.695
1532371491.305,54.199,40.039,28.320,43.945,61.523
1532371491.309,51.270,35.645,29.297,45.410,45.410
1532371491.313,52.246,32.715,27.832,41.992,-22.461
1532371491.317,53.711,35.645,28.809,37.109,-16.113
1532371491.320,56.152,38.086,27.832,38.574,5.371
1532371491.324,55.176,36.133,32.227,43.945,-15.137
1532371491.328,47.852,33.691,35.156,46.875,-17.090
1532371491.332,46.875,34.180,32.715,49.316,5.859
1532371491.336,51.270,34.180,33.203,51.758,47.852
1532371491.340,53.711,37.598,36.621,49.805,64.941
1532371491.344,51.758,38.574,35.645,46.387,17.578
1532371491.348,50.781,35.156,31.250,46.875,-9.766
1532371491.352,46.387,34.668,28.809,43.457,53.711
1532371491.356,45.410,35.645,29.785,40.527,99.121
1532371491.359,49.805,35.156,33.203,43.945,37.109
1532371491.363,46.387,34.180,31.250,44.922,-14.160
1532371491.367,47.363,37.109,31.250,42.969,11.230
1532371491.371,46.387,38.574,33.691,41.992,45.410
1532371491.375,44.922,35.156,33.203,41.504,42.969
1532371491.379,46.875,34.180,31.738,41.016,-28.320
1532371491.383,50.293,38.574,31.250,41.504,-6.836
1532371491.387,52.734,41.504,30.762,45.898,83.984
1532371491.391,52.246,42.480,27.832,47.852,72.754
1532371491.394,53.711,40.527,26.367,44.922,20.996
1532371491.398,49.805,41.016,27.832,39.062,20.996
1532371491.402,46.387,41.504,32.227,41.016,51.758
1532371491.406,49.316,36.621,32.715,44.922,62.988
1532371491.410,52.734,35.645,28.320,44.434,41.504
1532371491.414,49.316,37.598,27.832,42.969,19.043
1532371491.418,49.805,38.086,26.367,36.133,32.227
1532371491.422,45.898,37.598,25.391,32.715,88.867
1532371491.426,40.527,36.621,26.855,33.691,49.316
1532371491.430,41.992,34.668,27.832,37.109,2.930
1532371491.433,39.062,35.156,27.344,38.086,65.918
1532371491.437,37.109,38.086,26.855,34.668,61.523
1532371491.441,34.668,37.598,23.438,32.715,50.781
1532371491.445,37.598,35.645,23.926,34.668,25.879
1532371491.449,46.387,36.621,26.367,39.551,-3.906
1532371491.453,47.852,40.527,25.879,45.898,22.949
1532371491.457,45.410,40.527,26.367,42.969,25.391
1532371491.461,41.504,36.621,25.391,32.715,-26.367
1532371491.465,41.992,36.621,25.879,33.691,-15.137
1532371491.468,46.387,39.551,29.297,39.551,37.598
1532371491.472,48.340,42.969,33.203,43.945,77.637
1532371491.476,52.734,45.898,33.203,43.945,4.395
1532371491.480,51.270,43.457,32.227,39.551,-36.621
1532371491.484,49.316,41.504,33.203,41.504,53.223
1532371491.488,51.270,43.457,34.668,43.457,104.004
1532371491.492,50.781,42.969,32.227,46.387,63.477
1532371491.496,51.758,37.598,27.832,47.363,-29.297
1532371491.500,56.152,36.621,29.297,46.875,-25.879
1532371491.504,56.152,41.016,33.203,49.316,49.316
1532371491.507,48.340,38.086,32.227,44.922,52.246
1532371491.511,45.898,36.133,29.297,39.551,-3.418
1532371491.515,44.922,39.062,29.297,40.039,13.672
1532371491.519,44.922,40.527,28.320,34.668,41.504
1532371491.523,51.270,41.504,26.367,36.133,57.617
1532371491.527,52.246,40.039,30.273,41.992,27.832
1532371491.531,55.664,41.016,28.809,41.016,-11.230
1532371491.535,53.223,41.504,24.902,37.598,24.414
1532371491.539,44.922,42.480,27.344,31.738,61.035
1532371491.542,51.270,46.875,27.344,35.156,34.668
1532371491.546,51.270,44.922,24.902,36.621,-3.418
1532371491.550,51.758,42.480,27.344,37.109,28.809
1532371491.554,50.781,41.504,31.250,38.574,68.359
1532371491.558,45.898,42.480,26.367,30.273,33.203
1532371491.562,45.898,43.457,26.367,27.832,-29.297
1532371491.566,45.898,40.039,29.297,33.203,-1.465
1532371491.570,41.992,39.062,29.785,39.062,62.012
1532371491.574,42.480,40.527,31.250,38.574,34.668
1532371491.578,42.480,38.574,27.344,33.691,-40.039
1532371491.581,37.598,38.574,24.902,34.668,-13.672
1532371491.585,33.203,40.527,25.879,40.527,41.016
1532371491.589,35.645,38.574,27.832,36.133,52.246
1532371491.593,36.133,35.645,24.902,31.738,4.395
1532371491.597,38.086,35.645,23.926,38.086,-4.883
1532371491.601,45.898,34.180,28.809,37.109,17.578
1532371491.605,44.922,32.227,29.785,41.504,41.016
1532371491.609,39.062,34.180,25.391,40.039,36.133
1532371491.613,41.992,36.621,26.367,35.156,-4.883
1532371491.616,45.410,37.598,30.762,41.016,20.020
1532371491.620,48.340,39.062,33.691,45.898,56.152
1532371491.624,46.875,37.598,33.691,47.852,34.668
1532371491.628,43.457,36.621,30.762,46.875,6.836
1532371491.632,37.598,39.551,27.832,39.551,14.648
1532371491.636,41.504,40.039,26.855,40.039,63.965
1532371491.640,50.781,39.551,30.762,47.363,75.684
1532371491.644,52.246,42.480,31.250,50.293,-5.859
1532371491.648,53.711,43.457,31.738,48.340,8.789
1532371491.652,48.340,41.016,30.762,42.480,65.918
1532371491.655,52.734,43.457,27.344,43.945,33.691
1532371491.659,56.152,49.805,29.785,42.480,-23.926
1532371491.663,41.992,45.898,29.785,37.598,-28.320
1532371491.667,39.551,41.992,27.344,39.551,24.902
1532371491.671,42.969,44.922,31.738,44.922,88.379
1532371491.675,41.992,41.992,30.273,39.551,66.406
1532371491.679,44.922,39.551,28.809,36.133,5.371
1532371491.683,39.062,42.480,29.297,36.133,27.344
1532371491.687,36.621,41.992,26.855,34.180,87.891
1532371491.690,40.039,42.969,26.367,32.715,63.477
1532371491.694,48.340,46.387,25.879,31.250,14.160
1532371491.698,58.105,46.875,26.855,32.227,3.418
1532371491.702,60.059,47.852,26.367,31.250,45.898
1532371491.706,63.477,43.945,23.926,35.645,66.406
1532371491.710,66.406,41.016,24.414,39.551,9.277
1532371491.714,56.641,42.969,24.902,41.504,20.996
1532371491.718,52.246,38.086,24.902,41.992,28.320
1532371491.722,49.316,35.156,25.391,40.039,14.648
1532371491.726,39.551,36.621,28.320,45.898,5.371
1532371491.729,32.715,34.668,26.367,47.852,-24.902
1532371491.733,32.227,35.156,28.320,50.293,10.254
1532371491.737,31.250,39.062,34.668,48.828,58.105
1532371491.741,30.273,36.621,30.762,39.551,11.719
1532371491.745,33.691,34.180,26.367,36.621,-7.812
1532371491.749,38.086,37.109,27.344,37.598,42.480
1532371491.753,37.109,37.109,30.273,39.551,66.895
1532371491.757,37.109,37.598,29.785,39.551,26.855
1532371491.761,39.062,38.574,26.367,38.086,-29.297
1532371491.764,42.969,37.598,28.320,43.457,10.254
1532371491.768,53.711,42.969,32.227,50.293,52.246
1532371491.772,57.617,45.898,31.738,48.828,65.918
1532371491.776,54.688,43.945,29.785,47.852,18.066
1532371491.780,55.176,43.945,28.320,47.852,-11.719
1532371491.784,51.758,42.480,30.273,44.922,45.898
1532371491.788,51.270,41.016,32.227,45.898,58.105
1532371491.792,51.758,41.016,28.809,42.969,0.977
1532371491.796,47.363,38.574,28.809,41.992,-22.949
1532371491.800,45.410,40.039,32.715,41.016,-2.930
1532371491.803,49.805,45.898,28.809,41.504,41.504
1532371491.807,47.852,44.922,24.902,44.922,18.555
1532371491.811,44.434,41.992,25.879,44.434,-6.836
1532371491.815,46.387,41.504,24.902,43.457,41.992
1532371491.819,41.504,42.480,24.414,36.133,44.922
1532371491.823,40.039,42.969,24.902,34.668,45.898
1532371491.827,46.387,41.992,24.902,40.039,0.000
1532371491.831,50.293,41.992,22.461,42.480,-1.465
1532371491.835,50.781,41.504,24.902,43.945,63.477
1532371491.838,45.898,41.016,28.320,36.133,41.504
1532371491.842,44.434,40.527,26.367,26.855,-12.695
1532371491.846,41.016,39.062,22.461,29.297,8.789
1532371491.850,43.457,40.039,25.391,35.645,47.363
1532371491.854,46.387,39.062,26.855,38.574,75.684
1532371491.858,45.410,36.133,26.855,38.086,7.812
1532371491.862,49.316,37.598,27.344,38.574,-30.762
1532371491.866,48.828,39.062,22.949,38.574,26.367
1532371491.870,51.758,42.969,22.949,41.992,47.363
1532371491.874,56.152,42.969,24.414,44.434,22.461
1532371491.877,52.734,39.551,24.414,38.086,-22.949
1532371491.881,49.805,40.527,23.926,32.715,-33.203
1532371491.885,51.270,43.457,22.461,42.480,29.785
1532371491.889,45.898,39.551,22.461,46.387,43.457
1532371491.893,43.457,35.645,21.484,42.969,-24.902
1532371491.897,40.527,37.598,18.555,38.574,-17.578
1532371491.901,39.062,40.039,19.531,38.574,28.809
1532371491.905,41.992,39.062,22.461,41.504,54.688
1532371491.909,41.016,37.598,22.461,36.621,18.066
1532371491.912,44.922,35.645,22.949,34.180,-26.367
1532371491.916,46.875,38.574,24.414,35.645,7.812
1532371491.920,46.875,40.527,23.926,37.109,36.133
1532371491.924,43.945,38.086,22.461,34.668,5.859
1532371491.928,42.480,39.551,21.484,36.621,-14.648
1532371491.932,39.551,37.598,23.438,40.527,5.859
1532371491.936,35.645,40.527,22.949,40.039,50.293
1532371491.940,35.645,43.457,21.484,32.715,3.418
1532371491.944,33.691,40.039,21.973,33.691,-20.508
1532371491.948,37.109,40.527,20.508,37.109,17.090
1532371491.951,37.109,42.969,21.484,37.598,56.152
1532371491.955,37.598,44.434,22.461,40.039,55.664
1532371491.959,43.457,43.457,20.996,42.480,0.000
1532371491.963,44.434,43.945,23.438,44.922,-20.508
1532371491.967,46.875,44.922,27.344,42.969,24.414
1532371491.971,42.969,43.945,28.320,41.504,87.891
1532371491.975,33.203,43.457,26.855,37.109,51.270
1532371491.979,36.133,44.434,24.902,30.273,-31.250
1532371491.983,32.227,42.969,24.414,26.367,5.371
1532371491.986,25.879,41.016,25.879,30.762,92.773
1532371491.990,28.809,37.109,24.414,34.668,48.828
1532371491.994,26.855,36.621,26.855,31.250,-14.160
1532371491.998,27.832,40.039,29.785,31.738,14.648
1532371492.002,36.133,42.480,27.832,38.574,44.434
1532371492.006,38.574,41.992,26.855,37.109,38.574
1532371492.010,35.645,40.039,23.926,29.297,-1.953
1532371492.014,36.621,39.062,22.461,28.320,4.395
1532371492.018,41.016,40.527,24.902,32.227,35.156
1532371492.022,46.875,39.551,26.367,38.086,21.973
1532371492.025,49.316,35.156,27.832,48.340,4.395
1532371492.029,49.316,34.668,29.297,54.199,7.324
1532371492.033,49.316,35.645,28.320,56.152,43.945
1532371492.037,49.805,37.109,25.391,54.688,66.406
1532371492.041,51.270,38.086,27.344,53.223,45.410
1532371492.045,52.734,39.551,30.273,54.199,22.461
1532371492.049,52.734,37.109,26.367,49.316,43.457
1532371492.053,48.828,36.133,22.949,46.387,65.430
1532371492.057,50.293,36.133,25.879,46.875,22.949
1532371492.060,54.199,33.203,27.832,47.363,-22.461
1532371492.064,54.688,37.598,24.414,48.340,18.555
1532371492.068,50.781,39.551,23.926,46.387,60.547
1532371492.072,52.734,37.598,27.832,50.781,73.730
1532371492.076,55.176,38.086,26.367,48.340,-17.578
1532371492.080,50.293,36.621,21.973,37.109,-59.570
1532371492.084,47.363,35.645,24.902,40.039,54.688
1532371492.088,47.852,36.133,26.367,43.945,66.406
1532371492.092,50.293,39.062,29.785,44.922,12.207
1532371492.096,54.688,41.504,33.203,51.270,4.883
1532371492.099,54.688,42.480,31.738,54.199,14.648
1532371492.103,54.688,43.945,33.203,53.223,68.848
1532371492.107,53.711,44.922,30.762,50.781,46.387
1532371492.111,51.270,42.480,27.832,46.875,-12.695
1532371492.115,51.758,38.574,28.809,50.781,18.066
1532371492.119,56.641,38.086,31.738,51.758,63.477
1532371492.123,53.711,37.598,32.715,45.410,53.223
1532371492.127,46.875,37.598,31.250,41.504,-20.020
1532371492.131,47.852,36.621,33.691,44.922,1.465
1532371492.134,48.340,37.109,35.645,45.898,71.289
1532371492.138,46.387,37.598,31.250,35.645,26.367
1532371492.142,53.223,37.109,32.715,35.156,-31.250
1532371492.146,58.594,38.574,36.133,44.922,-1.465
1532371492.150,46.875,36.621,36.133,44.434,49.805
1532371492.154,45.898,38.574,31.738,41.016,73.242
1532371492.158,47.852,40.527,32.227,40.527,20.508
1532371492.162,40.039,37.598,35.156,37.598,21.484
1532371492.166,47.852,38.086,34.180,40.039,25.391
1532371492.170,51.270,38.086,35.156,42.969,45.410
1532371492.173,42.480,40.039,34.180,41.016,61.523
1532371492.177,42.969,41.504,31.250,36.621,-22.461
1532371492.181,44.434,37.598,31.738,33.691,-18.066
1532371492.185,45.898,38.086,31.738,40.039,67.383
1532371492.189,44.434,39.062,30.273,40.039,69.336
1532371492.193,40.039,35.645,29.297,35.156,11.230
1532371492.197,41.504,34.668,31.738,37.598,-5.371
1532371492.201,50.781,37.598,31.738,42.969,19.043
1532371492.205,56.641,39.551,29.785,43.945,28.320
1532371492.208,47.363,36.621,27.344,36.133,8.789
1532371492.212,45.410,35.645,25.391,38.086,4.883
1532371492.216,49.805,39.062,26.367,44.434,9.277
1532371492.220,47.852,40.527,30.762,42.480,5.371
1532371492.224,53.223,41.016,30.762,47.852,2.441
1532371492.228,53.711,41.992,25.391,51.758,0.977
1532371492.232,44.922,39.062,26.855,44.434,66.406
1532371492.236,43.945,37.109,30.762,42.480,80.566
1532371492.240,41.992,36.621,28.809,41.504,61.035
1532371492.244,38.086,35.645,29.785,40.527,16.113
1532371492.247,44.434,37.109,30.762,41.504,6.836
1532371492.251,45.410,38.086,26.855,40.527,56.641
1532371492.255,39.062,36.133,24.902,41.016,41.504
1532371492.259,43.457,36.133,25.391,37.598,-36.133
1532371492.263,39.062,39.062,27.344,35.645,-14.648
1532371492.267,37.598,40.527,28.809,39.551,53.223
1532371492.271,41.504,40.039,27.832,41.016,49.316
1532371492.275,44.922,38.574,27.344,41.016,-14.160
1532371492.279,47.363,37.598,25.879,41.504,-44.922
1532371492.282,41.504,39.062,25.879,42.480,34.180
1532371492.286,39.062,38.086,25.879,39.062,53.711
1532371492.290,46.875,38.086,25.879,39.551,41.504
1532371492.294,48.340,40.039,27.344,41.992,17.090
1532371492.298,51.270,41.016,27.832,43.457,26.367
1532371492.302,57.129,38.574,25.391,41.504,71.289
1532371492.306,50.293,37.109,22.461,36.133,46.387
1532371492.310,46.387,35.645,24.414,36.621,4.883
1532371492.314,48.340,35.645,26.367,38.086,2.441
1532371492.318,50.781,36.621,22.949,37.598,24.414
1532371492.321,51.270,36.621,21.973,38.086,64.941
1532371492.325,48.828,35.645,23.438,38.086,14.160
1532371492.329,42.969,35.156,22.949,32.715,2.441
1532371492.333,45.898,39.551,21.973,30.273,66.406
1532371492.337,53.223,41.992,24.414,29.297,52.734
1532371492.341,59.570,40.527,25.879,31.250,-11.719
1532371492.345,65.430,40.527,21.973,36.621,-25.391
1532371492.349,64.453,41.992,22.461,39.062,36.621
1532371492.353,63.477,41.992,24.414,46.875,61.523
1532371492.356,58.105,41.016,22.949,48.340,9.277
1532371492.360,48.828,41.016,24.414,42.480,-35.156
1532371492.364,44.922,41.992,28.320,49.805,0.488
1532371492.368,47.852,42.480,28.809,55.664,92.773
1532371492.372,45.410,40.527,30.273,52.734,78.125
1532371492.376,41.992,40.039,27.832,48.828,-0.977
1532371492.380,43.945,40.527,23.438,47.363,17.090
1532371492.384,44.434,45.410,24.902,49.316,51.758
1532371492.388,58.105,49.805,27.832,55.664,67.871
1532371492.392,64.453,46.387,28.809,54.688,25.879
1532371492.395,60.059,44.434,29.297,52.246,-30.762
1532371492.399,66.406,48.340,29.297,56.641,32.227
1532371492.403,70.312,47.363,30.273,53.711,65.430
1532371492.407,65.918,43.457,30.273,55.176,-13.184
1532371492.411,61.523,41.504,30.762,54.199,-27.344
1532371492.415,55.176,40.527,33.691,50.781,40.527
1532371492.419,55.664,41.016,34.180,54.199,87.891
1532371492.423,59.570,41.504,34.668,53.223,45.410
1532371492.427,56.152,39.551,34.668,48.828,-13.672
1532371492.430,58.594,42.969,32.227,49.805,17.090
1532371492.434,62.500,45.898,35.156,53.711,42.480
1532371492.438,57.617,42.969,31.738,48.828,42.969
1532371492.442,54.199,42.969,30.273,47.852,18.555
1532371492.446,58.105,43.457,31.738,50.293,13.672
1532371492.450,59.082,42.480,31.738,54.688,62.012
1532371492.454,55.664,42.480,34.668,55.664,78.125
1532371492.458,53.711,44.922,33.203,47.363,5.371
1532371492.462,51.758,44.434,27.832,42.969,-1.953
1532371492.466,52.734,43.945,26.855,37.598,49.316
1532371492.469,51.270,43.457,26.367,33.691,64.453
1532371492.473,46.387,41.016,22.949,30.273,38.086
1532371492.477,47.852,42.480,23.926,24.902,-13.184
1532371492.481,52.734,41.992,25.879,31.250,16.113
1532371492.485,54.199,42.969,25.391,39.062,76.660
1532371492.489,49.805,41.016,28.320,38.574,50.293
1532371492.493,47.363,39.062,29.785,41.992,-12.695
1532371492.497,49.316,42.969,28.320,40.039,-34.180
1532371492.501,52.246,43.457,30.273,39.551,10.742
1532371492.505,53.711,43.457,29.785,42.969,52.734
1532371492.508,49.805,42.480,30.273,44.434,-16.602
1532371492.512,51.270,41.504,31.738,48.828,-7.812
1532371492.516,47.363,41.504,28.809,44.434,55.664
1532371492.520,43.945,40.527,28.809,38.574,83.008
1532371492.524,48.828,39.062,29.297,37.598,29.297
1532371492.528,44.434,42.480,28.320,35.156,-33.203
1532371492.532,43.945,44.434,28.320,34.180,15.137
1532371492.536,47.852,40.527,28.809,30.273,37.598
1532371492.540,41.504,40.527,29.297,29.297,12.207
1532371492.543,42.480,42.969,29.785,34.668,-4.883
1532371492.547,47.363,45.410,28.320,36.133,29.297
1532371492.551,45.410,47.852,28.809,35.156,54.199
1532371492.555,44.922,46.387,28.809,34.668,26.367
1532371492.559,48.828,44.434,29.297,34.180,-17.090
1532371492.563,51.270,45.410,30.762,34.668,7.324
1532371492.567,47.363,45.410,29.785,39.551,61.035
1532371492.571,50.781,43.457,29.297,41.504,63.965
1532371492.575,54.199,43.945,31.738,40.527,8.789
1532371492.579,49.316,42.480,31.738,34.180,-24.414
1532371492.582,48.828,41.504,28.320,35.156,32.227
1532371492.586,49.805,44.434,27.344,36.133,56.152
1532371492.590,48.340,43.457,27.832,31.250,25.391
1532371492.594,47.852,42.969,29.297,36.621,16.602
1532371492.598,53.223,43.945,28.809,40.527,35.156
1532371492.602,51.758,42.969,28.320,41.992,82.520
1532371492.606,46.387,41.504,30.273,44.922,43.945
1532371492.610,45.410,43.945,28.809,42.480,-20.020
1532371492.614,43.945,45.410,26.367,41.992,23.438
1532371492.617,45.410,43.457,26.855,44.434,64.453
1532371492.621,41.992,41.992,25.391,40.039,53.223
1532371492.625,40.527,44.922,21.973,35.645,-5.371
1532371492.629,36.133,44.922,22.461,39.062,10.742
1532371492.633,37.598,42.480,26.855,42.969,35.156
1532371492.637,40.527,42.969,29.785,34.668,10.742
1532371492.641,36.621,40.527,27.832,26.367,-10.742
1532371492.645,35.156,38.574,27.344,26.855,5.859
1532371492.649,36.621,42.969,27.832,31.250,33.691
1532371492.653,41.992,44.434,28.320,34.180,49.805
1532371492.656,40.527,42.969,26.855,32.715,22.461
1532371492.660,36.621,43.457,25.391,28.809,-12.207
1532371492.664,32.715,41.992,25.879,25.391,32.227
1532371492.668,30.273,40.527,25.879,24.902,63.965
1532371492.672,27.344,40.039,26.855,26.855,32.227
1532371492.676,25.391,39.551,25.879,23.438,-29.297
1532371492.680,31.738,42.480,25.879,24.414,-33.203
1532371492.684,37.598,45.898,25.879,29.785,53.223
1532371492.688,37.109,46.875,24.902,27.832,51.270
1532371492.691,39.551,44.922,27.832,28.320,-12.207
1532371492.695,42.480,43.945,28.809,34.180,-20.020
1532371492.699,40.527,45.898,27.344,37.109,31.250
1532371492.703,41.992,49.316,30.762,36.621,72.754
1532371492.707,42.969,49.316,32.227,38.086,35.156
1532371492.711,49.805,50.293,31.250,42.480,3.418
1532371492.715,58.105,53.223,36.133,49.805,24.414
1532371492.719,56.152,56.152,40.039,52.734,59.082
1532371492.723,60.059,59.570,39.062,51.758,34.180
1532371492.727,61.523,58.105,39.062,47.852,-11.230
1532371492.730,53.711,54.688,39.062,44.434,44.434
1532371492.734,47.852,53.223,36.133,39.062,69.824
1532371492.738,49.316,53.711,35.156,34.180,20.996
1532371492.742,47.363,55.176,35.156,41.504,4.883
1532371492.746,49.316,54.199,36.133,46.387,18.555
1532371492.750,54.199,55.664,36.133,47.363,67.383
1532371492.754,57.129,55.664,33.691,45.898,66.895
1532371492.758,55.176,53.223,30.762,41.504,-9.277
1532371492.762,50.293,53.223,30.762,40.039,-20.020
1532371492.765,52.734,51.758,30.762,39.551,36.133
1532371492.769,51.270,51.758,28.320,36.621,55.176
1532371492.773,46.387,48.828,26.367,30.762,10.254
1532371492.777,41.992,46.387,27.344,25.391,-32.715
1532371492.781,46.387,49.805,27.832,34.180,14.648
1532371492.785,46.387,50.781,27.832,40.039,45.410
1532371492.789,44.922,45.898,27.832,37.109,15.137
1532371492.793,48.828,45.410,26.855,42.480,-24.414
1532371492.797,45.898,45.410,29.297,40.527,15.625
1532371492.801,46.387,44.922,30.273,38.574,81.055
1532371492.804,52.246,43.945,28.809,40.527,68.359
1532371492.808,54.688,40.039,29.297,38.574,16.113
1532371492.812,52.246,41.992,30.273,38.574,16.602
1532371492.816,47.852,45.410,29.785,36.133,46.875
1532371492.820,43.945,46.387,29.785,36.133,43.945
1532371492.824,43.457,44.434,33.691,39.062,9.277
1532371492.828,44.434,42.969,33.691,40.039,-11.719
1532371492.832,43.945,42.969,30.273,39.062,29.297
1532371492.836,43.945,43.457,32.715,38.574,68.359
1532371492.839,51.270,43.457,30.762,39.062,9.277
1532371492.843,49.805,43.457,27.832,38.574,-35.156
1532371492.847,48.340,44.922,32.715,40.039,16.113
1532371492.851,53.223,44.922,37.109,43.457,65.918
1532371492.855,45.410,41.992,35.156,40.039,11.719
1532371492.859,42.480,42.480,32.227,35.156,-34.668
1532371492.863,45.410,43.457,31.250,40.039,33.691
1532371492.867,47.852,43.945,31.250,45.898,56.641
1532371492.871,52.734,46.387,30.273,45.898,44.922
1532371492.875,50.293,45.898,27.344,42.480,10.254
1532371492.878,47.363,44.922,26.855,47.363,0.000
1532371492.882,46.875,45.898,26.367,46.387,33.691
1532371492.886,44.434,42.969,30.273,39.551,49.316
1532371492.890,43.945,41.504,32.227,41.504,13.184
1532371492.894,47.363,42.480,32.227,43.457,-44.434
1532371492.898,44.434,42.969,35.156,46.387,6.348
1532371492.902,38.574,44.434,31.738,45.410,50.293
1532371492.906,37.598,41.016,29.297,40.039,-9.277
1532371492.910,42.480,40.039,30.273,38.574,-14.648
1532371492.913,50.293,44.434,29.785,42.969,10.254
1532371492.917,48.828,46.875,32.715,44.922,22.461
1532371492.921,48.340,46.387,32.715,45.410,10.742
1532371492.925,50.781,42.969,29.297,43.945,-47.363
1532371492.929,54.199,42.969,29.785,42.969,-2.441
1532371492.933,46.387,45.410,33.203,42.969,51.270
1532371492.937,37.109,48.340,32.227,34.180,27.832
1532371492.941,36.621,47.363,30.762,29.785,-10.254
1532371492.945,38.574,47.363,33.691,31.738,9.277
1532371492.949,38.574,51.758,33.203,36.133,51.270
1532371492.952,37.598,49.805,31.738,36.621,64.941
1532371492.956,40.039,46.875,33.691,31.250,5.371
1532371492.960,42.969,47.363,33.691,32.227,-32.227
1532371492.964,48.340,49.316,31.738,38.086,13.672
1532371492.968,52.246,47.363,32.715,40.039,53.711
1532371492.972,51.758,47.363,32.227,36.621,15.137
1532371492.976,50.293,53.223,28.320,25.879,-24.414
1532371492.980,50.781,52.734,26.855,25.391,34.180
1532371492.984,55.176,53.223,28.320,31.738,66.895
1532371492.987,66.406,53.711,30.273,34.668,30.273
1532371492.991,63.477,46.875,31.738,39.551,5.371
1532371492.995,50.781,41.504,34.668,51.270,9.277
1532371492.999,49.805,42.480,34.668,59.570,38.574
1532371493.003,48.828,45.410,31.250,55.664,55.664
1532371493.007,53.711,45.898,29.297,54.199,5.859
1532371493.011,55.176,46.387,29.297,55.176,-15.625
1532371493.015,55.176,48.828,31.250,58.594,22.461
1532371493.019,56.641,52.246,34.668,59.082,44.434
1532371493.023,52.734,50.781,34.180,54.199,-17.090
1532371493.026,66.895,45.410,30.762,62.988,-36.621
1532371493.030,77.148,46.387,28.809,71.289,20.508
1532371493.034,60.547,46.875,32.227,54.688,25.391
1532371493.038,47.852,47.363,29.785,40.039,-4.395
1532371493.042,49.316,46.387,23.926,44.922,-28.320
1532371493.046,55.176,43.457,22.461,48.828,-32.227
1532371493.050,60.547,43.945,23.438,53.223,46.875
1532371493.054,59.570,42.480,23.926,54.688,53.711
1532371493.058,56.152,40.527,21.484,50.781,-25.391
1532371493.061,56.152,41.992,19.043,55.176,-0.977
1532371493.065,57.617,41.992,19.531,60.059,71.289
1532371493.069,58.105,40.039,19.531,59.082,79.102
1532371493.073,59.570,39.551,18.066,59.570,9.277
1532371493.077,62.012,39.551,16.602,64.453,-27.832
1532371493.081,60.059,38.086,20.508,64.453,1.953
1532371493.085,62.012,37.109,20.020,61.523,38.574
1532371493.089,66.406,36.621,16.113,54.688,-5.371
1532371493.093,66.406,38.086,16.602,49.805,-36.133
1532371493.097,66.406,39.062,18.066,46.387,2.930
1532371493.100,65.430,39.062,17.578,50.293,48.340
1532371493.104,61.035,40.527,13.672,53.223,38.574
1532371493.108,57.617,42.480,15.625,49.805,7.812
1532371493.112,59.082,40.527,18.066,51.758,21.973
1532371493.116,62.988,39.062,19.531,54.199,66.406
1532371493.120,61.035,40.039,22.461,50.293,42.969
1532371493.124,58.594,40.039,21.973,47.363,-18.555
1532371493.128,62.500,40.039,20.996,47.363,24.414
1532371493.132,59.570,38.574,22.949,49.316,75.195
1532371493.135,51.758,40.527,23.926,44.434,84.961
1532371493.139,56.641,42.480,25.391,41.504,20.020
1532371493.143,60.059,41.504,25.879,45.898,-14.160
1532371493.147,58.105,44.434,26.855,48.828,49.316
1532371493.151,56.641,45.898,27.344,53.223,91.309
1532371493.155,55.664,44.434,26.367,49.805,22.461
1532371493.159,57.129,42.480,28.809,44.922,-41.992
1532371493.163,60.547,42.480,29.297,49.805,16.602
1532371493.167,61.035,42.480,28.809,49.805,90.332
1532371493.171,63.477,44.434,27.832,46.875,58.594
1532371493.174,62.500,44.434,27.344,44.434,-15.625
1532371493.178,59.082,43.945,26.855,41.016,23.926
1532371493.182,62.012,46.875,26.367,43.945,67.383
1532371493.186,65.918,46.875,27.344,47.852,58.594
1532371493.190,64.941,45.898,25.879,42.969,25.879
1532371493.194,66.895,46.875,23.926,37.109,-7.812
1532371493.198,77.637,48.340,26.367,40.039,9.277
1532371493.202,65.918,44.922,26.367,42.480,43.457
1532371493.206,51.270,43.945,25.879,42.969,2.441
1532371493.209,57.617,47.852,28.809,48.340,-31.250
1532371493.213,55.176,44.922,27.832,42.969,30.273
1532371493.217,51.758,43.457,26.855,41.504,74.707
1532371493.221,50.293,46.387,24.414,43.945,20.508
1532371493.225,44.434,45.898,23.438,42.480,-16.602
1532371493.229,45.410,45.898,24.902,40.527,12.207
1532371493.233,48.828,46.387,27.344,37.109,34.180
1532371493.237,54.688,48.340,30.273,38.086,2.930
1532371493.241,54.688,46.387,28.809,42.969,-16.113
1532371493.245,48.340,47.363,27.344,48.340,20.020
1532371493.248,50.781,53.223,29.785,49.316,52.734
1532371493.252,49.805,50.781,30.762,46.875,40.039
1532371493.256,44.922,47.852,28.320,41.504,3.418
1532371493.260,48.828,48.828,28.320,37.109,-4.395
1532371493.264,55.176,50.781,32.227,44.922,17.090
1532371493.268,54.199,50.781,32.715,53.223,43.945
1532371493.272,56.152,49.805,29.297,48.828,30.762
1532371493.276,58.594,49.805,29.785,42.969,-21.973
1532371493.280,58.594,46.387,29.297,44.922,37.109
1532371493.283,53.223,43.945,25.879,46.875,99.121
1532371493.287,46.875,43.457,24.414,44.922,65.918
1532371493.291,49.316,44.922,26.367,42.480,9.277
1532371493.295,42.969,44.434,26.367,40.039,1.465
1532371493.299,44.922,41.992,26.855,44.922,58.594
1532371493.303,51.270,41.504,27.344,49.316,37.598
1532371493.307,47.852,41.016,26.367,46.875,-13.672
1532371493.311,46.387,41.992,24.414,43.457,12.695
1532371493.315,45.898,42.480,22.949,43.457,52.734
1532371493.319,47.852,41.504,26.855,46.387,47.363
1532371493.322,54.688,40.039,28.320,46.387,11.719
1532371493.326,57.617,40.527,27.344,43.945,4.883
1532371493.330,51.758,42.969,24.414,41.016,59.082
1532371493.334,50.781,42.969,27.832,47.852,74.707
1532371493.338,60.059,48.828,35.645,59.082,11.719
1532371493.342,63.477,51.758,34.668,54.199,-13.672
1532371493.346,63.477,50.293,35.645,54.199,14.648
1532371493.350,68.848,54.199,39.062,62.500,49.316
1532371493.354,67.871,51.758,35.645,56.152,4.395
1532371493.357,62.500,49.316,30.762,47.363,-53.711
1532371493.361,60.059,50.781,29.785,51.758,-24.902
1532371493.365,62.500,52.246,32.715,56.152,15.137
1532371493.369,61.523,50.293,34.180,56.152,15.137
1532371493.373,64.941,50.781,33.691,52.246,-32.227
1532371493.377,62.012,51.758,31.738,45.410,-42.969
1532371493.381,57.617,50.293,31.250,47.363,34.180
1532371493.385,60.547,49.805,27.344,46.875,60.547
1532371493.389,53.711,44.922,24.902,38.574,10.742
1532371493.393,58.105,43.945,25.879,37.598,-11.719
1532371493.396,64.453,46.875,27.344,42.480,28.320
1532371493.400,60.059,47.852,30.273,44.922,62.988
1532371493.404,62.012,48.340,29.785,48.828,34.180
1532371493.408,62.500,46.387,25.391,46.387,-1.953
1532371493.412,62.500,44.922,25.879,44.434,39.551
1532371493.416,63.477,45.898,27.832,50.293,83.984
1532371493.420,59.570,44.922,24.902,50.293,38.574
1532371493.424,59.082,42.480,24.902,46.387,-7.324
1532371493.428,58.594,43.945,23.926,41.992,24.902
1532371493.431,57.129,45.898,24.902,41.016,70.801
1532371493.435,62.012,45.410,29.297,42.480,26.855
1532371493.439,63.965,45.898,27.344,45.898,-18.555
1532371493.443,64.453,46.875,24.902,50.293,33.691
1532371493.447,62.012,44.922,24.902,47.852,90.820
1532371493.451,57.129,42.480,25.879,46.875,61.035
1532371493.455,54.199,43.945,25.879,45.898,3.418
1532371493.459,55.664,43.945,29.297,45.410,13.672
1532371493.463,53.223,42.969,30.273,45.410,27.344
1532371493.467,53.711,45.410,28.809,43.457,41.992
1532371493.470,55.176,44.922,29.297,44.922,41.016
1532371493.474,55.176,44.922,27.344,42.969,-27.344
1532371493.478,55.664,46.387,25.879,39.551,-23.926
1532371493.482,50.781,45.898,26.367,45.410,60.059
1532371493.486,52.246,44.434,26.367,49.316,41.504
1532371493.490,55.176,44.434,27.832,46.387,-19.043
1532371493.494,47.363,43.945,26.855,41.992,-8.301
1532371493.498,46.387,45.410,25.879,42.480,33.691
1532371493.502,46.387,45.898,28.809,41.992,62.012
1532371493.505,40.527,43.457,29.297,40.039,23.438
1532371493.509,48.340,42.480,27.344,42.480,13.672
1532371493.513,44.922,43.945,28.320,39.062,19.043
1532371493.517,37.598,45.410,31.738,37.109,12.695
1532371493.521,43.945,43.945,28.809,38.574,6.836
1532371493.525,43.945,41.504,23.926,40.527,-30.273
1532371493.529,45.410,42.969,25.391,43.457,20.020
1532371493.533,56.641,46.387,25.391,49.316,93.750
1532371493.537,56.152,47.852,22.461,50.781,53.223
1532371493.541,49.805,46.875,23.438,44.922,-46.875
1532371493.544,52.246,45.898,24.414,45.898,-15.137
1532371493.548,51.758,45.410,23.438,46.875,76.172
1532371493.552,51.758,45.410,24.902,44.434,44.922
1532371493.556,51.758,46.387,24.414,40.039,-19.531
1532371493.560,44.922,45.410,23.438,38.574,3.906
1532371493.564,43.945,45.410,26.367,40.039,53.711
1532371493.568,47.852,44.434,31.250,40.527,58.594
1532371493.572,45.410,40.039,30.762,33.691,13.672
1532371493.576,45.410,42.480,31.738,30.273,-22.949
1532371493.579,46.387,44.434,30.762,33.691,26.855
1532371493.583,40.527,41.504,26.855,33.203,81.543
1532371493.587,41.016,41.504,26.855,33.691,40.527
1532371493.591,44.922,43.457,25.879,33.203,-8.301
1532371493.595,47.852,44.922,22.461,34.668,34.180
1532371493.599,46.387,44.922,18.555,34.180,58.594
1532371493.603,46.875,43.945,20.020,32.715,9.766
1532371493.607,47.363,43.457,21.484,32.715,-31.738
1532371493.611,40.039,41.504,19.043,28.320,-25.879
1532371493.615,37.109,42.480,18.555,25.391,38.574
1532371493.618,39.062,41.504,21.484,23.926,44.434
1532371493.622,45.898,42.480,20.508,27.344,-28.809
1532371493.626,48.828,45.410,20.508,31.738,11.719
1532371493.630,48.828,42.480,20.996,28.320,75.195
1532371493.634,56.641,40.039,21.484,26.855,37.598
1532371493.638,56.641,40.527,21.973,32.715,-14.648
1532371493.642,53.223,39.551,19.043,42.969,-11.230
1532371493.646,54.199,40.527,23.438,52.734,33.203
1532371493.650,50.293,43.457,27.832,57.129,71.289
1532371493.654,49.805,45.898,28.320,51.270,7.324
1532371493.657,48.340,44.922,27.344,47.363,-21.973
1532371493.661,44.434,45.410,29.297,46.875,58.594
1532371493.665,42.480,47.852,33.203,47.852,89.844
1532371493.669,45.410,47.852,32.715,47.363,25.879
1532371493.673,48.828,48.828,33.203,44.922,-29.785
1532371493.677,49.805,51.270,31.738,41.016,16.113
1532371493.681,46.387,53.711,33.691,46.387,69.824
1532371493.685,39.062,48.828,32.227,51.270,62.012
1532371493.689,40.527,42.480,30.762,45.410,-2.930
1532371493.692,46.387,45.410,30.273,44.922,8.789
1532371493.696,45.898,47.852,27.832,47.852,75.684
1532371493.700,45.410,45.410,31.250,45.410,68.359
1532371493.704,44.434,45.898,29.297,41.016,16.602
1532371493.708,40.039,44.922,25.391,38.086,-15.137
1532371493.712,41.992,42.480,27.344,41.504,29.297
1532371493.716,44.922,44.434,27.344,43.945,63.477
1532371493.720,45.898,45.410,23.438,42.969,30.762
1532371493.724,44.922,41.504,20.996,40.527,34.668
1532371493.728,42.480,41.992,22.461,40.039,53.711
1532371493.731,50.781,44.922,27.344,42.969,29.297
1532371493.735,52.246,42.480,23.926,44.434,19.043
1532371493.739,48.828,41.992,20.996,42.969,-16.113
1532371493.743,47.363,41.992,26.367,38.086,-1.465
1532371493.747,43.945,38.574,24.414,36.133,48.340
1532371493.751,49.316,38.086,20.996,38.086,37.109
1532371493.755,52.734,39.551,20.996,38.086,-32.227
1532371493.759,46.875,39.062,20.996,37.109,-41.992
1532371493.763,48.340,37.598,24.902,37.598,48.340
1532371493.766,49.805,39.062,21.484,36.621,67.871
1532371493.770,45.898,39.551,18.555,38.086,-14.160
1532371493.774,46.387,39.551,19.043,38.086,-20.020
1532371493.778,47.363,39.062,19.531,37.109,49.805
1532371493.782,47.852,32.715,23.438,43.457,66.406
1532371493.786,55.664,31.250,27.832,55.664,26.855
1532371493.790,62.500,42.480,17.578,48.828,-28.809
1532371493.794,53.711,52.246,10.254,28.809,-29.297
1532371493.798,46.387,48.828,13.672,30.273,42.969
1532371493.802,53.711,44.922,14.160,45.410,41.504
1532371493.805,55.176,45.410,13.672,42.969,-23.926
1532371493.809,52.734,44.922,13.672,35.156,-11.719
1532371493.813,49.316,45.410,15.137,35.156,31.738
1532371493.817,43.945,46.387,14.648,33.691,51.270
1532371493.821,49.316,42.969,12.207,36.621,0.000
1532371493.825,51.758,41.504,11.719,38.086,-16.113
1532371493.829,46.387,43.945,11.230,32.227,48.340
1532371493.833,45.410,42.969,13.184,28.809,57.129
1532371493.837,54.199,44.434,16.113,34.180,20.996
1532371493.840,59.082,47.363,17.090,42.969,-34.180
1532371493.844,58.594,46.875,17.578,44.922,-4.883
1532371493.848,61.035,47.852,18.555,45.410,45.410
1532371493.852,55.664,50.293,19.043,38.574,-6.348
1532371493.856,50.781,50.293,15.625,31.250,-45.410
1532371493.860,45.898,44.434,11.719,33.691,8.789
1532371493.864,45.410,42.480,9.766,33.691,82.031
1532371493.868,49.805,47.363,12.207,39.551,77.637
1532371493.872,48.828,44.922,18.555,41.504,1.465
1532371493.876,50.293,40.527,23.926,41.992,12.695
1532371493.879,55.664,41.992,24.414,46.875,71.289
1532371493.883,52.246,41.504,20.508,41.016,46.875
1532371493.887,49.316,42.480,21.484,38.086,-21.973
1532371493.891,55.664,46.875,21.973,44.434,-45.410
1532371493.895,63.965,47.852,22.461,43.945,-1.953
1532371493.899,60.547,48.828,22.461,44.922,72.266
1532371493.903,45.410,43.945,21.484,38.574,42.969
1532371493.907,44.922,41.992,20.020,35.156,-25.391
1532371493.911,53.711,46.875,19.531,40.527,-13.672
1532371493.914,55.664,46.875,26.367,44.922,42.969
1532371493.918,50.781,45.898,25.391,44.434,26.367
1532371493.922,44.434,45.410,20.508,36.621,-36.621
1532371493.926,46.387,45.410,25.391,40.527,14.160
1532371493.930,45.898,47.852,26.855,39.551,32.715
1532371493.934,45.898,48.828,26.855,29.785,-11.230
1532371493.938,46.875,47.363,25.391,30.762,-12.695
1532371493.942,35.645,46.387,24.414,28.809,12.695
1532371493.946,27.344,47.363,25.391,28.320,37.598
1532371493.950,32.227,48.828,27.344,31.738,26.367
1532371493.953,38.574,54.199,32.227,29.785,-13.672
1532371493.957,42.480,56.641,33.691,31.738,-21.484
1532371493.961,39.551,56.152,31.738,29.297,22.461
1532371493.965,34.180,54.688,32.227,25.879,61.035
1532371493.969,37.598,52.734,33.691,26.855,36.133
1532371493.973,35.156,54.688,30.762,25.391,-0.488
1532371493.977,32.227,58.105,30.273,23.926,-0.977
1532371493.981,32.715,58.105,33.203,27.344,47.363
1532371493.985,35.645,52.734,34.668,33.203,36.133
1532371493.988,41.504,49.805,34.180,33.203,-50.293
