timestamps,TP9,AF7,AF8,TP10,Right AUX
1532278725.376,44.922,31.738,16.602,33.691,-213.379
1532278725.380,46.875,25.879,17.090,39.062,8.301
1532278725.384,47.852,26.367,20.020,46.875,303.223
1532278725.388,43.945,28.320,21.484,36.621,124.023
1532278725.392,46.875,31.250,20.996,30.273,-220.215
1532278725.396,50.293,31.738,19.531,41.504,-135.742
1532278725.400,53.711,32.715,21.484,50.781,226.074
1532278725.403,56.152,31.738,20.996,41.992,197.754
1532278725.407,55.664,33.203,21.973,33.203,-117.676
1532278725.411,55.176,34.668,23.438,31.250,-160.156
1532278725.415,55.176,32.227,24.414,36.621,138.672
1532278725.419,51.758,29.297,22.949,36.133,253.906
1532278725.423,49.805,27.344,24.414,21.973,-62.500
1532278725.427,50.781,28.320,25.879,19.043,-219.727
1532278725.431,47.363,27.832,23.926,22.949,74.707
1532278725.435,42.969,26.367,20.508,16.602,282.715
1532278725.439,44.922,26.855,20.996,9.277,16.602
1532278725.443,51.758,26.855,21.973,9.766,-246.094
1532278725.446,58.594,29.297,22.949,24.414,-31.738
1532278725.450,56.641,28.320,23.926,31.738,261.719
1532278725.454,46.387,25.879,22.949,20.996,113.281
1532278725.458,45.410,28.809,24.414,22.461,-190.430
1532278725.462,48.340,29.297,27.832,34.180,-113.281
1532278725.466,47.363,27.832,26.855,37.598,191.895
1532278725.470,47.363,26.855,26.855,30.762,203.613
1532278725.474,46.387,27.832,24.414,20.996,-119.141
1532278725.478,39.551,29.785,23.926,22.949,-190.430
1532278725.482,33.203,30.273,25.879,27.344,128.418
1532278725.486,29.297,24.902,24.902,22.461,233.887
1532278725.489,36.133,21.973,28.809,22.461,-65.918
1532278725.493,50.293,24.414,28.809,29.297,-234.863
1532278725.497,46.875,32.227,20.996,31.250,37.598
1532278725.501,36.133,37.598,16.602,18.555,279.785
1532278725.505,34.668,40.527,12.695,9.277,58.105
1532278725.509,33.691,44.434,8.789,10.742,-232.422
1532278725.513,37.109,47.363,9.277,18.555,-53.223
1532278725.517,32.715,50.293,8.301,21.973,262.695
1532278725.521,24.414,51.758,7.812,10.742,142.578
1532278725.525,23.438,49.316,6.348,7.324,-200.684
1532278725.529,24.902,43.457,8.789,17.578,-179.688
1532278725.532,24.902,45.898,12.207,21.973,167.480
1532278725.536,28.320,50.781,11.230,14.648,219.727
1532278725.540,35.156,49.805,11.230,9.766,-115.234
1532278725.544,36.621,49.316,7.324,13.672,-224.609
1532278725.548,30.273,51.758,3.906,16.602,84.473
1532278725.552,25.391,52.734,2.441,8.301,234.863
1532278725.556,23.926,50.293,4.395,-0.488,-41.016
1532278725.560,33.203,43.457,6.348,10.254,-213.379
1532278725.564,43.457,41.504,3.906,20.020,11.230
1532278725.568,38.086,44.922,1.465,18.066,262.695
1532278725.572,38.086,44.434,2.441,10.742,90.332
1532278725.575,41.504,41.504,5.859,12.207,-207.031
1532278725.579,50.293,40.527,7.812,27.832,-102.539
1532278725.583,53.711,41.016,8.301,35.645,219.238
1532278725.587,48.828,38.574,9.277,30.762,191.406
1532278725.591,51.270,36.621,10.254,27.344,-161.621
1532278725.595,55.176,34.668,9.766,31.250,-181.152
1532278725.599,61.523,32.715,7.812,41.504,170.410
1532278725.603,62.988,32.715,8.301,38.086,255.371
1532278725.607,56.641,33.203,8.789,29.785,-29.785
1532278725.611,53.223,34.180,5.859,32.227,-187.012
1532278725.615,56.641,33.203,6.836,40.527,101.562
1532278725.618,56.641,33.691,10.254,40.527,300.781
1532278725.622,55.176,34.180,8.789,32.227,29.297
1532278725.626,56.641,33.203,8.789,35.645,-218.262
1532278725.630,60.547,35.645,10.742,45.898,-26.855
1532278725.634,61.035,34.668,9.277,38.574,235.840
1532278725.638,61.035,31.738,11.719,32.227,94.238
1532278725.642,64.453,30.762,16.113,36.133,-198.242
1532278725.646,67.871,31.250,15.625,44.434,-85.449
1532278725.650,73.242,32.715,14.648,49.316,229.004
1532278725.654,70.801,31.738,17.578,42.969,213.867
1532278725.658,69.824,31.738,17.090,35.645,-124.023
1532278725.661,77.637,31.738,13.672,40.039,-171.387
1532278725.665,74.219,32.227,14.648,47.852,181.641
1532278725.669,70.312,29.297,16.602,42.480,282.715
1532278725.673,70.312,27.832,14.160,30.762,-41.504
1532278725.677,69.824,30.273,17.090,35.156,-220.703
1532278725.681,75.684,29.785,22.461,47.363,64.453
1532278725.685,74.707,29.297,20.996,44.434,278.809
1532278725.689,76.172,27.832,20.020,37.598,45.410
1532278725.693,79.102,27.832,20.508,35.645,-258.789
1532278725.697,71.777,28.320,18.066,41.016,-104.492
1532278725.701,66.406,27.832,20.020,50.293,232.422
1532278725.704,66.406,28.320,23.926,44.922,126.465
1532278725.708,64.453,27.832,26.855,37.598,-178.223
1532278725.712,56.641,26.855,25.879,43.457,-127.930
1532278725.716,50.781,26.855,23.438,48.828,185.547
1532278725.720,45.898,26.855,24.414,38.574,219.727
1532278725.724,45.898,28.320,23.438,27.344,-93.262
1532278725.728,46.875,29.785,22.461,29.297,-169.434
1532278725.732,49.316,28.320,24.414,33.203,130.371
1532278725.736,49.316,28.320,26.367,30.273,225.586
1532278725.740,42.480,29.297,27.344,28.809,-42.969
1532278725.744,35.645,26.367,26.367,33.691,-222.656
1532278725.747,35.645,24.414,26.855,40.039,28.320
1532278725.751,34.180,25.391,26.367,38.086,281.738
1532278725.755,37.598,25.879,26.855,29.785,70.801
1532278725.759,40.039,27.344,28.320,24.902,-214.844
1532278725.763,41.504,26.367,28.809,32.227,-61.523
1532278725.767,38.086,26.367,29.297,40.527,264.160
1532278725.771,28.320,27.832,30.273,31.738,159.180
1532278725.775,29.785,27.344,30.762,21.973,-175.781
1532278725.779,31.738,25.879,28.320,25.391,-127.930
1532278725.783,25.391,24.902,27.344,33.203,195.801
1532278725.787,20.020,25.879,28.320,29.785,230.957
1532278725.790,17.090,26.367,30.762,21.484,-112.305
1532278725.794,10.254,27.832,32.715,21.484,-215.332
1532278725.798,8.789,29.297,30.273,26.855,104.980
1532278725.802,7.324,29.785,31.250,27.344,251.465
1532278725.806,6.836,28.320,30.762,17.090,-11.719
1532278725.810,10.742,28.320,30.273,17.578,-232.910
1532278725.814,8.301,30.762,27.344,24.902,19.531
1532278725.818,3.906,30.762,26.367,26.855,299.316
1532278725.822,7.324,31.250,29.297,20.996,105.469
1532278725.826,10.742,31.250,27.344,16.602,-201.172
1532278725.830,5.859,31.250,27.832,21.973,-77.148
1532278725.834,1.953,32.715,29.297,26.367,235.352
1532278725.837,0.977,32.227,29.785,20.996,188.477
1532278725.841,4.883,30.762,30.273,18.066,-153.809
1532278725.845,6.348,31.738,27.344,24.902,-146.973
1532278725.849,12.695,31.738,26.367,30.273,183.105
1532278725.853,21.484,32.227,28.809,22.461,231.934
1532278725.857,16.602,34.180,27.832,17.090,-95.215
1532278725.861,12.695,32.227,25.391,24.414,-214.844
1532278725.865,11.230,27.344,25.879,32.227,96.191
1532278725.869,14.160,27.832,27.832,32.227,272.949
1532278725.873,19.531,31.250,30.273,21.973,-38.086
1532278725.877,21.484,31.738,28.809,20.508,-279.297
1532278725.880,25.391,33.203,25.391,28.809,-27.344
1532278725.884,25.391,30.762,27.344,28.320,278.809
1532278725.888,23.926,28.320,27.344,20.508,120.605
1532278725.892,19.043,27.832,26.855,17.578,-214.355
1532278725.896,17.090,28.320,26.367,24.414,-90.332
1532278725.900,17.578,28.320,24.414,27.832,236.816
1532278725.904,13.672,29.297,24.902,17.090,186.523
1532278725.908,14.648,31.250,25.879,11.719,-169.434
1532278725.912,17.578,29.297,26.367,20.996,-208.984
1532278725.916,20.020,26.855,25.391,24.414,129.883
1532278725.920,18.066,25.391,25.391,20.508,253.906
1532278725.923,10.254,26.367,28.320,17.090,-35.645
1532278725.927,8.301,28.809,30.762,21.973,-191.895
1532278725.931,15.625,26.855,27.832,31.250,62.988
1532278725.935,20.996,24.902,26.367,28.809,276.855
1532278725.939,16.602,27.832,27.832,19.043,55.664
1532278725.943,17.090,30.273,29.297,20.020,-206.543
1532278725.947,21.973,26.367,29.297,28.809,-44.434
1532278725.951,24.414,26.855,29.785,28.320,233.398
1532278725.955,27.832,30.273,28.809,20.020,108.887
1532278725.959,27.344,29.785,27.832,17.090,-205.078
1532278725.963,20.020,31.250,27.344,19.531,-129.395
1532278725.966,21.973,29.785,27.344,25.879,200.195
1532278725.970,22.949,26.367,30.762,19.043,200.195
1532278725.974,19.531,27.344,32.227,3.418,-133.301
1532278725.978,20.996,26.855,27.832,11.719,-177.734
1532278725.982,24.414,24.414,27.832,24.414,154.785
1532278725.986,29.297,27.344,26.855,22.461,248.047
1532278725.990,30.762,30.273,27.832,14.648,-48.340
1532278725.994,31.250,30.273,33.203,17.090,-227.051
1532278725.998,29.297,30.273,29.785,26.855,41.504
1532278726.002,23.438,30.273,28.320,25.879,278.320
1532278726.006,18.066,30.273,31.250,18.066,55.176
1532278726.009,19.531,31.738,32.227,14.160,-230.957
1532278726.013,23.438,29.785,33.691,18.555,-93.750
1532278726.017,26.855,29.785,31.738,23.926,229.492
1532278726.021,31.250,31.250,33.203,18.555,163.574
1532278726.025,37.109,31.738,37.109,13.184,-200.684
1532278726.029,32.227,30.762,34.180,17.578,-195.312
1532278726.033,20.996,27.344,30.762,19.043,165.527
1532278726.037,19.043,28.809,27.344,11.719,236.816
1532278726.041,19.043,30.762,30.273,5.859,-81.055
1532278726.045,28.320,32.227,34.668,12.695,-175.781
1532278726.049,48.828,34.180,32.715,18.066,136.230
1532278726.052,59.570,34.668,31.738,12.695,265.137
1532278726.056,61.523,33.691,33.203,3.906,-12.695
1532278726.060,66.406,31.738,32.715,3.906,-223.633
1532278726.064,70.312,32.227,30.762,13.184,0.488
1532278726.068,68.848,33.203,32.227,16.602,256.348
1532278726.072,65.430,33.691,31.738,7.324,74.219
1532278726.076,64.453,33.203,30.762,-0.488,-232.910
1532278726.080,60.059,32.715,32.227,2.441,-83.008
1532278726.084,59.082,33.203,35.645,5.371,243.164
1532278726.088,55.176,30.762,39.062,-1.465,162.109
1532278726.092,52.246,29.785,41.016,-9.766,-185.059
1532278726.095,51.758,27.344,41.016,-6.348,-177.734
1532278726.099,45.898,24.902,40.527,-2.441,161.133
1532278726.103,40.039,27.344,40.039,-7.324,237.305
1532278726.107,30.273,28.320,40.527,-12.207,-37.598
1532278726.111,18.066,27.344,42.969,-18.555,-213.379
1532278726.115,4.883,26.855,43.457,-20.020,30.273
1532278726.119,0.488,23.438,43.945,-17.578,263.184
1532278726.123,2.441,21.973,46.387,-27.344,44.922
1532278726.127,6.348,24.902,47.363,-25.879,-200.684
1532278726.131,11.719,25.391,48.828,-14.648,-18.066
1532278726.135,10.742,24.902,48.340,-16.602,246.582
1532278726.138,11.230,27.344,47.852,-22.949,104.980
1532278726.142,18.555,27.344,49.805,-20.020,-198.242
1532278726.146,20.996,25.391,49.805,-14.160,-104.492
1532278726.150,23.926,24.414,46.387,-12.695,218.262
1532278726.154,25.879,27.344,47.363,-22.949,160.645
1532278726.158,22.461,27.344,47.363,-25.879,-154.297
1532278726.162,25.391,26.855,42.480,-13.184,-156.738
1532278726.166,28.809,26.855,41.016,-3.906,161.621
1532278726.170,24.414,23.926,41.016,-7.324,254.395
1532278726.174,25.391,21.973,42.480,-13.184,-42.969
1532278726.178,23.926,20.996,41.992,-9.277,-201.172
1532278726.181,26.367,20.020,40.527,0.488,71.777
1532278726.185,28.320,19.043,38.086,3.418,288.086
1532278726.189,31.738,19.531,38.574,0.488,35.645
1532278726.193,37.598,20.020,40.039,2.441,-226.562
1532278726.197,29.785,17.578,38.574,11.230,-6.348
1532278726.201,14.648,15.625,37.598,15.137,288.574
1532278726.205,5.859,18.066,38.574,9.277,129.883
1532278726.209,0.000,22.949,41.016,10.742,-202.637
1532278726.213,-5.371,25.879,40.527,15.625,-152.832
1532278726.217,-11.719,22.949,37.109,14.160,173.828
1532278726.221,-10.254,22.461,37.598,15.137,196.777
1532278726.224,-8.301,23.438,39.062,13.672,-117.676
1532278726.228,-24.902,17.578,34.668,11.230,-174.316
1532278726.232,-31.738,10.254,33.203,17.578,132.812
1532278726.236,-25.391,11.719,33.203,18.066,258.789
1532278726.240,-23.438,13.184,30.762,8.301,-24.414
1532278726.244,-16.113,16.113,35.156,13.672,-217.773
1532278726.248,-14.648,18.066,37.109,27.832,24.902
1532278726.252,-19.531,17.090,29.785,17.090,260.742
1532278726.256,-19.531,17.578,27.832,4.395,63.477
1532278726.260,-14.160,18.555,28.320,12.207,-205.078
1532278726.264,-13.672,18.066,30.273,27.344,-59.082
1532278726.267,-19.043,14.160,29.785,34.668,220.703
1532278726.271,-22.461,14.648,29.297,24.902,140.625
1532278726.275,-25.391,18.555,32.715,23.926,-155.273
1532278726.279,-24.902,18.066,30.762,27.832,-133.301
1532278726.283,-16.113,14.648,29.785,32.227,187.500
1532278726.287,-11.719,16.602,31.250,32.227,214.844
1532278726.291,-16.113,16.113,30.273,19.043,-102.051
1532278726.295,-13.184,15.625,27.832,15.625,-201.172
1532278726.299,-9.766,19.531,26.367,33.203,94.238
1532278726.303,-9.277,23.438,27.832,38.086,252.930
1532278726.307,-9.766,24.902,28.320,24.414,13.672
1532278726.310,-4.883,21.973,26.855,22.461,-196.289
1532278726.314,-2.930,20.996,27.832,32.227,16.602
1532278726.318,-3.906,22.949,27.344,32.227,276.855
1532278726.322,0.000,25.391,26.855,25.879,69.824
1532278726.326,2.930,25.391,28.809,25.879,-227.539
1532278726.330,1.953,22.949,28.320,28.809,-104.980
1532278726.334,2.930,20.996,27.344,27.832,209.473
1532278726.338,3.418,20.996,27.832,22.949,196.777
1532278726.342,4.395,23.438,24.414,18.066,-120.117
1532278726.346,1.465,22.461,20.508,19.531,-145.020
1532278726.350,-2.441,19.043,21.973,24.902,144.531
1532278726.353,0.977,20.020,21.484,20.508,191.895
1532278726.357,6.836,20.508,22.949,17.090,-78.125
1532278726.361,7.812,19.043,25.391,22.949,-214.355
1532278726.365,12.207,20.020,23.926,31.738,65.918
1532278726.369,18.555,20.020,25.879,34.180,274.414
1532278726.373,14.160,18.066,27.832,24.414,-10.254
1532278726.377,14.648,16.602,26.367,21.484,-234.375
1532278726.381,15.137,18.066,23.926,29.785,-29.297
1532278726.385,10.742,20.996,26.367,32.227,237.793
1532278726.389,12.695,20.508,29.297,27.832,107.422
1532278726.393,16.602,21.973,27.832,21.484,-226.074
1532278726.396,17.578,23.438,27.344,26.367,-120.117
1532278726.400,19.043,19.531,29.297,41.016,238.770
1532278726.404,25.879,20.996,28.320,34.180,204.590
1532278726.408,24.902,23.438,26.855,22.949,-142.578
1532278726.412,25.879,20.508,26.367,33.691,-189.453
1532278726.416,31.250,21.973,25.879,41.992,162.598
1532278726.420,30.762,23.438,24.902,32.715,270.508
1532278726.424,33.203,23.438,25.879,25.391,-44.434
1532278726.428,32.715,26.855,23.438,29.297,-216.309
1532278726.432,30.273,23.926,20.508,35.156,43.945
1532278726.436,35.156,22.461,20.020,30.762,268.555
1532278726.439,35.156,22.949,21.484,26.367,54.199
1532278726.443,33.203,20.996,22.949,30.273,-224.609
1532278726.447,29.297,21.973,23.438,38.574,-47.852
1532278726.451,26.367,22.461,24.414,35.156,248.047
1532278726.455,24.414,24.414,24.902,27.344,117.188
1532278726.459,27.344,25.391,24.902,28.320,-182.617
1532278726.463,35.645,26.367,26.367,35.645,-114.258
1532278726.467,34.668,27.832,26.855,41.504,201.660
1532278726.471,35.156,24.902,23.926,33.203,195.801
1532278726.475,36.621,24.902,22.949,22.461,-111.328
1532278726.479,32.715,27.832,21.484,26.367,-179.199
1532278726.482,37.598,30.762,19.531,39.551,112.305
1532278726.486,36.133,27.832,21.973,39.551,265.137
1532278726.490,30.762,22.949,24.414,25.391,-6.836
1532278726.494,33.691,24.902,23.926,23.438,-229.492
1532278726.498,34.668,24.902,23.438,31.738,8.301
1532278726.502,33.203,23.438,20.996,30.762,278.320
1532278726.506,21.973,23.438,20.996,21.973,72.754
1532278726.510,17.578,23.438,22.461,20.508,-213.379
1532278726.514,20.996,22.461,21.973,26.367,-71.777
1532278726.518,22.461,22.461,21.484,26.855,226.562
1532278726.522,23.926,25.391,21.973,21.973,148.926
1532278726.525,23.438,25.879,22.949,15.137,-164.062
1532278726.529,24.414,23.438,22.461,22.461,-140.137
1532278726.533,25.879,22.461,20.996,27.832,143.555
1532278726.537,33.203,24.414,25.391,22.949,186.035
1532278726.541,38.086,25.391,25.391,18.066,-95.215
1532278726.545,36.133,24.414,22.949,20.996,-186.523
1532278726.549,45.898,25.879,25.879,32.715,112.305
1532278726.553,49.805,26.855,24.902,30.273,275.391
1532278726.557,46.875,29.297,25.391,20.996,11.719
1532278726.561,49.316,28.809,25.391,20.996,-216.797
1532278726.565,50.293,25.391,25.391,28.320,4.883
1532278726.568,48.340,24.902,26.855,32.715,292.480
1532278726.572,44.922,25.391,24.414,22.461,105.957
1532278726.576,33.691,26.855,24.414,16.602,-240.723
1532278726.580,24.414,30.273,26.855,30.273,-114.258
1532278726.584,21.973,31.738,26.855,38.574,217.285
1532278726.588,18.066,26.855,26.855,27.832,181.152
1532278726.592,9.766,23.926,27.344,22.949,-144.531
1532278726.596,8.301,23.438,27.344,31.250,-165.527
1532278726.600,8.789,23.926,25.391,35.645,166.504
1532278726.604,7.324,25.391,27.832,32.227,251.953
1532278726.608,9.766,26.367,30.273,22.949,-62.012
1532278726.611,9.766,25.391,27.344,23.926,-219.727
1532278726.615,16.113,27.832,27.832,35.156,78.125
1532278726.619,19.043,29.785,26.367,30.273,277.344
1532278726.623,20.020,27.832,26.367,19.531,-7.324
1532278726.627,21.484,25.879,28.809,21.973,-239.746
1532278726.631,28.320,25.879,26.855,28.809,-31.738
1532278726.635,35.156,27.832,25.879,27.832,228.027
1532278726.639,28.809,26.367,25.879,20.020,105.469
1532278726.643,28.320,23.438,27.832,17.090,-214.844
1532278726.647,29.297,24.902,27.344,22.461,-132.324
1532278726.651,32.715,23.438,23.926,28.809,209.961
1532278726.654,35.156,22.461,25.879,20.996,215.820
1532278726.658,35.156,24.414,23.926,10.742,-104.492
1532278726.662,42.969,25.391,20.996,19.531,-175.781
1532278726.666,52.246,22.949,22.461,29.785,149.414
1532278726.670,52.734,21.973,21.484,24.902,269.531
1532278726.674,49.805,25.879,22.461,19.043,-33.691
1532278726.678,48.340,26.367,22.949,22.949,-212.402
1532278726.682,47.363,23.438,22.461,32.227,46.875
1532278726.686,49.316,22.461,20.996,27.344,291.016
1532278726.690,45.410,20.996,19.531,17.578,77.148
1532278726.694,35.156,18.066,20.996,13.672,-206.055
1532278726.697,31.250,17.578,21.484,19.531,-40.527
1532278726.701,27.344,18.555,21.484,26.367,248.047
1532278726.705,24.414,18.555,20.508,17.578,122.070
1532278726.709,24.414,19.531,20.996,16.602,-183.594
1532278726.713,21.973,22.949,21.484,21.484,-157.227
1532278726.717,15.625,24.902,21.973,29.297,150.879
1532278726.721,4.883,24.414,21.973,29.297,191.895
1532278726.725,-1.953,22.949,23.438,20.020,-105.957
1532278726.729,-2.930,22.949,23.438,26.367,-170.898
1532278726.733,0.977,25.879,22.461,36.133,111.328
1532278726.737,5.371,26.855,24.414,31.250,250.000
1532278726.740,-0.488,26.367,24.414,24.414,-12.207
1532278726.744,-8.789,28.320,21.484,25.391,-208.008
1532278726.748,-9.766,28.809,20.996,32.715,17.090
1532278726.752,-7.324,30.762,23.438,32.715,256.348
1532278726.756,0.000,33.691,24.902,27.344,62.988
1532278726.760,0.488,30.273,24.414,29.785,-221.191
1532278726.764,-1.465,31.250,23.438,34.668,-58.594
1532278726.768,7.324,34.668,21.973,39.062,266.113
1532278726.772,7.324,35.156,25.879,32.715,169.922
1532278726.776,-0.488,33.691,27.344,21.973,-196.289
1532278726.780,1.465,32.227,23.926,28.809,-176.758
1532278726.783,5.859,33.203,21.484,37.109,174.316
1532278726.787,8.301,33.691,25.879,35.156,216.797
1532278726.791,16.113,34.180,27.832,28.809,-109.863
1532278726.795,15.625,31.250,27.832,32.227,-223.145
1532278726.799,10.742,31.738,27.344,41.016,90.332
1532278726.803,14.160,35.645,26.855,38.574,253.418
1532278726.807,24.902,36.621,29.785,31.738,-10.742
1532278726.811,25.391,34.180,28.809,31.250,-229.004
1532278726.815,14.648,30.762,29.785,33.691,-22.949
1532278726.819,14.160,31.738,34.668,38.086,278.809
1532278726.823,15.625,33.691,34.180,34.668,132.812
1532278726.826,17.090,35.645,30.762,27.344,-194.336
1532278726.830,20.996,34.180,28.809,33.691,-108.398
1532278726.834,18.555,32.227,25.391,35.156,223.633
1532278726.838,20.508,34.668,25.391,26.367,197.754
1532278726.842,24.902,36.133,28.809,20.508,-136.719
1532278726.846,23.926,36.621,27.832,23.438,-166.016
1532278726.850,24.414,35.156,23.926,29.785,162.109
1532278726.854,22.949,30.762,23.926,21.484,235.840
1532278726.858,23.438,30.762,27.344,16.113,-83.496
1532278726.862,24.902,30.762,29.785,26.855,-206.543
1532278726.866,21.973,28.320,28.809,33.691,68.359
1532278726.870,18.066,28.320,27.344,26.367,271.973
1532278726.873,20.508,28.320,28.320,14.648,21.484
1532278726.877,28.320,27.832,28.809,18.066,-228.027
1532278726.881,31.738,28.320,27.344,29.297,-18.555
1532278726.885,27.832,28.320,27.344,31.738,278.320
1532278726.889,26.367,29.785,29.297,25.879,149.414
1532278726.893,25.391,30.273,30.762,21.973,-176.758
1532278726.897,29.785,29.785,30.273,31.250,-119.141
1532278726.901,34.668,28.809,30.762,35.645,218.750
1532278726.905,32.715,29.297,31.738,27.832,226.562
1532278726.909,27.344,28.809,30.762,23.438,-93.262
1532278726.913,18.066,27.832,30.762,22.949,-165.039
1532278726.916,17.090,26.367,30.762,24.414,153.809
1532278726.920,13.672,26.855,29.297,23.926,280.273
1532278726.924,7.812,29.297,27.344,18.555,-43.945
1532278726.928,7.812,30.273,26.367,20.020,-210.938
1532278726.932,12.207,30.762,28.809,33.691,42.969
1532278726.936,5.859,31.250,29.785,36.133,258.301
1532278726.940,-0.488,30.762,27.344,26.367,48.828
1532278726.944,1.953,31.250,26.855,17.578,-223.145
1532278726.948,0.488,31.738,28.320,21.484,-46.387
1532278726.952,0.977,31.738,29.785,24.414,237.793
1532278726.956,-3.906,32.715,29.785,10.254,97.168
1532278726.959,-0.977,31.738,28.320,8.301,-212.402
1532278726.963,0.488,29.785,28.809,18.555,-145.996
1532278726.967,-5.859,27.832,29.297,26.855,202.148
1532278726.971,-2.441,28.809,29.297,22.461,212.402
1532278726.975,3.906,28.320,28.809,17.578,-135.742
1532278726.979,14.160,31.738,28.320,25.879,-189.453
1532278726.983,20.996,34.180,24.414,32.227,153.320
1532278726.987,20.508,32.227,24.902,26.855,261.230
1532278726.991,25.391,31.738,27.344,20.020,-41.992
1532278726.995,33.691,33.691,26.855,15.137,-252.441
1532278726.999,28.809,31.738,25.879,26.367,-6.836
1532278727.002,29.785,26.855,23.438,34.668,287.598
1532278727.006,35.156,28.809,24.902,26.855,88.379
1532278727.010,28.320,31.250,26.855,25.391,-220.215
1532278727.014,29.297,31.250,24.902,33.691,-85.938
1532278727.018,28.809,31.250,25.391,40.527,221.191
1532278727.022,24.414,31.738,27.344,34.668,144.043
1532278727.026,21.484,30.762,24.414,21.973,-169.922
1532278727.030,8.301,28.809,23.926,24.902,-165.039
1532278727.034,1.465,25.879,26.367,35.645,133.789
1532278727.038,-2.441,25.391,25.391,28.809,201.172
1532278727.042,-4.395,26.855,25.879,16.602,-91.797
1532278727.045,6.348,27.344,26.855,17.090,-203.125
1532278727.049,14.648,24.902,24.902,23.926,121.582
1532278727.053,12.695,23.926,23.926,13.184,265.137
1532278727.057,9.277,23.926,25.879,4.395,-41.504
1532278727.061,5.371,23.926,25.391,15.625,-250.000
1532278727.065,8.301,21.973,24.902,28.320,-12.695
1532278727.069,8.789,22.949,28.809,33.691,275.879
1532278727.073,7.812,27.344,32.227,30.762,84.961
1532278727.077,6.836,26.367,31.250,23.438,-222.656
1532278727.081,0.488,23.926,28.320,20.020,-118.164
1532278727.085,0.000,24.902,24.902,19.043,200.684
1532278727.088,6.836,24.902,27.344,15.137,150.879
1532278727.092,13.672,27.344,28.809,11.719,-192.383
1532278727.096,22.949,29.297,26.855,16.113,-209.961
1532278727.100,29.785,28.320,26.367,26.367,135.254
1532278727.104,27.832,28.320,26.855,27.832,256.348
1532278727.108,29.785,30.762,24.414,22.949,-54.688
1532278727.112,34.668,27.832,21.484,25.879,-211.914
1532278727.116,43.457,24.902,23.926,33.691,69.824
1532278727.120,49.805,28.320,23.926,30.273,265.625
1532278727.124,54.199,30.762,24.902,22.949,20.996
1532278727.128,54.688,28.320,26.855,25.879,-217.285
1532278727.131,59.082,29.785,25.879,32.227,-5.859
1532278727.135,64.453,32.715,24.414,29.785,274.414
1532278727.139,63.965,33.691,24.902,23.926,138.672
1532278727.143,68.359,32.715,25.879,20.508,-183.105
1532278727.147,70.312,31.738,26.367,27.344,-91.797
1532278727.151,73.730,34.668,24.902,31.738,223.633
1532278727.155,80.566,35.156,24.902,20.996,170.898
1532278727.159,81.055,30.762,28.809,15.137,-143.555
1532278727.163,78.613,28.809,28.320,20.996,-187.012
1532278727.167,71.777,31.250,27.344,30.273,135.742
1532278727.171,68.848,31.250,27.832,29.297,238.281
1532278727.174,67.871,33.203,27.832,21.973,-75.684
1532278727.178,62.500,32.715,26.855,22.461,-235.352
1532278727.182,59.570,30.762,25.391,24.902,44.922
1532278727.186,57.129,28.809,22.461,18.555,290.527
1532278727.190,60.547,26.367,19.531,8.789,56.152
1532278727.194,74.219,27.832,21.973,6.348,-233.887
1532278727.198,84.473,28.320,24.414,15.625,-50.781
1532278727.202,87.402,26.855,22.461,21.973,286.621
1532278727.206,73.242,26.855,22.949,16.602,161.621
1532278727.210,51.270,26.855,24.414,15.137,-178.223
1532278727.214,40.527,27.344,25.391,20.508,-121.582
1532278727.217,37.109,27.344,25.391,27.832,197.754
1532278727.221,35.156,25.391,25.391,27.344,229.492
1532278727.225,34.180,26.367,26.367,24.414,-115.234
1532278727.229,38.086,27.832,26.367,29.297,-202.148
1532278727.233,37.598,27.832,23.438,32.227,107.910
1532278727.237,33.691,26.367,21.484,25.391,243.652
1532278727.241,33.691,27.832,22.461,18.066,-12.207
1532278727.245,33.691,28.809,23.926,23.926,-193.359
1532278727.249,27.344,27.344,26.367,35.156,55.664
1532278727.253,22.461,28.809,27.832,35.156,296.387
1532278727.257,18.555,27.832,26.855,28.809,81.055
1532278727.260,19.043,26.367,24.902,26.367,-205.566
1532278727.264,20.020,27.344,23.438,32.227,-59.570
1532278727.268,18.066,27.344,22.949,35.645,232.422
1532278727.272,21.484,26.855,25.879,27.832,123.535
1532278727.276,23.438,27.832,27.832,17.090,-203.125
1532278727.280,22.461,28.809,26.855,22.461,-164.551
1532278727.284,28.320,28.320,25.879,31.738,184.082
1532278727.288,32.227,30.762,26.855,28.809,254.883
1532278727.292,27.344,33.203,28.320,22.461,-65.430
1532278727.296,25.879,31.738,26.367,21.973,-186.035
1532278727.300,27.344,31.738,26.855,31.250,95.215
1532278727.303,26.855,33.691,26.855,27.832,259.766
1532278727.307,22.461,32.715,25.879,17.578,-3.906
1532278727.311,14.648,30.273,26.367,17.578,-246.582
1532278727.315,9.766,31.250,25.879,25.391,-18.555
1532278727.319,16.602,31.738,27.832,30.762,231.934
1532278727.323,20.996,31.250,28.809,19.043,68.848
1532278727.327,15.137,29.297,26.855,12.695,-205.566
1532278727.331,16.602,29.297,26.855,21.973,-97.656
1532278727.335,16.602,28.320,26.855,20.508,208.496
1532278727.339,19.531,26.855,28.320,15.137,162.109
1532278727.343,32.227,28.320,30.762,16.602,-161.621
1532278727.346,29.297,28.320,29.785,22.461,-182.129
1532278727.350,17.090,26.855,26.855,26.855,164.062
1532278727.354,17.578,28.320,28.320,24.902,236.816
1532278727.358,19.531,29.297,29.785,21.484,-69.336
1532278727.362,25.391,27.344,28.809,22.949,-208.008
1532278727.366,31.250,26.367,29.785,29.785,61.035
1532278727.370,27.832,26.367,32.715,29.785,277.344
1532278727.374,28.320,28.809,34.180,17.578,8.301
1532278727.378,30.273,29.785,29.785,8.789,-248.047
1532278727.382,31.738,26.367,26.855,17.090,-15.625
1532278727.386,34.668,28.320,28.320,24.414,254.395
1532278727.389,36.621,31.738,26.855,16.113,116.699
1532278727.393,39.551,32.227,26.367,8.301,-208.008
1532278727.397,46.387,31.250,26.367,16.113,-140.625
1532278727.401,51.758,29.785,27.344,21.973,207.031
1532278727.405,41.504,28.809,28.320,14.648,243.652
1532278727.409,25.391,30.273,28.809,6.836,-121.582
1532278727.413,15.625,32.227,30.273,13.184,-227.539
1532278727.417,5.859,30.762,29.297,22.949,131.836
1532278727.421,-5.371,30.273,29.785,19.043,250.977
1532278727.425,-15.625,31.738,29.785,8.301,-30.273
1532278727.429,-24.414,29.297,28.320,10.742,-180.664
1532278727.432,-28.320,28.320,27.344,19.043,45.898
1532278727.436,-25.879,28.809,28.320,15.137,259.277
1532278727.440,-21.484,27.832,28.809,12.207,73.242
1532278727.444,-16.113,31.738,29.785,15.137,-182.129
1532278727.448,-10.254,33.203,28.809,21.973,-30.273
1532278727.452,-8.301,32.227,28.809,22.461,238.770
1532278727.456,-7.324,31.738,30.273,13.184,122.070
1532278727.460,-8.789,31.738,31.738,10.742,-187.500
1532278727.464,-8.301,32.227,32.227,16.602,-144.043
1532278727.468,-2.930,29.297,29.297,23.926,205.078
1532278727.472,-1.465,26.367,26.855,15.625,201.172
1532278727.475,-5.859,25.879,27.832,1.953,-157.715
1532278727.479,0.000,26.367,28.320,13.184,-205.566
1532278727.483,11.230,26.367,26.855,24.414,131.348
1532278727.487,14.160,25.391,25.391,21.484,280.273
1532278727.491,15.137,27.832,26.367,17.578,-15.137
1532278727.495,16.113,29.785,29.297,19.043,-239.746
1532278727.499,24.414,28.320,29.785,30.273,12.207
1532278727.503,32.227,30.273,29.297,34.668,283.203
1532278727.507,29.297,31.250,31.250,23.438,73.242
1532278727.511,32.227,32.715,32.227,20.508,-232.422
1532278727.515,38.086,31.250,30.273,24.902,-119.629
1532278727.518,36.621,28.809,30.273,25.391,207.031
1532278727.522,37.109,31.250,34.668,24.414,180.664
1532278727.526,45.410,31.250,35.645,22.949,-125.977
1532278727.530,52.734,30.762,30.273,28.320,-115.723
1532278727.534,53.711,32.227,28.320,37.598,191.406
1532278727.538,57.617,33.203,31.250,33.203,238.770
1532278727.542,58.594,32.715,32.227,24.414,-97.168
1532278727.546,60.547,34.668,31.738,29.297,-202.148
1532278727.550,63.965,34.668,28.809,34.668,108.887
1532278727.554,48.340,32.715,28.809,31.250,270.508
1532278727.558,20.508,30.273,30.762,23.438,-16.113
1532278727.561,5.371,28.809,30.273,21.973,-251.953
1532278727.565,1.465,29.785,33.203,30.273,-21.484
1532278727.569,1.465,31.250,32.227,35.645,275.879
1532278727.573,-6.348,33.203,29.297,22.949,92.285
1532278727.577,-11.230,36.133,31.738,15.625,-233.398
1532278727.581,-4.395,38.086,34.180,25.391,-104.004
1532278727.585,-1.953,37.598,32.227,30.273,234.375
1532278727.589,-3.418,35.645,30.762,25.391,180.664
1532278727.593,0.000,32.715,31.250,17.578,-160.645
1532278727.597,4.883,30.273,28.809,19.043,-164.062
1532278727.601,0.977,31.738,24.902,25.879,160.156
1532278727.604,1.953,32.715,25.879,21.484,245.605
1532278727.608,6.836,31.738,27.832,16.113,-55.664
1532278727.612,7.324,33.203,28.320,15.625,-211.426
1532278727.616,9.277,33.203,28.809,20.020,61.035
1532278727.620,15.137,31.250,30.273,21.973,298.828
1532278727.624,15.137,30.273,28.809,14.648,75.195
1532278727.628,13.672,31.738,27.344,16.113,-202.637
1532278727.632,19.043,32.715,30.762,23.926,-35.156
1532278727.636,19.531,33.203,31.738,25.391,276.855
1532278727.640,21.973,30.762,29.785,20.996,163.574
1532278727.644,23.438,31.250,27.832,22.949,-184.570
1532278727.647,20.996,32.227,27.344,33.691,-112.305
1532278727.651,22.949,31.738,30.273,39.062,217.285
1532278727.655,27.344,35.645,29.785,25.879,190.430
1532278727.659,28.809,38.086,30.762,21.484,-123.535
1532278727.663,28.320,36.621,30.273,31.738,-174.316
1532278727.667,27.344,37.109,29.785,39.062,155.273
1532278727.671,29.297,37.598,31.250,35.645,273.438
1532278727.675,30.273,36.621,28.809,22.461,-47.363
1532278727.679,28.809,34.180,28.320,25.879,-192.871
1532278727.683,31.250,32.715,29.297,36.621,78.613
1532278727.687,58.105,34.668,32.227,33.691,272.461
1532278727.690,89.355,34.668,31.738,24.902,72.754
1532278727.694,115.723,34.668,27.344,23.438,-204.590
1532278727.698,134.766,32.715,28.809,32.227,-35.156
1532278727.702,128.906,29.297,29.297,35.156,275.391
1532278727.706,104.980,28.809,27.344,26.367,142.090
1532278727.710,88.867,31.250,27.344,22.949,-179.199
1532278727.714,87.402,32.227,27.344,29.297,-143.555
1532278727.718,72.266,31.738,27.832,33.691,202.637
1532278727.722,43.945,32.227,30.273,31.250,247.559
1532278727.726,19.043,30.762,30.273,24.414,-93.750
1532278727.730,4.395,31.250,30.273,27.832,-196.289
1532278727.733,-5.371,31.250,30.762,32.715,115.723
1532278727.737,-8.789,29.297,28.809,28.809,266.602
1532278727.741,-9.277,30.762,30.273,23.926,-21.973
1532278727.745,-10.742,31.250,30.762,23.926,-237.305
1532278727.749,-9.277,32.227,31.738,34.180,-0.977
1532278727.753,-10.742,34.180,29.785,30.273,258.789
1532278727.757,-13.184,33.691,29.785,20.020,62.988
1532278727.761,-11.719,34.668,32.715,23.926,-210.449
1532278727.765,-8.301,33.691,31.250,30.273,-75.195
1532278727.769,-7.812,32.715,29.297,33.203,237.305
1532278727.773,-6.836,34.668,28.809,21.484,143.555
1532278727.776,-3.906,36.621,30.273,18.066,-201.172
1532278727.780,-2.441,36.133,30.273,27.344,-163.086
1532278727.784,-2.441,33.691,31.738,31.250,177.734
1532278727.788,-6.836,32.227,33.691,26.855,231.934
1532278727.792,-7.812,32.227,28.809,15.137,-91.309
1532278727.796,-2.441,32.715,27.832,17.090,-230.469
1532278727.800,-1.953,32.227,31.250,30.273,71.777
1532278727.804,-0.977,30.762,32.715,30.273,277.832
1532278727.808,6.836,31.250,29.297,22.949,30.762
1532278727.812,8.789,32.227,27.832,24.414,-204.102
1532278727.816,7.812,30.762,30.273,31.250,-20.996
1532278727.819,7.324,32.227,28.320,32.715,269.043
1532278727.823,7.812,33.691,27.832,28.809,115.723
1532278727.827,9.766,32.715,28.809,24.902,-204.102
1532278727.831,15.625,31.250,25.879,29.297,-98.145
1532278727.835,23.438,29.297,23.926,30.762,212.402
1532278727.839,26.855,29.785,24.902,23.926,177.734
1532278727.843,33.203,31.738,24.414,17.090,-142.090
1532278727.847,39.551,32.227,24.414,19.531,-189.941
1532278727.851,37.109,30.762,23.438,27.344,141.602
1532278727.855,37.109,28.809,23.438,19.531,223.633
1532278727.859,40.039,29.297,24.902,16.113,-90.820
1532278727.863,27.344,26.855,27.344,24.414,-215.820
1532278727.866,20.020,26.855,28.809,33.691,75.684
1532278727.870,20.996,28.809,29.297,34.668,272.461
1532278727.874,18.555,32.227,33.691,23.926,10.254
1532278727.878,24.414,33.203,31.250,20.996,-257.324
1532278727.882,29.785,32.715,29.297,35.156,-38.086
1532278727.886,23.926,32.715,32.715,42.480,278.809
1532278727.890,18.066,29.785,32.715,36.133,131.348
1532278727.894,23.438,30.762,30.762,26.367,-208.008
1532278727.898,26.367,29.785,26.855,25.391,-119.141
1532278727.902,24.414,27.344,26.367,35.156,229.492
1532278727.906,22.949,27.832,25.879,29.297,214.844
1532278727.909,21.484,26.855,27.832,21.484,-132.812
1532278727.913,25.879,27.832,30.273,30.762,-181.641
1532278727.917,30.762,27.832,29.297,37.109,174.805
1532278727.921,27.344,28.320,30.273,31.738,280.762
1532278727.925,18.555,30.273,31.250,21.484,-23.438
1532278727.929,19.531,31.250,30.762,23.926,-214.355
1532278727.933,25.879,31.738,31.738,34.180,21.973
1532278727.937,26.367,31.250,28.320,27.832,251.465
1532278727.941,32.715,29.785,24.414,21.484,41.504
1532278727.945,30.273,27.832,26.367,26.855,-221.191
1532278727.949,22.949,27.832,22.949,32.227,-62.012
1532278727.952,23.926,30.273,20.996,30.762,242.188
1532278727.956,24.902,32.715,24.414,22.949,144.531
1532278727.960,19.043,33.203,24.902,17.578,-179.199
1532278727.964,20.508,28.809,23.438,21.973,-141.602
1532278727.968,31.250,30.273,23.926,33.203,203.125
1532278727.972,30.273,32.227,25.879,30.762,204.102
1532278727.976,22.949,31.250,26.367,20.508,-127.930
1532278727.980,23.438,30.762,29.297,27.344,-207.031
1532278727.984,24.902,28.809,29.785,34.180,112.305
1532278727.988,24.902,29.785,32.227,33.203,253.906
1532278727.992,21.973,30.273,32.227,26.367,-27.344
1532278727.995,20.508,34.180,32.715,21.973,-266.602
1532278727.999,21.973,33.691,31.738,31.250,-34.180
1532278728.003,23.926,29.785,28.320,31.738,277.344
1532278728.007,24.902,31.738,28.809,23.438,97.168
1532278728.011,23.438,32.715,28.809,20.996,-201.172
1532278728.015,27.832,31.738,25.879,26.855,-57.617
1532278728.019,31.738,32.227,25.391,33.203,269.531
1532278728.023,30.762,34.180,25.879,27.832,183.594
1532278728.027,26.855,33.691,28.809,21.484,-152.344
1532278728.031,22.461,32.715,28.320,24.902,-142.578
1532278728.035,21.973,32.715,24.902,26.855,155.273
1532278728.038,20.996,31.250,26.855,20.996,194.824
1532278728.042,19.531,31.738,27.832,19.043,-71.289
1532278728.046,20.508,32.715,26.855,26.367,-205.566
1532278728.050,24.902,29.297,28.809,33.691,66.895
1532278728.054,23.926,28.320,31.738,26.855,263.672
1532278728.058,20.508,32.227,29.297,20.020,8.789
1532278728.062,19.043,33.203,26.855,25.391,-225.098
1532278728.066,18.066,31.738,27.832,34.180,17.578
1532278728.070,20.020,32.715,26.855,33.203,280.273
1532278728.074,25.879,33.691,28.320,19.531,105.469
1532278728.078,24.902,31.738,27.344,11.719,-179.199
1532278728.081,19.531,29.297,23.926,24.414,-87.891
1532278728.085,22.949,30.762,26.855,34.668,244.141
1532278728.089,23.926,31.250,29.785,24.414,214.355
1532278728.093,20.508,29.297,29.297,17.578,-146.973
1532278728.097,20.996,30.273,28.809,25.391,-169.922
1532278728.101,22.949,30.762,29.785,30.273,159.668
1532278728.105,23.438,29.785,29.785,25.879,256.348
1532278728.109,21.484,32.227,30.273,17.578,-32.715
1532278728.113,24.414,33.691,28.809,19.531,-211.914
1532278728.117,29.785,32.715,29.297,30.273,49.805
1532278728.121,25.391,32.227,29.785,32.227,256.348
1532278728.124,14.160,30.762,27.832,18.555,30.762
1532278728.128,13.672,29.297,30.273,15.625,-210.449
1532278728.132,18.555,27.344,30.762,24.414,-30.762
1532278728.136,25.391,27.832,30.762,25.391,268.066
1532278728.140,18.555,29.785,30.762,21.484,145.996
1532278728.144,5.371,30.273,33.203,22.949,-193.359
1532278728.148,5.859,30.762,32.227,26.855,-99.609
1532278728.152,9.766,33.203,28.320,27.832,233.398
1532278728.156,4.395,33.691,27.832,23.926,208.496
1532278728.160,-0.488,32.227,29.297,20.508,-114.746
1532278728.164,6.348,34.180,28.809,27.832,-182.129
1532278728.167,17.578,34.180,30.762,38.574,147.461
1532278728.171,17.578,33.203,31.250,33.691,283.203
1532278728.175,9.277,34.180,27.344,14.160,-57.129
1532278728.179,11.719,33.203,27.832,15.137,-245.117
1532278728.183,20.020,33.691,28.320,33.203,33.203
1532278728.187,25.391,33.203,28.320,31.250,279.785
1532278728.191,18.066,29.785,27.344,19.531,84.473
1532278728.195,8.789,29.297,29.297,20.020,-215.820
1532278728.199,3.906,33.203,28.809,26.855,-63.477
1532278728.203,5.859,33.203,25.879,27.344,266.113
1532278728.207,1.465,31.250,27.832,20.508,191.406
1532278728.210,4.883,34.668,28.320,15.625,-153.809
1532278728.214,13.184,35.645,26.855,13.184,-147.949
1532278728.218,5.371,35.645,27.344,14.160,194.824
1532278728.222,2.441,36.133,30.273,17.090,244.141
1532278728.226,6.836,35.156,31.250,11.719,-89.355
1532278728.230,7.324,32.227,30.762,17.578,-175.781
1532278728.234,10.742,32.715,30.762,27.344,127.930
1532278728.238,12.207,35.645,28.809,23.438,288.086
1532278728.242,15.137,34.180,31.738,17.578,27.344
1532278728.246,10.742,31.250,33.691,20.508,-209.961
1532278728.250,5.859,32.227,29.785,27.344,19.043
1532278728.253,14.160,32.227,29.297,27.832,270.508
1532278728.257,20.020,33.203,31.738,22.949,88.867
1532278728.261,24.414,35.156,33.203,23.926,-200.684
1532278728.265,25.879,32.715,32.715,32.715,-90.332
1532278728.269,23.438,31.738,32.227,41.992,228.516
1532278728.273,20.020,32.227,31.250,33.691,186.035
1532278728.277,22.461,32.227,27.832,15.137,-163.086
1532278728.281,25.391,31.738,27.832,21.484,-165.039
1532278728.285,18.066,29.785,29.785,32.227,192.383
1532278728.289,18.066,30.762,28.809,29.297,257.324
1532278728.293,24.414,33.691,29.785,19.531,-80.566
1532278728.296,22.949,33.691,28.320,21.973,-211.426
1532278728.300,25.879,34.180,26.855,34.180,94.238
1532278728.304,26.367,34.668,28.809,26.855,269.531
1532278728.308,27.832,33.203,32.227,16.602,18.555
1532278728.312,31.250,33.203,32.227,19.531,-223.633
1532278728.316,23.438,35.156,28.809,24.902,-29.297
1532278728.320,21.973,38.086,29.297,25.391,262.695
1532278728.324,18.555,39.062,29.785,18.066,119.629
1532278728.328,11.719,37.109,30.273,16.602,-186.523
1532278728.332,12.207,36.621,32.227,27.832,-101.074
1532278728.336,14.160,36.621,32.715,35.645,223.145
1532278728.339,15.137,34.668,31.738,31.738,193.359
1532278728.343,10.254,34.180,29.785,21.484,-145.020
1532278728.347,7.812,34.668,28.809,22.949,-161.133
1532278728.351,13.672,36.621,28.809,34.668,164.062
1532278728.355,19.043,39.062,30.273,28.320,224.121
1532278728.359,19.043,39.062,32.227,17.090,-95.703
1532278728.363,21.973,39.062,29.297,25.879,-229.004
1532278728.367,27.832,39.551,27.344,38.086,66.406
1532278728.371,29.297,39.551,32.227,38.574,279.785
1532278728.375,28.320,39.551,34.180,29.297,0.000
1532278728.379,29.297,41.016,33.691,28.320,-244.629
1532278728.382,31.738,39.551,36.133,35.645,-24.902
1532278728.386,30.762,40.039,39.062,34.668,252.930
1532278728.390,23.926,39.062,39.551,26.367,123.047
1532278728.394,22.461,35.645,35.645,25.391,-195.801
1532278728.398,23.438,33.691,33.691,32.715,-136.719
1532278728.402,20.508,36.133,34.180,38.574,206.055
1532278728.406,27.832,37.598,35.645,34.180,208.984
1532278728.410,29.785,38.086,35.645,28.809,-127.441
1532278728.414,28.809,39.551,34.668,32.227,-198.242
1532278728.418,28.809,40.039,34.180,36.621,104.004
1532278728.422,26.367,40.527,33.691,29.785,245.605
1532278728.425,29.785,38.574,35.156,21.973,-45.898
1532278728.429,29.785,35.645,36.133,25.879,-212.402
1532278728.433,27.832,33.691,35.156,36.133,50.781
1532278728.437,31.738,35.645,37.598,37.598,218.262
1532278728.441,35.156,39.062,41.504,31.250,31.250
1532278728.445,37.598,35.156,40.039,31.250,-194.336
1532278728.449,38.086,31.250,39.551,38.574,-47.852
1532278728.453,37.109,33.203,39.062,40.039,231.934
1532278728.457,37.109,37.598,37.109,31.738,113.281
1532278728.461,33.203,35.645,35.645,27.832,-203.613
1532278728.465,31.738,34.180,32.715,33.203,-130.371
1532278728.468,33.203,36.133,32.227,36.621,217.773
1532278728.472,34.668,36.133,32.227,27.832,213.867
1532278728.476,36.133,37.598,32.227,18.555,-131.836
1532278728.480,40.527,37.109,32.227,24.414,-232.910
1532278728.484,41.992,35.645,30.762,30.273,97.656
1532278728.488,43.945,33.203,30.273,26.855,259.277
1532278728.492,43.945,34.668,33.203,21.484,-25.391
1532278728.496,40.527,37.598,34.668,17.578,-237.305
1532278728.500,38.086,35.156,32.715,23.926,0.488
1532278728.504,38.574,32.227,31.738,27.832,267.578
1532278728.508,38.086,32.227,29.785,19.043,87.402
1532278728.511,33.691,33.203,27.344,17.578,-215.332
1532278728.515,29.785,33.691,26.367,25.391,-87.891
1532278728.519,34.668,33.691,27.832,29.297,257.812
1532278728.523,38.086,34.668,26.855,20.508,187.988
1532278728.527,34.668,34.668,23.438,11.719,-153.320
1532278728.531,22.949,34.668,23.926,19.531,-156.250
1532278728.535,18.066,33.691,25.391,29.785,157.715
1532278728.539,17.578,33.691,28.320,25.879,219.727
1532278728.543,12.207,34.668,28.320,16.113,-79.102
1532278728.547,6.348,34.180,23.438,13.672,-204.102
1532278728.551,2.930,33.691,22.949,23.438,90.820
1532278728.554,1.465,33.203,24.902,20.996,248.047
1532278728.558,5.371,32.715,24.902,9.766,-7.324
1532278728.562,10.742,33.691,22.461,15.625,-212.891
1532278728.566,12.207,34.180,22.949,25.879,3.418
1532278728.570,12.207,35.156,24.902,30.273,281.738
1532278728.574,17.578,34.180,25.391,22.949,104.980
1532278728.578,17.090,33.203,26.367,17.578,-204.590
1532278728.582,16.113,33.691,24.902,27.344,-106.934
1532278728.586,11.230,34.180,23.438,35.645,202.148
1532278728.590,1.465,33.691,25.879,29.785,179.688
1532278728.594,6.836,37.109,30.273,20.020,-162.598
1532278728.597,12.207,39.062,29.785,22.461,-201.660
1532278728.601,13.184,36.133,26.367,30.762,139.160
1532278728.605,12.695,33.203,27.832,24.414,234.375
1532278728.609,14.160,33.203,28.809,14.160,-32.227
1532278728.613,15.625,34.180,28.320,17.090,-190.918
1532278728.617,17.090,32.227,28.320,25.879,79.102
1532278728.621,19.531,31.250,27.344,28.320,281.738
1532278728.625,17.090,31.738,31.738,22.949,32.227
1532278728.629,9.766,29.785,33.691,23.438,-194.336
1532278728.633,9.277,28.320,32.227,31.250,-47.363
1532278728.637,8.789,29.297,31.250,27.344,218.262
1532278728.640,8.301,31.738,32.715,20.996,129.883
1532278728.644,7.812,33.203,34.180,19.043,-187.500
1532278728.648,10.742,33.691,30.762,26.855,-113.770
1532278728.652,11.230,32.715,28.320,34.668,211.426
1532278728.656,7.324,30.762,27.832,23.926,183.105
1532278728.660,8.301,28.809,30.762,18.066,-121.582
1532278728.664,8.789,28.809,31.250,27.832,-166.992
1532278728.668,9.766,27.832,26.367,30.762,152.344
1532278728.672,16.113,28.320,25.879,24.414,269.531
1532278728.676,18.066,30.762,25.879,15.137,-28.320
1532278728.680,13.184,32.227,24.414,14.160,-223.145
1532278728.683,14.648,33.203,21.973,22.949,20.020
1532278728.687,11.719,33.691,20.508,25.391,256.836
1532278728.691,4.883,32.715,24.414,22.461,33.691
1532278728.695,-7.324,32.715,26.855,17.578,-263.184
1532278728.699,-21.973,31.250,24.414,19.043,-85.449
1532278728.703,-24.902,28.809,24.414,29.297,255.371
1532278728.707,-26.855,32.715,26.855,28.809,152.344
1532278728.711,-32.227,34.668,27.832,21.973,-161.133
1532278728.715,-35.645,33.203,28.809,28.320,-128.906
1532278728.719,-31.250,30.273,29.297,33.691,189.453
1532278728.723,-29.785,28.809,26.855,27.832,230.469
1532278728.726,-20.996,31.738,24.414,20.020,-95.215
1532278728.730,-15.625,32.715,24.902,22.949,-194.336
1532278728.734,-20.508,35.645,24.414,24.902,96.680
1532278728.738,-18.066,37.109,24.414,21.484,244.141
1532278728.742,-15.625,34.668,26.367,20.996,-21.484
1532278728.746,-14.648,34.180,25.391,20.020,-228.516
1532278728.750,-9.277,36.621,23.438,28.320,26.855
1532278728.754,-6.836,38.086,25.391,33.203,267.090
1532278728.758,-10.254,34.180,24.902,21.484,63.477
1532278728.762,-10.254,30.273,20.020,18.555,-214.355
1532278728.766,-5.859,31.250,20.508,26.367,-65.918
1532278728.769,-2.930,32.715,21.973,31.250,244.141
1532278728.773,-6.836,30.762,20.508,22.461,154.297
1532278728.777,-8.789,31.250,22.949,11.719,-175.781
1532278728.781,-12.207,31.250,23.438,20.020,-159.668
1532278728.785,-14.160,28.809,22.949,26.855,158.203
1532278728.789,-11.719,30.273,23.926,20.508,224.609
1532278728.793,-4.395,31.738,25.879,11.719,-101.562
1532278728.797,-0.977,33.203,25.879,15.137,-240.234
1532278728.801,-5.371,35.156,23.438,21.973,80.566
1532278728.805,-6.348,32.715,23.438,20.508,284.668
1532278728.809,-0.488,31.250,26.855,14.160,28.809
1532278728.812,8.301,33.203,26.855,15.625,-214.355
1532278728.816,17.090,32.227,25.879,25.879,-32.715
1532278728.820,22.949,28.809,24.414,27.832,244.629
1532278728.824,21.973,29.297,26.367,20.996,114.258
1532278728.828,22.949,29.297,25.879,18.066,-178.711
1532278728.832,32.227,27.832,20.996,26.367,-105.469
1532278728.836,33.203,28.809,19.043,28.809,194.824
1532278728.840,34.668,31.738,20.996,24.414,176.270
1532278728.844,35.645,32.715,20.996,21.973,-135.742
1532278728.848,26.367,30.273,20.996,25.391,-152.344
1532278728.852,19.043,27.832,22.949,34.180,152.344
1532278728.855,13.184,28.320,23.926,28.320,220.215
1532278728.859,15.137,29.785,25.391,18.555,-83.984
1532278728.863,13.672,29.785,23.438,22.461,-229.492
1532278728.867,7.812,30.273,21.484,31.250,45.410
1532278728.871,10.254,31.250,23.926,30.273,246.094
1532278728.875,9.766,30.273,24.902,15.625,6.836
1532278728.879,7.812,29.785,23.926,8.301,-248.047
1532278728.883,3.906,27.832,23.438,19.531,-35.156
1532278728.887,2.930,28.320,24.902,23.926,250.000
1532278728.891,8.301,30.762,25.879,17.578,109.863
1532278728.895,13.184,31.738,26.855,14.160,-201.660
1532278728.899,12.207,28.320,28.809,22.949,-132.324
1532278728.902,13.672,27.344,29.785,33.203,224.609
1532278728.906,16.602,29.785,28.809,29.297,218.262
1532278728.910,17.578,24.902,27.344,27.344,-105.469
1532278728.914,18.066,21.973,24.902,28.320,-169.922
1532278728.918,16.602,27.344,28.320,32.715,104.980
1532278728.922,1.465,17.578,19.043,25.391,243.164
1532278728.926,-19.531,-6.348,-3.418,-6.836,-53.711
1532278728.930,-23.438,-16.113,-12.207,-15.625,-233.398
1532278728.934,-23.926,-15.625,-13.184,-10.254,44.922
1532278728.938,-22.949,-15.625,-12.695,-12.695,295.410
1532278728.942,-15.137,-11.230,-8.301,-16.602,92.773
1532278728.945,-2.930,-6.348,-6.348,-13.672,-204.102
1532278728.949,8.789,-3.906,-4.883,-2.441,-68.848
1532278728.953,12.207,-1.465,0.000,-0.488,229.004
1532278728.957,4.395,2.930,0.488,-8.301,135.254
1532278728.961,-2.930,3.906,0.977,-11.719,-192.383
1532278728.965,0.488,4.883,1.953,-3.418,-152.832
1532278728.969,-1.953,8.789,0.977,2.930,200.684
1532278728.973,-16.602,11.230,3.418,-0.977,229.492
1532278728.977,-16.113,16.113,7.812,-5.371,-128.906
1532278728.981,-13.672,19.043,9.277,2.441,-214.355
1532278728.985,-11.719,20.020,11.719,18.555,104.492
1532278728.988,-8.789,21.973,14.648,20.020,246.094
1532278728.992,-8.301,20.996,15.625,5.859,-41.016
1532278728.996,-8.789,21.973,19.531,7.812,-236.328
1532278729.000,-10.742,22.461,20.996,20.996,9.277
1532278729.004,-8.301,22.949,20.508,22.461,266.602
1532278729.008,-7.812,24.902,23.438,16.113,83.496
1532278729.012,-6.836,26.367,25.391,12.207,-214.355
1532278729.016,-4.883,27.344,24.414,14.160,-101.074
1532278729.020,1.953,28.320,24.414,19.531,214.355
1532278729.024,4.395,30.273,21.484,14.648,185.547
1532278729.028,3.906,31.250,22.949,13.672,-158.203
1532278729.031,3.418,29.785,22.949,24.414,-170.898
1532278729.035,1.465,26.855,22.949,32.227,163.574
1532278729.039,9.277,28.809,27.344,26.367,229.980
1532278729.043,13.184,26.855,27.344,14.648,-77.148
1532278729.047,11.230,23.926,25.391,14.648,-194.336
1532278729.051,12.207,27.344,25.391,25.391,85.938
1532278729.055,9.277,26.367,28.320,25.391,251.953
1532278729.059,2.930,24.902,31.250,18.066,-13.184
1532278729.063,1.953,24.902,31.738,19.043,-217.285
1532278729.067,4.395,24.414,31.250,26.855,19.531
1532278729.071,7.324,26.855,34.668,32.715,295.410
1532278729.074,8.789,27.832,36.133,24.414,95.215
1532278729.078,7.812,26.855,32.715,19.043,-218.750
1532278729.082,10.254,25.391,31.738,30.273,-103.027
1532278729.086,11.230,25.879,32.227,36.133,216.309
1532278729.090,5.859,26.367,33.203,28.809,194.336
1532278729.094,11.230,28.809,36.133,22.461,-145.996
1532278729.098,18.555,28.809,34.668,31.250,-170.898
1532278729.102,16.113,29.785,31.250,37.109,159.180
1532278729.106,13.184,31.250,30.762,30.762,257.324
1532278729.110,12.695,31.250,34.668,23.438,-52.734
1532278729.114,15.137,29.785,35.645,20.508,-219.727
1532278729.117,15.137,29.297,33.203,21.484,41.992
1532278729.121,14.160,29.785,34.180,23.926,247.559
1532278729.125,11.719,28.809,32.715,19.043,30.273
1532278729.129,10.254,28.809,30.273,18.555,-232.422
1532278729.133,12.695,27.344,27.344,25.879,-56.152
1532278729.137,14.648,28.320,27.832,27.344,240.234
1532278729.141,15.625,28.320,29.785,18.555,131.836
1532278729.145,17.578,25.879,29.785,14.648,-185.059
1532278729.149,27.344,22.949,29.785,26.855,-136.230
1532278729.153,39.062,20.020,30.762,35.156,181.152
1532278729.157,34.180,21.973,31.250,27.832,167.969
1532278729.160,22.461,22.461,32.715,23.438,-151.855
1532278729.164,13.184,20.996,34.180,33.203,-224.121
1532278729.168,6.348,23.926,34.668,39.062,93.262
1532278729.172,-1.953,26.855,32.227,31.738,245.605
1532278729.176,-0.977,26.855,32.227,17.090,-63.477
1532278729.180,-0.488,28.320,35.156,19.531,-271.484
1532278729.184,-4.395,27.832,34.180,33.691,15.625
1532278729.188,0.000,26.367,31.738,31.250,259.277
1532278729.192,3.906,25.879,32.227,22.949,62.012
1532278729.196,6.836,24.902,32.715,22.949,-214.355
1532278729.200,10.254,27.344,34.180,36.133,-73.730
1532278729.203,10.254,28.320,33.691,38.086,236.328
1532278729.207,9.766,27.344,32.227,22.461,145.996
1532278729.211,12.695,29.785,34.668,19.531,-149.414
1532278729.215,13.184,30.762,35.156,18.066,-130.859
1532278729.219,10.254,28.809,33.691,16.113,186.523
1532278729.223,13.184,27.832,32.227,13.672,238.281
1532278729.227,28.809,26.855,27.344,6.836,-94.238
1532278729.231,33.691,24.902,27.344,11.719,-194.824
1532278729.235,19.531,24.902,28.809,18.555,116.211
1532278729.239,14.160,27.832,30.273,17.578,289.551
1532278729.243,10.742,30.762,34.180,11.230,24.414
1532278729.246,9.277,31.738,32.227,13.184,-210.449
1532278729.250,11.719,32.227,29.785,20.996,20.020
1532278729.254,4.883,34.668,30.762,14.648,274.902
1532278729.258,1.465,33.691,30.762,4.395,60.547
1532278729.262,1.953,31.250,29.785,7.812,-196.289
1532278729.266,5.371,31.250,31.738,17.090,-54.688
1532278729.270,6.348,29.297,30.762,19.043,232.910
1532278729.274,0.977,25.879,32.227,10.254,161.133
1532278729.278,-1.953,25.879,31.738,2.930,-169.434
1532278729.282,-0.488,28.320,32.227,12.207,-157.715
1532278729.286,2.930,29.785,33.203,20.508,179.688
1532278729.289,3.418,30.273,31.250,14.648,250.000
1532278729.293,4.883,31.738,31.250,8.789,-72.266
1532278729.297,19.531,29.785,31.250,9.277,-230.469
1532278729.301,23.438,28.809,30.273,23.438,74.219
1532278729.305,11.719,28.320,30.273,27.832,265.625
1532278729.309,10.742,29.785,33.203,17.090,28.809
1532278729.313,9.277,30.762,35.156,15.137,-209.473
1532278729.317,3.906,24.902,34.668,20.020,-25.391
1532278729.321,-1.465,22.461,33.203,20.508,264.648
1532278729.325,2.930,25.391,32.227,8.789,107.422
1532278729.329,7.324,25.391,30.762,5.859,-194.336
1532278729.332,12.207,24.902,28.320,16.602,-91.797
1532278729.336,11.230,24.902,27.832,22.461,219.238
1532278729.340,5.859,26.367,27.832,15.625,170.410
1532278729.344,5.371,24.902,23.926,9.277,-154.297
1532278729.348,1.465,24.414,23.926,14.648,-183.105
1532278729.352,0.977,24.414,23.926,23.438,143.066
1532278729.356,1.465,21.484,24.902,12.207,226.074
1532278729.360,0.977,24.902,31.250,1.953,-78.125
1532278729.364,4.883,25.391,29.785,13.184,-208.496
1532278729.368,6.348,20.996,24.414,19.531,60.059
1532278729.372,11.230,22.949,26.367,15.137,272.461
1532278729.375,12.207,25.879,26.855,6.348,40.039
1532278729.379,8.301,23.926,26.855,6.836,-238.281
1532278729.383,12.207,23.926,28.320,18.066,-44.434
1532278729.387,16.602,28.320,29.297,22.461,264.648
1532278729.391,15.137,28.320,29.297,14.648,128.418
1532278729.395,9.766,22.949,28.809,3.906,-237.793
1532278729.399,11.230,21.973,25.879,7.324,-161.133
1532278729.403,12.695,23.438,22.949,18.066,211.426
1532278729.407,8.301,21.973,26.855,12.207,201.660
1532278729.411,5.859,22.461,30.762,7.812,-129.883
1532278729.415,5.371,23.926,26.855,9.766,-182.129
1532278729.418,5.859,22.461,23.926,16.113,136.719
1532278729.422,-4.395,20.020,25.391,14.648,258.789
1532278729.426,-10.254,20.508,24.902,2.930,-31.250
1532278729.430,-10.742,21.973,26.367,5.859,-229.492
1532278729.434,-11.719,20.508,28.809,14.648,-1.953
1532278729.438,-4.883,19.531,27.832,10.254,240.234
1532278729.442,1.465,21.484,27.832,7.812,48.340
1532278729.446,0.977,22.461,27.344,10.254,-231.445
1532278729.450,-4.883,22.461,27.344,16.113,-70.312
1532278729.454,-9.277,21.484,26.367,19.531,232.422
1532278729.458,-15.137,22.949,27.344,12.207,158.691
1532278729.461,-20.020,24.414,28.320,7.812,-142.578
1532278729.465,-15.137,21.973,26.367,14.160,-119.141
1532278729.469,-14.160,22.461,24.414,17.578,221.680
1532278729.473,-9.766,23.926,25.879,12.207,241.211
1532278729.477,-8.789,23.926,30.273,5.859,-118.652
1532278729.481,-13.672,23.926,29.785,7.324,-199.219
1532278729.485,-14.648,23.438,27.832,11.719,125.488
1532278729.489,-20.508,17.090,23.926,3.906,287.109
1532278729.493,-27.832,16.113,19.043,-9.277,-26.855
1532278729.497,-23.926,17.090,19.043,-11.230,-249.512
1532278729.501,-19.043,15.625,19.531,-3.906,21.973
1532278729.504,-17.578,15.625,20.508,-3.418,270.508
1532278729.508,-6.836,17.090,20.996,-14.648,93.750
1532278729.512,4.395,16.113,21.484,-16.602,-186.035
1532278729.516,8.301,16.113,21.973,-2.930,-80.078
1532278729.520,12.207,17.090,22.461,7.812,229.492
1532278729.524,10.254,16.602,23.438,4.395,161.621
1532278729.528,11.719,17.090,26.855,-1.465,-203.613
1532278729.532,7.812,15.137,24.902,7.324,-194.824
1532278729.536,-13.184,15.137,23.438,12.207,124.023
1532278729.540,-22.949,17.090,25.391,3.418,172.363
1532278729.544,-21.484,15.625,26.367,1.465,-97.656
1532278729.547,-21.484,15.625,28.320,8.301,-195.801
1532278729.551,-25.391,15.625,27.832,15.137,104.980
1532278729.555,-29.297,16.113,27.832,11.230,275.879
1532278729.559,-25.391,18.066,31.738,2.441,4.395
1532278729.563,-16.602,18.066,32.715,2.930,-220.215
1532278729.567,-20.020,17.090,31.250,11.230,-10.254
1532278729.571,-20.020,19.531,31.738,12.695,277.344
1532278729.575,-12.207,19.531,30.273,0.977,98.633
1532278729.579,-10.742,19.043,27.832,-5.859,-222.168
1532278729.583,-11.230,20.508,27.832,11.230,-86.426
1532278729.587,-11.719,20.996,30.762,17.578,238.770
1532278729.590,-7.324,19.043,31.250,4.395,206.543
1532278729.594,0.000,19.043,29.297,-3.418,-124.023
1532278729.598,3.906,20.508,29.297,0.488,-183.105
1532278729.602,2.441,20.996,31.250,8.301,158.691
1532278729.606,-1.953,20.508,31.738,3.418,268.066
1532278729.610,-4.883,18.066,29.297,-6.836,-64.453
1532278729.614,-2.930,19.531,25.879,-3.906,-224.609
1532278729.618,1.953,19.531,25.879,0.488,48.340
1532278729.622,5.371,20.508,30.273,-1.953,239.258
1532278729.626,1.465,20.020,28.809,-12.695,21.973
1532278729.630,5.859,17.578,25.879,-15.625,-221.680
1532278729.633,15.625,19.531,27.344,-4.395,-44.922
1532278729.637,8.301,20.996,29.785,-5.371,242.676
1532278729.641,-11.719,20.508,29.785,-12.207,122.070
1532278729.645,-21.484,20.508,29.785,-15.137,-191.895
1532278729.649,-27.832,21.484,29.297,-10.254,-123.047
1532278729.653,-34.668,21.973,29.785,-0.977,217.285
1532278729.657,-34.180,23.438,31.250,-3.906,218.262
1532278729.661,-30.273,24.414,31.738,-7.812,-109.375
1532278729.665,-25.879,24.902,33.691,-2.930,-176.758
1532278729.669,-30.273,21.973,30.762,-2.930,139.648
1532278729.673,-37.598,18.066,29.785,-12.695,273.926
1532278729.676,-39.551,19.043,32.227,-22.461,-41.504
1532278729.680,-37.598,20.020,33.203,-19.531,-218.262
1532278729.684,-34.180,20.020,33.691,-7.812,56.152
1532278729.688,-30.762,20.996,32.227,-6.348,285.156
1532278729.692,-35.156,20.996,33.203,-18.555,88.379
1532278729.696,-39.062,20.020,31.738,-28.809,-213.867
1532278729.700,-32.227,21.484,28.320,-17.578,-76.172
1532278729.704,-31.738,19.043,28.809,-5.859,250.977
1532278729.708,-32.715,17.090,28.809,-15.137,162.109
1532278729.712,-27.832,16.113,28.809,-20.508,-174.805
1532278729.716,-23.926,18.066,33.691,-12.695,-170.898
1532278729.719,-17.578,20.996,36.133,-5.859,140.137
1532278729.723,-11.719,21.973,35.156,-6.348,221.191
1532278729.727,-11.719,20.020,34.668,-12.207,-87.402
1532278729.731,-4.883,19.531,33.203,-10.254,-208.496
1532278729.735,4.395,17.090,30.273,-4.395,97.168
1532278729.739,7.324,16.602,31.250,-5.371,267.578
1532278729.743,3.418,17.578,33.203,-12.695,-7.812
1532278729.747,0.977,20.508,30.273,-8.301,-212.891
1532278729.751,4.395,21.973,28.320,2.441,38.574
1532278729.755,3.906,18.066,28.809,-0.488,277.344
1532278729.759,3.906,19.531,29.297,-3.906,71.777
1532278729.762,8.301,22.461,30.273,0.977,-211.426
1532278729.766,5.859,21.973,29.297,8.789,-85.449
1532278729.770,5.859,21.973,28.320,13.184,236.816
1532278729.774,8.301,21.973,29.297,4.395,162.109
1532278729.778,7.324,20.508,29.785,-3.906,-173.340
1532278729.782,5.371,21.484,28.809,7.324,-139.648
1532278729.786,7.812,21.484,27.344,18.066,187.988
1532278729.790,12.695,20.996,27.832,16.113,240.234
1532278729.794,12.695,20.508,25.879,6.836,-74.707
1532278729.798,12.207,18.066,24.902,7.812,-224.121
1532278729.802,6.348,18.066,24.902,14.160,71.777
1532278729.805,-0.977,20.020,25.391,12.695,255.859
1532278729.809,0.488,21.973,26.855,5.859,0.000
1532278729.813,5.371,22.461,26.855,6.836,-228.516
1532278729.817,11.230,22.461,25.879,9.277,-33.691
1532278729.821,11.719,20.020,25.391,8.789,292.969
1532278729.825,10.254,20.996,26.367,7.812,155.273
1532278729.829,14.160,20.508,25.879,7.324,-202.637
1532278729.833,12.207,19.531,26.367,15.625,-106.934
1532278729.837,8.301,21.484,29.297,24.902,223.633
1532278729.841,18.555,23.438,32.227,22.461,175.293
1532278729.845,17.578,20.020,30.762,13.184,-128.906
1532278729.848,0.977,16.602,27.344,12.207,-155.762
1532278729.852,-4.883,17.578,25.391,21.973,128.906
1532278729.856,-7.812,19.043,26.855,15.625,215.820
1532278729.860,-12.695,18.555,26.367,2.930,-81.055
1532278729.864,-9.766,17.578,24.902,8.789,-230.469
1532278729.868,-5.859,18.555,28.320,19.531,40.039
1532278729.872,-2.441,16.602,29.297,17.090,252.441
1532278729.876,-12.207,17.090,26.855,4.883,37.598
1532278729.880,-20.020,19.531,27.344,5.859,-224.121
1532278729.884,-15.137,18.066,29.297,13.672,-38.574
1532278729.888,-1.953,16.113,28.809,13.184,285.645
1532278729.891,18.066,19.043,26.855,4.395,157.715
1532278729.895,27.832,20.508,26.855,-0.488,-189.453
1532278729.899,30.273,18.555,27.344,6.348,-139.648
1532278729.903,22.949,16.602,24.414,9.766,236.816
1532278729.907,13.184,16.113,23.438,2.441,223.633
1532278729.911,12.695,19.043,24.902,0.488,-117.676
1532278729.915,5.859,18.066,23.926,1.953,-187.988
1532278729.919,-0.977,16.113,22.461,1.953,107.910
1532278729.923,0.000,16.113,23.438,3.418,255.371
1532278729.927,-0.488,17.090,24.902,-1.953,-41.992
1532278729.931,4.395,18.066,24.414,0.977,-201.660
1532278729.935,3.906,18.066,25.391,10.254,54.199
1532278729.938,-3.906,17.090,24.414,7.812,255.859
1532278729.942,-8.789,15.625,24.414,0.488,74.219
1532278729.946,-10.254,12.695,25.879,0.488,-202.637
1532278729.950,-7.812,15.625,26.855,10.742,-65.918
1532278729.954,-4.395,19.531,26.855,11.719,216.797
1532278729.958,-5.371,17.090,26.367,-3.418,94.238
1532278729.962,-8.301,15.625,26.367,-3.418,-199.707
1532278729.966,-7.324,15.137,24.902,9.277,-136.719
1532278729.970,-4.395,16.602,24.902,10.742,170.410
1532278729.974,-0.977,21.973,27.832,4.883,224.121
1532278729.978,-0.488,23.926,31.250,0.000,-85.449
1532278729.981,-3.906,21.484,27.344,1.465,-188.477
1532278729.985,-0.977,22.461,26.855,4.883,125.000
1532278729.989,1.465,23.926,29.785,0.488,271.973
1532278729.993,1.953,24.902,28.320,-9.766,-19.043
1532278729.997,18.066,26.855,23.926,-12.695,-234.863
1532278730.001,43.457,26.367,22.461,-4.395,12.695
1532278730.005,62.500,23.926,25.391,1.465,274.414
1532278730.009,77.148,23.438,26.367,-2.930,84.473
1532278730.013,88.379,20.996,25.391,-2.441,-221.191
1532278730.017,99.609,17.578,24.414,2.441,-115.234
1532278730.021,102.051,17.090,26.855,7.812,206.543
1532278730.024,88.379,18.066,29.785,5.371,165.527
1532278730.028,60.059,22.461,29.297,-5.371,-151.855
1532278730.032,34.668,24.414,28.320,-3.418,-144.531
1532278730.036,16.602,22.949,26.855,3.418,167.480
1532278730.040,2.441,22.949,28.809,3.418,244.141
1532278730.044,-6.348,22.949,29.297,-1.465,-49.316
1532278730.048,-13.672,22.461,27.344,-0.488,-173.828
1532278730.052,-15.137,22.949,26.855,9.277,86.914
1532278730.056,-15.625,25.879,30.762,7.324,253.418
1532278730.060,-20.508,28.320,30.273,-2.441,8.301
1532278730.064,-23.438,27.344,26.367,0.000,-224.121
1532278730.067,-23.438,23.926,25.391,8.301,-20.020
1532278730.071,-23.926,23.438,23.438,9.766,250.977
1532278730.075,-25.391,22.949,21.973,-1.465,87.402
1532278730.079,-29.297,22.949,21.484,-6.348,-214.355
1532278730.083,-26.855,23.438,21.973,1.953,-102.539
1532278730.087,-25.879,24.414,24.902,5.859,197.754
1532278730.091,-30.762,22.461,25.391,0.488,172.852
1532278730.095,-28.320,21.973,24.902,-10.254,-147.949
1532278730.099,-22.949,24.902,24.902,-9.766,-196.289
1532278730.103,-19.531,25.879,24.902,4.883,128.418
1532278730.107,-18.066,27.344,24.414,5.859,249.023
1532278730.110,-9.766,27.344,24.414,-1.465,-33.691
1532278730.114,-2.930,27.832,23.926,1.465,-234.375
1532278730.118,4.395,27.344,24.414,8.789,22.949
1532278730.122,8.789,25.391,24.902,8.789,251.953
1532278730.126,14.160,27.832,24.414,1.953,33.203
1532278730.130,18.555,27.344,25.391,1.953,-220.215
1532278730.134,15.625,26.855,24.414,11.719,-46.875
1532278730.138,13.184,29.785,26.855,9.766,228.516
1532278730.142,6.348,29.785,30.762,2.441,114.258
1532278730.146,-4.395,29.785,32.227,2.441,-188.965
1532278730.150,-10.742,31.250,33.203,4.395,-126.465
1532278730.153,-17.090,32.227,31.738,3.418,202.148
1532278730.157,-26.855,33.203,34.668,-7.812,200.195
1532278730.161,-31.738,31.250,38.086,-17.090,-119.629
1532278730.165,-27.344,28.320,38.574,-10.742,-192.383
1532278730.169,-19.531,31.250,39.551,-1.953,129.395
1532278730.173,-18.066,35.156,38.574,-8.789,259.766
1532278730.177,-21.484,36.621,39.551,-22.461,-45.898
1532278730.181,-16.602,34.180,40.527,-19.531,-225.586
1532278730.185,-13.184,31.738,39.551,-5.859,37.109
1532278730.189,-18.066,31.250,39.551,-12.695,285.645
1532278730.193,-20.996,30.762,39.062,-24.902,74.219
1532278730.196,-16.602,32.715,42.480,-25.391,-246.094
1532278730.200,-19.043,32.715,42.480,-20.996,-90.820
1532278730.204,-22.461,31.738,38.086,-17.090,245.605
1532278730.208,-21.973,32.715,35.156,-25.391,152.344
1532278730.212,-16.113,31.250,31.738,-29.297,-154.785
1532278730.216,-9.766,29.785,32.715,-19.043,-128.906
1532278730.220,-19.043,29.785,32.715,-15.625,199.707
1532278730.224,-26.855,30.762,33.691,-22.949,251.953
1532278730.228,-23.438,31.250,35.156,-24.902,-88.867
1532278730.232,-22.461,33.203,35.156,-20.020,-187.500
1532278730.236,-28.809,35.645,35.156,-17.090,117.676
1532278730.239,-37.598,34.180,35.645,-24.414,238.281
1532278730.243,-42.480,32.715,35.645,-30.273,-26.855
1532278730.247,-43.457,30.762,35.645,-25.391,-191.406
1532278730.251,-42.969,31.250,33.691,-17.090,55.664
1532278730.255,-41.992,32.715,29.785,-19.043,291.992
1532278730.259,-49.316,31.738,30.273,-28.809,112.305
1532278730.263,-46.387,30.273,34.668,-25.391,-183.105
1532278730.267,-36.133,28.809,36.621,-12.695,-71.777
1532278730.271,-42.480,31.250,34.180,-7.812,243.164
1532278730.275,-45.898,32.715,31.738,-20.020,155.273
1532278730.279,-43.457,33.691,30.273,-34.668,-185.547
1532278730.282,-44.922,31.738,28.320,-25.391,-160.645
1532278730.286,-53.223,26.367,27.344,-18.555,181.152
1532278730.290,-55.664,25.391,30.273,-22.461,233.887
1532278730.294,-48.828,26.367,33.203,-24.902,-86.914
1532278730.298,-44.922,28.809,28.320,-23.926,-201.660
1532278730.302,-41.992,31.250,25.879,-16.113,111.328
1532278730.306,-37.598,30.273,25.879,-21.973,281.738
1532278730.310,-42.480,29.297,28.320,-30.762,21.973
1532278730.314,-48.340,27.344,32.227,-25.391,-203.125
1532278730.318,-40.039,27.832,28.809,-15.137,-1.465
1532278730.322,-33.203,30.273,25.391,-13.672,265.137
1532278730.325,-31.738,30.762,25.391,-19.531,95.703
1532278730.329,-23.926,30.762,25.391,-20.996,-217.773
1532278730.333,-21.484,31.250,25.391,-16.113,-121.582
1532278730.337,-23.926,30.273,23.438,-14.648,216.309
1532278730.341,-28.809,27.832,20.996,-26.855,181.152
1532278730.345,-29.785,26.367,23.926,-33.203,-145.020
1532278730.349,-23.926,26.367,23.926,-23.438,-180.664
1532278730.353,-21.973,24.902,20.508,-15.625,138.184
1532278730.357,-20.020,26.367,17.578,-21.973,211.426
1532278730.361,-14.648,26.367,15.137,-34.668,-85.449
1532278730.365,-8.789,20.996,14.648,-31.738,-199.707
1532278730.368,-5.859,18.555,11.719,-20.508,55.176
1532278730.372,1.465,19.531,9.766,-14.648,248.535
1532278730.376,3.418,20.020,8.301,-22.949,-8.301
1532278730.380,-7.812,18.555,7.324,-28.320,-270.508
1532278730.384,-25.391,14.648,10.254,-14.160,-41.016
1532278730.388,-37.598,13.184,11.719,-9.766,257.324
1532278730.392,-48.828,15.625,10.254,-19.043,124.023
1532278730.396,-50.781,15.137,13.184,-20.508,-174.805
1532278730.400,-46.387,15.625,16.113,-11.230,-110.352
1532278730.404,-39.062,20.020,19.043,-4.395,212.402
1532278730.408,-31.250,20.508,22.461,-12.695,203.613
1532278730.411,-30.762,21.484,24.414,-19.043,-115.723
1532278730.415,-31.250,20.996,22.461,-18.066,-174.316
1532278730.419,-22.461,17.090,20.996,-17.578,107.422
1532278730.423,-10.742,17.578,22.949,-17.090,243.652
1532278730.427,2.441,20.020,24.902,-20.508,-22.949
1532278730.431,5.371,20.996,23.926,-13.672,-206.055
1532278730.435,4.883,21.484,25.879,0.977,26.855
1532278730.439,10.742,21.973,27.832,0.488,269.531
1532278730.443,20.508,23.926,26.367,-6.836,81.543
1532278730.447,36.621,28.320,26.367,-5.859,-208.008
1532278730.451,47.852,29.297,24.902,1.953,-59.570
1532278730.454,60.547,29.297,26.855,4.883,249.512
1532278730.458,74.707,29.785,30.762,-2.441,144.531
1532278730.462,65.918,26.855,31.250,-3.906,-180.176
1532278730.466,40.039,22.949,27.344,3.418,-135.742
1532278730.470,23.438,24.414,28.320,8.789,198.730
1532278730.474,15.625,27.344,29.297,3.906,208.984
1532278730.478,5.371,26.367,26.855,-5.371,-130.859
1532278730.482,-5.371,25.879,29.785,-3.906,-213.867
1532278730.486,-14.160,27.832,32.227,10.742,89.355
1532278730.490,-30.273,27.344,30.762,9.766,237.305
1532278730.494,-39.062,27.344,32.227,-2.930,-18.555
1532278730.497,-35.156,30.273,33.691,1.953,-230.957
1532278730.501,-28.320,30.762,31.738,16.113,1.465
1532278730.505,-30.273,30.273,30.762,16.113,283.691
1532278730.509,-31.250,30.273,32.715,7.812,100.098
1532278730.513,-24.414,30.762,34.180,7.812,-197.754
1532278730.517,-18.555,28.809,33.203,12.207,-92.773
1532278730.521,-17.578,28.809,32.227,14.160,195.801
1532278730.525,-18.066,30.273,32.715,9.277,135.742
1532278730.529,-12.695,28.809,35.156,3.906,-182.617
1532278730.533,-5.859,26.855,36.133,10.742,-169.434
1532278730.537,5.371,27.344,33.203,18.066,142.090
1532278730.540,14.648,28.809,33.203,14.648,227.539
1532278730.544,15.137,27.344,36.133,7.324,-75.684
1532278730.548,20.508,28.320,34.180,9.277,-208.496
1532278730.552,26.367,33.203,30.273,20.508,70.801
1532278730.556,30.273,32.227,30.273,19.043,246.582
1532278730.560,30.273,28.809,32.227,8.301,-0.488
1532278730.564,34.180,30.762,34.668,12.695,-215.332
1532278730.568,43.457,29.297,34.180,23.438,-9.277
1532278730.572,43.945,28.809,33.203,25.391,261.230
1532278730.576,47.852,31.738,34.180,15.625,73.242
1532278730.580,47.852,33.203,34.180,8.301,-245.605
1532278730.583,39.551,33.691,32.227,16.602,-119.629
1532278730.587,37.109,31.738,30.762,21.484,209.961
1532278730.591,30.273,31.250,30.273,16.113,189.453
1532278730.595,17.578,30.273,30.762,4.883,-152.344
1532278730.599,8.301,29.297,31.250,6.836,-179.199
1532278730.603,2.930,30.762,30.762,19.531,135.254
1532278730.607,0.000,30.273,33.691,19.043,231.445
1532278730.611,-2.930,27.344,37.109,16.113,-49.805
1532278730.615,-3.418,27.344,36.133,15.137,-213.867
1532278730.619,-11.719,26.367,32.715,15.625,34.180
1532278730.623,-13.672,27.344,29.785,17.578,264.648
1532278730.626,-9.277,31.738,30.762,13.672,57.617
1532278730.630,-9.766,30.273,32.715,11.719,-225.586
1532278730.634,-10.742,27.832,34.180,16.602,-46.875
1532278730.638,-9.277,28.320,33.203,20.508,247.070
1532278730.642,-5.859,31.738,34.668,14.648,134.766
1532278730.646,-0.488,28.809,35.156,9.766,-187.988
1532278730.650,0.977,25.391,36.133,19.043,-141.602
1532278730.654,3.418,27.344,34.668,29.785,198.730
1532278730.658,5.371,27.832,33.691,22.461,176.758
1532278730.662,5.371,30.273,33.203,5.859,-138.672
1532278730.666,6.836,31.738,29.785,9.277,-160.645
1532278730.669,6.348,32.715,31.250,18.555,136.230
1532278730.673,6.348,32.227,32.227,17.090,262.695
1532278730.677,7.324,31.250,32.715,10.742,-37.598
1532278730.681,11.719,29.785,34.668,10.254,-227.051
1532278730.685,15.137,29.785,34.668,20.020,26.367
1532278730.689,17.090,31.738,35.645,22.949,263.184
1532278730.693,19.043,32.227,35.645,11.719,49.316
1532278730.697,18.555,29.297,34.180,8.301,-234.863
1532278730.701,21.973,28.320,32.227,19.531,-69.336
1532278730.705,25.879,29.297,32.715,23.438,245.117
1532278730.709,21.973,26.367,34.668,12.207,160.645
1532278730.712,24.414,23.438,32.227,9.766,-159.180
1532278730.716,33.691,24.414,29.297,15.625,-159.180
1532278730.720,31.738,22.949,29.785,17.578,168.457
1532278730.724,31.738,22.461,31.738,14.648,214.844
1532278730.728,37.109,25.391,34.668,11.230,-84.473
1532278730.732,39.062,25.391,34.668,15.625,-174.316
1532278730.736,39.551,27.832,30.273,22.461,118.164
1532278730.740,39.062,27.344,28.809,21.973,298.340
1532278730.744,44.434,22.461,30.762,12.695,7.324
1532278730.748,50.293,21.973,31.250,10.254,-203.613
1532278730.752,65.918,23.438,29.785,22.949,25.879
1532278730.755,74.219,26.367,27.344,24.414,273.438
1532278730.759,54.688,26.367,26.855,8.301,105.957
1532278730.763,35.645,26.367,26.367,3.906,-184.082
1532278730.767,25.879,25.879,24.902,12.695,-73.730
1532278730.771,11.719,29.297,25.391,14.160,244.141
1532278730.775,4.395,31.738,26.367,7.812,176.270
1532278730.779,-0.488,29.297,27.832,4.883,-166.992
1532278730.783,-10.742,30.762,28.320,8.301,-159.180
1532278730.787,-16.602,30.762,26.855,14.648,156.250
1532278730.791,-12.207,29.297,25.879,15.137,229.492
1532278730.795,-5.371,28.809,28.809,8.301,-83.008
1532278730.798,-1.953,27.344,29.785,8.301,-247.070
1532278730.802,-1.953,27.344,28.809,18.066,65.430
1532278730.806,-4.883,27.344,26.367,17.090,275.391
1532278730.810,-6.836,25.879,23.438,7.812,36.133
1532278730.814,-3.906,25.879,21.484,9.766,-210.938
1532278730.818,-4.395,26.855,25.879,20.020,-12.695
1532278730.822,-12.207,27.832,29.785,21.484,282.227
1532278730.826,-11.230,27.832,28.320,10.742,127.441
1532278730.830,-8.301,25.879,26.855,8.301,-186.035
1532278730.834,-6.836,25.879,25.879,20.020,-106.445
1532278730.838,-3.906,27.344,28.320,17.090,221.680
1532278730.841,-0.977,27.832,29.297,4.883,171.387
1532278730.845,4.395,30.273,25.879,3.906,-154.297
1532278730.849,10.742,31.738,24.414,9.766,-156.250
1532278730.853,19.043,33.203,23.926,12.695,154.785
1532278730.857,16.602,31.738,20.996,2.930,234.375
1532278730.861,9.766,31.738,21.973,-2.441,-60.059
1532278730.865,12.207,31.250,23.438,9.766,-211.426
1532278730.869,15.625,29.297,23.926,24.902,63.965
1532278730.873,20.508,30.273,27.344,20.508,280.273
1532278730.877,22.949,32.227,30.762,9.277,47.363
1532278730.881,27.344,29.785,30.273,7.812,-217.773
1532278730.884,28.809,29.785,27.344,13.672,-35.156
1532278730.888,31.738,32.227,23.926,15.137,243.652
1532278730.892,30.273,31.250,22.949,8.301,128.418
1532278730.896,26.367,29.785,20.996,0.488,-227.539
1532278730.900,19.531,27.344,18.555,0.488,-198.242
1532278730.904,6.348,28.809,16.113,11.230,199.219
1532278730.908,-7.324,29.297,16.113,8.789,213.867
1532278730.912,-20.508,26.367,20.996,0.000,-119.629
1532278730.916,-24.902,25.391,24.414,5.371,-193.359
1532278730.920,-21.484,25.391,23.438,16.602,111.816
1532278730.924,-19.531,23.926,22.461,15.137,239.746
1532278730.928,-19.043,25.391,22.949,6.836,-38.574
1532278730.931,-18.066,26.367,22.949,10.254,-202.637
1532278730.935,-14.160,26.367,21.484,17.090,30.762
1532278730.939,-10.254,31.250,20.508,11.719,245.605
1532278730.943,-15.625,34.180,18.555,4.395,54.199
1532278730.947,-17.090,31.738,15.625,-1.465,-206.543
1532278730.951,-16.113,29.785,15.137,6.836,-49.805
1532278730.955,-17.578,27.344,17.090,10.254,264.648
1532278730.959,-15.137,27.344,16.113,-3.906,193.359
1532278730.963,-13.672,26.367,15.137,-6.348,-143.066
1532278730.967,-10.254,22.949,16.602,1.465,-125.000
1532278730.971,-7.812,21.973,17.090,8.301,184.082
1532278730.974,-1.953,23.438,18.555,9.277,208.984
1532278730.978,9.277,25.391,19.531,6.836,-94.727
1532278730.982,19.043,22.949,17.090,15.625,-174.805
1532278730.986,15.625,22.949,14.648,22.949,131.348
1532278730.990,15.137,25.879,17.578,17.578,262.695
1532278730.994,19.531,25.879,20.996,9.277,-32.227
1532278730.998,21.973,29.297,19.043,5.371,-270.508
1532278731.002,27.344,29.785,15.625,16.602,-22.949
1532278731.006,29.297,27.344,17.090,20.996,280.762
1532278731.010,30.762,28.320,19.531,10.254,96.680
1532278731.014,31.250,29.297,20.020,12.207,-183.105
1532278731.017,28.809,28.809,19.531,18.555,-72.754
1532278731.021,28.809,27.344,20.508,23.438,222.168
1532278731.025,30.762,28.320,21.973,20.508,185.547
1532278731.029,32.227,32.227,20.996,15.137,-157.227
1532278731.033,33.203,31.250,18.555,21.973,-150.879
1532278731.037,31.738,31.250,19.531,25.391,171.387
1532278731.041,34.180,30.273,23.926,18.066,208.984
1532278731.045,28.809,26.855,24.414,9.766,-77.637
1532278731.049,24.902,25.879,25.391,14.160,-198.242
1532278731.053,32.227,25.879,26.855,25.879,103.516
1532278731.057,35.156,22.949,25.391,23.438,278.320
1532278731.060,35.156,22.461,25.879,20.508,-10.254
1532278731.064,35.156,23.926,24.902,21.484,-221.191
1532278731.068,33.691,27.832,21.973,23.926,-7.324
1532278731.072,31.250,32.227,22.461,24.414,255.859
1532278731.076,26.855,31.250,20.508,10.742,106.934
1532278731.080,26.367,27.344,19.043,0.000,-219.238
1532278731.084,29.297,24.902,18.555,9.766,-93.750
1532278731.088,26.855,22.949,18.066,16.602,234.375
1532278731.092,27.344,22.461,18.066,7.324,190.430
1532278731.096,31.250,25.391,18.066,2.441,-141.602
1532278731.100,33.203,29.297,19.531,7.812,-190.918
1532278731.103,31.738,28.320,20.020,15.137,150.879
1532278731.107,14.648,25.391,19.531,14.648,258.301
1532278731.111,-3.906,24.414,20.508,10.742,-36.133
1532278731.115,-8.789,25.879,24.414,13.672,-187.012
1532278731.119,-10.742,26.855,24.902,23.438,63.477
1532278731.123,-8.789,26.367,23.926,24.902,235.840
1532278731.127,-8.301,25.391,25.879,16.113,12.207
1532278731.131,-13.184,24.902,24.414,14.160,-203.125
1532278731.135,-6.348,27.832,24.902,23.926,-23.926
1532278731.139,-4.395,29.785,27.344,19.531,226.074
1532278731.143,-7.324,27.832,29.297,12.207,107.422
1532278731.146,-4.395,24.414,29.297,17.090,-171.875
1532278731.150,-4.883,25.879,28.320,26.855,-95.215
1532278731.154,-6.836,28.809,29.785,36.133,221.191
1532278731.158,2.441,28.809,29.297,30.273,205.566
1532278731.162,10.742,30.273,29.297,22.461,-138.184
1532278731.166,6.348,31.250,27.832,27.344,-190.918
1532278731.170,11.719,31.738,24.414,35.645,125.488
1532278731.174,15.625,33.203,22.461,30.762,242.676
1532278731.178,15.137,32.715,22.461,15.625,-58.594
1532278731.182,19.531,32.227,20.508,10.742,-243.652
1532278731.186,30.762,34.180,20.508,24.414,62.012
1532278731.189,37.598,32.227,22.461,27.344,288.574
1532278731.193,34.180,31.738,25.391,20.508,69.824
1532278731.197,32.715,32.715,27.344,20.996,-206.055
1532278731.201,38.086,31.738,22.949,34.668,-61.523
1532278731.205,44.922,31.738,22.461,43.945,253.906
1532278731.209,45.898,32.227,25.391,34.668,134.277
1532278731.213,48.828,30.762,26.855,29.785,-197.266
1532278731.217,61.035,30.273,27.344,34.668,-153.320
1532278731.221,72.754,30.762,23.926,37.109,168.457
1532278731.225,72.266,30.762,22.461,37.109,225.098
1532278731.229,75.195,29.297,24.902,28.809,-102.051
1532278731.232,85.938,32.227,24.902,27.344,-202.148
1532278731.236,90.820,34.668,24.414,36.133,96.680
1532278731.240,87.402,32.715,25.391,31.250,254.883
1532278731.244,81.543,30.273,27.344,17.578,-6.836
1532278731.248,84.473,31.250,27.832,16.602,-231.445
1532278731.252,87.402,31.738,24.902,26.855,12.207
1532278731.256,88.379,31.738,23.438,27.832,242.188
1532278731.260,84.961,34.180,23.438,19.531,56.641
1532278731.264,78.613,33.691,23.926,18.066,-196.777
1532278731.268,74.707,30.273,25.391,25.879,-87.891
1532278731.272,71.777,28.320,26.855,31.250,247.070
1532278731.275,57.617,28.320,27.832,26.855,179.688
1532278731.279,37.109,26.367,26.855,12.207,-175.781
1532278731.283,27.344,25.391,26.367,14.648,-162.109
1532278731.287,24.902,29.297,26.367,23.926,193.359
1532278731.291,20.020,29.297,21.973,16.602,258.301
1532278731.295,16.113,28.809,21.484,9.766,-83.984
1532278731.299,12.695,31.738,18.555,10.254,-191.895
1532278731.303,13.184,31.738,17.578,18.555,102.539
1532278731.307,17.578,29.785,22.949,22.949,286.133
1532278731.311,16.602,31.250,24.902,15.625,41.016
1532278731.315,17.578,31.738,22.461,15.625,-218.750
1532278731.318,22.461,28.320,22.461,21.484,-48.340
1532278731.322,21.484,28.809,19.043,23.926,238.770
1532278731.326,21.973,30.762,16.113,16.602,131.836
1532278731.330,27.344,31.250,19.043,10.742,-170.898
1532278731.334,30.762,31.250,18.555,18.066,-104.004
1532278731.338,36.133,31.738,18.066,22.461,208.984
1532278731.342,41.016,31.738,19.531,19.043,181.152
1532278731.346,42.969,31.738,18.066,14.160,-131.836
1532278731.350,49.316,30.762,17.090,21.973,-173.340
1532278731.354,54.199,30.762,17.090,32.715,126.465
1532278731.358,53.711,31.250,19.043,21.973,197.266
1532278731.361,62.988,29.785,20.508,8.301,-112.305
1532278731.365,83.008,27.344,19.043,16.113,-231.934
1532278731.369,98.145,30.273,18.066,30.762,52.246
1532278731.373,104.004,33.691,16.602,30.762,274.902
1532278731.377,112.305,33.691,18.066,22.461,26.367
1532278731.381,119.141,30.762,21.973,23.438,-237.305
1532278731.385,120.117,30.273,21.973,31.738,-30.273
1532278731.389,113.281,32.715,21.973,37.109,258.301
1532278731.393,105.957,32.715,21.484,30.273,152.832
1532278731.397,89.355,31.738,24.902,26.367,-163.086
1532278731.401,64.941,31.250,27.344,35.645,-130.371
1532278731.404,38.574,30.273,22.949,36.133,187.500
1532278731.408,9.277,32.227,19.531,26.855,206.543
1532278731.412,-4.395,33.203,20.508,20.996,-107.422
1532278731.416,-12.695,35.156,20.020,19.531,-180.176
1532278731.420,-20.508,35.645,18.555,22.949,112.793
1532278731.424,-31.250,34.668,20.508,23.438,239.746
1532278731.428,-36.133,34.668,20.996,15.137,-27.344
1532278731.432,-30.762,31.738,23.438,17.578,-208.496
1532278731.436,-31.738,30.762,24.414,26.855,27.344
1532278731.440,-26.855,31.738,23.926,26.367,275.879
1532278731.444,-22.949,32.227,26.855,20.020,51.758
1532278731.447,-19.531,33.203,26.855,20.020,-229.980
1532278731.451,-12.207,32.227,24.414,29.297,-61.523
1532278731.455,-5.859,32.227,24.414,27.344,229.004
1532278731.459,2.441,34.180,25.391,16.113,110.840
1532278731.463,6.348,35.156,25.879,15.625,-184.570
1532278731.467,13.184,34.668,25.879,23.926,-146.484
1532278731.471,13.184,33.203,24.902,26.367,175.781
1532278731.475,14.160,33.203,24.902,24.414,215.820
1532278731.479,20.020,34.180,25.391,15.137,-112.793
1532278731.483,17.090,33.203,24.902,18.066,-188.965
1532278731.487,11.230,32.227,25.879,27.832,109.863
1532278731.490,7.812,32.227,26.855,20.508,270.020
1532278731.494,9.766,32.227,25.879,13.184,-5.371
1532278731.498,13.184,35.645,24.414,9.277,-269.043
1532278731.502,16.113,38.086,21.484,15.625,-14.648
1532278731.506,17.578,34.668,20.996,23.438,270.020
1532278731.510,19.531,32.227,25.879,19.531,70.801
1532278731.514,21.973,32.227,25.879,19.531,-229.004
1532278731.518,24.902,33.691,23.438,31.250,-83.008
1532278731.522,29.297,32.227,23.926,34.180,242.676
1532278731.526,28.320,30.273,23.438,23.926,178.711
1532278731.530,20.508,31.250,25.391,18.066,-150.879
1532278731.533,11.230,30.273,23.926,25.879,-152.832
1532278731.537,9.277,27.832,20.020,30.762,196.289
1532278731.541,8.301,28.809,23.438,21.484,232.422
1532278731.545,2.930,27.832,26.855,14.160,-116.211
1532278731.549,1.465,28.809,25.391,18.066,-243.652
1532278731.553,4.883,32.227,22.461,25.879,75.684
1532278731.557,3.418,29.297,24.902,22.949,254.395
1532278731.561,4.395,28.320,27.832,14.160,-29.785
1532278731.565,12.695,32.227,25.391,16.602,-222.168
1532278731.569,19.531,33.691,22.461,24.414,15.137
1532278731.573,19.043,31.250,23.926,24.414,268.555
1532278731.576,22.461,30.273,24.414,15.137,78.613
1532278731.580,25.391,29.785,23.926,14.648,-218.750
1532278731.584,26.855,29.785,24.414,22.949,-87.402
1532278731.588,31.250,31.738,24.414,23.438,238.281
1532278731.592,33.691,33.691,26.855,18.555,202.148
1532278731.596,37.598,35.156,31.738,12.695,-136.719
1532278731.600,36.133,32.227,29.785,18.555,-209.961
1532278731.604,30.762,31.738,28.320,33.203,129.395
1532278731.608,25.879,35.156,28.320,25.879,259.766
1532278731.612,23.438,35.156,27.344,17.090,-40.527
1532278731.616,27.344,33.691,28.809,21.973,-216.309
1532278731.619,32.227,35.156,26.855,23.926,55.176
1532278731.623,31.250,36.133,28.809,24.902,266.602
1532278731.627,30.762,35.156,32.227,19.043,26.367
1532278731.631,29.297,34.180,31.738,19.043,-233.887
1532278731.635,26.855,33.691,29.785,31.738,-49.316
1532278731.639,23.926,36.133,26.367,30.762,241.211
1532278731.643,20.508,36.621,25.879,19.043,135.742
1532278731.647,20.508,37.109,27.832,16.602,-153.320
1532278731.651,19.531,37.598,27.832,25.391,-130.371
1532278731.655,20.996,38.086,28.809,32.227,179.688
1532278731.659,25.391,39.551,32.715,20.020,173.828
1532278731.662,31.738,36.621,33.691,14.160,-162.109
1532278731.666,37.109,35.156,28.809,23.438,-195.801
1532278731.670,35.645,34.668,29.297,28.809,139.648
1532278731.674,31.250,29.785,30.762,26.367,259.766
1532278731.678,33.203,32.227,28.809,17.578,-39.551
1532278731.682,34.180,32.715,29.297,22.949,-209.961
1532278731.686,34.668,31.250,27.344,32.715,43.945
1532278731.690,41.504,31.738,27.344,33.691,264.160
1532278731.694,42.969,32.227,27.832,26.855,71.289
1532278731.698,38.086,31.250,25.391,18.066,-207.031
1532278731.702,43.945,31.250,21.973,23.438,-59.570
1532278731.705,46.387,30.762,20.996,29.785,255.859
1532278731.709,31.250,27.832,21.973,20.508,150.391
1532278731.713,14.160,26.855,22.461,12.695,-180.176
1532278731.717,7.324,27.832,23.438,22.949,-161.133
1532278731.721,7.812,26.855,24.414,34.668,181.641
1532278731.725,4.395,26.367,22.461,25.879,245.117
1532278731.729,1.465,27.344,21.484,19.531,-110.352
1532278731.733,8.789,28.320,20.508,25.879,-225.586
1532278731.737,10.254,29.297,19.531,24.902,103.516
1532278731.741,6.836,26.855,21.973,16.113,245.605
1532278731.745,12.207,28.809,23.438,14.160,-20.996
1532278731.748,18.066,29.297,22.461,21.973,-207.520
1532278731.752,17.578,27.344,21.484,34.180,41.504
1532278731.756,18.555,28.320,23.438,33.691,291.992
1532278731.760,22.949,26.855,22.949,26.855,77.637
1532278731.764,23.926,25.879,22.461,26.367,-219.727
1532278731.768,19.531,26.855,20.996,30.273,-96.680
1532278731.772,18.555,27.344,19.531,36.621,241.699
1532278731.776,20.508,26.855,20.996,33.691,171.387
1532278731.780,20.020,29.297,21.973,17.090,-187.500
1532278731.784,21.973,28.809,24.414,22.949,-174.316
1532278731.788,20.996,25.879,21.484,35.645,177.246
1532278731.791,17.578,27.832,19.531,28.320,244.141
1532278731.795,16.113,24.902,22.949,20.020,-71.289
1532278731.799,16.113,24.902,23.926,21.973,-204.590
1532278731.803,16.602,26.855,24.902,32.715,98.633
1532278731.807,17.090,25.879,25.879,32.227,284.180
1532278731.811,19.043,28.320,26.855,26.855,21.484
1532278731.815,20.020,30.762,27.344,26.367,-211.914
1532278731.819,20.508,29.297,28.320,30.273,-6.348
1532278731.823,24.902,29.297,32.227,35.156,279.297
1532278731.827,24.902,29.297,31.738,26.855,103.516
1532278731.831,23.926,27.344,26.855,16.602,-208.008
1532278731.834,20.020,29.297,24.902,24.414,-105.469
1532278731.838,20.508,30.273,25.391,28.320,192.871
1532278731.842,36.133,27.832,27.344,21.973,149.414
1532278731.846,44.434,27.344,29.297,22.949,-172.852
1532278731.850,47.363,25.391,26.367,28.320,-192.383
1532278731.854,56.152,22.461,24.902,35.156,130.371
1532278731.858,62.500,24.414,25.391,32.715,209.473
1532278731.862,62.988,25.879,23.438,25.391,-83.984
1532278731.866,66.406,24.414,23.926,29.297,-203.613
1532278731.870,75.195,24.414,25.391,36.133,59.570
1532278731.874,79.590,25.879,25.391,33.203,250.488
1532278731.877,81.543,26.855,24.414,20.508,19.043
1532278731.881,76.660,28.320,22.949,17.090,-229.492
1532278731.885,78.125,28.320,24.902,34.180,-20.020
1532278731.889,86.426,26.367,24.902,36.133,262.207
1532278731.893,96.680,28.809,20.996,21.484,135.742
1532278731.897,103.516,27.832,19.043,18.066,-184.082
1532278731.901,103.516,25.391,18.555,24.902,-133.301
1532278731.905,109.863,26.855,17.578,28.320,206.055
1532278731.909,115.723,26.855,16.602,19.531,196.289
1532278731.913,122.070,23.926,17.090,12.207,-154.785
1532278731.917,137.695,22.949,19.043,13.184,-220.215
1532278731.920,157.227,24.414,20.508,17.578,120.605
1532278731.924,167.969,24.902,20.508,19.043,273.926
1532278731.928,171.875,26.367,22.949,13.184,-9.277
1532278731.932,178.223,27.832,25.879,16.113,-176.270
1532278731.936,185.059,30.273,24.902,26.855,68.848
1532278731.940,185.059,32.227,24.414,24.902,279.297
1532278731.944,186.035,31.250,24.902,18.066,78.125
1532278731.948,190.918,31.738,22.949,18.066,-204.590
1532278731.952,182.617,28.809,19.531,20.508,-56.152
1532278731.956,176.758,24.414,21.484,24.414,243.164
1532278731.960,171.875,26.367,21.484,14.648,147.949
1532278731.964,157.227,27.832,18.066,5.859,-171.387
1532278731.967,129.883,29.297,20.508,19.531,-138.184
1532278731.971,84.961,28.809,20.996,25.879,211.914
1532278731.975,43.457,27.832,20.020,12.695,214.844
1532278731.979,11.719,31.250,22.949,3.906,-131.836
1532278731.983,-19.531,32.227,22.461,10.254,-206.055
1532278731.987,-38.086,30.273,22.461,23.438,104.492
1532278731.991,-47.852,30.762,23.438,22.949,243.652
1532278731.995,-54.199,32.227,25.879,18.555,-14.160
1532278731.999,-53.711,33.691,29.785,20.508,-203.125
1532278732.003,-57.617,36.621,25.879,22.949,40.039
1532278732.007,-62.012,34.668,22.949,22.461,273.926
1532278732.010,-58.594,34.180,27.344,18.555,62.012
1532278732.014,-59.082,35.645,29.785,21.484,-215.332
1532278732.018,-64.453,36.133,28.809,33.691,-86.914
1532278732.022,-69.336,36.621,26.367,36.621,210.449
1532278732.026,-74.219,35.156,27.344,33.203,183.105
1532278732.030,-66.406,36.621,30.762,34.180,-119.629
1532278732.034,-59.570,36.133,29.785,36.133,-136.719
1532278732.038,-62.988,35.645,23.438,33.203,178.223
1532278732.042,-65.918,33.691,24.902,25.879,247.070
1532278732.046,-70.312,30.762,29.785,19.043,-51.270
1532278732.050,-61.035,31.250,28.320,18.066,-166.016
1532278732.053,-48.828,35.156,26.855,27.832,107.910
1532278732.057,-48.340,37.109,28.320,25.879,233.398
1532278732.061,-43.945,35.645,26.367,14.160,-9.277
1532278732.065,-35.156,38.086,24.902,17.090,-219.727
1532278732.069,-20.508,40.527,25.391,25.879,-3.906
1532278732.073,-12.695,38.574,24.902,27.832,280.273
1532278732.077,-7.812,36.133,26.367,22.461,78.613
1532278732.081,0.000,35.645,26.855,16.602,-237.305
1532278732.085,0.977,35.156,27.832,28.809,-83.984
1532278732.089,2.930,35.645,29.785,37.109,232.910
1532278732.093,5.371,33.203,29.297,29.297,176.758
1532278732.096,9.277,32.227,27.832,23.438,-150.391
1532278732.100,14.160,35.645,27.832,34.180,-210.449
1532278732.104,16.113,36.133,29.297,44.922,122.070
1532278732.108,15.137,37.109,28.320,36.621,241.211
1532278732.112,12.695,40.527,26.367,25.879,-63.477
1532278732.116,14.648,38.086,28.320,27.344,-214.355
1532278732.120,6.836,34.180,27.832,27.832,40.039
1532278732.124,-11.230,33.203,25.879,27.832,237.793
1532278732.128,-16.113,34.180,27.344,25.879,16.113
1532278732.132,-14.648,35.156,26.855,25.391,-231.934
1532278732.136,-17.578,34.668,25.391,32.715,-35.645
1532278732.139,-16.113,33.203,26.855,35.156,253.906
1532278732.143,-17.578,32.715,25.391,27.832,104.980
1532278732.147,-16.602,34.180,24.902,22.949,-218.262
1532278732.151,-8.301,34.668,29.297,37.109,-156.738
1532278732.155,-5.859,33.691,29.297,48.340,169.434
1532278732.159,-5.859,32.715,27.344,36.621,163.086
1532278732.163,0.977,34.180,25.879,28.320,-154.297
1532278732.167,14.648,37.109,25.391,40.527,-191.406
1532278732.171,23.438,35.645,26.367,50.293,137.207
1532278732.175,28.809,34.668,25.879,46.387,257.812
1532278732.179,41.016,32.227,27.344,43.457,-56.152
1532278732.182,50.781,30.273,28.320,43.457,-258.301
1532278732.186,36.133,30.762,25.879,47.363,8.301
1532278732.190,20.996,29.297,24.902,46.875,260.254
1532278732.194,12.695,28.320,26.367,40.039,59.082
1532278732.198,10.254,30.273,29.785,36.621,-242.676
1532278732.202,3.906,31.738,28.809,40.527,-100.098
1532278732.206,-2.930,30.273,27.832,48.828,243.164
1532278732.210,0.488,32.227,28.809,42.480,155.762
1532278732.214,1.953,31.738,30.273,35.645,-166.016
1532278732.218,6.348,31.250,32.227,44.434,-132.324
1532278732.222,12.695,34.180,30.762,47.363,198.730
1532278732.225,15.625,36.133,29.297,39.551,232.422
1532278732.229,10.742,35.645,29.297,33.203,-98.145
1532278732.233,6.836,33.691,25.879,35.645,-183.594
1532278732.237,11.719,34.180,26.855,43.945,141.602
1532278732.241,14.648,36.621,26.367,42.480,288.574
1532278732.245,9.766,35.645,26.367,34.668,-10.254
1532278732.249,8.301,31.738,29.785,35.156,-232.422
1532278732.253,7.812,32.227,30.273,44.922,12.207
1532278732.257,5.859,36.133,29.297,40.039,261.230
1532278732.261,10.254,36.133,28.320,26.855,59.082
1532278732.265,12.207,33.691,26.855,28.320,-247.559
1532278732.268,10.254,31.738,24.414,35.645,-112.305
1532278732.272,9.766,31.250,25.879,41.504,239.746
1532278732.276,11.719,31.250,28.320,35.645,164.062
1532278732.280,13.184,31.738,28.320,29.297,-149.414
1532278732.284,8.301,29.785,24.414,34.668,-131.836
1532278732.288,7.812,27.832,23.926,37.598,182.129
1532278732.292,6.348,28.809,28.320,35.645,229.492
1532278732.296,8.789,30.273,28.320,30.762,-84.473
1532278732.300,18.066,31.250,27.832,30.762,-230.469
1532278732.304,16.602,31.738,26.855,35.156,78.125
1532278732.308,12.207,32.227,27.344,33.691,278.320
1532278732.311,12.207,33.691,29.297,23.438,7.324
1532278732.315,10.742,32.227,27.832,21.973,-209.473
1532278732.319,16.602,30.762,28.320,29.785,4.395
1532278732.323,22.461,29.785,31.738,29.785,284.180
1532278732.327,30.762,32.715,32.715,24.414,102.051
1532278732.331,49.805,33.203,32.227,21.973,-209.961
1532278732.335,73.242,32.715,31.250,31.250,-100.586
1532278732.339,89.844,33.691,30.762,38.574,225.098
1532278732.343,111.816,33.203,32.715,31.250,178.711
1532278732.347,125.000,31.738,30.762,21.973,-147.949
1532278732.351,102.051,30.762,28.320,22.461,-158.203
1532278732.354,66.895,30.273,29.785,29.785,181.641
1532278732.358,44.922,32.715,30.762,23.438,239.258
1532278732.362,29.297,34.180,30.273,14.160,-79.102
1532278732.366,17.578,31.738,28.809,22.461,-212.402
1532278732.370,9.766,33.203,25.391,32.227,44.922
1532278732.374,5.371,36.621,24.902,38.086,272.949
1532278732.378,0.488,36.621,27.344,32.227,49.316
1532278732.382,-2.930,35.645,28.320,29.785,-239.746
1532278732.386,-2.930,35.156,28.320,41.504,-62.012
1532278732.390,-0.977,36.621,27.832,40.039,244.141
1532278732.394,-3.906,36.621,29.297,32.227,138.184
1532278732.397,-0.488,34.668,30.762,28.809,-175.781
1532278732.401,10.254,38.086,29.297,32.715,-133.789
1532278732.405,10.254,38.574,26.367,40.039,204.590
1532278732.409,9.277,39.062,28.809,40.039,198.242
1532278732.413,7.324,41.504,29.785,29.297,-128.418
1532278732.417,-0.977,36.621,25.391,27.832,-176.758
1532278732.421,-12.207,33.691,27.344,35.645,150.391
1532278732.425,-13.184,35.645,31.250,35.156,271.484
1532278732.429,-2.930,35.156,28.809,25.391,-54.688
1532278732.433,13.184,36.133,27.832,22.461,-232.910
1532278732.437,25.391,39.062,31.250,32.715,55.176
1532278732.440,28.809,39.551,31.738,30.273,273.926
1532278732.444,31.250,39.551,31.250,22.949,59.082
1532278732.448,33.691,40.039,31.738,27.832,-205.078
1532278732.452,26.367,38.086,28.320,33.203,-43.945
1532278732.456,18.555,37.598,25.879,36.621,267.090
1532278732.460,13.184,38.574,24.902,31.738,159.668
1532278732.464,19.043,35.645,25.391,27.344,-192.383
1532278732.468,26.367,34.668,27.344,37.109,-174.805
1532278732.472,30.762,37.109,27.832,45.410,182.617
1532278732.476,41.992,38.574,27.344,41.992,228.516
1532278732.480,46.387,38.574,27.832,32.715,-95.215
1532278732.483,42.969,37.598,27.832,37.109,-190.918
1532278732.487,40.527,34.668,27.344,44.434,115.234
1532278732.491,48.340,34.668,27.832,40.527,264.160
1532278732.495,62.988,36.621,25.391,33.203,3.418
1532278732.499,70.312,34.180,23.438,28.809,-212.891
1532278732.503,61.523,31.250,24.414,36.621,15.137
1532278732.507,43.457,32.715,25.879,44.434,291.504
1532278732.511,32.227,36.621,30.273,37.598,93.262
1532278732.515,25.879,37.109,31.738,36.133,-204.102
1532278732.519,15.137,35.156,28.320,38.086,-107.910
1532278732.523,16.113,37.109,27.344,40.039,202.148
1532278732.526,19.531,39.062,27.344,36.133,157.715
1532278732.530,8.789,38.574,27.344,27.344,-185.547
1532278732.534,9.277,38.086,28.809,33.691,-160.156
1532278732.538,12.695,38.574,28.809,36.133,150.879
1532278732.542,2.930,37.598,30.762,28.320,191.406
1532278732.546,-4.883,36.133,30.273,24.414,-90.820
1532278732.550,-1.953,38.574,30.273,27.344,-196.289
1532278732.554,-1.953,39.062,31.738,37.598,106.934
1532278732.558,-1.953,37.598,32.715,40.527,267.090
1532278732.562,3.418,38.086,34.668,31.738,-2.441
1532278732.566,7.324,38.086,32.715,28.320,-212.402
1532278732.569,8.789,39.062,34.180,37.598,4.395
1532278732.573,1.953,38.574,33.203,38.574,265.137
1532278732.577,-0.488,38.086,28.809,25.879,110.840
1532278732.581,2.441,39.551,29.297,20.020,-225.586
1532278732.585,5.859,39.062,29.297,27.344,-125.000
1532278732.589,10.254,41.504,29.297,32.715,233.398
1532278732.593,4.883,40.527,30.762,26.367,191.895
1532278732.597,3.906,37.598,32.715,21.973,-149.414
1532278732.601,4.395,37.598,31.738,28.809,-167.969
1532278732.605,-2.930,40.527,31.250,38.086,165.527
1532278732.609,-2.441,41.992,31.738,34.668,249.512
1532278732.612,-1.953,38.574,29.785,26.855,-39.062
1532278732.616,-1.953,36.621,29.785,30.273,-201.660
1532278732.620,3.906,38.086,30.762,32.715,46.387
1532278732.624,1.465,36.621,28.320,30.273,258.301
1532278732.628,-1.465,34.180,28.809,25.879,31.738
1532278732.632,3.906,37.109,31.250,27.344,-210.449
1532278732.636,7.324,38.574,28.809,39.062,-52.246
1532278732.640,13.672,38.574,30.273,40.527,207.520
1532278732.644,16.113,39.551,35.156,29.297,106.445
1532278732.648,11.230,37.598,32.227,26.367,-200.684
1532278732.652,15.137,37.598,32.227,34.180,-112.793
1532278732.655,17.090,39.551,31.738,32.227,221.191
1532278732.659,7.324,39.062,28.809,20.020,176.758
1532278732.663,1.465,38.574,29.785,13.672,-146.973
1532278732.667,4.395,38.086,30.762,19.043,-211.914
1532278732.671,4.395,36.621,30.762,22.949,122.070
1532278732.675,9.277,38.574,32.227,18.555,256.836
1532278732.679,11.230,36.621,31.250,11.230,-79.590
1532278732.683,6.348,32.227,30.762,8.789,-246.094
1532278732.687,12.207,31.250,32.715,20.020,37.598
1532278732.691,20.996,33.691,35.156,27.344,256.836
1532278732.695,25.879,35.645,34.180,21.484,57.617
1532278732.698,24.902,34.180,34.180,16.113,-229.492
1532278732.702,21.973,32.715,34.668,23.438,-68.848
1532278732.706,19.043,33.691,33.691,28.320,277.832
1532278732.710,22.949,37.109,32.227,16.113,171.387
1532278732.714,30.273,37.109,30.273,11.719,-163.086
1532278732.718,27.344,36.133,33.203,17.090,-150.391
1532278732.722,16.602,35.645,31.738,15.625,149.902
1532278732.726,12.695,34.180,31.250,8.789,187.500
1532278732.730,14.648,32.715,34.180,6.348,-110.840
1532278732.734,20.508,33.691,33.691,12.695,-161.133
1532278732.738,28.809,32.227,32.715,22.461,125.488
1532278732.741,32.227,31.738,31.738,18.066,237.793
1532278732.745,28.809,33.203,34.180,7.812,-39.062
1532278732.749,28.320,35.156,34.180,9.766,-226.074
1532278732.753,32.715,35.156,30.273,18.066,29.785
1532278732.757,29.297,34.180,28.320,18.066,259.277
1532278732.761,15.625,36.133,32.227,10.254,41.992
1532278732.765,4.395,38.086,34.668,4.395,-228.516
1532278732.769,0.000,37.598,33.691,13.184,-66.895
1532278732.773,-2.930,38.086,34.180,19.531,264.160
1532278732.777,-3.418,40.527,34.180,14.648,154.785
1532278732.781,-2.441,41.992,35.156,2.930,-200.684
1532278732.784,-4.883,39.551,35.645,1.953,-189.453
1532278732.788,0.000,39.062,35.156,13.184,160.156
1532278732.792,7.812,43.457,33.691,7.812,234.863
1532278732.796,8.301,44.434,31.738,-2.441,-78.125
1532278732.800,8.789,43.457,32.227,-1.953,-208.496
1532278732.804,2.441,45.410,33.203,7.324,99.121
1532278732.808,-1.953,45.898,34.180,13.184,280.762
1532278732.812,-5.371,41.504,33.203,7.812,0.977
1532278732.816,-6.348,40.039,33.203,5.859,-230.469
1532278732.820,0.000,43.457,36.133,14.648,-27.832
1532278732.824,1.465,42.969,37.598,19.043,253.418
1532278732.827,-2.441,42.480,37.109,11.719,111.328
1532278732.831,-8.789,44.922,37.598,8.301,-175.781
1532278732.835,-11.230,42.480,40.527,17.578,-83.496
1532278732.839,-9.277,41.504,41.504,17.090,222.656
1532278732.843,-9.277,40.527,38.574,9.277,204.102
1532278732.847,-8.301,41.504,34.668,3.906,-104.980
1532278732.851,-7.324,41.504,31.250,4.883,-166.504
1532278732.855,-9.277,39.551,29.297,12.695,141.113
1532278732.859,-14.648,38.086,28.320,4.395,231.934
1532278732.863,-18.555,33.203,30.762,-3.906,-79.102
1532278732.867,-13.672,32.227,32.227,3.906,-218.262
1532278732.870,-11.230,34.668,30.762,10.254,39.551
1532278732.874,-10.254,38.086,33.203,14.160,258.789
1532278732.878,-5.371,38.574,31.250,9.277,59.570
1532278732.882,-4.395,39.062,28.809,5.371,-201.660
1532278732.886,-4.883,39.551,30.762,10.742,-15.625
1532278732.890,2.930,39.062,30.762,14.648,268.555
1532278732.894,6.348,39.551,28.809,6.836,126.953
1532278732.898,4.883,40.527,27.344,0.977,-222.656
1532278732.902,6.836,43.457,28.320,6.836,-169.922
1532278732.906,12.207,45.898,31.250,17.090,201.172
1532278732.910,20.996,45.898,29.785,14.160,226.562
1532278732.913,22.461,44.434,27.344,5.859,-104.980
1532278732.917,14.160,41.504,30.273,6.348,-191.406
1532278732.921,7.812,39.551,31.250,7.812,93.750
1532278732.925,7.812,39.551,29.785,12.695,229.004
1532278732.929,7.812,39.551,30.762,15.137,-41.504
1532278732.933,5.859,38.574,31.250,19.531,-218.750
1532278732.937,5.859,38.574,31.250,32.715,37.109
1532278732.941,5.859,38.086,30.762,28.320,288.574
1532278732.945,7.812,36.621,27.832,19.043,95.215
1532278732.949,11.719,37.598,25.391,20.508,-222.168
1532278732.953,7.324,39.062,25.879,29.297,-90.332
1532278732.956,7.812,35.645,26.367,31.738,230.957
1532278732.960,14.160,34.180,29.297,19.043,110.840
1532278732.964,13.672,34.180,32.227,18.555,-210.449
1532278732.968,17.090,36.133,30.273,35.156,-120.117
1532278732.972,17.090,36.621,30.273,42.480,205.566
1532278732.976,18.555,33.691,31.250,35.645,221.680
1532278732.980,20.020,32.227,28.809,24.902,-79.102
1532278732.984,20.508,33.691,29.785,29.785,-174.805
1532278732.988,19.043,33.203,29.297,34.668,119.141
1532278732.992,20.020,32.715,28.320,31.250,250.488
1532278732.996,25.879,35.156,32.715,29.785,-3.906
1532278733.000,31.738,35.645,32.227,30.273,-210.938
1532278733.003,31.250,34.668,28.320,35.156,-5.859
1532278733.007,23.926,33.203,26.367,35.156,288.574
1532278733.011,24.902,36.133,30.273,27.344,109.863
1532278733.015,29.785,36.621,30.762,24.902,-203.613
1532278733.019,28.809,34.668,28.320,27.344,-59.570
1532278733.023,22.461,36.133,28.320,25.391,246.094
1532278733.027,17.090,35.645,27.344,19.043,153.809
1532278733.031,14.160,35.645,27.344,17.090,-166.992
1532278733.035,17.090,35.156,27.344,22.949,-157.227
1532278733.039,21.484,36.133,26.367,30.273,170.898
1532278733.043,18.066,35.645,27.344,27.344,207.031
1532278733.046,18.555,34.668,29.297,17.578,-105.469
1532278733.050,20.508,36.621,26.855,15.625,-217.773
1532278733.054,20.020,37.109,26.367,26.855,75.195
1532278733.058,24.902,39.062,29.297,24.902,255.859
1532278733.062,26.855,38.086,28.320,8.789,-17.090
1532278733.066,27.344,36.621,30.273,12.207,-221.191
1532278733.070,32.227,36.133,32.227,24.414,20.508
1532278733.074,34.668,36.133,30.762,26.367,269.531
1532278733.078,33.691,34.668,29.785,14.648,66.895
1532278733.082,32.715,33.691,29.785,9.277,-226.562
1532278733.086,36.621,35.156,30.273,21.484,-79.102
1532278733.089,42.480,36.133,27.832,29.297,248.535
1532278733.093,41.504,37.109,27.832,27.832,187.500
1532278733.097,42.969,38.574,28.809,23.438,-170.898
1532278733.101,44.434,39.551,26.367,21.973,-209.961
1532278733.105,42.480,37.598,25.391,29.297,152.832
1532278733.109,47.363,36.621,26.855,27.344,258.301
1532278733.113,54.199,38.574,29.785,20.020,-37.598
1532278733.117,50.293,38.574,32.227,24.414,-194.824
1532278733.121,41.992,36.621,31.250,29.785,58.105
1532278733.125,38.086,34.180,30.762,24.902,261.719
1532278733.129,37.598,36.621,30.273,16.113,39.062
1532278733.132,38.086,38.086,31.250,17.578,-212.891
1532278733.136,40.039,35.645,29.785,27.832,-15.137
1532278733.140,36.133,36.133,28.320,25.879,245.605
1532278733.144,30.273,38.086,32.227,14.160,93.262
1532278733.148,28.809,38.574,32.227,14.648,-187.012
1532278733.152,27.832,38.086,29.297,25.391,-93.262
1532278733.156,24.902,38.574,31.250,34.180,236.816
1532278733.160,20.020,38.086,32.715,26.855,197.266
1532278733.164,19.043,38.574,34.180,19.043,-132.812
1532278733.168,23.438,40.039,34.180,22.461,-189.941
1532278733.172,20.996,36.133,33.203,26.855,140.625
1532278733.175,10.742,35.156,34.180,20.508,276.367
1532278733.179,7.812,37.109,35.156,13.184,-31.738
1532278733.183,11.719,37.109,33.691,18.555,-225.098
1532278733.187,8.789,35.645,34.180,26.367,45.898
1532278733.191,8.301,37.109,37.109,24.902,270.020
1532278733.195,14.648,38.574,36.621,17.090,26.367
1532278733.199,20.020,36.133,35.156,15.625,-238.281
1532278733.203,24.414,36.133,33.203,25.391,-93.262
1532278733.207,19.043,36.133,32.715,26.367,230.957
1532278733.211,9.277,35.645,34.180,13.672,178.711
1532278733.215,4.395,36.133,34.180,10.742,-156.738
1532278733.218,-5.371,36.621,33.691,14.648,-120.117
1532278733.222,-11.230,35.156,35.156,18.066,190.430
1532278733.226,-10.742,37.598,34.668,17.578,219.727
1532278733.230,-14.160,39.551,35.156,15.625,-83.496
1532278733.234,-18.066,36.133,34.668,22.461,-199.707
1532278733.238,-14.160,38.086,32.715,24.902,90.332
1532278733.242,-13.184,38.086,32.715,16.602,221.680
1532278733.246,-13.672,34.180,32.715,12.207,-7.812
1532278733.250,-11.230,34.180,33.691,17.090,-185.547
1532278733.254,-14.160,33.203,30.762,22.949,37.598
1532278733.258,-21.484,31.738,28.320,16.602,285.645
1532278733.261,-21.973,29.297,28.320,6.836,82.520
1532278733.265,-13.672,29.785,28.809,7.324,-214.355
1532278733.269,-11.230,32.227,30.762,16.113,-83.496
1532278733.273,-9.766,33.691,30.762,19.043,228.027
1532278733.277,-10.742,33.691,30.762,13.184,153.320
1532278733.281,-10.742,34.180,30.762,6.836,-184.570
1532278733.285,-9.766,33.691,30.762,12.695,-171.875
1532278733.289,-10.742,33.691,29.785,25.879,179.199
1532278733.293,-12.695,33.203,30.762,20.020,243.652
1532278733.297,-6.348,32.227,33.691,15.137,-87.891
1532278733.301,-2.930,32.715,32.715,19.531,-205.566
1532278733.304,-3.418,33.203,33.691,25.879,113.770
1532278733.308,3.906,33.691,35.156,28.809,298.340
1532278733.312,7.324,33.203,35.645,21.973,4.883
1532278733.316,8.789,32.715,33.691,20.508,-229.004
1532278733.320,13.184,33.203,33.203,29.785,-8.789
1532278733.324,11.230,34.180,34.668,28.809,247.070
1532278733.328,6.836,35.156,32.227,17.090,90.332
1532278733.332,10.742,34.668,30.273,20.020,-204.590
1532278733.336,15.137,35.156,32.227,31.250,-101.562
1532278733.340,14.648,36.621,31.738,29.297,195.801
1532278733.344,11.230,36.621,30.273,19.043,155.273
1532278733.347,9.277,36.133,31.250,15.625,-145.996
1532278733.351,13.184,36.621,32.227,22.461,-181.152
1532278733.355,5.371,38.086,32.715,27.832,167.969
1532278733.359,-0.977,38.574,34.180,21.484,292.480
1532278733.363,1.465,37.598,33.691,12.695,-53.223
1532278733.367,-2.441,37.598,32.715,13.184,-223.145
1532278733.371,-2.930,37.598,32.715,23.926,65.918
1532278733.375,3.418,37.109,27.832,25.879,250.488
1532278733.379,7.812,36.621,26.855,17.090,-17.578
1532278733.383,8.301,40.039,27.832,12.695,-266.113
1532278733.387,7.812,39.551,24.414,22.949,-48.828
1532278733.390,6.348,34.180,21.973,25.879,257.812
1532278733.394,5.859,32.715,20.020,17.578,139.648
1532278733.398,8.301,34.668,15.625,13.672,-209.473
1532278733.402,9.766,36.621,13.184,24.414,-146.973
1532278733.406,13.184,37.109,13.672,31.738,213.867
1532278733.410,14.648,37.598,16.602,24.902,210.449
1532278733.414,13.672,37.598,19.043,16.602,-120.605
1532278733.418,19.043,37.109,15.625,18.066,-203.125
1532278733.422,17.578,35.156,10.742,22.949,109.863
1532278733.426,19.531,33.203,7.812,22.461,284.180
1532278733.430,21.973,34.180,8.789,18.066,-16.113
1532278733.433,19.531,33.691,9.277,14.648,-186.035
1532278733.437,21.973,34.180,8.789,18.555,50.293
1532278733.441,29.785,36.133,9.277,24.414,247.559
1532278733.445,37.109,37.109,10.254,22.949,58.105
1532278733.449,38.574,37.109,13.672,17.578,-192.871
1532278733.453,44.434,37.598,14.648,23.438,-23.438
1532278733.457,47.363,34.180,14.160,28.320,255.371
1532278733.461,38.086,32.715,16.602,21.973,133.789
1532278733.465,35.156,37.109,16.113,17.578,-201.172
1532278733.469,38.574,38.086,13.184,26.855,-149.414
1532278733.473,35.645,39.551,17.090,36.133,198.242
1532278733.476,25.391,40.527,22.949,28.809,234.375
1532278733.480,18.066,39.551,25.391,20.020,-99.609
1532278733.484,20.996,39.551,24.902,22.949,-191.406
1532278733.488,20.996,40.527,19.531,32.227,130.859
1532278733.492,10.742,40.527,19.531,28.320,277.832
1532278733.496,4.395,41.992,21.973,20.508,0.488
1532278733.500,7.812,44.922,23.438,22.461,-214.844
1532278733.504,8.789,44.434,25.391,24.902,11.719
1532278733.508,6.348,40.527,26.367,25.879,259.277
1532278733.512,5.371,40.039,26.855,19.531,73.730
1532278733.516,7.324,38.574,27.344,18.066,-211.914
1532278733.519,3.906,38.574,27.344,27.832,-99.609
1532278733.523,1.953,39.551,27.344,30.762,201.660
1532278733.527,3.906,35.645,27.344,27.832,156.738
1532278733.531,5.371,35.645,26.855,22.461,-160.645
1532278733.535,8.789,39.062,26.855,33.691,-161.621
1532278733.539,10.742,41.016,28.320,39.062,164.551
1532278733.543,10.254,41.504,28.809,29.297,222.168
1532278733.547,4.395,40.039,27.832,21.973,-112.305
1532278733.551,1.465,39.062,28.809,20.020,-215.820
1532278733.555,0.977,37.598,26.367,27.344,108.887
1532278733.559,5.371,36.133,26.367,28.320,250.000
1532278733.562,13.184,39.062,28.809,19.043,-35.645
1532278733.566,15.625,41.016,28.809,20.020,-253.906
1532278733.570,13.184,39.551,28.809,31.738,-16.113
1532278733.574,12.695,39.062,29.297,34.180,276.855
1532278733.578,19.043,38.574,26.855,25.879,108.398
1532278733.582,17.578,38.086,23.926,16.113,-204.102
1532278733.586,14.648,37.598,26.367,21.973,-96.191
1532278733.590,7.812,34.668,27.832,25.879,228.027
1532278733.594,2.441,34.180,24.414,16.113,196.777
1532278733.598,9.277,37.109,23.926,13.184,-150.391
1532278733.602,15.625,37.109,27.344,25.879,-189.453
1532278733.605,16.602,34.668,29.785,35.156,163.086
1532278733.609,12.695,32.715,32.227,26.367,260.254
1532278733.613,18.066,34.180,32.715,16.602,-61.523
1532278733.617,28.320,36.133,32.227,23.438,-219.727
1532278733.621,31.738,33.691,31.738,32.227,43.457
1532278733.625,30.762,31.250,32.715,30.762,238.770
1532278733.629,30.762,30.273,32.715,27.344,40.527
1532278733.633,40.039,30.273,30.762,29.785,-175.781
1532278733.637,47.363,32.227,30.273,39.062,-4.883
1532278733.641,49.316,32.715,30.762,44.922,271.484
1532278733.645,58.105,33.203,32.227,38.574,172.852
1532278733.648,62.988,33.691,34.668,32.227,-130.859
1532278733.652,68.848,31.738,34.668,39.551,-96.680
1532278733.656,75.195,32.715,33.691,43.457,222.168
1532278733.660,66.406,36.133,36.133,29.785,241.699
1532278733.664,47.363,37.598,38.086,23.438,-110.840
1532278733.668,32.227,35.645,36.621,31.738,-169.434
1532278733.672,19.531,36.133,35.645,36.621,151.855
1532278733.676,8.301,34.180,33.203,33.691,263.184
1532278733.680,0.488,30.762,35.156,22.949,-37.598
1532278733.684,-6.836,32.227,35.156,20.020,-220.215
1532278733.688,-6.348,32.227,31.250,28.320,71.289
1532278733.691,0.488,32.227,29.785,29.297,301.270
1532278733.695,1.953,34.668,28.320,22.461,73.730
1532278733.699,-6.348,39.551,29.297,16.113,-206.543
1532278733.703,-13.184,36.621,27.344,19.531,-41.016
1532278733.707,-11.230,29.785,25.879,21.973,288.574
1532278733.711,-4.883,28.320,25.879,12.695,172.852
1532278733.715,-1.953,29.297,29.297,11.719,-184.570
1532278733.719,-3.418,29.297,32.715,18.066,-129.883
1532278733.723,-3.418,32.715,32.227,24.902,203.613
1532278733.727,1.953,33.203,32.227,25.879,229.004
1532278733.731,4.395,30.762,34.180,21.973,-100.586
1532278733.734,4.883,31.250,33.691,25.391,-188.965
1532278733.738,6.836,31.738,33.691,27.344,141.113
1532278733.742,9.277,32.715,35.645,27.832,270.020
1532278733.746,7.812,33.203,35.645,24.902,-11.719
1532278733.750,10.254,34.668,37.109,20.996,-230.469
1532278733.754,15.137,36.621,36.133,25.879,15.137
1532278733.758,16.113,35.156,33.203,28.320,279.297
1532278733.762,14.648,35.645,34.180,16.113,54.688
1532278733.766,12.695,32.227,34.668,12.695,-226.074
1532278733.770,15.625,33.203,34.180,25.391,-67.871
1532278733.774,19.043,36.133,33.203,32.715,237.793
1532278733.777,20.508,36.133,31.738,26.367,150.391
1532278733.781,29.785,38.086,35.156,23.926,-187.988
1532278733.785,37.109,36.621,33.691,33.691,-165.527
1532278733.789,34.668,31.250,32.227,37.109,181.152
1532278733.793,36.621,29.297,35.156,28.809,245.605
1532278733.797,38.574,31.738,35.645,22.949,-89.844
1532278733.801,39.062,33.203,35.156,19.531,-243.164
1532278733.805,32.227,31.738,35.156,24.902,77.637
1532278733.809,22.461,30.762,34.180,30.273,284.668
1532278733.813,22.461,31.250,34.668,20.996,15.625
1532278733.817,20.020,31.738,32.715,20.996,-216.797
1532278733.820,13.184,31.738,32.715,26.855,-3.418
1532278733.824,9.766,29.297,34.668,23.926,278.320
1532278733.828,13.184,30.762,36.133,17.578,109.863
1532278733.832,16.602,32.715,37.109,14.160,-214.844
1532278733.836,20.020,30.273,36.621,19.043,-98.145
1532278733.840,25.391,29.785,36.133,24.414,219.727
1532278733.844,28.320,32.715,37.109,19.531,172.363
1532278733.848,23.926,33.203,37.598,10.742,-145.996
1532278733.852,26.855,33.203,36.621,18.066,-157.715
1532278733.856,29.785,35.156,35.645,27.344,171.387
1532278733.860,23.438,33.691,37.109,18.066,246.094
1532278733.863,24.902,35.156,38.574,4.883,-62.500
1532278733.867,26.367,33.691,34.668,11.230,-209.961
1532278733.871,33.691,35.645,30.762,25.879,59.082
1532278733.875,31.250,36.133,32.227,24.902,259.766
1532278733.879,28.320,31.738,36.621,17.090,37.109
1532278733.883,36.133,34.180,40.527,19.531,-221.191
1532278733.887,38.574,35.645,35.156,21.484,-44.922
1532278733.891,46.875,36.133,33.203,27.344,243.652
1532278733.895,54.199,34.180,33.691,25.391,116.211
1532278733.899,57.129,32.715,33.691,19.043,-176.270
1532278733.903,62.988,32.715,35.645,25.391,-147.949
1532278733.906,69.824,34.668,33.691,32.715,177.246
1532278733.910,75.684,38.086,32.227,27.832,220.703
1532278733.914,79.102,36.621,33.203,20.020,-102.051
1532278733.918,85.938,36.621,33.691,27.344,-179.688
1532278733.922,94.238,40.039,33.691,35.156,138.184
1532278733.926,92.773,37.109,32.227,25.391,279.297
1532278733.930,88.379,33.691,32.227,12.695,-10.254
1532278733.934,87.891,35.645,32.715,14.160,-204.590
1532278733.938,92.285,36.621,31.250,23.438,26.855
1532278733.942,99.609,37.598,31.250,23.438,245.117
1532278733.946,99.609,38.574,31.250,13.672,36.621
1532278733.949,95.703,38.574,33.203,13.184,-220.703
1532278733.953,93.262,37.598,32.227,21.973,-36.133
1532278733.957,98.145,35.156,31.250,24.902,272.949
1532278733.961,109.375,35.156,33.691,19.043,139.648
1532278733.965,111.816,33.691,35.645,16.602,-187.500
1532278733.969,116.211,30.273,32.715,23.438,-117.676
1532278733.973,131.348,27.344,30.762,31.738,221.680
1532278733.977,142.090,29.297,33.691,29.297,227.539
1532278733.981,146.484,34.180,34.668,18.555,-131.836
1532278733.985,146.973,31.250,33.203,16.602,-229.492
1532278733.989,148.438,27.832,32.715,28.320,90.820
1532278733.993,155.762,28.320,33.691,27.344,251.465
1532278733.996,164.062,29.785,36.133,21.973,-16.113
1532278734.000,164.062,28.809,34.180,20.508,-216.797
1532278734.004,162.109,28.809,30.762,25.879,24.902
1532278734.008,167.480,31.738,32.227,28.809,276.367
1532278734.012,176.758,32.227,32.227,22.949,80.566
1532278734.016,189.941,33.203,32.227,23.438,-201.660
1532278734.020,203.613,33.203,33.691,34.180,-53.223
1532278734.024,211.914,33.203,34.180,35.156,260.254
1532278734.028,220.703,35.156,36.133,27.832,171.875
1532278734.032,227.539,36.133,35.156,25.391,-162.598
1532278734.036,234.863,34.668,32.715,30.762,-153.809
1532278734.039,235.352,34.180,31.738,32.227,145.508
1532278734.043,231.934,34.668,32.715,17.578,191.406
1532278734.047,233.887,36.621,33.203,12.695,-71.777
1532278734.051,236.328,37.109,30.273,20.508,-166.504
1532278734.055,239.258,34.180,30.273,27.832,126.465
1532278734.059,236.816,33.691,35.156,26.855,285.645
1532278734.063,233.398,36.621,35.645,22.949,15.137
1532278734.067,234.375,37.109,35.645,26.367,-206.543
1532278734.071,235.352,36.133,35.645,34.668,-11.719
1532278734.075,233.887,36.133,35.645,37.598,252.441
1532278734.079,230.957,37.109,39.551,28.320,88.379
1532278734.082,228.516,38.574,35.156,18.066,-241.211
1532278734.086,221.680,37.598,31.738,23.438,-117.676
1532278734.090,212.891,36.621,33.203,30.273,246.582
1532278734.094,209.961,36.621,31.250,20.996,215.820
1532278734.098,211.914,37.109,31.738,11.719,-134.277
1532278734.102,208.008,34.180,33.691,17.090,-177.734
1532278734.106,201.660,33.203,33.691,32.227,190.918
1532278734.110,199.707,32.227,33.691,30.762,280.273
1532278734.114,194.336,33.203,35.156,22.461,-49.805
1532278734.118,193.848,34.668,35.156,30.762,-227.051
1532278734.122,196.289,35.645,35.156,39.551,56.152
1532278734.125,191.895,37.109,33.203,36.133,282.715
1532278734.129,188.477,37.598,35.156,27.832,19.043
1532278734.133,184.082,39.062,36.133,23.438,-232.422
1532278734.137,186.035,41.016,31.738,30.273,-26.855
1532278734.141,186.523,41.504,31.250,29.297,250.488
1532278734.145,175.781,40.039,34.668,17.090,105.957
1532278734.149,171.875,39.551,33.691,16.602,-200.684
1532278734.153,173.828,39.062,33.203,29.297,-140.137
1532278734.157,171.875,37.109,32.715,37.109,192.871
1532278734.161,166.504,37.109,32.227,28.809,181.641
1532278734.165,166.992,37.598,35.645,23.438,-139.648
1532278734.168,171.387,36.621,36.133,27.832,-182.129
1532278734.172,173.828,36.133,34.668,36.133,138.184
1532278734.176,168.945,36.133,32.715,33.203,251.465
1532278734.180,158.691,36.621,31.738,19.531,-49.316
1532278734.184,155.273,38.574,33.203,20.996,-220.703
1532278734.188,159.668,39.062,33.203,32.227,28.809
1532278734.192,159.180,41.016,33.691,33.691,266.602
1532278734.196,160.645,41.016,36.133,29.297,64.453
1532278734.200,158.203,40.527,35.156,25.391,-230.469
1532278734.204,148.438,37.598,32.715,28.809,-61.523
1532278734.208,147.949,35.645,35.156,35.645,264.160
1532278734.211,148.438,36.621,34.668,30.273,142.578
1532278734.215,147.461,36.133,34.180,26.367,-196.777
1532278734.219,147.461,37.109,36.133,30.273,-180.664
1532278734.223,140.625,36.133,33.691,27.832,158.691
1532278734.227,131.348,36.133,34.668,23.438,226.562
1532278734.231,127.441,38.574,38.086,21.484,-86.426
1532278734.235,128.418,35.645,31.250,22.949,-159.668
1532278734.239,133.301,34.180,28.809,32.715,142.090
1532278734.243,130.859,37.109,34.668,32.715,263.184
1532278734.247,126.953,39.062,35.645,20.996,-19.043
1532278734.251,129.883,38.086,36.133,22.949,-202.148
1532278734.254,131.348,36.621,36.133,32.715,37.598
1532278734.258,127.930,36.133,34.180,26.367,266.602
1532278734.262,125.977,36.133,34.180,18.066,79.102
1532278734.266,120.117,36.621,35.645,22.949,-190.918
1532278734.270,119.141,35.156,38.086,29.785,-57.617
1532278734.274,123.535,36.133,37.598,29.785,250.488
1532278734.278,122.559,37.109,36.133,24.414,161.133
1532278734.282,126.465,38.574,37.109,19.043,-187.988
1532278734.286,130.371,41.016,35.645,25.879,-154.785
1532278734.290,128.418,38.574,34.668,36.133,192.383
1532278734.294,121.094,36.133,37.598,32.227,240.723
1532278734.297,114.258,35.645,37.109,21.973,-92.773
1532278734.301,114.746,36.621,36.133,24.414,-227.539
1532278734.305,114.258,37.598,38.574,32.715,87.402
1532278734.309,114.746,36.621,37.598,27.832,284.180
1532278734.313,116.211,36.133,39.551,21.973,31.250
1532278734.317,115.234,37.109,41.016,26.367,-233.398
1532278734.321,114.746,36.133,37.109,30.273,-38.574
1532278734.325,113.770,35.645,33.691,28.809,244.629
1532278734.329,111.816,36.133,35.645,24.414,118.652
1532278734.333,111.816,34.668,37.109,20.996,-185.547
1532278734.337,112.305,33.203,34.668,28.809,-91.797
1532278734.340,111.816,32.227,34.668,33.691,220.703
1532278734.344,108.398,31.738,33.203,22.461,187.012
1532278734.348,103.027,33.691,31.738,13.184,-118.652
1532278734.352,100.586,33.691,33.691,20.020,-169.434
1532278734.356,101.074,32.227,36.133,31.738,117.188
1532278734.360,103.516,31.250,33.203,28.809,208.496
1532278734.364,102.539,32.715,33.691,20.508,-102.539
