timestamps,TP9,AF7,AF8,TP10,Right AUX
1532373130.890,26.855,23.926,32.715,26.855,13.672
1532373130.894,28.809,28.320,31.738,32.227,36.621
1532373130.898,33.203,27.832,29.297,39.062,60.547
1532373130.901,34.668,25.391,28.809,36.621,38.574
1532373130.905,33.203,26.367,32.715,35.645,34.180
1532373130.909,32.227,24.414,34.180,37.109,26.367
1532373130.913,31.250,24.414,34.180,34.668,26.367
1532373130.917,28.320,25.391,34.668,35.645,19.531
1532373130.921,27.344,26.855,36.621,35.156,14.648
1532373130.925,27.832,26.367,32.715,31.738,56.641
1532373130.929,24.902,24.414,33.203,31.250,63.477
1532373130.933,19.531,26.855,32.227,24.414,32.227
1532373130.937,25.879,30.762,33.691,29.785,34.668
1532373130.941,40.039,33.691,38.574,41.992,40.039
1532373130.944,42.480,31.738,39.062,45.898,41.992
1532373130.948,32.227,27.832,39.551,43.945,59.570
1532373130.952,28.320,28.320,36.133,43.457,20.020
1532373130.956,26.855,29.785,38.086,46.875,-1.953
1532373130.960,27.344,32.227,38.086,41.992,39.551
1532373130.964,27.832,29.297,33.691,33.203,42.480
1532373130.968,27.344,28.320,29.785,29.785,3.418
1532373130.972,26.367,31.250,29.297,25.879,-18.066
1532373130.976,32.715,31.738,34.180,33.691,0.977
1532373130.980,37.598,34.180,35.645,39.062,37.598
1532373130.983,38.086,33.203,34.180,38.086,31.738
1532373130.987,39.062,30.762,30.273,38.086,0.977
1532373130.991,37.109,31.738,30.762,33.691,3.906
1532373130.995,39.062,32.227,31.250,34.668,34.668
1532373130.999,38.086,32.715,31.250,37.109,66.406
1532373131.003,40.039,29.297,29.297,35.156,35.156
1532373131.007,31.738,28.809,29.297,32.227,22.461
1532373131.011,29.297,30.762,33.691,33.691,13.672
1532373131.015,37.598,29.297,33.691,29.297,0.000
1532373131.019,37.109,30.273,33.691,29.785,30.762
1532373131.023,33.203,29.297,32.227,35.645,30.762
1532373131.026,29.785,26.367,29.785,33.203,30.762
1532373131.030,31.738,27.344,29.785,33.691,20.020
1532373131.034,33.203,29.297,32.715,36.133,13.184
1532373131.038,36.133,28.809,34.668,31.250,48.828
1532373131.042,33.691,26.855,35.156,30.762,56.152
1532373131.046,28.320,25.879,36.621,32.227,49.805
1532373131.050,32.227,22.949,40.527,33.203,5.859
1532373131.054,36.621,23.438,41.504,36.133,-27.344
1532373131.058,37.109,28.320,37.598,36.621,-0.488
1532373131.062,40.527,31.250,34.668,41.016,29.785
1532373131.065,37.109,26.855,36.621,40.039,47.363
1532373131.069,27.344,25.391,33.691,34.668,30.762
1532373131.073,27.344,26.855,30.762,37.109,12.695
1532373131.077,30.273,27.832,36.133,37.598,41.504
1532373131.081,32.227,25.879,34.668,40.039,62.500
1532373131.085,36.621,26.367,31.250,44.434,59.570
1532373131.089,33.203,28.320,31.738,35.645,32.227
1532373131.093,29.785,27.344,33.203,33.691,46.875
1532373131.097,38.086,31.738,35.156,42.969,71.777
1532373131.101,40.527,32.715,39.551,45.898,12.695
1532373131.105,43.945,30.273,40.527,47.363,6.836
1532373131.108,45.898,30.762,36.133,43.945,28.809
1532373131.112,43.457,33.203,36.621,40.039,21.973
1532373131.116,40.039,33.691,38.086,39.062,29.785
1532373131.120,33.691,31.250,32.715,32.227,11.719
1532373131.124,37.109,30.762,30.273,39.062,4.883
1532373131.128,41.016,32.227,32.227,44.922,61.035
1532373131.132,40.039,31.250,35.156,41.504,63.477
1532373131.136,45.410,27.344,32.715,42.480,11.230
1532373131.140,42.480,28.320,32.227,38.574,5.371
1532373131.144,33.203,31.250,33.203,31.250,35.156
1532373131.148,37.598,31.738,27.832,27.832,62.012
1532373131.151,36.621,33.691,26.855,21.484,2.441
1532373131.155,32.715,32.227,31.738,13.672,7.812
1532373131.159,30.273,30.273,32.715,16.602,54.688
1532373131.163,29.297,32.715,32.715,23.926,65.430
1532373131.167,34.668,32.227,29.297,22.949,32.715
1532373131.171,34.180,32.715,29.785,20.020,7.812
1532373131.175,24.414,32.227,34.668,16.113,32.227
1532373131.179,25.391,29.297,32.227,17.090,76.660
1532373131.183,33.691,32.227,31.250,24.414,52.734
1532373131.187,35.156,32.227,30.273,26.855,26.855
1532373131.190,35.645,31.738,24.902,30.273,33.691
1532373131.194,33.203,32.715,25.391,27.832,58.594
1532373131.198,34.180,31.738,29.785,24.414,63.965
1532373131.202,34.668,30.273,28.809,23.438,46.387
1532373131.206,30.273,28.809,26.367,18.066,57.129
1532373131.210,30.273,31.250,23.438,12.207,58.594
1532373131.214,31.250,30.762,21.484,11.719,50.781
1532373131.218,25.391,30.762,20.996,13.672,31.738
1532373131.222,21.484,32.227,22.949,20.020,35.645
1532373131.226,25.879,32.227,22.461,26.855,57.617
1532373131.230,25.879,31.250,22.461,26.855,58.105
1532373131.233,22.461,31.250,22.461,24.414,63.477
1532373131.237,17.090,30.273,23.438,21.484,6.836
1532373131.241,16.113,32.715,25.879,17.578,1.953
1532373131.245,16.602,33.691,28.320,14.160,66.895
1532373131.249,20.020,32.715,30.762,12.207,42.969
1532373131.253,22.461,34.180,33.203,8.301,-8.789
1532373131.257,18.555,37.109,32.227,8.789,32.227
1532373131.261,18.555,42.480,27.832,6.348,80.078
1532373131.265,14.160,37.598,31.738,2.930,62.012
1532373131.269,15.625,33.203,39.062,3.418,11.719
1532373131.273,13.184,35.156,36.133,3.906,5.859
1532373131.276,7.324,35.156,33.691,0.488,51.758
1532373131.280,6.836,33.691,35.156,-0.488,57.129
1532373131.284,9.766,30.762,35.645,4.395,20.020
1532373131.288,13.672,32.715,34.180,4.395,15.137
1532373131.292,11.230,35.645,30.273,2.930,23.438
1532373131.296,20.020,35.645,28.320,12.207,42.480
1532373131.300,31.250,32.227,26.855,23.438,35.645
1532373131.304,29.785,28.809,27.832,29.297,23.926
1532373131.308,23.438,26.855,32.227,22.949,23.438
1532373131.312,27.344,29.297,33.691,19.043,43.457
1532373131.315,36.621,36.133,30.273,20.996,47.852
1532373131.319,34.668,35.645,26.367,17.578,26.855
1532373131.323,33.203,31.250,27.344,17.090,38.574
1532373131.327,30.273,31.250,27.832,14.648,75.195
1532373131.331,19.043,28.320,23.438,9.766,70.312
1532373131.335,18.555,27.344,21.484,13.184,7.812
1532373131.339,20.996,30.273,23.438,15.137,19.043
1532373131.343,31.738,27.344,24.902,12.207,73.730
1532373131.347,41.016,26.367,26.367,16.113,53.711
1532373131.351,35.156,28.809,24.414,19.043,2.441
1532373131.355,30.273,27.344,20.508,18.066,-24.902
1532373131.358,33.203,25.391,22.461,18.555,0.977
1532373131.362,41.504,23.926,25.879,20.508,49.316
1532373131.366,46.387,24.902,22.949,22.949,35.156
1532373131.370,43.945,25.391,20.996,24.902,6.836
1532373131.374,37.109,18.555,20.020,22.461,4.395
1532373131.378,34.668,20.020,17.578,24.902,20.508
1532373131.382,39.062,24.902,19.531,30.273,40.039
1532373131.386,42.480,24.902,22.949,27.832,10.742
1532373131.390,40.527,26.367,22.461,25.391,-12.695
1532373131.394,35.156,27.344,18.555,22.949,26.367
1532373131.397,35.156,24.414,16.602,18.066,38.574
1532373131.401,36.621,23.438,16.602,21.484,17.090
1532373131.405,34.668,22.949,18.555,22.949,-0.977
1532373131.409,39.062,27.344,20.996,21.484,-14.648
1532373131.413,48.828,29.297,20.996,25.391,20.020
1532373131.417,47.852,25.879,18.066,28.809,26.367
1532373131.421,41.992,26.367,22.461,30.762,1.953
1532373131.425,50.781,25.879,26.367,31.738,20.996
1532373131.429,57.617,26.367,23.926,25.391,53.711
1532373131.433,56.152,27.832,24.414,18.066,19.531
1532373131.437,61.035,28.320,23.438,19.043,-10.742
1532373131.440,63.477,30.762,23.438,24.414,21.973
1532373131.444,62.500,33.691,27.344,31.250,48.828
1532373131.448,54.199,32.715,30.762,32.715,24.902
1532373131.452,43.945,33.691,29.297,33.691,10.742
1532373131.456,41.016,32.227,27.832,41.992,22.461
1532373131.460,41.016,30.273,31.738,48.340,31.250
1532373131.464,36.133,32.715,33.203,48.340,36.133
1532373131.468,34.668,31.250,36.133,44.922,-11.719
1532373131.472,38.086,30.273,36.621,42.969,0.488
1532373131.476,40.039,32.227,34.668,47.363,67.383
1532373131.480,42.480,35.156,35.156,46.387,68.848
1532373131.483,44.922,36.621,32.715,33.203,46.387
1532373131.487,41.016,36.133,30.762,26.367,17.578
1532373131.491,37.109,38.086,32.227,22.949,15.625
1532373131.495,40.039,39.062,30.273,19.531,41.504
1532373131.499,38.574,36.621,29.785,23.438,55.664
1532373131.503,37.598,37.109,37.109,32.227,31.250
1532373131.507,39.062,34.668,40.039,33.203,20.508
1532373131.511,36.621,32.715,38.574,32.227,54.688
1532373131.515,37.109,32.715,34.668,36.621,34.180
1532373131.519,34.180,32.227,34.180,32.227,1.953
1532373131.522,32.715,35.156,36.133,34.180,31.250
1532373131.526,38.086,39.062,35.645,40.527,50.781
1532373131.530,38.086,37.598,35.645,36.621,48.340
1532373131.534,34.668,33.691,33.691,32.715,20.508
1532373131.538,38.086,36.621,33.691,38.574,7.324
1532373131.542,38.574,37.109,34.668,39.551,53.711
1532373131.546,36.133,34.180,33.691,37.598,84.473
1532373131.550,38.086,34.180,34.180,38.574,38.574
1532373131.554,41.016,38.574,34.668,40.039,24.414
1532373131.558,44.434,40.527,37.109,41.016,39.062
1532373131.562,39.551,38.086,38.086,33.691,69.824
1532373131.565,41.992,37.109,38.086,34.180,63.965
1532373131.569,47.852,38.086,37.109,34.668,-21.973
1532373131.573,37.109,36.621,33.691,26.367,-24.414
1532373131.577,38.574,40.039,32.715,32.715,40.039
1532373131.581,43.945,41.992,37.598,39.062,68.848
1532373131.585,41.016,40.527,40.527,38.086,26.367
1532373131.589,42.969,41.016,40.039,38.574,-12.695
1532373131.593,46.387,41.992,39.062,32.227,29.785
1532373131.597,44.922,43.945,39.062,26.855,83.496
1532373131.601,35.645,41.992,37.109,26.855,47.852
1532373131.605,38.086,40.039,36.133,27.832,-12.695
1532373131.608,43.945,40.527,38.086,27.344,17.578
1532373131.612,41.016,38.574,37.109,27.832,38.086
1532373131.616,38.086,37.598,34.668,30.762,36.133
1532373131.620,37.109,39.062,37.109,30.762,22.949
1532373131.624,39.062,36.621,39.551,35.156,16.113
1532373131.628,40.039,35.156,37.109,41.504,34.668
1532373131.632,44.434,36.133,37.598,41.504,24.902
1532373131.636,45.410,35.645,37.598,41.992,1.953
1532373131.640,48.340,36.133,37.598,49.805,9.277
1532373131.644,45.410,35.645,34.668,49.805,46.875
1532373131.647,41.504,33.691,35.156,45.898,65.430
1532373131.651,45.898,34.668,40.039,47.363,26.855
1532373131.655,42.480,36.133,36.621,52.246,24.902
1532373131.659,42.969,34.180,31.738,51.758,16.113
1532373131.663,40.039,32.715,30.762,44.922,11.230
1532373131.667,34.668,29.297,26.855,37.598,38.086
1532373131.671,30.273,25.391,27.344,29.785,13.184
1532373131.675,24.414,26.855,29.785,31.738,35.645
1532373131.679,25.879,26.367,32.715,33.203,59.570
1532373131.683,26.855,23.438,32.715,31.250,35.156
1532373131.687,25.391,21.484,31.738,31.250,-1.953
1532373131.690,24.902,20.508,32.715,35.645,-3.906
1532373131.694,26.367,22.461,30.762,34.180,37.598
1532373131.698,26.367,25.391,24.414,25.879,70.801
1532373131.702,27.344,23.438,23.926,30.273,34.180
1532373131.706,34.180,24.902,32.227,41.016,-11.719
1532373131.710,32.227,29.297,31.250,34.668,-6.836
1532373131.714,28.809,26.367,27.344,29.785,18.555
1532373131.718,24.414,21.484,25.879,34.668,8.789
1532373131.722,23.926,23.926,24.414,33.203,-6.836
1532373131.726,30.762,23.926,28.320,37.109,46.875
1532373131.730,31.738,20.508,28.809,39.551,70.312
1532373131.733,29.297,21.973,28.809,35.156,30.273
1532373131.737,31.738,25.391,27.832,32.227,1.465
1532373131.741,31.738,25.879,25.391,34.668,22.949
1532373131.745,32.715,25.391,27.344,40.527,59.082
1532373131.749,30.762,23.926,26.855,39.551,51.270
1532373131.753,30.762,21.484,26.855,41.016,5.859
1532373131.757,30.762,22.949,29.297,45.898,4.395
1532373131.761,20.996,24.414,27.344,34.180,44.922
1532373131.765,23.926,24.902,27.832,30.762,49.805
1532373131.769,28.320,23.926,32.715,28.320,10.742
1532373131.772,25.391,23.926,32.715,21.973,-31.250
1532373131.776,23.926,26.367,29.297,19.531,3.418
1532373131.780,24.902,26.367,27.344,15.625,52.734
1532373131.784,24.902,25.391,24.902,16.602,41.016
1532373131.788,25.391,26.855,24.902,15.625,23.438
1532373131.792,32.715,26.855,26.855,20.508,31.250
1532373131.796,33.203,27.832,26.367,27.832,56.641
1532373131.800,31.738,29.785,26.855,29.297,42.480
1532373131.804,30.762,29.785,26.855,29.297,17.090
1532373131.808,29.785,27.832,24.902,24.902,34.180
1532373131.812,31.250,25.879,22.949,13.672,44.434
1532373131.815,23.438,24.414,21.484,5.859,50.293
1532373131.819,14.648,23.438,20.996,0.977,38.086
1532373131.823,18.555,23.438,19.531,3.418,34.668
1532373131.827,23.438,22.461,22.461,9.766,67.871
1532373131.831,20.020,22.461,22.949,9.766,56.641
1532373131.835,24.414,21.973,21.973,16.113,21.973
1532373131.839,34.668,24.414,25.391,22.461,40.527
1532373131.843,36.621,24.414,28.320,21.484,47.363
1532373131.847,34.180,25.879,30.762,26.855,59.570
1532373131.851,41.992,26.855,28.320,24.414,31.738
1532373131.854,30.762,21.973,23.926,8.301,-30.762
1532373131.858,14.160,20.996,22.949,4.395,37.109
1532373131.862,28.320,25.391,24.414,19.531,91.797
1532373131.866,31.738,26.855,23.438,24.902,63.477
1532373131.870,29.297,25.879,22.461,15.137,32.227
1532373131.874,29.297,26.367,23.438,10.742,24.902
1532373131.878,33.691,27.344,26.367,14.160,33.203
1532373131.882,35.645,25.879,27.344,13.672,60.547
1532373131.886,29.297,26.855,27.832,14.648,58.594
1532373131.890,26.367,29.297,28.809,17.578,21.484
1532373131.894,22.949,30.762,28.809,17.578,30.273
1532373131.897,21.973,31.250,28.320,13.672,53.223
1532373131.901,29.297,29.785,26.855,17.090,16.602
1532373131.905,32.715,31.250,25.879,25.391,14.160
1532373131.909,33.203,32.227,28.320,23.926,41.504
1532373131.913,30.273,32.227,31.250,20.020,57.617
1532373131.917,25.879,29.785,33.203,22.949,48.828
1532373131.921,24.414,26.855,30.762,27.832,35.156
1532373131.925,26.367,25.879,28.809,27.832,44.434
1532373131.929,40.039,26.367,31.250,33.203,55.664
1532373131.933,41.504,27.832,30.762,36.621,40.527
1532373131.937,39.062,26.367,30.273,33.203,54.199
1532373131.940,43.457,27.344,27.832,31.250,53.223
1532373131.944,40.039,31.250,23.926,26.367,45.410
1532373131.948,42.969,31.250,28.320,20.020,43.457
1532373131.952,44.434,25.879,32.715,20.508,-6.348
1532373131.956,37.598,27.832,29.785,22.461,28.320
1532373131.960,40.039,31.738,26.367,18.555,67.383
1532373131.964,38.574,29.297,27.344,16.602,55.664
1532373131.968,30.273,25.391,26.855,16.602,39.551
1532373131.972,24.414,23.926,22.461,12.207,30.762
1532373131.976,27.344,27.344,26.367,23.438,35.156
1532373131.979,35.156,28.320,30.273,32.715,55.176
1532373131.983,35.156,28.320,31.250,31.250,46.387
1532373131.987,35.156,27.344,31.250,29.297,11.230
1532373131.991,30.273,25.879,32.227,19.043,0.000
1532373131.995,26.367,26.367,34.180,14.160,45.898
1532373131.999,31.738,27.832,34.668,21.484,63.965
1532373132.003,28.320,27.344,31.738,20.508,16.602
1532373132.007,26.367,26.855,28.809,17.090,19.531
1532373132.011,34.668,30.273,28.809,22.949,44.434
1532373132.015,29.297,29.297,25.879,20.508,55.176
1532373132.019,28.320,29.297,25.391,15.137,41.992
1532373132.022,32.715,30.273,27.344,16.113,38.086
1532373132.026,34.668,31.738,28.809,18.066,72.266
1532373132.030,40.527,33.691,28.320,21.973,54.199
1532373132.034,39.551,34.668,26.367,18.555,31.738
1532373132.038,38.574,33.203,28.809,20.020,32.227
1532373132.042,42.969,31.738,29.785,28.320,26.855
1532373132.046,37.598,31.250,28.809,27.832,42.969
1532373132.050,37.598,29.785,31.250,27.344,20.996
1532373132.054,40.527,30.762,33.691,31.250,-19.531
1532373132.058,37.109,28.809,33.691,26.855,20.020
1532373132.062,32.227,28.320,32.715,20.020,77.148
1532373132.065,31.738,30.273,33.691,16.602,101.074
1532373132.069,33.203,30.273,31.250,15.625,24.414
1532373132.073,28.809,31.250,30.273,12.695,-2.930
1532373132.077,31.250,31.250,33.691,15.625,70.312
1532373132.081,34.180,29.297,31.738,26.855,67.383
1532373132.085,35.156,27.344,30.762,30.762,33.203
1532373132.089,32.715,31.738,29.785,25.879,9.766
1532373132.093,31.250,31.250,27.344,20.508,22.949
1532373132.097,40.527,26.367,28.320,21.973,66.895
1532373132.101,49.316,26.855,28.809,20.508,20.996
1532373132.104,50.293,28.320,28.809,18.066,6.836
1532373132.108,54.688,29.785,31.738,29.785,36.621
1532373132.112,55.176,31.250,30.762,40.527,47.363
1532373132.116,41.016,31.738,28.809,42.480,41.504
1532373132.120,32.715,28.809,30.762,40.527,33.691
1532373132.124,33.203,27.344,33.691,41.016,64.453
1532373132.128,29.297,29.785,35.156,39.551,62.988
1532373132.132,25.879,27.344,32.227,34.180,20.996
1532373132.136,18.555,20.508,31.738,28.809,-8.789
1532373132.140,11.719,20.508,28.320,24.414,18.555
1532373132.144,18.066,23.438,28.320,22.949,44.922
1532373132.147,24.902,23.438,32.715,25.391,54.688
1532373132.151,25.879,27.832,33.203,34.180,37.598
1532373132.155,23.926,27.832,34.180,33.691,20.996
1532373132.159,25.391,29.785,31.250,32.227,21.484
1532373132.163,30.762,32.715,23.926,33.203,65.430
1532373132.167,30.762,28.320,25.391,26.367,72.266
1532373132.171,25.879,28.809,29.297,24.902,12.207
1532373132.175,30.762,34.180,29.297,31.250,35.645
1532373132.179,32.227,31.250,30.273,36.621,72.266
1532373132.183,28.809,25.879,27.344,37.109,46.875
1532373132.187,30.762,26.367,25.879,37.109,16.113
1532373132.190,29.785,26.855,28.809,33.691,-9.766
1532373132.194,31.738,25.879,30.762,32.227,15.137
1532373132.198,32.227,26.855,31.250,30.273,19.043
1532373132.202,27.344,27.832,26.367,28.320,3.906
1532373132.206,24.414,26.367,27.832,32.715,29.297
1532373132.210,25.391,29.297,31.250,33.691,32.227
1532373132.214,25.879,32.227,29.297,27.344,35.156
1532373132.218,25.879,26.855,24.902,18.066,10.742
1532373132.222,24.414,25.879,26.367,20.508,-12.207
1532373132.226,34.668,29.297,33.691,28.320,35.156
1532373132.229,42.969,28.320,29.785,31.738,39.062
1532373132.233,30.762,25.879,28.809,27.344,-4.883
1532373132.237,20.020,26.855,31.250,25.391,-13.672
1532373132.241,20.996,29.297,32.227,29.785,12.207
1532373132.245,22.461,29.297,29.785,31.250,31.738
1532373132.249,19.531,28.320,26.367,27.344,8.789
1532373132.253,18.066,29.785,28.320,22.461,11.719
1532373132.257,22.461,31.738,30.273,25.879,40.527
1532373132.261,33.691,34.180,32.715,31.250,48.340
1532373132.265,33.691,35.156,32.715,29.785,53.223
1532373132.269,29.785,30.762,33.691,26.367,22.949
1532373132.272,32.715,30.273,32.227,29.785,3.906
1532373132.276,31.250,31.738,29.297,35.645,37.109
1532373132.280,31.738,31.738,31.738,36.133,33.203
1532373132.284,36.621,30.273,31.738,31.250,26.855
1532373132.288,35.156,27.832,32.715,34.180,14.160
1532373132.292,22.949,29.785,31.250,34.180,-10.742
1532373132.296,19.043,29.297,28.809,27.832,46.387
1532373132.300,18.555,27.344,29.785,32.715,58.594
1532373132.304,20.996,25.879,30.762,33.691,18.066
1532373132.308,19.043,25.391,27.832,30.762,19.531
1532373132.311,20.020,28.809,23.926,33.203,37.109
1532373132.315,26.367,29.785,27.344,34.180,26.367
1532373132.319,33.691,29.785,29.297,38.574,14.160
1532373132.323,38.574,31.250,27.344,44.434,-0.488
1532373132.327,38.574,30.273,25.879,40.039,17.578
1532373132.331,39.062,30.273,27.832,32.715,41.504
1532373132.335,35.645,29.297,26.367,33.203,37.598
1532373132.339,35.645,27.832,24.902,36.621,43.945
1532373132.343,36.133,28.809,28.809,35.645,52.246
1532373132.347,35.156,29.785,31.738,33.691,62.988
1532373132.351,35.645,28.809,30.273,32.227,11.719
1532373132.354,33.203,29.785,30.762,30.273,-11.230
1532373132.358,31.738,33.203,33.203,28.809,12.207
1532373132.362,24.414,30.273,31.738,24.414,57.129
1532373132.366,17.090,26.855,30.762,26.855,61.035
1532373132.370,17.578,27.344,30.273,28.809,-13.672
1532373132.374,14.648,29.297,28.320,25.391,-22.461
1532373132.378,14.648,32.227,26.367,31.738,48.340
1532373132.382,15.625,32.227,25.391,34.180,53.223
1532373132.386,17.090,32.715,25.391,36.133,11.719
1532373132.390,21.973,34.180,26.367,41.016,34.180
1532373132.394,23.926,32.227,22.949,43.457,56.641
1532373132.397,17.090,29.297,22.461,39.551,47.363
1532373132.401,15.137,25.879,25.879,39.551,25.391
1532373132.405,24.414,25.391,26.367,47.363,20.020
1532373132.409,27.832,24.902,26.855,49.316,55.176
1532373132.413,26.855,26.855,28.809,44.434,57.129
1532373132.417,28.320,29.785,24.902,41.992,17.578
1532373132.421,25.879,29.785,24.414,47.363,-5.859
1532373132.425,22.949,24.902,27.344,51.270,22.949
1532373132.429,28.809,25.879,27.832,47.852,15.137
1532373132.433,38.086,32.227,27.344,45.898,0.977
1532373132.436,41.016,30.273,24.902,48.340,24.902
1532373132.440,39.062,25.879,25.879,48.340,6.836
1532373132.444,28.320,25.391,23.926,39.062,48.340
1532373132.448,27.344,29.297,22.461,34.180,41.992
1532373132.452,32.715,31.250,26.367,38.086,-22.949
1532373132.456,37.109,31.250,27.344,40.039,-9.277
1532373132.460,40.527,29.785,25.879,37.109,37.109
1532373132.464,34.668,31.250,24.902,36.621,56.152
1532373132.468,31.738,29.785,23.926,34.180,19.531
1532373132.472,31.738,26.367,27.832,33.691,15.625
1532373132.476,35.645,30.762,29.297,35.645,71.777
1532373132.479,41.016,32.227,27.832,38.574,75.684
1532373132.483,36.133,29.297,29.785,45.898,41.992
1532373132.487,31.738,29.297,29.297,49.805,27.344
1532373132.491,35.156,32.715,26.367,45.410,-3.906
1532373132.495,40.527,33.203,26.367,46.875,22.461
1532373132.499,38.574,28.320,24.902,42.969,49.805
1532373132.503,36.621,28.320,22.949,40.039,21.973
1532373132.507,37.109,29.297,21.484,41.992,6.836
1532373132.511,36.133,28.320,22.461,42.480,13.184
1532373132.515,38.574,28.320,27.832,44.922,42.969
1532373132.519,39.062,27.344,28.809,42.480,42.969
1532373132.522,36.133,29.785,24.902,37.109,31.738
1532373132.526,34.668,29.297,26.367,39.551,60.547
1532373132.530,40.527,29.297,28.809,39.551,29.785
1532373132.534,36.621,30.273,27.344,34.180,-7.812
1532373132.538,30.273,27.344,29.785,37.109,20.508
1532373132.542,29.297,26.855,29.297,39.551,48.340
1532373132.546,23.438,26.855,25.879,35.156,66.406
1532373132.550,24.902,27.344,27.832,35.645,24.902
1532373132.554,27.832,31.250,26.367,38.086,-13.184
1532373132.558,28.320,31.738,26.855,39.551,29.297
1532373132.561,36.133,29.785,30.762,40.039,66.895
1532373132.565,32.715,31.250,33.691,40.039,44.434
1532373132.569,17.578,30.762,34.180,36.133,-22.949
1532373132.573,19.531,32.227,33.203,33.203,-8.301
1532373132.577,25.391,34.180,31.738,31.250,41.992
1532373132.581,25.879,30.762,30.273,23.438,34.180
1532373132.585,31.738,30.762,29.297,26.855,21.973
1532373132.589,35.156,36.621,31.738,30.762,-3.418
1532373132.593,34.180,38.086,31.738,30.273,-14.160
1532373132.597,31.250,33.691,26.367,37.598,33.691
1532373132.601,26.855,29.297,26.367,41.504,12.695
1532373132.604,24.902,30.273,31.250,43.945,-32.715
1532373132.608,28.809,31.738,30.273,37.109,-9.766
1532373132.612,28.809,31.250,26.367,26.855,4.395
1532373132.616,27.344,29.297,24.902,26.367,18.555
1532373132.620,25.391,30.273,24.414,23.438,36.621
1532373132.624,20.508,36.621,21.484,20.996,45.898
1532373132.628,28.809,36.133,25.391,26.855,30.273
1532373132.632,33.691,33.691,24.902,31.250,13.184
1532373132.636,35.156,32.227,22.461,34.180,10.742
1532373132.640,34.668,34.668,25.391,33.203,13.672
1532373132.643,27.344,35.156,21.973,27.832,25.391
1532373132.647,22.461,31.250,20.508,24.414,46.387
1532373132.651,23.926,31.738,23.926,21.484,4.883
1532373132.655,27.832,33.691,24.902,27.832,-40.527
1532373132.659,24.902,33.203,25.391,34.668,18.555
1532373132.663,25.391,32.227,25.879,37.109,57.129
1532373132.667,24.902,27.832,25.879,41.992,47.852
1532373132.671,25.879,27.832,26.367,44.434,12.207
1532373132.675,32.227,30.273,26.367,43.457,-7.812
1532373132.679,32.227,26.855,23.438,36.133,26.855
1532373132.683,22.461,25.879,21.484,29.297,57.129
1532373132.686,20.508,26.855,20.996,30.273,23.438
1532373132.690,27.344,29.297,21.973,35.645,13.184
1532373132.694,27.344,30.273,24.902,36.133,34.668
1532373132.698,24.414,29.297,22.949,28.809,29.785
1532373132.702,25.391,32.227,22.949,24.902,33.203
1532373132.706,28.809,32.715,24.902,32.227,22.949
1532373132.710,34.180,32.227,25.391,32.715,19.043
1532373132.714,32.715,32.227,21.484,19.043,17.578
1532373132.718,19.531,28.809,17.578,11.230,8.789
1532373132.722,17.578,26.855,21.484,13.672,8.789
1532373132.726,27.832,27.832,25.879,20.996,40.527
1532373132.729,30.762,27.832,24.414,23.926,49.805
1532373132.733,25.391,26.855,21.484,18.066,21.484
1532373132.737,21.484,26.367,20.996,19.531,19.531
1532373132.741,20.996,26.367,24.902,22.949,29.785
1532373132.745,22.461,29.785,26.367,27.344,37.598
1532373132.749,20.020,32.715,26.855,26.855,18.066
1532373132.753,26.367,32.715,29.785,23.926,0.000
1532373132.757,36.621,33.691,32.715,31.250,29.297
1532373132.761,32.715,36.133,32.715,34.180,49.805
1532373132.765,34.180,39.062,28.320,28.320,64.941
1532373132.768,37.598,41.016,24.902,21.484,19.043
1532373132.772,39.062,42.480,23.438,21.484,-13.672
1532373132.776,47.852,39.551,24.414,26.855,44.434
1532373132.780,53.711,35.645,26.855,32.715,52.734
1532373132.784,51.758,33.203,26.855,32.715,11.719
1532373132.788,46.387,32.715,25.879,35.156,-6.348
1532373132.792,40.527,35.156,26.855,42.480,9.277
1532373132.796,39.062,31.738,26.367,47.363,46.387
1532373132.800,29.297,26.855,20.020,41.016,57.617
1532373132.804,13.184,23.926,17.090,33.691,47.363
1532373132.808,14.648,22.461,22.949,35.645,29.297
1532373132.811,18.066,25.879,26.367,40.527,33.691
1532373132.815,18.066,30.273,23.438,39.062,60.059
1532373132.819,18.066,29.297,20.508,34.668,37.109
1532373132.823,19.043,28.809,21.484,27.344,17.090
1532373132.827,16.602,29.297,18.555,12.207,33.691
1532373132.831,14.648,32.227,17.090,9.766,23.926
1532373132.835,24.414,33.203,20.508,19.531,-6.348
1532373132.839,30.273,28.320,22.461,28.809,-6.836
1532373132.843,34.668,26.855,22.461,32.227,42.480
1532373132.847,32.227,26.855,15.625,25.391,82.520
1532373132.851,28.320,27.832,13.672,25.391,32.715
1532373132.854,26.855,32.715,15.625,31.250,-11.230
1532373132.858,25.391,31.250,13.672,27.344,5.859
1532373132.862,22.949,27.832,13.184,21.973,47.852
1532373132.866,13.184,30.273,11.719,16.602,50.293
1532373132.870,15.137,28.809,10.742,18.555,17.090
1532373132.874,26.367,29.785,12.207,26.855,1.953
1532373132.878,25.391,31.250,13.672,27.832,40.527
1532373132.882,22.949,29.785,12.207,19.531,62.988
1532373132.886,26.367,32.227,12.207,16.602,31.738
1532373132.890,26.855,32.227,13.672,15.137,14.648
1532373132.893,25.391,31.738,12.695,16.113,9.766
1532373132.897,22.949,30.273,10.742,17.578,55.176
1532373132.901,24.414,32.227,16.113,18.066,70.312
1532373132.905,27.832,32.227,16.602,20.996,52.246
1532373132.909,26.855,30.762,13.184,24.414,46.875
1532373132.913,26.367,30.762,13.672,24.414,63.477
1532373132.917,25.879,31.738,12.207,25.391,48.340
1532373132.921,23.926,31.250,7.812,21.973,9.277
1532373132.925,23.438,27.344,11.719,19.043,5.859
1532373132.929,25.879,28.809,14.648,20.508,7.812
1532373132.933,30.273,29.297,11.719,22.949,1.953
1532373132.936,33.203,28.809,10.254,27.832,16.113
1532373132.940,35.645,33.691,14.648,28.809,52.734
1532373132.944,45.410,32.227,22.949,32.715,82.520
1532373132.948,41.016,28.320,14.160,26.855,57.129
1532373132.952,34.668,32.715,11.230,21.484,35.645
1532373132.956,37.598,35.645,14.160,25.391,45.410
1532373132.960,35.156,35.645,14.160,25.391,21.973
1532373132.964,35.156,32.715,16.113,24.902,48.828
1532373132.968,33.203,30.273,15.137,23.926,27.344
1532373132.972,29.297,30.762,12.695,20.996,-20.508
1532373132.976,30.762,31.250,16.113,23.926,12.207
1532373132.979,36.133,32.715,21.484,27.344,44.434
1532373132.983,37.109,28.320,19.531,21.973,40.039
1532373132.987,33.203,24.902,17.090,20.020,20.020
1532373132.991,30.273,28.320,18.555,23.438,19.043
1532373132.995,28.320,30.273,16.113,19.531,51.758
1532373132.999,37.109,30.762,13.184,16.113,70.801
1532373133.003,38.086,30.762,14.160,23.438,38.574
1532373133.007,30.762,30.273,19.043,27.344,23.438
1532373133.011,36.621,30.762,19.531,27.832,36.621
1532373133.015,36.133,31.738,15.625,37.598,65.918
1532373133.018,24.902,30.273,15.137,47.363,33.691
1532373133.022,28.320,27.344,19.043,57.617,10.254
1532373133.026,34.180,27.832,20.020,58.105,45.898
1532373133.030,32.227,30.762,19.043,42.480,27.832
1532373133.034,31.738,32.227,20.996,35.645,3.906
1532373133.038,33.691,28.320,21.484,34.180,29.297
1532373133.042,27.832,26.367,20.508,29.785,56.641
1532373133.046,20.508,30.273,19.531,25.879,75.684
1532373133.050,27.344,30.762,20.996,29.785,90.820
1532373133.054,31.738,29.785,24.414,30.273,49.316
1532373133.058,26.855,31.250,23.926,26.855,35.156
1532373133.061,19.531,29.785,22.461,27.344,68.848
1532373133.065,16.113,29.785,27.832,29.785,56.641
1532373133.069,20.996,27.832,33.691,33.691,5.371
1532373133.073,19.531,25.879,29.785,28.809,-3.906
1532373133.077,18.555,24.902,29.785,27.832,39.551
1532373133.081,21.973,26.855,27.832,28.320,59.570
1532373133.085,29.297,29.785,27.832,24.414,43.945
1532373133.089,28.809,29.785,25.391,25.391,13.184
1532373133.093,17.090,31.738,20.020,19.531,22.949
1532373133.097,22.949,35.156,25.879,17.090,69.824
1532373133.100,33.691,33.691,25.879,20.996,46.387
1532373133.104,32.227,30.273,29.297,22.949,35.645
1532373133.108,28.809,31.250,27.832,23.926,38.086
1532373133.112,25.391,30.273,22.949,24.414,38.574
1532373133.116,24.902,30.762,25.879,25.391,56.152
1532373133.120,37.109,31.250,25.879,27.344,26.367
1532373133.124,34.668,32.227,23.926,29.297,28.809
1532373133.128,23.438,33.691,24.414,26.855,63.965
1532373133.132,32.715,31.738,23.438,28.320,26.855
1532373133.136,33.203,29.297,20.996,22.949,9.766
1532373133.140,33.691,34.668,27.832,29.785,23.438
1532373133.143,34.180,32.715,34.668,36.133,41.992
1532373133.147,34.668,28.809,35.156,33.203,52.734
1532373133.151,36.621,33.691,34.668,34.180,12.207
1532373133.155,43.457,35.645,35.156,35.156,22.461
1532373133.159,41.504,33.691,38.574,32.715,43.457
1532373133.163,30.273,33.691,39.062,27.832,56.152
1532373133.167,34.180,32.715,37.109,24.902,49.805
1532373133.171,37.109,33.203,36.133,19.531,-10.254
1532373133.175,31.738,36.133,38.086,22.461,3.906
1532373133.179,26.367,36.621,40.039,26.367,64.941
1532373133.183,21.484,36.133,42.480,19.043,41.504
1532373133.186,24.414,35.645,44.434,20.996,19.043
1532373133.190,20.996,35.645,47.852,23.438,31.250
1532373133.194,12.695,35.156,46.875,19.531,70.312
1532373133.198,15.137,30.273,41.504,16.602,62.500
1532373133.202,16.602,25.391,42.480,15.137,30.273
1532373133.206,14.648,25.879,41.016,13.672,30.273
1532373133.210,19.531,28.320,39.062,9.277,31.738
1532373133.214,21.484,25.879,41.016,8.789,36.133
1532373133.218,20.020,25.391,37.598,13.184,18.066
1532373133.222,25.391,31.738,37.598,20.020,7.812
1532373133.225,25.879,31.738,42.480,20.020,41.992
1532373133.229,24.414,30.273,40.527,12.207,78.613
1532373133.233,21.484,30.273,38.086,5.859,44.434
1532373133.237,24.414,29.785,41.504,12.695,16.113
1532373133.241,31.738,29.785,42.480,20.508,14.648
1532373133.245,29.297,27.344,40.039,21.484,40.527
1532373133.249,28.320,26.855,36.621,20.020,23.926
1532373133.253,30.273,27.344,36.133,20.996,-21.973
1532373133.257,35.645,28.320,41.016,24.414,-13.672
1532373133.261,37.109,29.785,40.039,27.832,26.855
1532373133.265,35.156,29.297,37.109,35.156,65.430
1532373133.268,35.156,27.344,40.039,43.457,43.457
1532373133.272,34.668,26.855,37.109,44.434,20.996
1532373133.276,32.227,26.367,35.645,47.852,45.410
1532373133.280,28.320,24.902,38.574,61.523,89.844
1532373133.284,33.691,23.926,36.621,72.266,62.500
1532373133.288,37.109,25.391,37.109,68.848,15.625
1532373133.292,34.180,24.414,35.156,65.918,33.203
1532373133.296,29.297,24.414,32.715,61.523,74.219
1532373133.300,33.691,26.367,34.180,61.035,49.316
1532373133.304,45.898,29.297,34.668,71.289,5.859
1532373133.308,37.109,27.832,31.738,73.242,3.418
1532373133.311,26.855,24.902,29.785,68.359,-18.066
1532373133.315,42.480,26.367,35.156,79.102,14.160
1532373133.319,45.410,28.320,33.691,85.449,39.551
1532373133.323,40.039,26.367,28.809,80.566,33.691
1532373133.327,38.574,26.855,28.320,71.777,52.734
1532373133.331,33.691,30.273,25.391,71.289,52.246
1532373133.335,33.203,27.344,26.855,68.848,26.367
1532373133.339,35.645,30.273,35.156,61.035,43.457
1532373133.343,30.762,32.715,37.109,63.965,58.105
1532373133.347,24.902,30.273,34.668,67.871,67.383
1532373133.350,22.461,32.227,33.691,67.383,41.016
1532373133.354,20.508,35.645,32.227,64.453,8.789
1532373133.358,16.602,31.738,34.180,63.477,19.043
1532373133.362,22.461,31.738,36.621,67.871,47.852
1532373133.366,28.320,33.203,36.133,66.895,64.941
1532373133.370,25.391,29.785,34.180,57.617,4.883
1532373133.374,25.879,32.227,33.203,54.688,0.488
1532373133.378,31.738,33.691,36.621,59.570,54.199
1532373133.382,30.762,31.738,34.668,49.805,49.316
1532373133.386,26.367,31.738,32.227,46.387,8.301
1532373133.390,23.438,32.715,33.203,60.547,-3.418
1532373133.393,31.250,32.227,34.180,66.895,20.020
1532373133.397,37.598,29.785,33.203,69.824,15.625
1532373133.401,31.250,29.297,31.250,64.453,7.812
1532373133.405,26.367,29.297,33.691,64.453,7.324
1532373133.409,30.273,29.297,36.133,70.801,10.742
1532373133.413,28.809,27.344,32.227,59.570,23.438
1532373133.417,19.043,26.367,30.273,54.688,30.273
1532373133.421,24.414,25.391,32.227,61.523,13.184
1532373133.425,32.715,25.391,34.180,67.383,22.461
1532373133.429,29.297,27.344,33.691,65.430,61.035
1532373133.433,26.367,26.855,31.250,56.152,53.711
1532373133.436,25.391,25.391,29.297,56.641,12.207
1532373133.440,22.461,25.391,27.832,60.059,5.371
1532373133.444,20.020,27.832,24.414,58.105,22.461
1532373133.448,25.879,27.344,24.414,51.758,20.996
1532373133.452,28.809,26.855,24.902,46.387,22.949
1532373133.456,32.227,29.297,29.785,50.293,34.668
1532373133.460,35.645,30.762,28.809,53.711,66.895
1532373133.464,41.992,31.250,24.902,51.758,87.402
1532373133.468,47.852,28.809,26.367,46.387,48.828
1532373133.472,39.551,27.832,27.832,53.711,29.785
1532373133.475,39.062,29.785,29.297,64.941,50.781
1532373133.479,32.227,29.297,25.879,64.453,67.383
1532373133.483,20.020,26.855,26.367,66.895,56.152
1532373133.487,22.949,28.320,24.902,70.801,44.434
1532373133.491,19.043,29.785,23.438,66.895,10.254
1532373133.495,11.719,30.273,28.320,68.848,12.695
1532373133.499,17.090,29.297,30.273,77.637,45.410
1532373133.503,21.484,23.926,30.762,79.590,35.156
1532373133.507,19.531,20.020,32.715,79.102,22.949
1532373133.511,16.113,19.531,30.762,73.730,44.434
1532373133.515,19.531,20.508,32.227,75.195,73.730
1532373133.518,21.484,24.414,35.156,74.707,58.105
1532373133.522,26.855,24.902,32.227,73.730,46.875
1532373133.526,28.320,25.391,31.738,74.219,52.246
1532373133.530,28.320,31.738,32.715,69.336,56.152
1532373133.534,33.691,32.227,27.344,54.688,30.273
1532373133.538,31.738,33.203,26.367,43.945,28.320
1532373133.542,30.762,35.156,30.762,44.434,34.180
1532373133.546,32.715,32.715,29.785,41.992,45.898
1532373133.550,32.227,31.738,32.715,36.621,20.020
1532373133.554,35.645,32.227,37.598,31.250,-14.648
1532373133.557,28.320,33.203,33.691,31.250,22.949
1532373133.561,22.461,33.203,34.180,35.156,40.527
1532373133.565,32.227,30.762,40.039,43.945,29.785
1532373133.569,35.156,33.203,38.086,53.223,14.648
1532373133.573,32.227,34.180,32.715,59.082,20.508
1532373133.577,34.180,31.250,36.133,60.547,41.504
1532373133.581,34.668,31.250,40.527,65.430,44.922
1532373133.585,33.203,30.273,38.574,67.871,30.762
1532373133.589,32.715,27.832,38.574,68.848,3.906
1532373133.593,37.109,28.320,37.598,74.707,22.949
1532373133.597,39.551,29.785,34.668,73.242,51.758
1532373133.600,30.762,30.762,35.156,64.941,30.273
1532373133.604,30.273,28.809,35.156,62.500,3.906
1532373133.608,33.691,28.320,36.621,65.430,6.348
1532373133.612,30.273,30.273,32.715,62.988,43.945
1532373133.616,34.180,28.809,25.879,57.617,42.969
1532373133.620,38.086,26.855,28.320,59.082,19.043
1532373133.624,39.551,28.809,31.250,66.895,26.855
1532373133.628,42.969,32.227,30.762,65.430,42.480
1532373133.632,41.504,29.297,28.320,48.828,25.879
1532373133.636,35.156,28.809,23.926,38.574,-6.348
1532373133.640,31.738,30.762,23.438,44.434,22.461
1532373133.643,39.062,27.344,25.879,47.852,74.219
1532373133.647,42.480,28.320,24.902,47.852,38.574
1532373133.651,43.945,29.785,23.438,48.828,26.855
1532373133.655,44.434,28.809,22.461,46.387,24.414
1532373133.659,36.621,32.715,24.902,50.293,2.930
1532373133.663,32.227,30.762,24.902,50.293,53.223
1532373133.667,30.273,27.344,24.414,40.039,49.316
1532373133.671,27.832,27.832,25.391,33.691,19.043
1532373133.675,29.785,31.250,26.855,30.762,17.578
1532373133.679,30.273,33.691,31.738,27.344,38.574
1532373133.682,27.344,31.738,31.250,24.902,65.430
1532373133.686,23.438,31.250,27.344,21.973,47.363
1532373133.690,24.414,31.738,28.320,21.973,1.953
1532373133.694,28.320,29.785,29.785,27.344,26.367
1532373133.698,31.738,28.320,31.738,36.133,56.641
1532373133.702,31.250,26.855,33.691,36.621,11.230
1532373133.706,25.879,25.879,30.762,30.762,13.184
1532373133.710,24.902,25.391,29.297,32.715,49.805
1532373133.714,26.367,25.391,30.762,34.180,51.758
1532373133.718,24.902,25.879,29.785,32.227,17.090
1532373133.722,22.949,26.855,31.738,34.180,-13.672
1532373133.725,19.531,23.926,33.203,31.738,-8.301
1532373133.729,16.602,20.996,34.180,23.926,14.648
1532373133.733,22.949,21.973,35.156,19.531,13.672
1532373133.737,30.273,21.484,33.691,18.066,2.441
1532373133.741,22.949,19.531,34.668,16.113,20.508
1532373133.745,21.484,22.949,34.668,16.113,38.086
1532373133.749,27.832,26.367,31.738,18.066,20.020
1532373133.753,26.855,23.926,30.762,17.578,-22.949
1532373133.757,24.414,24.902,29.785,14.160,-15.625
1532373133.761,20.508,26.367,31.250,10.742,17.578
1532373133.765,25.391,23.926,32.715,11.719,61.523
1532373133.768,25.879,26.367,27.344,5.859,34.180
1532373133.772,23.438,29.297,29.297,4.883,-9.766
1532373133.776,28.809,25.879,33.203,16.113,36.621
1532373133.780,29.297,25.879,31.738,15.625,76.660
1532373133.784,22.949,25.879,32.227,6.836,56.641
1532373133.788,20.996,24.902,34.180,6.836,30.273
1532373133.792,23.926,26.367,33.691,17.578,32.715
1532373133.796,25.391,25.879,30.762,27.344,52.246
1532373133.800,23.438,24.414,30.762,27.344,54.688
1532373133.804,17.090,24.414,28.809,26.367,33.203
1532373133.807,20.996,27.344,27.832,27.344,23.926
1532373133.811,25.879,26.367,28.320,29.297,32.227
1532373133.815,28.809,28.320,31.738,28.320,44.434
1532373133.819,28.809,28.809,34.180,32.715,10.742
1532373133.823,17.090,20.996,29.785,34.668,1.465
1532373133.827,18.555,21.484,27.832,40.527,43.945
1532373133.831,22.949,23.438,29.785,50.781,37.598
1532373133.835,20.508,22.949,28.320,39.062,14.160
1532373133.839,24.414,21.973,30.273,33.203,24.414
1532373133.843,25.879,23.438,33.691,41.992,27.832
1532373133.847,28.320,28.320,33.203,36.621,44.434
1532373133.850,29.297,28.320,34.668,23.438,36.621
1532373133.854,25.391,23.438,31.738,14.160,12.207
1532373133.858,24.902,26.855,29.785,13.672,0.977
1532373133.862,25.879,29.297,33.203,24.414,40.039
1532373133.866,25.879,27.344,35.156,35.645,69.824
1532373133.870,31.738,28.320,34.180,38.086,-1.465
1532373133.874,31.250,32.715,31.250,38.574,-10.254
1532373133.878,25.879,33.691,28.809,42.969,60.547
1532373133.882,28.320,28.809,27.344,41.504,65.430
1532373133.886,23.926,27.344,25.391,36.621,19.043
1532373133.889,15.137,27.344,24.902,33.691,-7.812
1532373133.893,17.578,25.391,26.855,37.598,21.973
1532373133.897,23.438,26.855,29.785,33.691,39.062
1532373133.901,26.855,29.297,33.203,24.414,25.391
1532373133.905,27.344,26.855,34.668,24.902,33.691
1532373133.909,23.438,25.879,30.273,24.414,11.719
1532373133.913,25.879,27.344,27.832,31.250,-3.906
1532373133.917,28.809,25.879,29.785,39.551,23.926
1532373133.921,24.414,26.367,30.273,45.410,11.719
1532373133.925,28.320,26.367,30.762,54.688,20.996
1532373133.929,37.109,24.902,31.250,54.199,53.223
1532373133.932,41.016,25.391,30.762,55.664,41.016
1532373133.936,38.574,25.879,33.691,66.895,52.734
1532373133.940,34.668,27.832,35.645,67.383,47.852
1532373133.944,35.156,30.273,35.645,63.965,20.996
1532373133.948,34.180,30.762,30.762,57.617,41.016
1532373133.952,29.785,27.832,27.832,49.316,29.297
1532373133.956,30.273,25.391,33.691,55.176,1.465
1532373133.960,36.621,27.832,35.645,61.035,20.020
1532373133.964,39.551,27.832,30.762,59.082,52.246
1532373133.968,34.180,25.391,28.809,49.805,22.949
1532373133.972,26.855,26.367,30.273,45.898,8.789
1532373133.975,27.344,30.762,31.738,55.664,63.477
1532373133.979,28.809,32.227,33.691,59.570,65.430
1532373133.983,30.762,28.320,35.156,54.688,39.062
1532373133.987,25.391,28.320,36.621,55.176,20.020
1532373133.991,24.902,33.691,37.598,54.199,-8.789
1532373133.995,25.879,32.227,36.133,48.340,20.020
1532373133.999,24.902,29.785,38.574,49.805,41.016
1532373134.003,25.879,31.250,41.016,48.340,5.859
1532373134.007,24.902,35.156,39.062,47.852,23.926
1532373134.011,27.344,38.574,42.480,51.758,16.602
1532373134.014,27.832,38.574,45.410,50.293,-6.348
1532373134.018,27.832,36.133,44.434,47.852,3.418
1532373134.022,22.461,34.668,45.898,57.129,20.020
1532373134.026,20.508,29.785,47.852,63.477,46.875
1532373134.030,26.855,27.832,49.316,63.477,57.617
1532373134.034,30.273,31.250,48.340,66.406,47.363
1532373134.038,37.598,32.715,49.316,69.824,37.598
1532373134.042,48.340,34.180,44.434,75.195,53.223
1532373134.046,42.480,41.504,38.574,75.684,71.289
1532373134.050,37.109,42.480,42.480,76.172,52.246
1532373134.054,44.434,39.551,42.969,76.172,24.414
1532373134.057,48.340,40.527,37.598,73.730,36.133
1532373134.061,45.410,38.086,35.156,75.195,65.430
1532373134.065,35.156,35.645,36.133,74.707,62.012
1532373134.069,40.039,39.062,39.062,72.266,13.672
1532373134.073,47.363,41.016,43.945,70.801,-19.531
1532373134.077,39.062,35.645,44.434,77.148,16.113
1532373134.081,37.598,35.156,37.598,78.125,38.086
1532373134.085,39.062,36.621,36.133,76.660,17.090
1532373134.089,41.504,34.668,40.527,83.984,29.785
1532373134.093,47.363,36.133,42.480,86.914,57.617
1532373134.097,49.805,39.062,41.016,79.590,46.875
1532373134.100,44.922,37.109,39.551,70.312,39.551
1532373134.104,48.340,37.109,38.574,72.266,63.965
1532373134.108,48.340,39.551,37.598,74.707,39.551
1532373134.112,48.828,41.016,39.551,73.242,11.230
1532373134.116,49.316,39.551,41.504,76.172,44.434
1532373134.120,44.434,37.598,42.480,73.730,2.441
1532373134.124,38.574,36.133,40.527,71.777,-2.441
1532373134.128,37.109,35.156,39.062,68.848,52.246
1532373134.132,45.410,39.062,39.062,66.406,55.664
1532373134.136,51.270,41.504,39.551,72.754,20.020
1532373134.139,53.711,41.016,41.504,73.242,-2.441
1532373134.143,65.430,41.992,41.504,70.312,17.090
1532373134.147,69.336,41.504,38.086,74.219,36.133
1532373134.151,59.570,39.551,34.668,71.777,-17.578
1532373134.155,53.223,36.621,37.598,66.406,-13.672
1532373134.159,49.805,37.109,40.527,77.148,25.391
1532373134.163,44.922,36.621,42.969,81.543,45.410
1532373134.167,30.273,32.715,48.828,79.102,52.734
1532373134.171,20.020,31.250,46.387,79.590,12.695
1532373134.175,20.508,29.297,41.992,74.219,36.133
1532373134.179,18.555,27.832,41.504,73.242,52.246
1532373134.182,22.461,30.273,39.062,69.336,46.875
1532373134.186,31.738,31.250,38.086,65.430,35.156
1532373134.190,30.273,30.762,42.480,68.359,12.207
1532373134.194,25.391,29.785,41.992,64.941,40.039
1532373134.198,25.391,30.273,36.621,59.570,60.059
1532373134.202,30.273,33.203,35.156,60.547,27.344
1532373134.206,31.738,34.180,35.156,61.035,8.789
1532373134.210,35.645,35.645,33.203,56.641,7.812
1532373134.214,28.809,31.738,33.691,51.758,8.789
1532373134.218,21.484,29.297,31.738,48.828,15.625
1532373134.222,22.949,29.785,29.297,54.199,21.973
1532373134.225,29.297,32.715,33.691,62.988,36.133
1532373134.229,40.527,37.109,37.598,62.500,22.461
1532373134.233,36.621,31.738,36.621,58.105,23.438
1532373134.237,25.391,28.809,36.133,53.223,19.531
1532373134.241,31.250,33.203,34.668,54.688,26.855
1532373134.245,30.762,33.691,37.598,54.688,45.410
1532373134.249,26.855,31.250,41.992,54.199,39.062
1532373134.253,34.668,30.273,41.016,59.570,-6.348
1532373134.257,34.668,32.715,39.062,62.988,-2.930
1532373134.261,34.668,35.156,38.086,66.406,60.547
1532373134.264,39.062,35.645,36.621,69.824,78.125
1532373134.268,37.598,36.621,36.621,67.383,38.574
1532373134.272,34.668,36.621,34.180,56.641,33.691
1532373134.276,34.668,36.133,30.273,51.758,69.824
1532373134.280,34.668,32.715,29.297,52.734,62.988
1532373134.284,42.480,28.809,32.227,51.758,34.180
1532373134.288,44.434,30.762,35.156,47.852,11.719
1532373134.292,39.062,33.691,33.691,40.039,15.625
1532373134.296,39.551,32.227,30.273,37.109,44.922
1532373134.300,40.527,34.180,30.273,38.574,58.105
1532373134.304,41.016,34.180,33.203,46.387,40.527
1532373134.307,38.574,31.250,33.691,50.781,28.809
1532373134.311,37.109,32.715,32.715,49.805,55.664
1532373134.315,36.133,31.250,31.738,49.805,33.203
1532373134.319,39.551,28.809,31.250,55.664,12.207
1532373134.323,33.691,28.320,29.785,55.664,31.738
1532373134.327,30.273,28.809,30.273,51.758,42.969
1532373134.331,37.109,29.785,31.738,49.316,45.410
1532373134.335,39.062,29.297,31.250,46.387,17.578
1532373134.339,40.039,31.738,32.715,50.781,4.395
1532373134.343,35.156,30.762,31.250,48.340,52.734
1532373134.346,31.250,31.738,24.414,41.504,68.359
1532373134.350,30.762,30.273,26.855,29.297,5.371
1532373134.354,31.250,28.320,31.250,28.320,-12.695
1532373134.358,32.227,28.320,25.391,36.133,59.082
1532373134.362,32.715,27.344,27.344,34.668,85.938
1532373134.366,29.297,27.344,34.180,34.668,49.805
1532373134.370,29.297,27.344,31.250,34.668,14.160
1532373134.374,34.668,28.320,30.762,35.645,7.812
1532373134.378,33.691,27.344,30.273,40.039,30.273
1532373134.382,26.855,26.855,26.855,40.527,46.875
1532373134.386,29.785,23.926,27.344,43.457,30.273
1532373134.389,41.504,24.902,30.273,52.734,0.977
1532373134.393,42.969,27.344,34.668,58.594,36.133
1532373134.397,33.691,24.414,32.227,62.012,85.449
1532373134.401,29.785,22.949,30.273,56.641,49.805
1532373134.405,27.344,25.391,31.250,50.781,31.738
1532373134.409,30.762,24.902,30.762,53.223,40.039
1532373134.413,31.738,24.902,28.809,50.293,55.664
1532373134.417,23.926,26.367,24.414,37.598,46.875
1532373134.421,25.879,27.344,27.344,41.016,16.602
1532373134.425,33.203,29.297,32.227,46.387,5.859
1532373134.429,34.668,29.785,30.762,39.062,3.906
1532373134.432,34.668,30.762,29.785,41.016,4.395
1532373134.436,32.715,29.785,27.832,45.410,-12.695
1532373134.440,25.391,28.809,22.461,42.969,0.977
1532373134.444,25.879,29.785,22.949,43.945,66.406
1532373134.448,34.668,29.785,26.367,49.805,58.105
1532373134.452,37.109,27.344,26.367,49.805,18.555
1532373134.456,41.504,29.785,26.855,51.758,15.137
1532373134.460,43.945,31.250,24.414,52.734,57.617
1532373134.464,36.621,27.832,22.949,46.387,76.660
1532373134.468,31.250,27.832,23.926,38.086,41.016
1532373134.471,29.297,28.809,26.367,31.738,25.391
1532373134.475,31.738,28.809,30.273,31.250,38.086
1532373134.479,32.715,31.250,29.297,32.227,66.895
1532373134.483,33.203,30.762,30.762,29.297,58.594
1532373134.487,32.715,29.297,32.227,25.391,10.742
1532373134.491,32.715,29.785,34.668,25.391,0.488
1532373134.495,32.227,27.832,33.691,29.297,40.039
1532373134.499,33.691,26.855,30.273,33.203,39.551
1532373134.503,37.598,30.273,32.227,35.156,15.625
1532373134.507,36.621,29.785,32.715,36.133,2.930
1532373134.511,36.621,30.762,33.203,40.039,9.277
1532373134.514,35.645,32.715,30.273,43.945,21.484
1532373134.518,34.668,29.785,25.879,47.852,22.461
1532373134.522,33.691,28.809,24.414,45.898,13.672
1532373134.526,39.062,31.738,28.320,50.293,40.527
1532373134.530,41.016,31.250,30.762,48.340,52.734
1532373134.534,32.227,31.250,28.809,39.551,32.227
1532373134.538,33.691,32.715,31.738,41.016,26.855
1532373134.542,37.109,32.715,29.785,37.598,7.812
1532373134.546,30.273,31.250,25.879,33.691,48.828
1532373134.550,27.344,28.809,27.344,32.715,51.758
1532373134.554,26.855,29.785,30.762,38.574,14.648
1532373134.557,32.227,30.273,34.180,40.527,42.480
1532373134.561,40.039,31.250,32.227,48.340,82.031
1532373134.565,36.133,29.297,30.762,55.176,45.898
1532373134.569,36.133,32.227,32.715,49.805,-6.836
1532373134.573,34.668,35.156,33.691,51.758,6.836
1532373134.577,28.809,30.762,31.250,49.316,56.152
1532373134.581,27.344,30.273,28.809,39.551,47.363
1532373134.585,34.180,33.691,31.250,43.457,26.367
1532373134.589,36.621,34.180,33.691,51.270,31.250
1532373134.593,28.320,33.203,33.691,49.805,29.785
1532373134.596,29.297,31.250,33.691,56.152,54.199
1532373134.600,37.598,30.762,33.203,62.500,43.945
1532373134.604,33.203,32.227,33.691,57.129,37.109
1532373134.608,34.180,33.691,33.691,53.223,48.340
1532373134.612,42.969,31.250,36.133,54.199,35.156
1532373134.616,36.133,30.273,33.203,51.270,39.062
1532373134.620,33.691,28.320,33.691,46.387,19.531
1532373134.624,35.156,25.879,38.574,47.852,28.320
1532373134.628,33.203,28.809,38.574,48.828,53.223
1532373134.632,37.598,31.250,40.039,47.852,30.273
1532373134.636,36.133,29.297,38.086,47.852,-4.395
1532373134.639,30.762,29.297,34.668,47.852,2.441
1532373134.643,28.809,30.762,35.156,50.781,39.062
1532373134.647,41.504,32.227,38.574,49.805,37.109
1532373134.651,41.016,30.273,39.551,41.016,-0.977
1532373134.655,27.832,30.273,35.645,44.434,0.000
1532373134.659,27.832,27.344,33.691,43.457,17.578
1532373134.663,34.668,27.344,35.156,42.480,40.039
1532373134.667,42.480,31.250,37.598,55.664,13.672
1532373134.671,38.574,32.227,36.621,52.246,-7.324
1532373134.675,40.527,35.645,37.598,51.270,20.508
1532373134.678,41.504,37.109,34.180,54.199,52.246
1532373134.682,33.691,37.598,26.855,50.781,22.461
1532373134.686,35.156,38.086,29.785,50.781,0.000
1532373134.690,41.016,38.574,33.691,53.223,3.418
1532373134.694,44.434,39.062,31.738,59.570,28.809
1532373134.698,40.527,37.598,30.762,54.199,62.012
1532373134.702,35.156,36.621,32.715,43.945,36.133
1532373134.706,34.668,36.133,36.133,45.898,20.020
1532373134.710,30.273,36.621,36.133,45.898,37.598
1532373134.714,25.879,33.203,32.715,42.969,33.691
1532373134.718,17.578,28.809,29.297,38.086,10.254
1532373134.721,17.090,31.738,25.879,31.738,-15.137
1532373134.725,27.344,34.180,28.809,40.039,32.715
1532373134.729,33.691,30.762,32.227,44.922,48.828
1532373134.733,33.203,29.785,32.227,46.387,14.160
1532373134.737,26.367,29.785,31.738,48.340,41.504
1532373134.741,23.926,28.320,32.715,46.387,41.016
1532373134.745,23.926,27.344,32.715,38.086,58.105
1532373134.749,24.414,24.902,33.203,40.527,46.387
1532373134.753,33.691,27.832,35.156,55.176,-2.441
1532373134.757,36.621,31.738,37.109,55.664,44.434
1532373134.761,25.391,29.785,34.180,44.922,80.566
1532373134.764,24.414,28.809,28.809,44.434,52.246
1532373134.768,21.484,28.320,32.715,45.898,25.391
1532373134.772,15.137,29.785,34.668,42.480,3.906
1532373134.776,14.160,31.250,35.645,40.527,29.297
1532373134.780,19.531,30.762,36.621,37.598,57.129
1532373134.784,22.461,32.715,28.320,34.180,29.785
1532373134.788,22.949,35.645,27.344,37.109,-11.719
1532373134.792,28.809,35.645,35.645,41.504,-0.977
1532373134.796,32.715,36.133,37.598,41.016,56.152
1532373134.800,40.527,38.086,37.109,47.363,46.387
1532373134.803,37.598,36.133,34.180,47.852,-1.465
1532373134.807,30.762,34.668,32.715,48.340,8.301
1532373134.811,33.691,34.668,36.621,45.410,20.508
1532373134.815,28.320,32.227,34.180,35.645,47.852
1532373134.819,27.344,30.762,35.645,33.203,24.902
1532373134.823,31.250,31.250,38.574,36.133,-9.766
1532373134.827,31.738,30.762,33.691,32.715,15.625
1532373134.831,28.320,28.809,33.691,31.738,43.457
1532373134.835,24.414,28.320,33.203,29.785,26.855
1532373134.839,29.297,27.832,30.273,18.555,24.902
1532373134.843,32.715,26.367,34.668,18.555,42.480
1532373134.846,40.039,30.762,34.180,34.180,51.270
1532373134.850,41.016,31.738,32.227,43.945,-0.977
1532373134.854,36.133,27.832,36.133,41.016,-24.902
1532373134.858,30.762,27.344,39.062,48.340,4.883
1532373134.862,20.020,27.344,37.598,49.316,39.551
1532373134.866,15.625,22.949,31.250,37.598,53.223
1532373134.870,21.973,23.926,29.785,37.598,14.160
1532373134.874,20.508,30.273,33.691,41.016,10.254
1532373134.878,22.461,31.738,35.156,43.457,39.551
1532373134.882,30.762,30.762,33.203,49.316,40.527
1532373134.886,33.691,30.762,31.250,41.992,20.508
1532373134.889,32.715,32.227,31.738,34.668,14.648
1532373134.893,33.203,31.250,33.691,37.598,13.184
1532373134.897,26.367,31.738,38.086,36.621,41.992
1532373134.901,25.879,30.273,39.062,34.180,20.508
1532373134.905,27.832,29.785,35.156,33.203,10.742
1532373134.909,31.250,30.762,36.133,40.039,15.137
1532373134.913,40.039,32.227,37.598,43.945,10.742
1532373134.917,24.902,31.250,32.715,35.645,37.109
1532373134.921,26.855,30.762,32.715,37.109,33.691
1532373134.925,32.715,30.273,34.180,40.527,51.270
1532373134.928,20.996,26.367,32.715,36.133,61.035
1532373134.932,23.926,26.855,30.273,35.156,26.367
1532373134.936,27.344,27.344,32.715,37.109,12.695
1532373134.940,28.320,26.855,36.133,41.992,24.414
1532373134.944,32.715,31.738,35.156,41.504,35.156
1532373134.948,34.668,34.180,35.645,39.551,36.133
1532373134.952,30.762,27.344,37.109,42.480,8.789
1532373134.956,37.109,28.320,35.156,47.852,6.836
1532373134.960,36.621,32.227,34.668,48.828,26.367
1532373134.964,24.902,30.762,32.715,40.039,37.109
1532373134.968,24.414,30.762,32.227,38.574,8.789
1532373134.971,33.203,35.156,35.645,35.156,-26.367
1532373134.975,31.738,36.133,38.086,31.250,15.625
1532373134.979,28.809,35.156,34.668,33.691,54.688
1532373134.983,29.297,33.203,31.250,33.203,39.551
1532373134.987,25.879,29.785,31.738,32.227,17.578
1532373134.991,25.879,31.250,33.203,29.297,2.441
1532373134.995,31.250,34.668,32.715,30.762,19.531
1532373134.999,38.086,33.691,31.738,33.203,36.621
1532373135.003,39.062,33.203,33.203,32.227,30.273
1532373135.007,30.273,32.715,32.715,31.250,14.160
1532373135.011,31.250,31.738,33.691,33.203,32.715
1532373135.014,36.133,32.715,34.180,43.457,55.664
1532373135.018,36.133,31.738,32.715,45.898,23.926
1532373135.022,40.039,32.227,33.203,43.457,18.555
1532373135.026,35.156,31.250,32.715,36.133,43.945
1532373135.030,28.320,31.738,29.297,25.391,50.293
1532373135.034,32.715,32.227,29.785,30.762,21.973
1532373135.038,33.203,30.273,32.715,35.645,-1.953
1532373135.042,32.715,30.762,34.180,33.691,6.836
1532373135.046,32.715,29.297,34.180,27.832,55.664
1532373135.050,31.250,26.855,29.785,17.090,39.551
1532373135.053,30.273,27.832,26.855,15.137,0.977
1532373135.057,31.250,28.809,29.785,26.855,14.648
1532373135.061,33.691,31.250,34.668,39.062,31.250
1532373135.065,33.203,31.250,36.133,42.969,48.340
1532373135.069,31.250,27.344,31.738,41.992,19.531
1532373135.073,33.691,27.344,32.715,39.551,5.371
1532373135.077,36.621,26.855,31.738,40.527,20.996
1532373135.081,31.738,28.320,31.250,37.598,27.832
1532373135.085,32.715,29.297,34.668,38.086,28.809
1532373135.089,40.039,28.809,33.691,41.016,7.324
1532373135.093,40.039,32.715,32.715,37.598,8.789
1532373135.096,33.691,31.250,30.762,36.133,37.109
1532373135.100,31.250,26.855,29.785,38.574,41.016
1532373135.104,30.273,27.832,31.250,38.574,19.043
1532373135.108,28.320,29.297,27.344,32.227,1.953
1532373135.112,29.297,30.762,24.902,34.668,41.016
1532373135.116,32.227,32.715,24.414,38.574,62.012
1532373135.120,29.785,30.273,27.832,38.086,29.297
1532373135.124,34.180,28.320,32.227,41.504,21.484
1532373135.128,36.133,29.297,34.668,41.504,41.504
1532373135.132,40.039,27.344,35.156,38.574,27.344
1532373135.135,38.086,26.855,29.297,36.621,4.395
1532373135.139,29.297,27.832,30.273,41.016,4.883
1532373135.143,39.551,30.762,36.621,51.270,45.410
1532373135.147,43.457,33.691,33.203,51.270,63.477
1532373135.151,32.715,29.297,27.344,40.527,6.836
1532373135.155,34.668,28.809,28.320,43.457,0.488
1532373135.159,39.551,32.715,28.320,48.340,38.086
1532373135.163,31.250,31.738,21.973,41.016,47.363
1532373135.167,36.133,28.320,22.461,40.039,46.875
1532373135.171,39.062,28.320,25.391,43.457,15.137
1532373135.175,33.203,27.832,24.414,41.016,10.254
1532373135.178,38.574,30.762,25.391,42.480,40.527
1532373135.182,41.016,30.762,23.926,40.039,51.270
1532373135.186,33.691,26.367,19.531,32.227,28.320
1532373135.190,23.926,29.297,19.531,28.809,7.812
1532373135.194,25.391,31.250,23.438,38.086,36.133
1532373135.198,33.203,28.320,22.949,47.852,45.898
1532373135.202,36.133,29.297,21.973,46.875,16.602
1532373135.206,33.691,28.809,24.414,45.898,15.625
1532373135.210,31.738,28.320,21.973,51.758,24.902
1532373135.214,29.785,28.809,20.020,46.875,42.969
1532373135.218,32.227,29.297,20.996,41.504,35.156
1532373135.221,31.250,30.762,19.043,39.551,14.160
1532373135.225,27.832,30.762,19.043,36.621,31.738
1532373135.229,36.133,30.762,22.461,34.668,41.504
1532373135.233,40.039,31.250,23.438,34.180,1.465
1532373135.237,44.922,30.273,21.484,43.945,18.555
1532373135.241,46.387,28.809,21.973,44.922,39.062
1532373135.245,47.852,31.250,21.973,41.992,49.316
1532373135.249,45.410,28.809,19.531,38.086,54.199
1532373135.253,31.738,27.832,20.996,34.180,44.434
1532373135.257,33.691,30.273,26.367,40.039,42.969
1532373135.260,40.039,28.320,27.832,43.457,48.340
1532373135.264,43.457,28.320,24.902,40.039,53.711
1532373135.268,42.480,29.297,21.484,36.621,31.738
1532373135.272,44.922,28.809,21.484,33.691,-8.301
1532373135.276,39.551,28.809,24.414,37.598,11.230
1532373135.280,39.062,28.809,24.414,44.922,48.340
1532373135.284,42.480,29.785,21.973,41.504,15.137
1532373135.288,35.156,29.297,23.438,40.039,10.742
1532373135.292,35.156,29.785,21.484,39.551,41.504
1532373135.296,31.250,30.762,20.020,35.645,62.012
1532373135.300,30.273,28.809,20.508,35.645,41.992
1532373135.303,33.691,29.297,21.973,40.039,25.879
1532373135.307,30.762,31.738,26.367,40.039,26.367
1532373135.311,26.855,33.203,24.902,36.133,25.391
1532373135.315,33.203,32.227,20.020,39.062,28.320
1532373135.319,38.574,28.320,22.461,39.062,13.672
1532373135.323,41.016,27.344,24.414,36.621,15.137
1532373135.327,44.434,30.762,26.367,37.598,62.500
1532373135.331,41.504,32.227,27.344,35.645,34.668
1532373135.335,40.527,29.785,25.391,33.203,4.395
1532373135.339,42.480,28.320,22.949,36.621,34.180
1532373135.343,40.527,29.297,20.996,36.621,40.527
1532373135.346,33.203,30.762,25.879,38.086,63.965
1532373135.350,42.969,33.691,27.832,41.016,36.621
1532373135.354,42.480,33.203,25.879,39.551,4.883
1532373135.358,34.180,35.156,26.855,37.109,57.617
1532373135.362,36.133,33.691,25.879,34.180,81.543
1532373135.366,35.645,29.297,23.926,39.551,86.426
1532373135.370,39.062,30.273,25.391,40.039,24.902
1532373135.374,34.180,29.297,27.344,33.691,-17.090
1532373135.378,21.484,28.809,24.414,35.645,28.320
1532373135.382,30.762,31.250,28.320,46.387,49.805
1532373135.385,40.039,31.250,34.180,57.129,31.738
1532373135.389,34.180,30.273,30.762,51.270,13.184
1532373135.393,32.227,32.227,27.832,47.852,41.504
1532373135.397,35.645,31.250,25.879,48.828,57.617
1532373135.401,38.574,31.250,25.879,46.875,35.156
1532373135.405,37.598,33.203,29.785,43.457,30.273
1532373135.409,37.109,34.668,29.785,41.016,29.297
1532373135.413,40.527,35.156,27.344,44.922,50.293
1532373135.417,35.645,31.738,26.855,46.875,49.316
1532373135.421,26.367,29.297,25.879,44.434,17.578
1532373135.425,29.297,30.762,26.367,46.875,18.555
1532373135.428,37.109,33.203,30.273,49.805,14.160
1532373135.432,38.086,33.691,26.855,44.434,-16.602
1532373135.436,33.203,32.227,23.438,43.945,-0.488
1532373135.440,31.738,27.832,27.344,44.922,28.320
1532373135.444,29.785,23.926,28.809,41.504,31.738
1532373135.448,34.180,26.367,29.297,47.363,34.180
1532373135.452,41.016,29.785,29.297,50.781,13.184
1532373135.456,40.039,29.297,29.297,48.828,6.348
1532373135.460,37.109,30.273,27.344,50.781,31.250
1532373135.464,38.574,33.691,29.297,50.293,56.641
1532373135.468,40.039,31.738,30.762,44.922,36.133
1532373135.471,37.109,29.785,29.297,38.086,1.953
1532373135.475,30.273,32.227,26.855,31.738,26.367
1532373135.479,33.203,33.691,29.297,36.133,62.988
1532373135.483,43.457,34.668,31.738,41.504,58.594
1532373135.487,40.527,32.715,31.250,38.574,20.996
1532373135.491,41.504,31.250,32.227,45.410,29.785
1532373135.495,39.062,31.250,34.668,44.434,55.176
1532373135.499,31.738,30.273,34.180,36.133,55.176
1532373135.503,34.180,30.762,35.156,35.156,25.879
1532373135.507,35.645,28.809,35.645,30.762,15.625
1532373135.510,29.785,30.273,32.715,27.832,13.184
1532373135.514,30.762,30.762,33.691,31.738,19.043
1532373135.518,39.062,27.832,38.574,34.180,39.062
1532373135.522,37.598,27.344,38.086,30.273,41.016
1532373135.526,37.109,27.832,31.250,22.949,46.387
1532373135.530,41.504,29.297,32.715,23.926,63.965
1532373135.534,44.922,26.367,34.668,24.902,53.223
1532373135.538,50.293,30.762,37.109,24.902,25.391
1532373135.542,49.805,34.180,40.039,33.203,36.621
1532373135.546,42.969,28.809,38.574,41.016,84.473
1532373135.550,39.551,27.344,41.504,50.781,40.527
1532373135.553,36.621,27.832,41.016,58.105,-19.043
1532373135.557,29.297,28.320,38.574,53.711,0.977
1532373135.561,18.555,27.344,39.551,45.898,32.227
1532373135.565,18.555,25.879,40.039,45.410,54.688
1532373135.569,20.508,26.367,39.551,45.410,38.086
1532373135.573,23.926,25.879,43.457,44.922,-2.930
1532373135.577,26.855,30.762,46.875,50.781,18.066
1532373135.581,26.367,33.203,41.504,44.922,56.152
1532373135.585,39.062,27.832,39.062,38.086,23.438
1532373135.589,34.668,29.785,37.598,33.203,1.465
1532373135.592,26.855,34.668,38.574,30.273,9.766
1532373135.596,35.645,36.621,42.480,34.668,33.691
1532373135.600,38.574,36.133,43.457,32.715,31.738
1532373135.604,40.527,34.668,43.457,28.320,24.414
1532373135.608,33.691,34.668,39.551,26.367,29.785
1532373135.612,28.320,36.133,39.062,28.320,5.371
1532373135.616,31.250,34.180,40.039,27.344,22.949
1532373135.620,28.809,33.203,35.156,27.832,2.930
1532373135.624,25.879,34.180,37.109,33.691,5.371
1532373135.628,27.344,32.227,36.621,34.668,41.992
1532373135.632,26.855,28.320,34.180,32.227,20.996
1532373135.635,30.762,30.273,32.715,31.738,-2.930
1532373135.639,31.250,34.668,28.809,31.738,-18.066
1532373135.643,32.227,34.668,32.715,33.691,21.484
1532373135.647,41.504,33.203,34.668,37.598,47.363
1532373135.651,46.387,30.762,26.855,39.551,22.461
1532373135.655,47.363,31.250,30.273,43.457,-4.395
1532373135.659,40.039,31.738,34.180,41.016,38.086
1532373135.663,30.273,27.832,29.785,31.738,62.988
1532373135.667,34.668,24.414,31.250,31.250,25.879
1532373135.671,43.457,27.832,34.180,35.645,-6.348
1532373135.675,42.480,29.297,33.203,36.621,-2.930
1532373135.678,42.969,25.879,30.762,37.598,50.293
1532373135.682,44.434,26.367,31.250,34.668,60.547
1532373135.686,40.039,27.832,27.344,29.297,29.297
1532373135.690,36.621,27.832,25.879,27.344,23.926
1532373135.694,41.016,29.785,31.250,35.156,45.898
1532373135.698,43.457,30.762,27.344,33.691,57.129
1532373135.702,41.016,27.832,26.855,29.785,28.320
1532373135.706,38.086,29.297,31.738,32.715,12.695
1532373135.710,36.621,31.738,30.762,31.738,14.160
1532373135.714,38.086,28.809,34.668,27.832,40.527
1532373135.717,38.086,28.320,38.574,28.809,64.453
1532373135.721,32.715,27.344,32.715,25.879,31.738
1532373135.725,32.715,26.855,29.297,24.902,20.996
1532373135.729,35.156,29.297,32.227,22.461,30.273
1532373135.733,32.715,27.344,34.180,20.020,41.992
1532373135.737,37.598,26.855,32.715,26.855,46.875
1532373135.741,41.992,27.832,30.273,29.785,26.855
1532373135.745,37.109,28.320,27.344,20.508,32.715
1532373135.749,35.156,26.367,27.832,20.020,35.156
1532373135.753,38.574,24.414,28.809,27.832,-0.488
1532373135.757,35.645,26.367,27.344,30.762,14.160
1532373135.760,32.227,25.391,25.879,27.832,36.133
1532373135.764,33.203,27.344,23.438,27.832,33.691
1532373135.768,33.203,28.320,25.391,30.273,6.836
1532373135.772,32.227,27.344,27.832,28.320,-6.836
1532373135.776,32.227,26.367,23.926,28.320,11.230
1532373135.780,25.879,26.855,21.973,25.879,39.551
1532373135.784,18.066,26.367,21.484,21.484,5.859
1532373135.788,23.926,26.367,20.020,27.344,-28.809
1532373135.792,35.156,29.297,21.484,31.738,-19.531
1532373135.796,33.203,31.250,26.367,34.180,21.973
1532373135.800,35.156,29.785,28.809,39.551,36.133
1532373135.803,38.086,27.832,24.902,39.551,24.902
1532373135.807,41.016,28.809,23.438,43.457,31.250
1532373135.811,43.457,28.809,28.320,50.293,45.898
1532373135.815,40.527,30.273,27.344,43.457,48.340
1532373135.819,43.945,30.273,25.879,38.574,42.480
1532373135.823,41.992,27.832,23.926,32.227,47.852
1532373135.827,32.715,26.855,24.902,31.738,39.551
1532373135.831,30.762,27.832,25.879,32.715,37.598
1532373135.835,28.809,27.832,21.484,33.203,15.137
1532373135.839,35.645,27.344,24.902,42.480,-12.207
1532373135.842,39.062,29.785,30.762,46.875,15.137
1532373135.846,33.691,28.320,26.855,45.410,40.527
1532373135.850,35.156,27.344,22.461,48.340,41.992
1532373135.854,35.156,25.879,21.973,51.270,38.086
1532373135.858,35.645,25.879,21.973,47.852,13.184
1532373135.862,36.621,29.785,19.531,45.898,50.293
1532373135.866,36.133,31.250,18.555,44.922,51.270
1532373135.870,41.016,31.738,22.461,41.992,-10.742
1532373135.874,41.016,33.691,24.902,45.410,-16.113
1532373135.878,42.480,35.645,25.391,51.270,38.574
1532373135.882,36.621,31.250,21.484,43.945,73.730
1532373135.885,33.203,31.250,20.996,40.039,21.973
1532373135.889,34.668,32.715,20.996,44.434,-37.109
1532373135.893,39.551,32.227,23.438,47.852,-3.906
1532373135.897,37.109,29.785,25.879,49.805,54.199
1532373135.901,32.715,25.391,24.902,48.340,37.109
1532373135.905,41.504,27.832,28.320,55.664,19.531
1532373135.909,39.551,33.691,31.250,61.035,31.250
1532373135.913,39.551,33.691,30.273,62.500,56.641
1532373135.917,38.574,28.320,28.809,60.059,62.988
1532373135.921,34.668,27.344,25.879,53.711,34.180
1532373135.924,30.762,28.320,23.438,51.270,12.695
1532373135.928,31.738,29.785,25.879,49.316,31.738
1532373135.932,38.574,29.297,22.949,49.805,23.926
1532373135.936,36.621,25.391,21.973,50.293,-20.996
1532373135.940,35.156,25.879,26.367,50.293,4.395
1532373135.944,39.062,28.809,26.367,53.711,49.316
1532373135.948,34.668,28.320,24.902,50.293,67.383
1532373135.952,35.645,29.297,25.879,46.387,48.828
1532373135.956,41.992,31.738,27.832,51.270,41.016
1532373135.960,41.992,32.227,26.367,52.246,63.965
1532373135.964,42.480,32.227,28.320,49.805,49.316
1532373135.967,40.527,32.715,26.855,46.387,20.508
1532373135.971,38.574,33.691,23.438,43.457,3.906
1532373135.975,44.922,31.738,28.320,42.480,15.625
1532373135.979,50.293,31.250,30.762,43.945,56.641
1532373135.983,50.293,33.691,28.809,47.363,45.410
1532373135.987,46.387,32.227,26.367,44.434,10.742
1532373135.991,46.875,32.715,24.902,37.109,18.555
1532373135.995,41.504,32.715,26.367,32.715,27.832
1532373135.999,32.227,28.809,24.414,39.062,41.992
1532373136.003,40.039,26.855,24.902,49.805,13.184
1532373136.007,40.039,29.785,28.320,54.199,1.465
1532373136.010,38.574,32.715,26.855,49.805,48.340
1532373136.014,37.598,30.273,22.949,44.922,64.453
1532373136.018,37.598,29.297,23.926,46.387,25.879
1532373136.022,41.992,30.273,28.809,50.293,22.949
1532373136.026,40.039,28.809,29.297,48.828,49.805
1532373136.030,36.133,27.832,25.879,40.527,43.945
1532373136.034,37.109,24.414,22.461,35.645,7.812
1532373136.038,38.086,21.484,25.391,39.551,32.227
1532373136.042,24.902,21.973,21.484,37.598,53.223
1532373136.046,17.578,21.973,15.625,30.762,60.059
1532373136.049,25.879,22.949,19.531,35.645,41.504
1532373136.053,39.551,25.879,24.414,48.828,12.207
1532373136.057,46.875,24.902,24.414,55.664,36.133
1532373136.061,44.434,26.855,22.949,53.711,56.641
1532373136.065,39.551,28.809,21.484,54.199,32.227
1532373136.069,35.645,27.344,19.043,54.688,-24.414
1532373136.073,39.551,27.832,23.926,53.711,-4.395
1532373136.077,38.086,28.320,24.902,56.152,60.059
1532373136.081,34.668,25.879,24.902,54.688,65.918
1532373136.085,42.969,26.367,30.273,58.594,33.691
1532373136.089,42.480,28.809,29.785,59.570,-9.277
1532373136.092,37.109,25.879,26.855,56.641,-1.465
1532373136.096,40.039,23.926,25.391,56.641,31.738
1532373136.100,35.645,24.902,25.391,54.199,32.715
1532373136.104,34.668,23.438,25.391,53.223,15.625
1532373136.108,36.621,26.855,24.902,48.828,-5.371
1532373136.112,36.133,29.297,24.414,42.480,10.254
1532373136.116,40.527,28.320,24.414,42.969,50.293
1532373136.120,39.551,27.344,21.484,44.922,55.176
1532373136.124,32.227,25.391,18.555,41.504,50.293
1532373136.128,33.691,22.461,21.973,39.551,44.922
1532373136.132,39.062,23.438,24.414,41.504,57.129
1532373136.135,40.527,28.320,22.949,41.992,49.316
1532373136.139,42.480,31.738,24.414,44.922,19.531
1532373136.143,43.945,32.715,30.273,47.852,45.410
1532373136.147,35.156,28.320,27.832,43.457,65.430
1532373136.151,32.227,27.832,24.414,40.527,5.371
1532373136.155,39.062,30.273,26.367,41.992,8.301
1532373136.159,39.062,30.762,25.879,44.434,29.785
1532373136.163,40.527,32.227,24.902,47.852,31.738
1532373136.167,35.645,29.785,25.391,50.781,21.484
1532373136.171,32.715,30.762,27.832,47.852,-2.441
1532373136.174,35.645,32.715,25.879,44.434,20.508
1532373136.178,40.527,38.086,25.391,45.898,65.430
1532373136.182,45.898,38.574,30.273,46.875,55.176
1532373136.186,41.992,36.621,32.227,45.410,39.062
1532373136.190,36.621,40.527,29.785,39.062,32.227
1532373136.194,39.062,41.016,27.344,35.645,33.203
1532373136.198,39.062,40.039,28.320,36.133,42.480
1532373136.202,40.527,41.016,25.391,31.738,4.883
1532373136.206,45.898,42.480,25.879,25.879,11.230
1532373136.210,41.016,45.410,29.785,27.344,16.602
1532373136.214,23.438,44.922,28.320,28.320,29.785
1532373136.217,14.648,39.551,25.879,24.902,46.875
1532373136.221,9.766,40.527,27.832,25.879,31.738
1532373136.225,9.277,41.992,35.156,30.273,49.316
1532373136.229,13.672,41.016,40.527,38.086,80.566
1532373136.233,20.020,41.016,38.574,41.504,42.969
1532373136.237,14.648,40.039,37.109,36.621,-2.441
1532373136.241,7.324,38.086,39.062,34.668,34.180
1532373136.245,10.254,41.016,36.133,28.809,69.336
1532373136.249,15.625,42.969,35.645,25.879,36.133
1532373136.253,22.949,42.480,34.668,34.668,-5.371
1532373136.257,26.855,42.969,30.762,39.551,2.930
1532373136.260,27.832,41.992,32.227,34.668,32.715
1532373136.264,23.438,40.527,30.762,29.297,67.383
1532373136.268,22.461,39.062,30.273,31.250,38.086
1532373136.272,28.809,37.109,31.738,29.785,-11.230
1532373136.276,27.344,34.180,30.762,29.785,19.531
1532373136.280,23.926,35.645,29.785,30.273,65.918
1532373136.284,30.273,37.598,28.320,29.785,53.223
1532373136.288,37.109,34.668,27.832,33.691,20.020
1532373136.292,42.969,38.086,24.414,40.039,30.762
1532373136.296,42.969,39.062,22.949,39.062,46.387
1532373136.299,44.922,36.133,27.344,43.945,18.066
1532373136.303,50.781,33.691,26.855,48.828,-14.648
1532373136.307,47.852,33.691,25.391,47.363,-10.742
1532373136.311,42.480,35.156,25.391,47.852,20.020
1532373136.315,38.574,31.250,22.949,39.551,35.156
1532373136.319,36.621,30.762,19.043,34.668,10.742
1532373136.323,38.574,33.203,16.602,39.551,6.836
1532373136.327,39.062,31.250,16.602,43.457,41.016
1532373136.331,46.387,30.273,20.508,47.363,41.992
1532373136.335,52.246,30.762,23.926,47.363,23.926
1532373136.339,50.293,32.227,21.484,48.340,18.555
1532373136.342,52.246,33.691,20.996,53.223,16.602
1532373136.346,52.246,33.203,20.996,52.246,44.922
1532373136.350,48.340,29.785,18.555,41.016,12.695
1532373136.354,41.992,28.320,15.137,33.203,-4.883
1532373136.358,49.316,33.691,17.578,41.016,35.156
1532373136.362,51.270,35.156,20.508,41.016,55.176
1532373136.366,41.016,33.691,17.578,36.133,60.059
1532373136.370,52.246,35.156,12.695,41.016,30.762
1532373136.374,47.852,34.668,15.625,42.969,33.691
1532373136.378,41.992,34.180,20.020,42.969,54.199
1532373136.381,48.828,35.156,23.438,42.480,37.598
1532373136.385,50.781,34.668,22.461,40.527,10.254
1532373136.389,47.363,33.691,20.996,37.598,-2.441
1532373136.393,41.992,32.227,20.020,38.086,22.949
1532373136.397,42.969,32.715,15.137,45.410,41.992
1532373136.401,47.852,31.250,14.160,40.527,26.855
1532373136.405,50.293,30.762,17.578,32.227,5.371
1532373136.409,47.363,31.738,16.113,38.574,12.695
1532373136.413,43.945,25.879,17.090,42.480,62.500
1532373136.417,41.016,24.414,22.949,41.504,41.992
1532373136.421,37.598,22.949,19.531,41.504,7.324
1532373136.424,32.227,20.508,17.090,41.504,40.039
1532373136.428,32.715,24.902,20.996,40.527,48.340
1532373136.432,37.109,23.438,21.973,41.992,26.855
1532373136.436,38.086,23.438,20.020,42.969,-10.254
1532373136.440,39.062,26.367,20.508,43.457,-34.668
1532373136.444,40.527,24.414,19.531,41.992,28.809
1532373136.448,39.062,23.926,13.184,36.621,50.781
1532373136.452,41.504,27.832,13.672,34.668,1.465
1532373136.456,42.969,30.273,17.578,40.039,-2.441
1532373136.460,44.922,30.762,15.625,47.852,20.996
1532373136.464,46.387,31.738,14.648,50.293,56.641
1532373136.467,39.551,28.809,16.602,46.875,57.129
1532373136.471,31.250,23.926,16.602,38.086,29.785
1532373136.475,34.180,24.414,15.625,36.621,35.156
1532373136.479,35.156,29.297,16.602,42.480,73.730
1532373136.483,35.645,30.762,18.066,41.016,54.688
1532373136.487,34.180,30.762,15.625,38.574,0.977
1532373136.491,31.738,30.273,20.020,38.086,7.324
1532373136.495,27.344,28.809,19.531,36.133,24.902
1532373136.499,25.391,27.832,17.090,38.086,52.734
1532373136.503,27.344,25.879,16.602,34.180,47.852
1532373136.506,25.391,25.879,16.113,35.156,18.555
1532373136.510,21.484,24.902,17.578,32.715,50.293
1532373136.514,16.602,22.949,14.648,28.320,62.988
1532373136.518,18.066,23.926,14.160,35.645,36.621
1532373136.522,17.578,23.438,13.672,31.738,12.695
1532373136.526,18.066,23.926,13.184,27.832,16.602
1532373136.530,24.414,26.855,13.672,31.738,44.922
1532373136.534,27.344,24.902,18.066,29.785,39.551
1532373136.538,29.785,25.391,19.531,29.297,23.438
1532373136.542,30.273,25.391,20.996,34.668,28.809
1532373136.546,28.809,23.438,23.438,36.133,51.758
1532373136.549,27.832,22.461,20.508,27.344,33.203
1532373136.553,24.902,23.438,16.113,20.508,-14.160
1532373136.557,17.578,22.949,11.230,20.996,14.160
1532373136.561,21.484,23.926,11.230,28.320,46.387
1532373136.565,31.250,27.344,15.137,39.551,56.641
1532373136.569,28.809,24.414,10.254,35.645,11.230
1532373136.573,21.484,21.973,1.465,26.855,7.324
1532373136.577,28.809,23.438,5.859,29.785,55.176
1532373136.581,34.180,22.949,10.742,32.715,58.105
1532373136.585,38.086,23.926,10.254,35.645,53.223
1532373136.589,37.598,25.879,13.184,35.645,20.996
1532373136.592,34.180,27.344,12.695,36.133,-6.348
1532373136.596,41.504,27.344,10.254,38.086,43.457
1532373136.600,35.156,24.902,9.766,30.762,68.848
1532373136.604,18.066,24.414,6.836,28.320,44.922
1532373136.608,20.508,27.832,2.930,31.250,55.664
1532373136.612,22.461,25.879,4.883,28.809,74.707
1532373136.616,23.926,20.020,9.277,29.785,75.684
1532373136.620,25.879,20.508,11.719,29.785,40.039
1532373136.624,28.320,20.508,11.230,25.879,18.066
1532373136.628,26.367,19.531,7.812,27.832,28.809
1532373136.631,21.973,22.461,4.883,24.414,19.043
1532373136.635,27.832,21.973,8.789,28.320,-0.977
1532373136.639,39.062,21.973,12.207,38.574,19.043
1532373136.643,41.504,22.949,15.137,42.480,50.781
1532373136.647,44.922,20.508,16.602,44.922,42.480
1532373136.651,48.828,20.020,16.113,44.434,22.949
1532373136.655,34.180,19.043,15.625,42.480,24.902
1532373136.659,30.762,22.461,18.066,47.852,30.273
1532373136.663,34.668,22.949,16.113,53.223,47.852
1532373136.667,32.715,21.484,9.277,44.922,37.109
1532373136.671,35.645,23.438,13.184,41.992,3.418
1532373136.674,42.480,24.414,14.160,49.805,-16.113
1532373136.678,42.969,24.414,11.230,53.223,25.391
1532373136.682,42.969,25.391,14.160,55.664,59.082
1532373136.686,47.852,27.832,14.160,48.828,14.648
1532373136.690,47.852,28.320,14.160,41.504,-16.113
1532373136.694,39.062,28.809,15.625,40.527,-12.207
1532373136.698,34.180,27.344,11.719,32.715,21.973
1532373136.702,32.227,25.391,12.207,30.273,21.484
1532373136.706,37.109,29.297,15.625,36.133,21.973
1532373136.710,37.598,31.250,13.184,35.156,31.738
1532373136.714,34.180,31.738,15.625,37.109,28.320
1532373136.717,39.062,31.250,14.648,42.480,41.504
1532373136.721,42.969,26.367,13.184,45.410,37.109
1532373136.725,39.551,24.902,18.555,49.316,54.199
1532373136.729,37.598,28.809,16.602,49.805,59.570
1532373136.733,38.086,30.273,16.602,46.387,20.996
1532373136.737,38.086,27.832,17.090,46.875,21.973
1532373136.741,35.645,24.902,17.090,42.969,14.648
1532373136.745,27.832,25.879,19.043,38.574,27.344
1532373136.749,30.273,28.320,20.508,43.457,48.340
1532373136.753,36.133,28.320,23.438,47.852,19.043
1532373136.756,37.109,26.855,20.996,48.828,-2.441
1532373136.760,35.645,29.785,18.555,48.340,30.762
1532373136.764,39.062,31.250,19.531,48.828,62.988
1532373136.768,44.922,33.203,20.996,48.340,26.855
1532373136.772,40.527,35.156,24.414,46.387,-0.977
1532373136.776,34.180,30.762,20.996,47.363,31.250
1532373136.780,33.691,30.762,15.137,43.457,56.152
1532373136.784,30.273,31.250,16.113,39.551,34.668
1532373136.788,26.367,26.855,17.090,30.273,25.391
1532373136.792,21.973,28.320,17.578,25.879,43.945
1532373136.796,30.273,29.785,22.461,39.551,38.574
1532373136.799,37.109,28.809,25.879,41.992,28.809
1532373136.803,34.180,27.344,22.949,35.156,30.762
1532373136.807,34.180,24.902,21.484,40.039,29.297
1532373136.811,31.738,24.902,24.414,39.551,43.457
1532373136.815,30.762,26.855,21.973,32.715,27.832
1532373136.819,32.715,28.809,18.555,35.645,-16.602
1532373136.823,34.180,28.809,21.484,43.945,14.648
1532373136.827,37.598,28.809,20.508,48.340,45.410
1532373136.831,44.434,30.762,21.484,52.734,50.781
1532373136.835,46.875,33.203,23.438,52.734,32.715
1532373136.838,50.293,31.250,22.949,50.293,8.789
1532373136.842,45.898,28.809,23.926,48.340,39.062
1532373136.846,38.086,32.227,22.949,43.945,51.270
1532373136.850,41.504,32.715,24.414,39.551,9.277
1532373136.854,44.434,29.297,28.809,42.480,0.977
1532373136.858,45.898,29.297,30.273,48.828,37.598
1532373136.862,44.922,27.344,30.273,51.270,28.809
1532373136.866,40.039,27.344,26.855,40.039,14.648
1532373136.870,40.527,31.250,28.320,24.902,-18.066
1532373136.874,47.363,34.668,32.227,29.785,-18.066
1532373136.878,48.828,37.598,25.879,32.715,57.617
1532373136.881,41.504,35.156,21.484,24.902,74.707
1532373136.885,33.691,33.203,24.414,23.438,36.133
1532373136.889,31.738,34.180,25.391,31.250,35.156
1532373136.893,24.902,31.738,27.344,35.645,46.387
1532373136.897,21.973,31.738,26.367,32.715,53.711
1532373136.901,16.602,30.762,23.438,31.738,10.742
1532373136.905,9.277,28.320,24.902,28.809,-1.953
1532373136.909,18.066,28.320,32.227,31.738,21.973
1532373136.913,21.484,31.738,38.086,34.668,52.246
1532373136.917,17.090,30.273,30.762,30.273,65.430
1532373136.921,20.020,26.367,29.785,28.320,32.715
1532373136.924,16.602,27.344,34.668,32.227,30.273
1532373136.928,17.090,29.297,33.203,34.668,24.414
1532373136.932,28.809,33.203,32.227,38.086,15.625
1532373136.936,35.645,34.180,32.227,41.016,17.578
1532373136.940,32.227,35.156,31.738,39.551,16.113
1532373136.944,36.621,35.156,29.785,44.434,29.297
1532373136.948,46.387,31.250,30.762,49.805,51.758
1532373136.952,46.875,33.691,28.809,50.781,32.715
1532373136.956,38.086,35.156,27.344,50.293,1.465
1532373136.960,28.809,33.203,28.809,44.922,32.227
1532373136.963,27.344,35.156,26.855,45.410,68.848
1532373136.967,29.785,32.715,24.414,45.410,32.227
1532373136.971,31.250,27.832,27.344,44.434,-24.414
1532373136.975,34.668,28.320,33.203,50.781,5.859
1532373136.979,32.715,25.391,37.109,54.688,62.988
1532373136.983,26.367,20.996,35.156,49.316,54.199
1532373136.987,27.344,23.926,30.762,45.898,24.414
1532373136.991,28.320,27.832,34.668,50.781,0.000
1532373136.995,31.250,25.391,37.109,50.781,38.574
1532373136.999,34.180,24.414,29.297,52.246,52.734
1532373137.003,29.785,25.879,31.738,52.246,23.438
1532373137.006,26.367,27.344,38.086,48.340,29.785
1532373137.010,23.926,27.832,34.180,44.434,26.367
1532373137.014,23.926,29.785,30.273,41.992,33.203
1532373137.018,29.297,31.250,27.344,47.363,53.223
1532373137.022,35.645,31.738,26.855,55.176,28.320
1532373137.026,34.180,31.738,26.367,55.176,15.137
1532373137.030,33.691,33.203,25.391,50.293,45.898
1532373137.034,36.621,32.715,21.973,44.922,64.453
1532373137.038,38.574,31.738,19.043,41.992,46.387
1532373137.042,41.992,33.203,19.531,39.551,46.875
1532373137.046,41.016,33.203,20.020,37.598,72.266
1532373137.049,37.109,33.203,20.508,36.621,65.430
1532373137.053,44.922,33.203,21.484,37.598,44.434
1532373137.057,48.340,35.156,22.461,43.945,38.574
1532373137.061,47.363,36.621,25.391,44.922,34.668
1532373137.065,51.270,33.691,23.926,39.551,43.457
1532373137.069,50.781,33.203,17.578,39.062,29.785
1532373137.073,46.875,32.715,13.184,41.992,-4.395
1532373137.077,40.527,27.344,14.648,42.969,34.180
1532373137.081,39.551,24.902,18.066,43.945,73.730
1532373137.085,37.109,25.391,16.113,38.086,41.504
1532373137.088,34.668,25.879,15.625,36.133,-1.465
1532373137.092,48.340,27.832,19.531,47.363,21.973
1532373137.096,50.293,29.297,17.090,53.711,48.828
1532373137.100,40.039,28.320,15.625,54.199,47.852
1532373137.104,35.156,28.320,19.531,48.828,38.574
1532373137.108,29.297,28.320,17.578,48.340,28.809
1532373137.112,30.273,27.832,14.648,43.457,42.480
1532373137.116,29.297,28.320,16.602,39.551,64.453
1532373137.120,27.832,25.879,17.090,41.504,39.551
1532373137.124,27.832,23.926,20.020,43.457,7.324
1532373137.128,21.484,24.902,22.461,43.457,33.203
1532373137.131,17.578,25.879,21.484,40.527,59.082
1532373137.135,18.066,25.391,20.020,37.109,58.105
1532373137.139,16.113,25.391,18.555,34.668,50.781
1532373137.143,13.672,26.367,16.602,28.809,46.875
1532373137.147,16.113,25.879,18.066,22.461,73.730
1532373137.151,15.625,24.902,23.926,17.090,38.574
1532373137.155,19.043,21.973,25.391,20.020,-18.555
1532373137.159,32.715,22.949,20.996,25.879,24.414
1532373137.163,40.527,38.574,11.230,18.555,84.473
1532373137.167,40.527,47.852,3.418,12.695,67.383
1532373137.170,29.785,43.945,8.789,13.672,-0.977
1532373137.174,24.902,41.504,13.672,17.578,9.766
1532373137.178,29.297,40.039,13.672,23.438,64.453
1532373137.182,25.391,36.621,16.113,23.926,60.059
1532373137.186,18.066,34.180,20.996,20.020,-0.488
1532373137.190,15.625,35.645,19.043,19.531,-20.996
1532373137.194,16.602,35.645,18.555,26.855,39.551
1532373137.198,15.137,36.133,24.902,26.367,54.688
1532373137.202,8.789,38.086,21.484,15.137,37.598
1532373137.206,3.906,38.086,17.578,15.137,8.301
1532373137.210,0.488,36.621,20.508,15.137,-13.672
1532373137.213,0.000,36.133,25.391,15.625,13.184
1532373137.217,-5.859,36.621,27.832,19.043,47.363
1532373137.221,-9.277,36.133,30.273,21.484,23.926
1532373137.225,-8.789,36.133,30.273,20.020,20.996
1532373137.229,-6.836,37.598,26.855,19.043,48.828
1532373137.233,-10.742,35.645,29.785,19.043,33.203
1532373137.237,-15.625,33.691,32.715,14.160,0.000
1532373137.241,-5.371,35.156,35.156,16.113,0.977
1532373137.245,3.906,36.621,33.203,14.160,31.250
1532373137.249,0.977,38.574,31.738,5.371,29.785
1532373137.253,-2.441,38.086,34.668,-3.418,-2.930
1532373137.256,-6.836,34.668,32.715,-2.441,18.066
1532373137.260,-4.395,31.250,33.691,11.719,44.434
1532373137.264,5.859,29.785,41.992,22.461,35.156
1532373137.268,7.812,29.785,41.504,22.949,10.742
1532373137.272,5.859,32.715,34.668,20.508,-20.508
1532373137.276,11.230,34.180,37.109,18.066,8.301
1532373137.280,11.230,32.715,36.133,14.160,66.406
1532373137.284,8.301,34.180,29.297,8.301,41.504
1532373137.288,16.602,39.551,27.832,4.883,-22.461
1532373137.292,19.043,41.504,31.250,7.324,-21.484
1532373137.295,17.578,37.598,31.250,15.137,28.809
1532373137.299,23.438,37.109,24.902,17.090,59.570
1532373137.303,25.879,41.992,23.926,20.996,32.715
1532373137.307,24.414,40.039,29.785,25.391,-6.836
1532373137.311,21.484,33.691,32.227,26.367,6.836
1532373137.315,23.926,33.203,35.156,32.227,47.852
1532373137.319,27.832,32.715,36.133,37.109,58.105
1532373137.323,24.414,29.785,31.250,37.598,50.293
1532373137.327,16.602,29.297,29.785,32.715,35.645
1532373137.331,6.348,28.320,32.715,22.949,11.230
1532373137.335,-0.977,25.879,36.621,22.949,11.719
1532373137.338,-1.953,21.973,40.039,29.785,30.762
1532373137.342,1.953,19.531,34.668,33.203,19.043
1532373137.346,5.859,20.020,30.762,34.668,29.785
1532373137.350,3.418,20.020,34.180,27.832,34.668
1532373137.354,4.883,20.508,34.180,33.203,28.809
1532373137.358,9.766,23.926,33.203,42.969,38.574
1532373137.362,6.836,23.926,33.691,38.574,45.410
1532373137.366,8.301,23.438,32.227,35.645,49.805
1532373137.370,14.648,21.973,32.227,40.527,16.113
1532373137.374,8.789,21.973,31.250,43.457,4.395
1532373137.378,16.113,22.949,33.691,44.434,34.180
1532373137.381,27.344,24.414,35.645,50.293,21.973
1532373137.385,32.227,23.926,35.156,58.105,-5.859
1532373137.389,35.156,27.344,35.156,59.570,0.977
1532373137.393,34.180,32.715,33.691,49.316,6.348
1532373137.397,36.133,29.297,30.762,42.480,62.500
1532373137.401,37.109,26.367,31.250,47.363,55.664
1532373137.405,33.691,27.832,32.227,51.270,2.930
1532373137.409,33.691,31.250,33.203,49.316,4.395
1532373137.413,31.738,34.668,33.691,48.340,33.203
1532373137.417,25.391,30.273,30.762,43.945,59.082
1532373137.420,23.926,26.855,24.414,39.551,42.480
1532373137.424,22.949,25.391,26.855,42.480,16.602
1532373137.428,21.484,25.879,36.133,44.434,26.855
1532373137.432,20.996,27.832,35.156,41.016,55.176
1532373137.436,20.020,25.879,32.227,41.992,33.203
1532373137.440,20.508,28.320,33.203,45.898,10.254
1532373137.444,20.996,31.250,31.738,41.016,41.016
1532373137.448,19.043,30.273,26.367,34.668,53.711
1532373137.452,24.902,30.762,27.344,34.180,12.695
1532373137.456,32.227,27.832,29.297,38.574,11.230
1532373137.460,29.297,27.832,29.785,40.527,40.527
1532373137.463,24.902,28.320,30.273,39.551,64.453
1532373137.467,26.367,25.391,30.273,42.969,57.129
1532373137.471,22.461,25.391,32.715,43.457,19.531
1532373137.475,20.020,25.879,35.156,41.016,12.207
1532373137.479,18.066,24.414,33.691,33.691,34.668
1532373137.483,18.066,22.461,30.762,30.273,54.688
1532373137.487,21.973,25.391,30.273,39.551,33.203
1532373137.491,25.391,26.855,31.250,40.527,-10.742
1532373137.495,29.297,24.414,33.203,37.109,22.949
1532373137.499,31.738,25.391,30.273,38.086,66.406
1532373137.503,34.180,25.391,23.926,36.621,15.137
1532373137.506,33.691,23.438,26.855,32.715,-11.230
1532373137.510,33.203,25.391,30.762,29.297,18.555
1532373137.514,32.715,30.273,25.879,23.926,67.871
1532373137.518,38.574,30.273,26.367,24.902,41.016
1532373137.522,40.527,30.762,27.832,26.855,1.953
1532373137.526,36.133,33.691,26.367,25.879,21.484
1532373137.530,47.363,35.156,26.855,31.738,21.973
1532373137.534,46.387,33.203,25.879,29.785,8.789
1532373137.538,37.598,32.227,27.832,29.785,20.508
1532373137.542,43.945,35.156,26.367,34.668,-2.441
1532373137.545,52.246,37.598,24.414,33.203,33.691
1532373137.549,53.223,37.598,26.855,23.926,50.781
1532373137.553,53.223,37.109,27.832,22.949,20.020
1532373137.557,55.176,38.086,25.391,29.785,33.203
1532373137.561,46.875,37.109,22.461,32.715,29.785
1532373137.565,38.574,34.180,25.879,45.410,20.996
1532373137.569,40.039,34.180,26.855,50.293,-18.066
1532373137.573,33.203,35.156,23.926,43.945,-18.066
1532373137.577,19.531,31.250,24.902,47.363,28.809
1532373137.581,15.625,25.879,27.832,50.781,58.105
1532373137.585,13.184,24.902,27.832,51.758,49.316
1532373137.588,13.184,25.879,26.855,47.852,2.930
1532373137.592,11.719,25.391,27.832,43.457,19.531
1532373137.596,11.230,23.926,25.879,43.945,70.312
1532373137.600,12.695,27.832,24.414,43.945,72.754
1532373137.604,20.020,31.250,32.715,50.293,57.129
1532373137.608,30.762,27.832,37.598,58.105,32.227
1532373137.612,36.133,30.762,33.691,58.105,31.250
1532373137.616,28.809,33.691,32.227,51.270,41.992
1532373137.620,24.414,32.227,35.645,46.875,11.230
1532373137.624,22.949,32.715,33.203,46.875,7.812
1532373137.627,22.461,31.738,31.250,41.992,39.062
1532373137.631,20.996,33.203,32.227,29.297,9.277
1532373137.635,26.855,33.691,34.668,23.438,3.906
1532373137.639,29.297,28.320,36.621,27.344,0.000
1532373137.643,21.484,26.855,35.645,25.391,-0.977
1532373137.647,22.949,27.344,36.133,25.879,28.320
1532373137.651,24.414,24.902,37.109,28.320,18.066
1532373137.655,25.391,21.973,38.574,31.250,1.465
1532373137.659,34.668,25.879,39.062,40.527,-2.441
1532373137.663,40.039,30.273,35.156,43.457,48.828
1532373137.667,34.180,31.738,31.738,41.992,38.574
1532373137.670,24.414,33.691,37.598,36.621,-21.973
1532373137.674,24.902,30.273,37.109,36.133,-1.465
1532373137.678,32.227,28.320,33.691,44.922,40.039
1532373137.682,29.297,31.250,37.598,44.922,46.875
1532373137.686,25.879,34.180,34.180,43.457,26.855
1532373137.690,28.320,33.203,31.738,49.316,2.930
1532373137.694,25.391,31.738,31.738,51.270,37.598
1532373137.698,19.043,34.180,31.738,51.758,58.105
1532373137.702,20.508,33.691,34.668,52.246,37.109
1532373137.706,22.949,30.762,37.109,52.246,23.438
1532373137.710,25.391,32.227,37.109,55.176,9.277
1532373137.713,23.438,33.203,33.203,46.387,48.828
1532373137.717,20.996,32.715,32.715,40.527,75.684
1532373137.721,17.090,31.738,29.297,36.133,39.062
1532373137.725,14.648,31.250,26.367,28.320,22.949
1532373137.729,16.113,32.715,28.320,25.879,27.344
1532373137.733,16.113,34.180,29.297,24.902,62.012
1532373137.737,16.602,33.203,30.762,22.461,33.203
1532373137.741,19.531,34.668,27.832,20.996,-4.395
1532373137.745,26.855,35.645,25.879,25.879,27.832
1532373137.749,29.297,31.250,30.273,25.391,53.223
1532373137.752,24.414,29.297,31.250,23.926,38.574
1532373137.756,29.785,30.273,30.273,25.391,18.555
1532373137.760,32.715,26.855,34.180,31.250,10.254
1532373137.764,31.738,24.902,34.180,41.016,48.340
1532373137.768,35.156,26.855,29.785,38.574,0.488
1532373137.772,37.598,25.879,29.785,34.668,-63.477
1532373137.776,38.574,26.855,30.762,38.086,-0.488
1532373137.780,34.180,25.879,29.785,37.109,47.363
1532373137.784,23.438,21.973,27.344,27.344,43.945
1532373137.788,20.996,22.461,27.344,31.250,11.230
1532373137.792,26.855,22.461,30.762,36.621,33.203
1532373137.795,27.832,21.973,30.762,37.109,44.922
1532373137.799,25.879,20.020,30.762,44.434,1.953
1532373137.803,23.438,18.555,31.250,42.480,10.742
1532373137.807,13.184,19.043,30.273,37.598,20.996
1532373137.811,6.836,20.020,31.250,41.504,39.551
1532373137.815,8.301,18.555,32.227,48.340,73.730
1532373137.819,5.859,18.066,32.227,56.641,51.270
1532373137.823,4.883,18.066,33.203,60.059,10.742
1532373137.827,11.719,18.066,34.180,58.594,20.996
1532373137.831,12.207,15.137,34.180,51.758,31.738
1532373137.835,11.719,13.672,37.109,46.875,10.254
1532373137.838,21.484,18.555,35.645,46.875,5.371
1532373137.842,23.926,20.508,31.738,49.805,-4.883
1532373137.846,25.879,20.996,34.180,52.246,17.578
1532373137.850,31.250,21.973,34.668,52.246,22.949
1532373137.854,36.133,22.949,29.785,50.293,-11.230
1532373137.858,34.180,26.367,25.391,42.480,-0.488
1532373137.862,38.086,28.809,22.949,38.086,37.109
1532373137.866,41.504,29.297,20.508,36.133,36.621
1532373137.870,35.645,26.367,22.461,27.832,21.973
1532373137.874,25.391,24.902,23.926,24.414,22.461
1532373137.877,18.555,27.344,21.973,24.414,43.457
1532373137.881,18.066,26.855,21.484,20.508,88.379
1532373137.885,17.578,27.344,20.508,17.090,62.500
1532373137.889,18.555,26.855,19.531,21.484,28.320
1532373137.893,29.297,28.320,23.438,29.785,45.410
1532373137.897,27.832,27.344,22.461,25.391,41.016
1532373137.901,20.508,26.367,22.461,22.949,23.438
1532373137.905,23.926,28.320,23.926,28.809,3.906
1532373137.909,17.090,26.855,19.043,24.902,2.930
1532373137.913,12.207,26.855,21.973,16.602,27.344
1532373137.917,14.648,28.809,25.391,16.602,37.598
1532373137.920,18.066,27.344,26.367,20.020,23.926
1532373137.924,23.926,28.809,25.391,25.391,27.344
1532373137.928,25.391,35.645,22.461,30.762,33.203
1532373137.932,20.020,35.645,24.902,32.715,46.387
1532373137.936,20.020,32.715,25.879,34.668,29.297
1532373137.940,18.066,32.715,26.855,33.691,-15.625
1532373137.944,14.160,34.180,25.391,32.715,17.578
1532373137.948,11.230,34.668,23.926,34.668,60.059
1532373137.952,7.812,32.227,24.902,33.691,15.137
1532373137.956,7.324,28.809,28.320,39.062,-16.602
1532373137.959,11.719,30.762,30.762,49.805,32.715
1532373137.963,18.066,31.738,28.320,53.711,54.199
1532373137.967,19.531,25.879,29.297,52.246,5.371
1532373137.971,17.090,23.926,28.809,49.805,0.977
1532373137.975,22.461,29.785,26.855,52.734,20.508
1532373137.979,25.879,28.809,24.414,48.340,37.598
1532373137.983,20.508,26.367,21.484,38.086,33.691
1532373137.987,22.949,29.785,25.391,41.016,19.043
1532373137.991,28.809,30.762,27.344,40.039,6.348
1532373137.995,28.809,29.785,25.391,33.203,33.691
1532373137.999,32.715,31.250,23.438,37.109,64.941
1532373138.002,37.598,32.227,24.902,39.551,27.344
1532373138.006,40.039,31.250,29.297,34.668,-10.254
1532373138.010,41.016,32.227,26.855,32.227,29.297
1532373138.014,36.621,32.227,23.438,30.273,75.195
1532373138.018,26.855,32.715,18.555,19.043,49.316
1532373138.022,15.137,32.715,17.578,12.207,31.250
1532373138.026,20.508,34.180,21.484,20.996,49.316
1532373138.030,34.668,36.133,22.949,26.367,54.688
1532373138.034,30.273,34.180,21.973,25.391,27.832
1532373138.038,27.344,33.691,23.438,27.344,0.977
1532373138.042,30.273,34.668,28.320,31.250,1.953
1532373138.045,27.344,34.180,29.297,28.809,37.598
1532373138.049,21.973,33.691,30.273,24.414,46.875
1532373138.053,22.949,35.156,31.738,24.902,-20.508
1532373138.057,24.414,36.621,32.227,33.691,-6.836
1532373138.061,22.949,33.203,34.180,44.434,55.664
1532373138.065,17.578,31.738,31.250,44.434,64.941
1532373138.069,13.184,33.691,27.344,39.062,34.668
1532373138.073,16.113,31.250,29.297,38.574,12.207
1532373138.077,19.531,28.320,31.250,44.434,47.852
1532373138.081,22.461,27.344,33.691,49.805,53.711
1532373138.084,24.414,27.832,28.320,45.898,22.949
1532373138.088,26.367,28.320,28.320,41.992,6.348
1532373138.092,27.344,25.879,33.203,43.457,-5.371
1532373138.096,25.879,25.391,28.809,43.945,55.664
1532373138.100,25.391,25.879,26.855,41.992,63.965
1532373138.104,20.508,23.926,27.344,35.156,35.156
1532373138.108,20.508,25.391,31.250,34.668,34.180
1532373138.112,25.391,25.391,33.203,40.527,32.227
1532373138.116,22.461,25.879,30.273,35.645,41.504
1532373138.120,17.578,26.367,28.320,23.926,32.227
1532373138.124,16.602,25.391,26.855,23.926,17.578
1532373138.127,14.648,26.855,24.414,24.902,38.086
1532373138.131,10.254,25.879,22.949,19.043,51.758
1532373138.135,15.625,24.902,24.902,26.855,38.574
1532373138.139,26.367,25.391,28.320,40.039,44.922
1532373138.143,32.715,26.367,26.367,39.551,45.898
1532373138.147,31.250,26.367,22.461,35.156,44.922
1532373138.151,27.344,24.902,22.461,26.855,18.555
1532373138.155,30.273,25.879,24.414,20.996,30.762
1532373138.159,32.227,29.785,24.902,26.855,47.363
1532373138.163,28.320,30.762,24.414,34.668,60.059
1532373138.167,31.738,31.250,23.438,34.668,46.875
1532373138.170,31.738,30.762,23.438,30.273,8.789
1532373138.174,33.203,30.762,25.879,33.203,9.766
1532373138.178,35.645,32.227,26.367,35.156,32.227
1532373138.182,30.762,33.203,22.949,34.180,71.289
1532373138.186,28.320,32.715,27.832,34.668,38.086
1532373138.190,26.855,30.273,32.715,33.203,-1.953
1532373138.194,24.414,28.320,30.762,33.203,34.668
1532373138.198,28.320,29.297,27.832,38.086,72.266
1532373138.202,31.250,27.344,26.855,38.574,46.875
1532373138.206,35.156,28.809,27.344,40.527,30.762
1532373138.209,41.504,30.273,27.832,47.363,26.855
1532373138.213,41.504,27.344,26.855,43.945,55.176
1532373138.217,39.551,26.855,24.902,41.992,49.805
1532373138.221,44.434,26.855,24.902,48.340,12.207
1532373138.225,47.852,27.344,28.809,51.270,40.527
1532373138.229,48.828,28.809,32.227,44.922,45.898
1532373138.233,54.199,28.320,33.203,41.504,16.113
1532373138.237,53.711,27.344,28.809,37.598,20.996
1532373138.241,50.781,29.785,28.320,31.738,26.367
1532373138.245,59.570,32.715,31.250,39.062,39.062
1532373138.249,64.453,32.715,30.273,45.410,52.246
1532373138.252,60.547,31.738,27.832,46.387,37.598
1532373138.256,50.781,32.715,29.785,47.363,23.926
1532373138.260,41.504,34.180,29.297,47.852,13.184
1532373138.264,35.645,31.250,29.297,37.598,53.711
1532373138.268,36.133,30.273,29.785,30.273,58.105
1532373138.272,27.344,32.715,23.438,31.250,-28.320
1532373138.276,12.695,29.785,23.926,33.691,-28.320
1532373138.280,14.160,28.320,25.879,39.551,45.410
1532373138.284,20.020,30.762,23.438,39.551,58.594
1532373138.288,27.344,30.273,24.414,41.992,44.434
1532373138.292,34.180,32.715,24.414,42.480,30.273
1532373138.295,36.621,31.738,21.484,47.852,64.453
1532373138.299,33.691,30.762,20.996,53.223,59.570
1532373138.303,28.320,31.738,20.508,44.434,17.090
1532373138.307,28.809,31.250,20.508,37.109,30.273
1532373138.311,27.832,31.738,18.555,33.691,64.941
1532373138.315,26.367,31.250,18.066,38.574,66.406
1532373138.319,29.785,28.809,18.555,41.016,31.250
1532373138.323,28.320,27.344,19.531,38.574,29.785
1532373138.327,27.344,28.809,21.484,40.039,45.898
1532373138.331,29.297,33.203,23.438,32.715,49.316
1532373138.334,30.273,33.691,21.484,32.715,41.016
1532373138.338,28.320,28.809,18.066,39.062,26.855
1532373138.342,23.438,28.809,19.043,40.039,37.109
1532373138.346,21.973,30.762,14.648,38.574,63.965
1532373138.350,18.555,30.762,11.719,29.785,19.043
1532373138.354,17.090,31.250,13.672,24.414,-13.184
1532373138.358,20.996,30.273,13.184,31.738,12.207
1532373138.362,29.297,33.691,9.277,38.086,29.297
1532373138.366,27.832,35.156,10.742,37.109,58.105
1532373138.370,27.344,34.180,10.742,35.156,8.789
1532373138.374,31.738,32.715,8.789,37.109,-23.438
1532373138.377,30.273,29.297,8.789,41.504,44.434
1532373138.381,31.738,28.809,8.301,38.086,73.730
1532373138.385,31.738,29.297,11.230,34.668,40.039
1532373138.389,32.227,29.297,12.207,35.156,-6.348
1532373138.393,24.902,29.297,9.277,33.691,12.695
1532373138.397,17.578,32.227,11.230,37.109,41.992
1532373138.401,19.531,32.715,14.160,36.133,23.438
1532373138.405,23.926,31.738,10.742,41.504,10.742
1532373138.409,25.391,31.738,6.836,48.340,-14.160
1532373138.413,22.461,26.367,8.301,43.457,-0.488
1532373138.416,20.508,22.461,11.719,41.016,29.785
1532373138.420,27.344,24.414,11.230,44.434,15.625
1532373138.424,33.691,25.879,10.254,45.898,30.273
1532373138.428,34.668,25.391,10.742,44.922,36.621
1532373138.432,37.598,24.902,12.207,46.387,5.859
1532373138.436,40.527,26.367,13.672,43.945,15.137
1532373138.440,38.574,23.438,11.719,41.016,3.418
1532373138.444,33.691,26.367,11.719,38.086,8.301
1532373138.448,38.574,32.715,11.230,35.156,15.625
1532373138.452,34.668,33.203,9.277,34.180,7.812
1532373138.456,27.344,32.715,10.742,29.297,12.207
1532373138.459,27.344,32.715,10.254,29.297,8.301
1532373138.463,17.090,31.250,7.812,24.902,47.852
1532373138.467,11.719,28.320,6.836,20.996,36.621
1532373138.471,14.648,28.320,8.789,22.949,-16.113
1532373138.475,15.137,24.414,11.719,28.320,-13.672
1532373138.479,14.160,22.949,13.672,36.133,40.527
1532373138.483,18.555,23.438,13.672,37.109,67.871
1532373138.487,19.043,22.949,11.719,35.156,24.414
1532373138.491,9.766,24.902,11.230,33.691,9.277
1532373138.495,10.254,26.367,14.648,38.574,40.527
1532373138.499,15.137,28.320,16.602,49.805,55.176
1532373138.502,19.531,27.344,15.625,49.805,45.898
1532373138.506,20.508,23.926,14.160,44.434,9.277
1532373138.510,21.484,25.879,12.695,41.016,16.602
1532373138.514,27.344,30.273,12.695,39.062,32.715
1532373138.518,31.250,28.320,10.254,32.227,25.391
1532373138.522,31.250,27.832,11.230,30.762,42.969
1532373138.526,34.668,27.832,13.184,35.156,49.805
1532373138.530,31.250,27.344,17.090,35.156,48.340
1532373138.534,28.809,27.344,19.043,30.762,57.617
1532373138.538,29.297,27.344,16.113,27.832,60.547
1532373138.541,30.273,26.855,14.648,27.344,40.039
1532373138.545,25.391,24.902,14.160,25.879,59.570
1532373138.549,23.438,26.367,16.602,30.273,55.664
1532373138.553,30.273,27.344,18.555,36.621,36.621
1532373138.557,34.668,27.344,20.508,41.992,52.246
1532373138.561,41.016,29.297,20.508,45.898,58.105
1532373138.565,41.504,30.762,16.113,48.828,59.570
1532373138.569,38.086,30.273,16.113,43.457,20.020
1532373138.573,37.109,32.227,18.066,35.156,0.488
1532373138.577,35.645,32.715,16.113,30.273,28.809
1532373138.581,28.809,30.762,16.602,26.367,48.340
1532373138.584,25.391,29.297,18.066,23.926,40.039
1532373138.588,24.902,29.297,18.555,19.043,12.207
1532373138.592,21.484,28.320,19.531,14.648,15.137
1532373138.596,17.578,24.902,20.996,13.184,29.297
1532373138.600,18.066,26.367,20.020,19.043,26.855
1532373138.604,21.484,27.344,18.066,21.484,11.719
1532373138.608,25.879,27.832,20.020,21.484,8.789
1532373138.612,32.227,30.273,21.484,26.367,40.039
1532373138.616,37.598,30.762,20.508,33.203,39.551
1532373138.620,39.062,30.273,17.090,26.855,13.672
1532373138.624,32.227,28.320,19.531,22.461,0.488
1532373138.627,33.203,24.414,23.926,26.367,17.090
1532373138.631,39.062,27.344,22.461,25.391,36.133
1532373138.635,39.551,29.297,20.996,29.297,30.273
1532373138.639,30.273,26.367,19.531,28.320,18.555
1532373138.643,21.484,24.414,16.113,26.855,30.273
1532373138.647,30.762,26.367,20.020,36.621,55.664
1532373138.651,36.621,27.344,27.832,44.434,20.996
1532373138.655,31.250,23.926,28.320,46.875,-3.906
1532373138.659,26.855,22.461,24.902,42.480,9.766
1532373138.663,25.879,23.926,23.926,33.691,42.969
1532373138.666,33.203,26.367,20.996,32.227,53.711
1532373138.670,37.598,27.344,22.461,38.086,7.812
1532373138.674,36.621,27.344,22.461,44.434,14.648
1532373138.678,39.062,30.762,19.531,41.504,51.270
1532373138.682,42.969,33.691,20.508,39.551,50.293
1532373138.686,48.828,34.180,20.508,43.457,20.508
1532373138.690,44.434,34.668,24.902,41.016,-37.598
1532373138.694,39.551,32.227,28.320,39.551,-33.203
1532373138.698,36.621,29.785,28.809,40.527,35.156
1532373138.702,29.297,29.785,28.320,33.203,19.531
1532373138.706,25.879,27.832,26.855,32.227,8.301
1532373138.709,21.484,24.414,23.926,33.203,24.902
1532373138.713,18.066,24.902,25.391,28.320,41.504
1532373138.717,15.625,23.926,27.832,26.855,44.922
1532373138.721,16.602,21.484,24.414,23.926,2.930
1532373138.725,19.043,24.414,23.926,27.344,5.371
1532373138.729,25.879,24.414,22.949,33.203,47.852
1532373138.733,26.855,21.484,22.949,34.180,54.688
1532373138.737,11.719,20.508,23.438,27.832,23.926
1532373138.741,12.207,20.020,25.879,27.832,12.207
1532373138.745,19.043,21.973,28.809,36.621,41.992
1532373138.749,18.555,23.438,26.855,35.645,31.738
1532373138.752,15.625,20.508,27.832,33.203,5.859
1532373138.756,16.113,20.996,28.320,35.645,24.414
1532373138.760,10.254,22.461,26.855,32.715,51.758
1532373138.764,5.859,18.555,25.879,31.250,90.820
1532373138.768,8.789,18.555,24.902,25.391,39.551
1532373138.772,11.230,20.020,26.367,22.461,-18.555
1532373138.776,16.113,23.438,27.832,34.668,28.809
1532373138.780,21.484,24.902,29.785,41.992,60.059
1532373138.784,20.996,24.414,28.809,39.062,38.086
1532373138.788,19.043,23.438,25.879,29.785,-4.883
1532373138.791,17.578,25.391,25.879,26.367,-0.977
1532373138.795,19.531,27.344,26.855,21.973,38.574
1532373138.799,20.996,28.809,26.367,17.090,49.805
1532373138.803,18.555,30.273,26.855,20.020,27.832
1532373138.807,17.578,28.809,27.344,21.973,24.414
1532373138.811,20.020,28.320,27.344,19.531,35.156
1532373138.815,22.949,31.738,29.297,21.973,37.598
1532373138.819,26.855,33.203,30.273,26.855,28.809
1532373138.823,25.391,30.273,28.320,22.461,11.230
1532373138.827,25.879,29.785,30.273,27.344,19.531
1532373138.831,28.320,31.738,29.297,31.250,29.785
1532373138.834,28.809,28.320,29.785,28.809,-7.812
1532373138.838,28.320,23.438,33.203,26.855,-13.184
1532373138.842,20.020,24.902,30.762,20.020,22.461
1532373138.846,20.996,28.809,29.297,22.949,52.734
1532373138.850,30.273,25.879,30.762,33.203,16.602
1532373138.854,32.715,23.438,30.273,38.574,-9.766
1532373138.858,29.297,25.391,33.203,42.480,27.344
1532373138.862,28.809,26.367,37.109,44.922,44.434
1532373138.866,36.133,25.879,34.668,47.363,62.012
1532373138.870,30.762,28.320,31.250,41.504,14.648
1532373138.873,23.438,31.738,30.273,38.086,10.742
1532373138.877,30.762,30.762,33.203,46.875,51.270
1532373138.881,33.691,30.762,36.133,49.316,75.684
1532373138.885,29.785,28.809,37.109,46.387,60.059
1532373138.889,25.879,28.320,36.621,44.922,14.648
1532373138.893,28.809,31.738,40.039,38.574,20.020
1532373138.897,29.785,31.250,41.016,35.156,71.777
1532373138.901,18.555,27.344,36.621,32.227,74.219
1532373138.905,18.555,28.320,35.645,27.832,3.906
1532373138.909,23.438,30.762,37.109,27.344,-13.672
1532373138.913,20.996,29.785,35.156,26.367,35.645
1532373138.916,24.902,26.855,36.133,24.414,64.453
1532373138.920,33.203,26.367,36.133,27.344,34.668
1532373138.924,38.086,28.809,34.668,28.809,9.277
1532373138.928,46.875,30.762,33.691,25.391,13.184
1532373138.932,54.199,31.738,32.227,27.832,59.082
1532373138.936,48.828,30.273,32.227,32.715,53.711
1532373138.940,46.387,26.855,31.250,38.086,25.879
1532373138.944,47.852,28.320,30.762,46.387,54.199
1532373138.948,38.086,29.785,34.180,50.293,62.988
1532373138.952,31.738,27.344,33.691,51.758,-1.465
1532373138.956,30.273,25.879,36.621,59.570,-6.348
1532373138.959,24.902,26.367,36.621,61.035,15.625
1532373138.963,20.996,27.832,31.250,53.223,27.832
1532373138.967,17.090,25.391,31.738,50.293,28.320
1532373138.971,16.602,22.949,34.180,50.781,18.066
1532373138.975,19.043,23.926,34.668,46.875,24.902
1532373138.979,27.832,24.902,31.738,45.410,28.320
1532373138.983,34.180,24.414,32.715,50.293,66.406
1532373138.987,24.902,26.855,32.715,50.293,38.086
1532373138.991,23.926,30.273,30.273,46.875,-0.977
1532373138.995,24.902,28.320,30.762,44.434,36.621
1532373138.998,24.902,26.855,33.691,42.480,67.871
1532373139.002,25.391,28.809,32.715,40.039,33.203
1532373139.006,28.809,28.809,32.227,43.945,14.160
1532373139.010,31.250,29.297,34.180,45.410,23.438
1532373139.014,20.020,31.738,31.738,34.180,66.895
1532373139.018,15.625,34.668,33.691,24.902,38.086
1532373139.022,18.555,36.133,36.133,26.855,-4.883
1532373139.026,16.602,35.645,36.133,32.715,33.203
1532373139.030,19.043,37.598,37.109,30.762,38.574
1532373139.034,18.066,37.109,35.156,24.414,23.438
1532373139.038,14.648,38.086,35.645,23.926,-7.812
1532373139.041,22.949,38.574,42.969,33.691,-8.789
1532373139.045,29.785,39.062,42.969,34.180,60.059
1532373139.049,32.227,44.922,32.715,25.391,52.246
1532373139.053,27.832,45.410,34.180,31.738,-17.090
1532373139.057,12.207,41.016,41.504,25.879,-5.859
1532373139.061,1.465,37.109,42.480,14.648,43.945
1532373139.065,8.789,35.645,44.922,27.344,71.289
1532373139.069,29.785,39.062,43.945,38.574,17.090
1532373139.073,33.691,43.945,39.062,35.156,-9.277
1532373139.077,17.578,44.434,36.133,32.227,42.969
1532373139.081,7.812,43.945,38.574,25.879,53.711
1532373139.084,0.977,38.574,43.945,17.578,37.598
1532373139.088,4.883,34.668,46.387,23.926,26.367
1532373139.092,0.000,34.180,46.875,29.297,38.086
1532373139.096,-10.254,30.273,49.316,21.973,48.828
1532373139.100,7.812,28.809,49.805,28.809,22.949
1532373139.104,21.484,31.738,48.828,36.621,-5.371
1532373139.108,14.160,32.715,48.340,28.809,1.465
1532373139.112,19.531,33.691,46.387,23.438,31.738
1532373139.116,29.297,37.109,38.574,27.832,63.965
1532373139.120,27.344,34.180,34.668,26.855,36.133
1532373139.123,17.090,30.273,41.992,28.320,25.391
1532373139.127,13.184,33.203,46.387,33.691,58.105
1532373139.131,19.043,32.715,43.945,31.250,55.176
1532373139.135,23.438,28.320,41.992,29.785,5.371
1532373139.139,31.738,27.832,39.062,36.133,10.742
1532373139.143,33.691,25.879,36.621,37.598,43.457
1532373139.147,18.555,22.949,40.039,28.809,41.992
1532373139.151,16.113,22.949,38.574,27.344,30.273
1532373139.155,27.832,24.414,35.645,39.551,20.996
1532373139.159,30.273,24.414,37.598,41.992,18.066
1532373139.163,31.250,23.926,38.086,34.180,37.598
1532373139.166,33.691,26.367,37.109,34.180,44.922
1532373139.170,37.109,24.902,42.969,38.086,6.836
1532373139.174,31.738,24.902,45.410,38.574,17.578
1532373139.178,30.762,26.367,40.527,42.480,56.641
1532373139.182,31.738,24.902,36.621,45.898,48.828
1532373139.186,25.879,25.879,34.668,43.457,19.043
1532373139.190,26.367,27.344,36.621,41.016,-25.879
1532373139.194,32.227,26.855,39.062,41.016,-8.789
1532373139.198,37.109,27.344,39.062,43.457,39.062
1532373139.202,31.738,26.367,40.039,41.504,21.484
1532373139.205,28.320,25.879,37.109,41.016,3.906
1532373139.209,32.227,28.809,32.715,41.992,2.441
1532373139.213,26.367,28.809,33.203,33.203,33.691
1532373139.217,23.926,26.367,31.738,26.367,42.480
1532373139.221,28.809,24.902,27.832,27.344,9.766
1532373139.225,25.391,25.391,26.855,26.367,25.391
1532373139.229,24.414,28.809,28.809,27.344,38.574
1532373139.233,29.785,28.320,30.273,32.715,46.875
1532373139.237,33.203,26.855,28.809,36.621,37.598
1532373139.241,34.180,28.320,28.320,39.062,49.805
1532373139.245,33.691,28.809,29.297,40.039,64.453
1532373139.248,36.133,26.367,33.203,39.062,53.223
1532373139.252,34.668,24.902,36.621,40.527,18.555
1532373139.256,35.645,25.391,36.133,40.039,-13.672
1532373139.260,37.109,27.344,38.574,39.551,18.066
1532373139.264,34.668,26.367,36.133,43.457,58.594
1532373139.268,30.762,23.926,30.273,36.621,20.996
1532373139.272,31.250,26.367,28.809,30.273,-8.789
1532373139.276,34.180,33.203,29.785,38.086,22.949
1532373139.280,35.645,32.227,33.203,45.410,73.730
1532373139.284,35.156,26.855,36.621,47.363,49.316
1532373139.288,34.180,25.879,39.062,43.457,-12.207
1532373139.291,32.227,26.367,39.551,40.527,0.977
1532373139.295,30.273,25.391,39.551,37.598,47.363
1532373139.299,33.203,27.344,43.457,38.086,39.551
1532373139.303,35.645,32.227,43.457,41.992,0.000
1532373139.307,34.668,30.762,43.457,49.805,6.348
1532373139.311,36.133,28.320,43.457,47.852,3.906
1532373139.315,33.203,30.273,37.598,35.645,21.484
1532373139.319,27.832,29.297,32.715,33.691,20.508
1532373139.323,31.738,28.809,33.691,35.645,8.789
1532373139.327,37.109,32.227,38.086,39.551,23.438
1532373139.330,42.969,31.738,41.016,39.062,26.855
1532373139.334,48.828,30.762,38.086,32.227,37.598
1532373139.338,44.434,32.715,37.109,25.391,23.438
1532373139.342,41.504,30.273,40.039,30.762,29.297
1532373139.346,43.945,26.855,39.062,36.621,48.340
1532373139.350,42.969,28.809,34.668,33.203,33.691
1532373139.354,36.621,29.297,30.762,29.785,-24.414
1532373139.358,26.855,26.855,29.785,27.344,3.418
1532373139.362,27.832,28.320,32.227,32.715,86.914
1532373139.366,37.598,27.832,32.715,44.922,67.383
1532373139.370,38.086,27.832,29.297,40.527,13.184
1532373139.373,40.527,28.320,27.832,43.945,4.883
1532373139.377,46.387,26.855,31.250,52.246,42.969
1532373139.381,48.340,29.297,34.668,51.758,80.566
1532373139.385,44.922,30.762,34.668,48.828,36.621
1532373139.389,36.133,28.809,33.691,43.945,2.930
1532373139.393,33.203,26.855,35.645,41.992,21.973
1532373139.397,35.645,29.297,35.156,43.945,45.898
1532373139.401,37.109,30.273,29.785,41.016,54.199
1532373139.405,36.133,28.320,32.227,35.156,41.504
1532373139.409,37.109,29.297,40.039,38.574,10.742
1532373139.413,42.480,31.738,39.551,43.457,18.555
1532373139.416,37.598,33.203,37.598,42.480,42.480
1532373139.420,36.621,35.156,41.016,45.898,21.484
1532373139.424,35.156,35.645,43.457,44.434,27.344
1532373139.428,29.297,37.109,41.992,41.016,70.801
1532373139.432,31.250,36.621,40.527,43.945,57.129
1532373139.436,35.645,35.645,41.016,44.922,26.367
1532373139.440,37.598,40.527,41.504,45.410,0.977
1532373139.444,34.180,41.504,39.062,47.363,20.996
1532373139.448,36.133,39.062,36.621,47.363,71.777
1532373139.452,40.527,39.551,38.574,42.480,35.645
1532373139.455,42.969,41.016,41.504,45.410,-1.465
1532373139.459,44.922,39.551,44.434,55.176,26.367
1532373139.463,42.480,38.574,47.363,57.617,76.172
1532373139.467,41.992,37.109,48.340,58.594,50.781
1532373139.471,42.969,38.574,47.363,59.082,-9.277
1532373139.475,48.340,40.039,45.410,61.523,5.859
1532373139.479,53.223,39.551,43.945,62.500,60.547
1532373139.483,49.316,36.621,41.016,60.059,62.500
1532373139.487,38.574,33.691,41.016,58.594,36.133
1532373139.491,37.598,34.180,42.969,57.129,31.738
1532373139.495,43.457,34.668,42.480,60.547,50.781
1532373139.498,44.922,35.645,43.945,61.523,75.195
1532373139.502,42.969,36.621,43.945,57.129,55.664
1532373139.506,45.898,37.598,44.434,60.547,51.758
1532373139.510,49.316,40.039,46.387,58.105,51.270
1532373139.514,45.898,41.504,44.434,49.316,61.523
1532373139.518,42.969,40.039,41.504,44.434,57.617
1532373139.522,41.992,38.574,41.992,41.992,1.465
1532373139.526,35.645,38.086,42.969,43.945,21.484
1532373139.530,37.598,36.621,44.922,43.457,61.523
1532373139.534,37.598,36.133,42.480,31.738,28.320
1532373139.538,31.738,35.645,44.922,34.668,8.301
1532373139.541,30.273,35.156,46.875,38.574,16.113
1532373139.545,33.203,37.109,43.945,31.738,60.059
1532373139.549,35.645,36.621,42.969,29.785,60.547
1532373139.553,26.367,35.156,41.016,23.926,4.883
1532373139.557,21.973,35.645,42.969,23.926,20.996
1532373139.561,30.762,36.621,45.898,31.738,58.105
1532373139.565,32.227,37.109,41.992,33.691,77.637
1532373139.569,32.715,36.621,39.062,28.320,52.734
1532373139.573,37.598,34.180,41.992,25.879,25.391
1532373139.577,41.992,36.133,41.016,24.902,64.941
1532373139.580,39.551,37.109,39.551,27.832,76.660
1532373139.584,40.527,36.621,38.574,33.691,74.219
1532373139.588,46.387,33.691,39.551,30.273,20.020
1532373139.592,42.969,32.715,38.574,20.996,-12.207
1532373139.596,40.527,37.109,37.598,25.879,43.945
1532373139.600,47.852,37.598,40.039,37.109,43.945
1532373139.604,50.293,34.668,39.062,31.738,15.137
1532373139.608,43.945,33.203,34.668,18.555,45.410
1532373139.612,41.016,35.156,36.621,19.043,82.031
1532373139.616,41.016,36.133,39.062,20.508,47.852
1532373139.620,41.016,34.180,37.598,12.695,-1.953
1532373139.623,40.527,33.691,34.668,6.348,15.625
1532373139.627,46.875,37.109,31.738,4.395,48.828
1532373139.631,50.293,39.062,31.738,0.488,40.527
1532373139.635,48.340,38.574,32.715,0.000,23.438
1532373139.639,50.293,38.086,30.273,1.953,21.973
1532373139.643,41.992,38.086,28.809,9.766,41.504
1532373139.647,35.645,39.551,34.180,23.926,81.543
1532373139.651,33.203,39.551,34.180,29.297,64.941
1532373139.655,31.738,38.086,32.227,34.180,14.160
1532373139.659,33.203,36.621,37.109,39.551,2.930
1532373139.662,24.902,36.133,36.133,28.809,43.945
1532373139.666,23.926,37.109,30.762,25.391,63.965
1532373139.670,27.344,37.109,28.320,22.949,19.531
1532373139.674,27.344,37.109,29.297,16.113,9.766
1532373139.678,35.645,33.691,31.250,15.137,30.762
1532373139.682,33.203,35.156,31.738,5.859,41.504
1532373139.686,32.227,36.133,27.832,4.883,36.621
1532373139.690,42.480,37.109,27.832,21.484,11.719
1532373139.694,40.039,38.574,25.391,20.508,3.906
1532373139.698,38.086,36.621,21.484,25.879,40.527
1532373139.702,46.387,34.668,16.113,41.504,19.043
1532373139.705,45.410,33.203,16.602,37.598,3.418
1532373139.709,42.480,31.738,25.391,37.109,38.086
1532373139.713,44.434,33.203,21.973,41.504,62.012
1532373139.717,41.504,33.203,17.090,37.598,43.945
1532373139.721,35.156,31.738,18.555,37.598,12.695
1532373139.725,35.156,30.762,18.555,41.016,17.090
1532373139.729,37.598,30.762,21.484,43.457,34.180
1532373139.733,36.133,31.250,24.902,39.551,32.715
1532373139.737,36.621,32.715,23.438,36.133,7.324
1532373139.741,38.086,29.297,21.484,35.645,16.113
1532373139.745,38.086,27.832,20.508,36.621,21.484
1532373139.748,41.016,31.738,20.996,36.133,12.695
1532373139.752,39.062,31.738,21.973,29.785,-8.301
1532373139.756,32.715,29.785,22.949,30.273,17.578
1532373139.760,39.551,31.250,24.902,34.668,62.012
1532373139.764,44.922,34.180,22.949,38.086,57.129
1532373139.768,46.875,33.691,22.949,42.969,26.855
1532373139.772,45.410,33.203,22.461,47.363,4.395
1532373139.776,38.574,32.227,22.461,48.828,9.277
1532373139.780,37.598,29.297,22.461,40.039,39.062
1532373139.784,38.086,27.832,20.020,35.645,53.711
1532373139.787,39.551,26.855,20.020,41.504,1.465
1532373139.791,40.527,27.344,20.020,41.992,-16.113
1532373139.795,44.922,28.809,22.461,42.969,33.691
1532373139.799,47.363,27.832,23.926,41.992,45.898
1532373139.803,51.758,27.344,22.949,41.992,26.367
1532373139.807,50.781,28.320,25.879,45.410,12.207
1532373139.811,50.781,29.785,27.344,44.922,45.898
1532373139.815,49.805,26.367,25.879,47.363,65.918
1532373139.819,49.805,27.832,25.391,42.480,29.297
1532373139.823,48.340,30.273,22.461,41.504,24.414
1532373139.827,39.551,28.809,22.461,42.969,58.594
1532373139.830,41.504,29.297,24.414,33.203,26.855
1532373139.834,45.898,30.762,21.484,29.297,-2.441
1532373139.838,47.363,29.785,19.531,32.227,8.789
1532373139.842,46.875,28.809,23.926,28.809,41.992
1532373139.846,48.828,30.762,24.902,31.250,86.426
1532373139.850,41.992,27.832,20.508,30.762,61.035
1532373139.854,39.062,26.855,18.555,28.320,13.672
1532373139.858,43.457,30.762,19.043,32.715,8.789
1532373139.862,40.039,31.250,16.602,28.320,44.434
1532373139.866,41.504,27.344,19.043,26.367,41.992
1532373139.870,42.480,27.344,22.461,26.855,-5.371
1532373139.873,32.227,30.273,21.973,17.578,-1.465
1532373139.877,28.809,29.297,22.949,14.160,62.012
1532373139.881,32.227,28.809,21.973,18.066,71.777
1532373139.885,36.133,28.809,23.438,25.391,28.320
1532373139.889,39.551,31.738,29.297,29.297,-6.836
1532373139.893,35.156,34.180,33.691,26.367,29.297
1532373139.897,33.203,31.250,31.250,26.367,78.613
1532373139.901,31.738,27.832,26.855,26.367,66.406
1532373139.905,26.367,26.855,24.902,24.902,35.156
1532373139.909,22.949,28.809,26.367,20.996,-0.977
1532373139.912,27.344,32.227,30.273,26.367,9.766
1532373139.916,29.785,31.250,27.344,31.738,37.109
1532373139.920,26.855,30.273,27.832,28.320,11.230
1532373139.924,30.762,32.227,28.320,24.414,9.277
1532373139.928,31.738,35.645,25.391,22.949,29.785
1532373139.932,23.438,34.668,23.926,17.578,44.922
1532373139.936,21.484,29.297,24.902,15.625,26.367
1532373139.940,27.832,28.320,28.320,25.391,16.602
1532373139.944,30.273,31.738,29.297,29.297,56.641
1532373139.948,30.273,33.203,28.320,25.391,76.172
1532373139.952,33.691,32.715,26.367,25.391,40.039
1532373139.955,35.645,32.227,28.320,28.809,-11.230
1532373139.959,36.133,33.203,28.320,27.832,-15.137
1532373139.963,31.738,34.180,26.855,25.391,27.832
1532373139.967,41.016,32.715,28.809,22.949,26.367
1532373139.971,42.969,32.715,27.832,29.297,-11.719
1532373139.975,30.762,32.715,27.344,35.156,15.137
1532373139.979,31.738,33.691,30.762,34.180,51.758
1532373139.983,36.621,31.250,32.227,36.621,48.340
1532373139.987,31.250,24.414,31.250,35.156,16.602
1532373139.991,26.855,24.902,31.738,29.785,-10.254
1532373139.995,28.809,29.785,32.227,30.762,-3.418
1532373139.998,30.273,30.762,31.738,38.574,46.387
1532373140.002,29.297,28.320,34.668,42.969,42.969
1532373140.006,30.762,29.297,35.156,39.551,1.953
1532373140.010,34.180,29.785,34.668,37.109,-0.977
1532373140.014,26.855,24.902,32.715,33.203,45.410
1532373140.018,23.438,24.902,29.785,33.691,73.242
1532373140.022,29.785,31.250,30.273,38.086,29.785
1532373140.026,33.203,30.762,34.668,41.992,34.180
1532373140.030,31.738,29.785,38.086,39.551,74.707
1532373140.034,30.762,31.250,36.621,37.598,67.383
1532373140.037,32.715,28.809,39.062,42.969,18.066
1532373140.041,33.203,29.785,41.016,40.039,30.762
1532373140.045,30.273,27.832,38.574,33.691,83.496
1532373140.049,23.438,26.367,38.086,31.738,51.270
1532373140.053,20.020,28.320,34.180,26.367,-10.254
1532373140.057,28.809,30.273,31.250,29.785,15.137
1532373140.061,38.086,32.715,28.809,34.180,80.078
1532373140.065,32.715,31.250,28.809,26.855,72.266
1532373140.069,35.645,30.762,32.715,34.668,28.320
1532373140.073,42.969,31.738,32.715,41.992,-20.508
1532373140.077,35.645,31.738,31.250,35.156,-24.414
1532373140.080,34.180,34.180,33.203,35.156,2.441
1532373140.084,40.039,33.691,34.180,33.203,4.395
1532373140.088,38.086,35.156,32.715,32.227,-26.855
