timestamps,TP9,AF7,AF8,TP10,Right AUX
1532214765.073,3.418,41.992,27.344,-6.836,266.113
1532214765.077,2.930,37.598,28.320,-13.672,31.738
1532214765.081,-1.465,35.645,29.297,-12.695,-235.352
1532214765.085,-5.859,35.156,26.367,-7.812,-29.785
1532214765.089,-6.348,35.645,27.832,-8.301,236.816
1532214765.093,3.418,39.551,29.297,-8.301,58.105
1532214765.096,6.348,37.598,26.855,-12.695,-234.375
1532214765.100,-3.418,32.715,26.367,-11.230,-81.543
1532214765.104,-10.254,33.203,27.344,-11.230,230.957
1532214765.108,-0.977,33.691,26.367,-15.137,182.617
1532214765.112,7.324,33.203,22.949,-17.578,-164.551
1532214765.116,4.883,32.715,22.461,-15.625,-202.148
1532214765.120,6.836,36.621,21.484,-8.301,160.156
1532214765.124,8.789,37.109,23.926,-1.953,237.305
1532214765.128,-2.441,31.250,28.809,-4.395,-39.062
1532214765.132,1.953,30.273,26.855,-9.766,-177.734
1532214765.136,17.578,33.691,23.926,-6.836,83.008
1532214765.139,14.648,37.598,21.973,-6.836,261.230
1532214765.143,0.977,37.598,24.414,-10.254,20.996
1532214765.147,0.977,35.645,26.367,-10.254,-212.402
1532214765.151,-1.465,36.133,21.484,-8.789,-20.020
1532214765.155,-6.836,36.133,21.484,-12.695,231.934
1532214765.159,-8.789,35.156,22.949,-18.066,98.145
1532214765.163,-12.695,36.621,24.902,-18.555,-183.594
1532214765.167,-9.277,38.086,24.414,-19.531,-103.027
1532214765.171,-4.395,38.574,23.438,-18.066,212.402
1532214765.175,-1.953,38.574,27.832,-21.484,184.082
1532214765.178,-4.883,39.551,27.832,-22.949,-144.531
1532214765.182,-0.977,42.480,22.949,-16.602,-157.715
1532214765.186,-1.953,41.504,24.414,-6.836,150.879
1532214765.190,-0.488,38.086,30.273,4.883,282.227
1532214765.194,8.789,38.574,33.203,-3.906,-12.695
1532214765.198,-5.859,39.062,35.156,-18.066,-231.445
1532214765.202,-14.160,34.668,38.574,-10.254,85.938
1532214765.206,9.277,34.668,39.062,0.977,288.574
1532214765.210,12.207,44.434,34.180,-3.906,35.156
1532214765.214,-11.719,41.992,34.180,-22.949,-208.008
1532214765.218,-11.230,31.738,38.574,-14.160,-26.855
1532214765.221,7.812,39.062,35.645,-1.953,253.418
1532214765.225,11.230,52.246,21.484,-18.555,119.629
1532214765.229,1.465,53.711,18.066,-21.973,-208.008
1532214765.233,-2.441,48.340,22.949,-18.066,-113.281
1532214765.237,-14.160,43.457,29.297,-25.879,202.637
1532214765.241,-19.043,40.039,36.621,-20.996,222.656
1532214765.245,1.465,45.898,32.227,-9.766,-92.773
1532214765.249,5.371,54.199,21.484,-10.742,-207.031
1532214765.253,-14.648,54.688,22.461,-19.531,94.238
1532214765.257,-17.090,52.734,27.832,-23.926,227.539
1532214765.261,-11.719,48.340,30.762,-22.461,-45.410
1532214765.264,-9.277,46.387,34.668,-18.066,-250.977
1532214765.268,-7.812,43.945,35.156,-11.230,3.906
1532214765.272,-17.090,42.969,36.133,-17.090,242.676
1532214765.276,-13.672,46.875,37.598,-20.996,63.965
1532214765.280,-8.301,45.898,43.945,-20.996,-205.566
1532214765.284,-19.043,41.504,43.945,-17.578,-71.777
1532214765.288,-17.090,37.598,37.109,-11.719,235.840
1532214765.292,-15.137,34.668,37.109,-11.719,179.199
1532214765.296,-18.066,38.086,35.645,-10.254,-167.480
1532214765.300,-4.395,44.922,32.227,-6.836,-163.574
1532214765.303,0.488,47.852,30.273,-5.371,167.969
1532214765.307,-6.348,45.898,31.738,-10.254,230.469
1532214765.311,-10.742,40.039,36.133,-20.508,-81.543
1532214765.315,-12.695,34.668,38.086,-21.484,-252.441
1532214765.319,-1.953,38.086,34.668,-10.254,72.754
1532214765.323,7.324,45.898,26.367,-4.883,288.086
1532214765.327,1.465,48.340,27.832,-15.137,19.531
1532214765.331,-5.371,43.457,31.738,-17.578,-223.633
1532214765.335,-8.789,39.062,34.668,-10.254,-23.926
1532214765.339,2.441,38.086,35.645,-0.977,250.977
1532214765.343,12.695,35.645,31.250,3.906,119.141
1532214765.346,6.836,35.156,34.180,0.488,-200.195
1532214765.350,-0.977,37.109,35.645,7.812,-76.660
1532214765.354,-4.395,34.668,39.551,11.719,253.906
1532214765.358,-4.395,34.668,39.551,5.859,174.316
1532214765.362,-0.488,34.180,37.598,8.301,-143.555
1532214765.366,0.488,30.762,44.434,14.160,-153.320
1532214765.370,2.441,32.227,44.434,13.672,158.203
1532214765.374,8.301,36.133,38.086,11.230,259.277
1532214765.378,2.930,36.621,37.598,1.953,-54.688
1532214765.382,-7.324,37.109,36.133,-5.371,-191.406
1532214765.386,-6.348,40.527,30.273,-3.418,125.977
1532214765.389,-1.465,43.945,27.832,-5.859,308.105
1532214765.393,-7.812,41.992,34.180,-18.066,26.855
1532214765.397,-17.090,39.062,37.109,-22.461,-262.695
1532214765.401,-15.137,36.133,36.133,-12.695,-51.270
1532214765.405,-4.883,29.785,38.086,-2.930,249.023
1532214765.409,14.160,31.250,39.062,6.348,158.203
1532214765.413,15.625,42.480,28.320,-0.488,-198.242
1532214765.417,4.395,43.945,19.043,-2.930,-140.625
1532214765.421,-3.906,40.527,25.391,-0.977,207.520
1532214765.425,-3.418,38.574,29.297,-6.836,209.473
1532214765.428,14.160,36.621,31.250,0.977,-124.023
1532214765.432,21.484,41.016,30.273,9.277,-199.219
1532214765.436,19.531,46.875,27.344,5.859,106.934
1532214765.440,19.531,43.945,29.297,5.859,243.164
1532214765.444,14.160,40.039,28.809,3.906,-26.367
1532214765.448,12.695,39.062,29.785,5.371,-191.406
1532214765.452,17.090,38.086,29.785,13.184,62.012
1532214765.456,17.090,42.480,29.297,11.230,276.367
1532214765.460,17.578,45.410,29.297,3.906,80.566
1532214765.464,22.949,45.898,27.344,7.324,-230.469
1532214765.468,17.578,42.969,26.855,10.742,-57.129
1532214765.471,15.625,41.992,33.203,12.207,256.348
1532214765.475,16.113,42.969,37.109,2.441,105.469
1532214765.479,21.484,39.551,34.668,-5.371,-219.238
1532214765.483,29.297,36.133,36.133,11.230,-136.230
1532214765.487,24.414,39.062,35.156,19.531,190.918
1532214765.491,28.320,45.410,31.738,8.301,214.355
1532214765.495,30.762,45.898,26.855,-4.395,-87.891
1532214765.499,33.203,44.434,24.414,-2.930,-180.664
1532214765.503,48.828,50.293,24.902,1.953,105.469
1532214765.507,52.734,56.152,22.461,-0.488,271.973
1532214765.510,39.062,55.664,21.484,-4.883,11.230
1532214765.514,27.344,54.199,23.438,-3.418,-231.934
1532214765.518,23.438,52.246,22.461,8.301,18.555
1532214765.522,27.832,50.781,21.484,18.066,271.484
1532214765.526,21.973,47.852,26.367,18.555,44.922
1532214765.530,6.836,44.434,26.367,20.020,-237.793
1532214765.534,4.395,40.527,28.320,23.926,-90.820
1532214765.538,19.043,43.457,27.344,24.414,208.008
1532214765.542,27.832,45.898,20.020,24.414,149.414
1532214765.546,27.344,44.922,22.461,18.066,-182.617
1532214765.550,13.184,40.039,27.344,16.602,-142.578
1532214765.553,6.348,34.668,28.809,18.066,199.219
1532214765.557,15.625,33.203,32.227,15.137,231.445
1532214765.561,17.578,32.227,31.738,12.207,-108.398
1532214765.565,21.973,35.156,25.391,19.043,-199.219
1532214765.569,24.414,34.668,23.926,21.973,138.184
1532214765.573,22.949,35.156,22.461,12.207,261.719
1532214765.577,31.738,38.086,21.973,3.418,-26.367
1532214765.581,34.668,36.133,20.996,13.184,-239.746
1532214765.585,26.855,35.156,19.531,19.043,-10.254
1532214765.589,28.809,35.645,20.508,18.555,238.770
1532214765.593,24.902,37.598,30.273,20.020,63.965
1532214765.596,25.391,39.062,30.273,18.066,-215.820
1532214765.600,29.785,38.086,20.508,23.926,-76.172
1532214765.604,29.297,38.086,21.484,27.344,225.586
1532214765.608,30.762,40.039,25.391,18.066,176.270
1532214765.612,34.668,39.551,25.391,10.742,-185.547
1532214765.616,26.855,41.016,24.902,8.301,-229.980
1532214765.620,16.602,42.480,23.438,13.672,167.480
1532214765.624,20.020,43.945,21.973,16.113,255.371
1532214765.628,22.461,43.945,22.949,8.789,-85.938
1532214765.632,20.020,44.434,22.949,8.301,-208.496
1532214765.635,25.391,46.875,22.461,15.625,98.633
1532214765.639,26.367,45.410,25.391,15.137,271.484
1532214765.643,21.484,43.457,26.855,6.836,18.555
1532214765.647,17.090,41.992,21.484,6.836,-193.359
1532214765.651,7.324,41.016,24.902,16.113,10.254
1532214765.655,4.395,43.457,28.320,12.207,275.391
1532214765.659,12.695,43.457,24.902,6.836,163.086
1532214765.663,17.578,41.504,24.414,12.207,-181.641
1532214765.667,14.160,42.969,29.297,18.555,-103.027
1532214765.671,13.672,44.922,28.320,18.555,242.188
1532214765.675,18.555,44.434,22.461,16.113,174.805
1532214765.678,22.461,42.480,26.855,15.625,-155.762
1532214765.682,9.277,36.133,32.227,19.531,-162.109
1532214765.686,9.277,32.715,32.715,27.344,161.133
1532214765.690,35.156,36.621,26.855,30.273,231.934
1532214765.694,36.133,38.574,24.902,21.973,-75.195
1532214765.698,21.973,38.086,25.391,19.043,-217.285
1532214765.702,19.531,38.574,25.391,25.391,50.293
1532214765.706,10.254,37.109,31.738,20.996,247.070
1532214765.710,6.348,26.855,33.691,7.812,48.340
1532214765.714,19.531,21.484,31.250,13.672,-247.559
1532214765.718,33.203,24.902,27.344,33.691,-81.055
1532214765.721,38.574,34.180,20.020,37.109,269.531
1532214765.725,37.109,39.062,21.973,23.438,150.391
1532214765.729,36.133,33.691,27.832,17.578,-190.430
1532214765.733,41.016,38.574,21.973,31.250,-104.980
1532214765.737,56.152,46.875,14.160,40.039,214.355
1532214765.741,52.734,43.457,17.090,32.715,251.953
1532214765.745,30.762,38.086,19.043,17.578,-80.566
1532214765.749,24.414,36.621,17.578,17.578,-200.684
1532214765.753,28.320,35.645,20.996,21.484,119.629
1532214765.757,33.691,39.062,23.926,19.531,243.164
1532214765.760,34.668,39.062,22.461,20.508,-19.531
1532214765.764,22.949,34.180,22.461,16.113,-232.422
1532214765.768,26.367,31.250,20.020,18.066,38.086
1532214765.772,33.691,33.691,20.996,18.066,305.664
1532214765.776,18.555,34.180,24.902,8.789,103.516
1532214765.780,21.484,32.715,24.414,12.695,-208.984
1532214765.784,25.879,34.180,22.949,16.113,-69.336
1532214765.788,15.625,35.156,22.461,13.672,240.234
1532214765.792,8.301,35.156,25.391,10.254,140.625
1532214765.796,13.672,34.180,25.879,5.371,-180.176
1532214765.800,11.719,33.203,26.855,12.695,-153.320
1532214765.803,10.742,37.598,25.879,15.625,199.707
1532214765.807,17.090,42.969,21.484,4.395,235.840
1532214765.811,9.277,41.016,23.926,-1.465,-123.535
1532214765.815,0.000,41.016,24.414,-5.859,-229.492
1532214765.819,-3.906,41.992,26.855,-3.418,112.793
1532214765.823,-15.137,37.598,33.203,-6.836,249.023
1532214765.827,-18.066,33.203,30.762,-14.648,-31.250
1532214765.831,-3.418,33.691,31.738,-5.371,-223.633
1532214765.835,5.859,41.504,27.832,1.953,1.953
1532214765.839,6.348,46.387,22.461,-3.418,254.883
1532214765.843,1.465,44.922,21.484,-6.348,89.844
1532214765.846,-6.836,43.457,25.391,-8.301,-211.914
1532214765.850,-20.020,39.062,24.902,-6.836,-103.516
1532214765.854,-9.277,35.156,26.367,-0.488,194.336
1532214765.858,10.254,38.574,26.855,8.301,125.000
1532214765.862,10.254,42.480,21.484,2.930,-185.059
1532214765.866,5.371,42.969,22.461,-1.953,-162.598
1532214765.870,0.977,42.480,21.973,2.441,205.078
1532214765.874,-5.371,42.969,20.020,3.906,263.672
1532214765.878,-6.348,42.969,20.996,-1.953,-80.566
1532214765.882,-8.789,41.504,19.531,-4.395,-209.473
1532214765.885,3.906,43.945,19.043,1.465,82.031
1532214765.889,9.766,45.898,19.043,0.488,251.953
1532214765.893,7.812,43.945,21.484,-9.766,15.137
1532214765.897,8.789,41.016,19.043,-25.391,-257.324
1532214765.901,3.906,40.039,16.602,-12.207,-43.457
1532214765.905,5.371,41.016,17.578,-6.348,270.996
1532214765.909,4.883,39.551,16.113,-12.695,120.605
1532214765.913,0.000,37.109,16.602,-4.883,-212.402
1532214765.917,-1.465,38.086,19.043,6.348,-94.727
1532214765.921,2.441,39.062,17.578,8.789,272.949
1532214765.925,9.277,37.598,16.602,5.859,222.656
1532214765.928,7.324,37.598,18.066,3.906,-147.949
1532214765.932,3.418,37.598,18.066,7.324,-196.777
1532214765.936,0.977,36.621,16.602,14.160,140.625
1532214765.940,1.953,36.621,18.555,10.254,224.609
1532214765.944,7.812,37.109,20.508,5.859,-89.355
1532214765.948,14.648,37.109,19.043,6.836,-226.074
1532214765.952,17.578,37.598,20.996,11.230,65.918
1532214765.956,16.602,41.016,25.391,1.465,228.027
1532214765.960,20.996,42.480,22.461,-13.672,-3.906
1532214765.964,11.719,38.574,19.531,-13.672,-245.117
1532214765.967,-1.465,34.180,19.043,-13.672,-61.035
1532214765.971,-0.977,33.691,19.531,-12.207,236.816
1532214765.975,0.000,36.621,24.414,-15.137,115.723
1532214765.979,0.000,37.598,24.414,-16.602,-213.867
1532214765.983,1.953,35.156,20.020,-10.742,-132.324
1532214765.987,4.883,35.156,20.996,-2.441,220.215
1532214765.991,6.836,38.574,22.949,0.977,216.797
1532214765.995,9.277,41.504,20.508,0.488,-139.160
1532214765.999,22.949,41.016,20.996,13.672,-196.777
1532214766.003,15.137,37.598,23.926,21.973,165.039
1532214766.007,2.930,37.109,21.484,13.672,274.414
1532214766.010,14.160,39.062,22.461,15.137,-40.039
1532214766.014,15.625,41.992,26.855,14.160,-246.582
1532214766.018,13.672,40.527,27.344,19.531,45.410
1532214766.022,14.160,38.574,23.926,23.926,304.199
1532214766.026,12.207,38.574,21.973,12.207,60.547
1532214766.030,11.230,37.109,21.484,6.348,-228.516
1532214766.034,11.719,38.086,19.043,-1.465,-97.656
1532214766.038,3.906,40.039,19.531,-4.395,198.242
1532214766.042,8.301,38.574,22.461,-0.488,185.059
1532214766.046,8.789,34.180,22.461,-5.371,-134.277
1532214766.050,1.465,34.180,21.484,-3.906,-114.258
1532214766.053,2.441,38.086,22.949,0.488,219.727
1532214766.057,6.348,38.086,22.949,-5.859,237.305
1532214766.061,13.672,34.180,23.438,-10.254,-102.539
1532214766.065,11.719,37.109,25.879,-4.883,-186.035
1532214766.069,7.324,38.574,23.926,2.930,138.184
1532214766.073,12.207,37.109,25.391,5.371,263.184
1532214766.077,14.648,39.062,28.809,4.883,-17.578
1532214766.081,10.742,41.504,27.832,8.301,-225.098
1532214766.085,7.324,41.992,26.855,12.207,24.414
1532214766.089,8.789,39.062,29.785,11.230,288.086
1532214766.092,10.742,39.062,30.762,6.836,99.121
1532214766.096,8.789,42.480,25.879,0.488,-226.562
1532214766.100,14.648,39.551,23.438,4.395,-51.758
1532214766.104,17.090,35.645,26.367,8.301,266.602
1532214766.108,12.207,34.180,27.832,1.465,188.477
1532214766.112,12.695,35.156,25.391,-2.930,-138.184
1532214766.116,3.906,36.133,25.879,0.488,-147.461
1532214766.120,-0.488,35.156,29.785,2.441,183.105
1532214766.124,-1.465,35.645,28.320,2.930,210.938
1532214766.128,1.465,37.109,27.832,2.930,-91.309
1532214766.132,5.859,38.574,28.320,1.953,-222.168
1532214766.135,8.789,36.133,26.855,2.441,41.016
1532214766.139,7.324,35.645,28.809,4.883,224.609
1532214766.143,7.324,39.062,28.320,9.277,-0.488
1532214766.147,9.766,36.133,25.391,5.859,-228.027
1532214766.151,-7.324,32.227,28.809,3.906,-30.273
1532214766.155,-18.555,27.832,33.691,7.812,247.559
1532214766.159,2.441,22.461,37.109,19.043,118.164
1532214766.163,23.926,32.715,33.203,28.320,-229.492
1532214766.167,16.113,49.805,19.531,14.648,-119.629
1532214766.171,0.488,55.664,15.625,-1.465,222.656
1532214766.175,-7.812,54.199,22.461,-20.508,145.508
1532214766.178,-8.789,47.363,28.320,-27.832,-206.543
1532214766.182,-3.418,45.898,25.391,-9.277,-192.383
1532214766.186,-8.301,47.363,21.973,-7.324,170.898
1532214766.190,2.930,48.828,23.438,-11.719,239.258
1532214766.194,7.812,51.270,20.020,-15.137,-67.383
1532214766.198,-9.277,51.270,15.137,-15.625,-197.754
1532214766.202,-1.465,55.176,12.695,-9.277,86.426
1532214766.206,18.066,62.012,8.789,-9.766,263.672
1532214766.210,16.602,62.500,4.395,-15.137,53.711
1532214766.214,19.531,63.477,0.488,-12.207,-227.051
1532214766.217,26.367,68.848,-1.953,-6.836,-39.062
1532214766.221,15.625,66.895,0.977,-6.348,261.719
1532214766.225,9.766,61.035,8.789,-10.742,98.633
1532214766.229,3.906,54.199,15.137,-10.254,-201.172
1532214766.233,8.789,56.641,12.695,-19.043,-126.465
1532214766.237,4.395,65.430,6.348,-29.785,194.824
1532214766.241,-4.395,62.988,5.371,-22.949,205.078
1532214766.245,6.348,58.105,10.254,-18.066,-125.488
1532214766.249,2.930,58.105,12.207,-19.043,-152.344
1532214766.253,-3.418,58.594,14.160,-13.184,166.992
1532214766.257,0.488,57.129,14.160,-7.324,275.879
1532214766.260,1.465,58.105,14.160,-9.277,-19.043
1532214766.264,-7.324,59.082,15.625,-14.648,-220.703
1532214766.268,-7.324,61.523,14.160,-11.230,74.219
1532214766.272,3.418,67.383,11.719,-11.719,295.898
1532214766.276,-1.953,68.848,7.324,-25.879,48.340
1532214766.280,-10.742,65.918,4.883,-20.508,-243.652
1532214766.284,-5.371,63.477,8.301,-4.395,-73.730
1532214766.288,-2.930,58.105,15.625,-3.418,252.930
1532214766.292,-10.742,56.641,19.043,-13.184,166.504
1532214766.296,-16.113,50.293,23.926,-13.184,-178.223
1532214766.299,-13.184,44.434,26.855,-2.930,-140.137
1532214766.303,-7.812,45.898,26.367,-2.930,187.988
1532214766.307,7.324,47.363,23.438,-12.207,234.863
1532214766.311,10.254,53.223,18.066,-16.602,-79.102
1532214766.315,2.441,62.012,19.043,-14.160,-226.074
1532214766.319,5.371,56.152,23.438,-8.789,88.867
1532214766.323,0.977,47.363,28.320,-4.395,285.645
1532214766.327,-2.930,46.387,29.785,-11.719,9.766
1532214766.331,-5.371,46.387,24.414,-15.137,-230.469
1532214766.335,-7.324,43.945,20.020,-11.719,18.555
1532214766.339,-6.348,44.922,15.625,-11.719,308.594
1532214766.342,1.953,45.898,16.113,-13.672,106.445
1532214766.346,0.000,42.480,24.414,-14.160,-239.746
1532214766.350,-10.254,41.992,24.902,-5.371,-80.566
1532214766.354,-1.953,39.062,24.414,-3.906,233.887
1532214766.358,-2.441,35.156,28.320,-12.695,152.344
1532214766.362,-11.230,34.180,32.715,-13.672,-175.781
1532214766.366,-16.113,27.832,34.668,-9.766,-138.672
1532214766.370,-17.090,24.902,34.180,-7.324,205.566
1532214766.374,-11.230,30.273,33.691,-11.230,234.375
1532214766.378,-4.883,31.738,31.738,-16.602,-103.516
1532214766.382,-4.395,31.250,27.832,-15.137,-223.633
1532214766.385,-6.836,30.762,24.902,-14.160,106.934
1532214766.389,-4.395,32.227,23.438,-17.090,289.551
1532214766.393,-2.441,35.156,22.949,-20.996,0.488
1532214766.397,7.324,33.691,24.414,-17.578,-260.742
1532214766.401,5.371,31.738,21.973,-1.465,-17.090
1532214766.405,-10.742,31.250,24.414,8.789,254.883
1532214766.409,-18.555,33.691,31.738,3.906,90.820
1532214766.413,-24.414,31.738,30.273,2.441,-224.609
1532214766.417,-31.250,27.344,27.832,1.465,-136.230
1532214766.421,-32.227,28.809,27.832,0.488,205.566
1532214766.424,-32.715,29.297,24.902,-6.836,161.133
1532214766.428,-26.367,30.273,20.996,-15.625,-166.504
1532214766.432,-30.762,31.738,19.043,-14.648,-169.922
1532214766.436,-40.527,32.227,20.020,-10.742,168.945
1532214766.440,-31.250,35.156,22.461,-7.324,285.156
1532214766.444,-25.391,35.156,24.414,-8.789,-28.320
1532214766.448,-31.250,36.621,21.973,-8.301,-222.656
1532214766.452,-30.762,39.062,21.973,-4.883,70.801
1532214766.456,-24.902,37.109,23.438,-13.184,252.441
1532214766.460,-27.832,36.621,23.438,-18.555,9.766
1532214766.464,-32.227,39.062,26.855,-13.184,-226.562
1532214766.467,-22.461,37.109,27.344,-7.812,-16.113
1532214766.471,-30.762,37.598,28.320,-11.230,268.066
1532214766.475,-38.086,41.504,28.809,-18.066,118.652
1532214766.479,-36.133,38.086,27.832,-20.020,-175.781
1532214766.483,-29.297,36.133,27.832,-14.648,-86.426
1532214766.487,-25.391,36.621,26.855,-11.719,243.164
1532214766.491,-30.762,34.180,26.855,-14.160,251.953
1532214766.495,-28.320,36.133,26.855,-19.043,-105.957
1532214766.499,-28.320,38.086,23.926,-16.113,-197.754
1532214766.503,-25.391,37.109,24.902,-14.160,146.973
1532214766.507,-20.996,36.621,23.438,-18.066,250.488
1532214766.510,-24.414,37.598,21.484,-16.602,-47.852
1532214766.514,-24.414,37.598,22.461,-19.531,-239.258
1532214766.518,-23.438,35.156,22.461,-15.625,10.254
1532214766.522,-32.227,35.645,21.484,-11.230,262.695
1532214766.526,-36.133,36.133,20.508,-17.090,43.945
1532214766.530,-30.762,34.668,24.414,-16.113,-245.605
1532214766.534,-30.762,37.109,25.391,-15.625,-49.316
1532214766.538,-34.668,36.621,21.973,-17.578,260.742
1532214766.542,-27.344,36.621,21.973,-18.555,149.414
1532214766.546,-20.996,40.039,25.391,-21.973,-182.129
1532214766.549,-28.320,40.527,26.855,-19.043,-132.324
1532214766.553,-27.344,38.574,26.367,-18.555,190.918
1532214766.557,-23.438,38.574,25.391,-21.973,189.941
1532214766.561,-25.879,37.598,25.391,-24.414,-95.215
1532214766.565,-26.367,36.133,24.414,-23.438,-192.383
1532214766.569,-21.973,39.551,21.973,-11.230,118.652
1532214766.573,-16.113,39.062,21.484,-5.859,266.113
1532214766.577,-19.043,37.598,27.344,-11.719,-51.758
1532214766.581,-18.555,37.598,29.785,-6.348,-266.602
1532214766.585,-9.766,32.715,31.250,7.812,29.785
1532214766.589,-15.137,31.250,34.668,2.441,289.551
1532214766.592,-14.160,32.715,38.086,-4.883,75.684
1532214766.596,-6.348,35.645,36.133,-8.789,-229.980
1532214766.600,-4.395,36.133,28.320,-5.371,-86.426
1532214766.604,-0.977,31.738,28.320,3.906,253.418
1532214766.608,-7.324,30.273,32.715,-3.418,203.613
1532214766.612,-6.348,29.785,31.250,-11.719,-164.062
1532214766.616,-0.977,29.785,30.762,-4.395,-156.250
1532214766.620,-1.465,29.297,32.227,11.230,203.613
1532214766.624,-11.230,29.297,33.203,8.789,234.863
1532214766.628,-18.555,28.320,35.156,-2.930,-98.633
1532214766.632,-4.395,27.832,37.598,0.000,-229.492
1532214766.635,4.395,31.250,35.156,5.859,83.008
1532214766.639,3.418,31.738,32.715,1.953,254.395
1532214766.643,-0.977,31.250,33.691,-4.395,0.977
1532214766.647,-6.348,30.273,34.668,-8.301,-248.535
1532214766.651,-6.348,29.785,33.691,-2.930,-9.277
1532214766.655,-2.930,31.738,33.691,-4.395,241.699
1532214766.659,3.906,33.691,33.691,-11.230,96.680
1532214766.663,9.766,34.668,32.715,-7.812,-205.566
1532214766.667,0.000,34.180,32.227,-3.418,-118.652
1532214766.671,-1.465,35.645,33.203,1.953,221.680
1532214766.674,0.488,36.621,30.762,-2.441,181.152
1532214766.678,-6.836,34.668,29.297,-8.789,-134.766
1532214766.682,-8.789,35.156,35.156,-0.977,-157.715
1532214766.686,-10.742,36.133,35.156,6.348,169.434
1532214766.690,-9.277,33.691,33.691,7.812,242.188
1532214766.694,-10.254,31.250,40.039,-0.488,-66.895
1532214766.698,-11.719,30.273,38.086,-6.348,-209.473
1532214766.702,-6.348,32.715,31.738,2.441,55.664
1532214766.706,-4.883,33.691,30.762,1.465,225.586
1532214766.710,-10.742,34.180,33.203,-7.324,4.883
1532214766.714,-11.230,35.645,31.738,-7.812,-246.094
1532214766.717,-9.766,35.645,29.785,0.488,-35.156
1532214766.721,0.488,36.621,31.250,4.395,290.527
1532214766.725,-2.441,36.621,33.691,3.418,135.254
1532214766.729,-9.766,32.715,32.715,3.418,-205.566
1532214766.733,-11.230,30.762,30.273,4.883,-119.629
1532214766.737,-13.672,33.203,30.762,2.930,234.863
1532214766.741,-8.789,36.621,32.715,-2.441,214.844
1532214766.745,-1.953,38.574,31.738,-6.348,-144.531
1532214766.749,-1.465,37.109,26.855,-3.418,-175.781
1532214766.753,-9.277,34.180,26.855,-1.953,147.461
1532214766.756,-12.207,33.691,30.762,-3.418,245.605
1532214766.760,-7.812,37.598,29.785,-2.441,-27.344
1532214766.764,-2.930,39.551,27.344,-1.465,-199.707
1532214766.768,-4.883,36.621,26.855,5.859,69.824
1532214766.772,-6.836,33.691,29.297,3.906,313.965
1532214766.776,-6.348,37.109,29.297,-5.371,96.191
1532214766.780,-11.719,40.039,30.273,-3.906,-220.703
1532214766.784,-16.113,38.574,28.809,-0.977,-54.199
1532214766.788,-11.719,38.574,26.855,-2.930,259.277
1532214766.792,-10.742,38.574,27.832,-10.742,141.602
1532214766.796,-6.348,39.062,30.273,-20.508,-199.219
1532214766.799,-1.953,39.551,29.297,-14.160,-163.574
1532214766.803,-8.301,39.551,27.344,-4.395,188.965
1532214766.807,-10.254,40.527,29.785,-2.930,212.402
1532214766.811,-6.836,41.992,31.738,-3.906,-126.465
1532214766.815,-7.812,37.598,33.691,-2.930,-191.406
1532214766.819,-8.789,34.668,33.203,5.371,138.184
1532214766.823,-3.418,36.133,29.785,6.348,305.176
1532214766.827,-5.859,38.086,31.250,1.465,12.695
1532214766.831,-13.184,38.086,31.250,3.906,-248.047
1532214766.835,-8.301,37.109,28.320,1.953,-7.324
1532214766.839,-4.883,39.062,26.855,-1.953,272.461
1532214766.842,1.953,41.504,26.367,4.883,105.469
1532214766.846,2.930,41.016,26.367,1.953,-211.426
1532214766.850,-3.418,38.574,26.367,-1.953,-84.473
1532214766.854,-2.441,40.039,25.391,-4.395,243.164
1532214766.858,0.000,42.480,25.391,-11.719,198.242
1532214766.862,-2.930,40.527,26.855,-14.160,-145.020
1532214766.866,-6.348,41.504,24.902,-6.836,-154.785
1532214766.870,-5.371,42.969,24.902,1.465,185.547
1532214766.874,-1.465,41.504,30.762,0.488,218.262
1532214766.878,2.930,41.504,32.715,-2.930,-104.492
1532214766.881,-5.371,41.992,31.250,-1.953,-213.379
1532214766.885,-8.789,43.457,31.250,9.277,85.938
1532214766.889,5.371,45.898,30.273,11.230,277.832
1532214766.893,5.371,46.875,33.691,3.418,-13.184
1532214766.897,-4.395,46.387,37.109,1.953,-281.738
1532214766.901,-6.836,42.480,30.762,3.418,-2.930
1532214766.905,-13.672,41.016,32.715,-0.488,270.996
1532214766.909,-19.531,38.574,33.691,-10.742,115.723
1532214766.913,-20.020,37.598,29.785,-15.625,-197.266
1532214766.917,-13.672,39.062,28.809,-7.812,-118.164
1532214766.921,-13.672,39.062,27.344,-5.371,217.285
1532214766.924,-14.160,36.133,33.203,-8.301,208.008
1532214766.928,-4.395,30.273,38.086,-1.465,-140.137
1532214766.932,8.301,35.645,32.715,5.371,-192.871
1532214766.936,9.766,45.410,25.879,-0.977,161.621
1532214766.940,6.348,46.875,24.902,-8.789,224.121
1532214766.944,-0.977,51.758,21.973,-9.766,-90.332
1532214766.948,-5.371,54.199,22.949,-5.859,-194.336
1532214766.952,1.465,53.711,24.414,0.488,102.051
1532214766.956,0.000,56.641,23.438,-1.465,266.602
1532214766.960,-8.789,52.246,32.227,-2.441,8.301
1532214766.964,-3.418,45.410,38.086,1.465,-242.676
1532214766.967,-5.859,46.875,37.109,4.883,-35.645
1532214766.971,-17.090,51.758,36.133,2.930,281.738
1532214766.975,-19.043,54.688,32.227,-8.301,175.293
1532214766.979,-9.766,57.129,29.297,-12.207,-169.434
1532214766.983,-3.418,62.500,23.926,-11.230,-130.371
1532214766.987,-13.184,73.242,16.113,-22.949,224.121
1532214766.991,-16.602,76.660,16.113,-24.414,220.215
1532214766.995,-10.742,62.988,23.926,-25.391,-120.117
1532214766.999,-10.254,57.617,26.367,-24.902,-158.203
1532214767.003,-19.043,55.664,28.320,-18.066,162.598
1532214767.006,-31.738,46.875,35.645,-19.043,268.066
1532214767.010,-24.902,45.898,39.062,-16.602,-33.691
1532214767.014,-19.043,50.293,34.180,-20.020,-242.676
1532214767.018,-18.555,51.270,30.762,-18.555,25.879
1532214767.022,-12.695,52.246,29.785,-14.648,270.020
1532214767.026,-6.836,59.082,28.320,-20.996,54.688
1532214767.030,2.441,63.477,21.484,-20.508,-225.586
1532214767.034,-3.906,59.082,21.973,-14.160,-73.730
1532214767.038,-21.484,52.734,29.785,-15.137,246.582
1532214767.042,-20.508,51.758,28.320,-20.020,156.738
1532214767.046,-8.789,47.363,30.762,-16.113,-198.242
1532214767.049,-3.418,47.363,29.297,-11.719,-134.766
1532214767.053,-5.371,51.270,24.414,-14.648,209.961
1532214767.057,-5.859,49.316,22.949,-19.043,228.516
1532214767.061,-7.324,45.898,24.414,-22.461,-88.867
1532214767.065,-10.742,48.340,21.973,-21.973,-194.824
1532214767.069,-12.695,54.688,12.207,-16.602,108.398
1532214767.073,-11.230,53.223,13.184,-16.113,234.375
1532214767.077,-10.254,47.363,19.043,-29.785,-62.012
1532214767.081,-2.441,43.945,20.020,-20.508,-241.699
1532214767.085,-3.906,40.039,23.438,-6.348,29.297
1532214767.088,-10.742,37.109,30.273,-9.277,277.344
1532214767.092,-1.465,36.621,32.227,-8.789,60.547
1532214767.096,3.906,37.598,28.320,-7.324,-222.656
1532214767.100,6.348,40.527,22.949,-6.836,-60.547
1532214767.104,10.742,45.410,21.484,-15.625,246.582
1532214767.108,9.277,46.875,21.484,-17.578,179.199
1532214767.112,7.324,45.898,24.902,-11.719,-174.805
1532214767.116,3.906,45.898,27.832,-14.160,-217.285
1532214767.120,-3.418,43.457,24.414,-10.742,129.395
1532214767.124,-9.766,39.551,26.367,-11.719,250.977
1532214767.128,-5.371,41.016,29.297,-15.137,-67.871
1532214767.131,5.859,40.039,28.809,-9.766,-207.031
1532214767.135,6.836,35.645,29.785,-7.324,108.887
1532214767.139,-5.859,33.691,31.250,-6.836,254.395
1532214767.143,-1.953,32.227,32.715,-6.836,-25.879
1532214767.147,-2.441,33.203,34.180,-6.348,-245.117
1532214767.151,-3.906,36.133,32.227,0.488,4.395
1532214767.155,4.883,36.621,34.180,2.441,267.578
1532214767.159,10.742,34.180,29.785,1.465,86.914
1532214767.163,8.789,32.227,25.391,1.465,-204.590
1532214767.167,5.371,33.203,28.809,2.441,-94.727
1532214767.171,13.672,34.668,28.320,1.953,250.000
1532214767.174,16.113,34.180,25.879,-4.883,200.684
1532214767.178,9.277,32.715,25.391,-7.324,-189.453
1532214767.182,3.906,28.320,29.785,1.953,-193.848
1532214767.186,2.441,30.273,32.227,11.719,169.922
1532214767.190,4.395,33.203,27.832,11.719,234.863
1532214767.194,9.766,32.715,26.367,5.859,-89.355
1532214767.198,13.672,35.156,27.832,5.859,-241.699
1532214767.202,8.789,35.156,29.297,8.789,68.848
1532214767.206,6.348,35.156,25.391,3.418,259.766
1532214767.210,10.254,32.715,23.438,5.371,11.719
1532214767.213,4.395,31.738,25.879,5.859,-241.699
1532214767.217,-0.488,33.203,27.344,3.906,-35.156
1532214767.221,5.371,37.598,28.320,8.301,257.812
1532214767.225,6.836,40.527,25.391,1.953,138.184
1532214767.229,14.160,38.574,25.391,-2.441,-174.805
1532214767.233,20.508,39.062,22.949,1.953,-137.695
1532214767.237,10.254,37.598,18.066,0.977,196.289
1532214767.241,9.277,37.109,20.996,-1.465,216.309
1532214767.245,8.789,38.086,22.461,-3.906,-105.957
1532214767.249,4.883,35.645,23.438,-4.395,-172.363
1532214767.253,6.348,35.156,26.855,-2.441,143.555
1532214767.256,7.812,37.598,27.832,-9.277,215.332
1532214767.260,4.395,35.645,27.344,-12.695,-83.984
1532214767.264,2.930,31.738,25.391,-2.441,-207.520
1532214767.268,8.301,30.273,24.902,0.977,73.242
1532214767.272,12.207,34.180,25.879,-4.395,272.949
1532214767.276,13.184,38.086,28.809,-5.859,56.641
1532214767.280,12.695,39.062,26.367,-5.859,-207.520
1532214767.284,14.648,38.086,23.926,-1.953,-41.992
1532214767.288,17.578,36.133,27.344,2.441,268.555
1532214767.292,19.531,37.598,29.297,1.953,157.227
1532214767.296,19.531,36.621,29.297,0.977,-187.012
1532214767.299,20.508,39.062,28.320,7.812,-134.277
1532214767.303,24.902,39.551,28.809,10.254,211.426
1532214767.307,22.949,39.062,32.227,5.859,230.469
1532214767.311,26.855,41.504,31.250,2.930,-122.559
1532214767.315,35.645,41.992,30.762,-1.953,-234.375
1532214767.319,31.738,40.527,32.227,-2.930,112.793
1532214767.323,30.762,41.016,31.250,-3.906,282.227
1532214767.327,26.367,39.062,30.273,-6.348,4.395
1532214767.331,16.602,35.156,30.762,0.977,-203.613
1532214767.335,13.672,34.180,29.785,12.695,19.531
1532214767.338,8.789,32.715,30.273,15.625,263.184
1532214767.342,2.441,32.227,33.691,9.766,100.098
1532214767.346,3.906,34.180,36.133,6.348,-211.914
1532214767.350,-3.906,34.180,34.180,8.789,-71.777
1532214767.354,-15.625,35.645,35.645,5.859,225.586
1532214767.358,-19.531,35.156,41.992,-3.906,151.367
1532214767.362,-5.371,32.715,43.945,-2.930,-155.273
1532214767.366,13.184,41.504,37.109,6.348,-162.109
1532214767.370,13.672,50.781,30.762,5.371,192.383
1532214767.374,8.789,50.781,31.250,-10.742,255.859
1532214767.378,7.324,47.363,35.156,-24.414,-77.637
1532214767.381,3.418,39.062,41.504,-13.184,-214.355
1532214767.385,-2.441,40.039,41.016,-4.395,95.703
1532214767.389,-4.883,45.410,36.621,-16.602,257.812
1532214767.393,-1.465,46.875,35.156,-29.297,-21.484
1532214767.397,-0.977,48.340,31.738,-32.227,-255.859
1532214767.401,-1.953,49.316,23.438,-25.879,11.230
1532214767.405,-3.906,49.316,23.926,-21.484,260.742
1532214767.409,-6.836,47.852,28.320,-20.996,84.473
1532214767.413,-4.883,46.387,29.785,-16.602,-227.539
1532214767.417,-18.066,40.527,34.180,-18.066,-106.934
1532214767.421,-26.367,37.598,38.574,-23.438,240.234
1532214767.424,-15.137,40.527,37.109,-21.484,175.293
1532214767.428,-11.719,41.504,32.715,-20.996,-152.832
1532214767.432,-22.949,41.016,31.738,-26.367,-185.547
1532214767.436,-22.461,42.969,31.738,-26.855,145.508
1532214767.440,-16.602,41.992,32.715,-27.344,221.191
1532214767.444,-22.461,40.527,35.156,-30.762,-102.539
1532214767.448,-19.531,41.016,33.691,-29.785,-216.797
1532214767.452,-13.184,43.945,30.273,-27.832,75.684
1532214767.456,-8.301,49.805,25.879,-36.133,231.934
1532214767.460,-9.766,53.223,24.414,-41.504,-17.578
1532214767.463,-14.160,50.781,32.227,-34.180,-240.723
1532214767.467,-8.789,47.363,35.156,-27.344,-25.879
1532214767.471,-13.672,51.270,29.785,-27.832,277.344
1532214767.475,-22.949,55.664,31.250,-36.621,145.996
1532214767.479,-28.320,51.758,39.551,-38.086,-213.867
1532214767.483,-30.273,46.875,41.504,-28.320,-129.883
1532214767.487,-14.648,47.363,36.621,-21.973,228.027
1532214767.491,-6.348,52.734,31.250,-22.949,262.695
1532214767.495,-13.184,56.152,30.762,-33.203,-120.605
1532214767.499,-20.996,49.316,36.621,-34.668,-216.797
1532214767.503,-14.160,45.410,32.715,-26.855,145.508
1532214767.506,-15.137,48.828,28.809,-23.926,281.250
1532214767.510,-19.531,48.340,33.203,-28.809,15.625
1532214767.514,-7.324,46.875,31.250,-30.762,-210.449
1532214767.518,-3.906,47.363,27.344,-25.391,28.320
1532214767.522,-4.395,46.387,27.832,-26.367,290.039
1532214767.526,-9.766,44.434,29.297,-38.086,89.355
1532214767.530,-17.578,46.387,29.785,-43.457,-199.219
1532214767.534,-16.113,51.270,30.762,-37.109,-41.016
1532214767.538,-13.672,51.270,32.715,-38.086,232.910
1532214767.542,-10.254,47.363,35.156,-37.598,164.551
1532214767.545,-11.230,41.992,37.109,-33.203,-135.254
1532214767.549,-2.930,37.109,36.621,-17.578,-108.398
1532214767.553,1.465,40.039,34.668,-10.742,227.051
1532214767.557,-2.930,47.852,25.391,-30.273,252.441
1532214767.561,-1.953,49.316,19.043,-41.504,-102.539
1532214767.565,-15.625,46.875,23.926,-36.133,-214.844
1532214767.569,-26.367,42.969,31.250,-34.180,109.375
1532214767.573,-23.926,42.969,33.691,-37.598,274.414
1532214767.577,-13.672,45.898,29.297,-41.504,-28.809
1532214767.581,-3.418,44.434,23.438,-38.086,-260.742
1532214767.585,-7.324,42.480,25.391,-34.668,11.719
1532214767.588,-11.719,41.016,29.297,-37.109,269.531
1532214767.592,-15.625,38.574,30.273,-39.062,99.121
1532214767.596,-24.414,31.250,36.133,-41.016,-229.980
1532214767.600,-16.602,26.367,38.574,-23.438,-88.867
1532214767.604,-0.977,33.203,30.273,-14.160,271.484
1532214767.608,-3.418,40.039,25.879,-29.297,204.590
1532214767.612,-4.883,44.434,19.531,-26.367,-166.016
1532214767.616,-0.977,44.434,17.578,-12.207,-170.410
1532214767.620,-5.371,37.598,24.902,-8.789,184.082
1532214767.624,-4.395,34.180,28.320,-9.766,248.535
1532214767.628,-6.836,34.180,31.738,-13.184,-79.102
1532214767.631,-4.883,31.250,31.250,-6.836,-223.145
1532214767.635,9.277,32.715,25.391,2.441,55.176
1532214767.639,11.719,39.062,23.926,-2.930,236.816
1532214767.643,-0.488,38.086,27.344,-16.113,2.441
1532214767.647,-11.230,36.133,28.809,-21.484,-229.004
1532214767.651,-14.160,31.250,29.297,-14.648,8.301
1532214767.655,-20.996,28.320,31.738,-17.578,256.836
1532214767.659,-16.602,32.227,32.227,-22.461,90.332
1532214767.663,-12.207,33.203,30.273,-14.160,-200.195
1532214767.667,-20.996,30.273,35.156,-9.766,-97.656
1532214767.670,-22.949,26.367,41.016,-4.883,217.773
1532214767.674,-6.836,24.902,40.527,-2.441,172.852
1532214767.678,-3.418,33.203,35.645,-17.090,-195.312
1532214767.682,-6.836,41.992,29.297,-20.508,-210.449
1532214767.686,-6.836,41.992,23.926,-17.578,159.668
1532214767.690,-3.906,41.992,20.996,-18.066,268.555
1532214767.694,-3.906,44.434,22.461,-18.555,-35.156
1532214767.698,-8.789,39.551,26.367,-14.648,-199.219
1532214767.702,-10.254,36.133,29.297,-6.348,77.148
1532214767.706,-1.465,35.645,29.785,-3.418,288.574
1532214767.710,8.301,36.133,24.902,-6.348,47.852
1532214767.713,5.371,42.480,16.602,-13.184,-242.188
1532214767.717,0.000,41.504,17.090,-9.277,-35.645
1532214767.721,1.953,34.668,21.484,-8.789,250.000
1532214767.725,0.488,33.691,21.973,-12.207,133.789
1532214767.729,-3.906,34.180,24.902,-5.859,-195.801
1532214767.733,0.977,32.715,25.879,2.930,-142.090
1532214767.737,11.719,32.227,26.367,10.742,189.453
1532214767.741,12.207,36.133,24.414,5.371,230.469
1532214767.745,14.160,41.992,21.484,-4.395,-93.262
1532214767.749,12.695,43.457,22.461,-5.859,-190.918
1532214767.753,5.371,42.480,23.926,-2.930,129.395
1532214767.756,4.395,41.504,22.461,-8.789,250.488
1532214767.760,0.000,40.039,22.461,-19.043,-36.133
1532214767.764,0.488,39.551,25.391,-17.090,-229.980
1532214767.768,9.277,36.133,26.367,-11.719,31.738
1532214767.772,-3.418,31.250,25.879,-9.766,258.789
1532214767.776,-11.230,31.250,24.902,-13.184,25.879
1532214767.780,-0.977,31.738,25.879,-10.254,-264.648
1532214767.784,5.371,30.762,24.414,0.488,-61.035
1532214767.788,1.465,30.273,22.949,3.418,267.090
1532214767.792,-3.906,28.809,22.461,0.488,160.156
1532214767.795,-5.859,28.320,21.484,-5.371,-196.289
1532214767.799,-0.488,28.809,18.066,-5.859,-145.020
1532214767.803,2.441,28.809,19.531,0.488,193.848
1532214767.807,7.812,30.273,26.855,4.395,217.773
1532214767.811,7.812,32.227,28.809,3.418,-111.328
1532214767.815,2.441,34.180,27.832,-1.953,-215.332
1532214767.819,0.977,35.156,24.414,0.488,109.863
1532214767.823,2.930,32.227,24.414,3.906,288.574
1532214767.827,-3.418,29.297,28.320,-4.883,13.184
1532214767.831,-4.395,30.273,26.367,-3.418,-248.535
1532214767.835,-1.465,32.715,23.438,-1.953,-2.930
1532214767.838,-5.859,34.180,23.926,-3.418,259.766
1532214767.842,-4.395,33.691,26.367,-9.766,74.707
1532214767.846,-6.836,34.180,20.996,-20.020,-216.797
1532214767.850,-4.883,35.156,20.508,-13.184,-73.730
1532214767.854,-6.348,32.227,28.809,-8.301,245.117
1532214767.858,-7.324,32.227,33.691,-12.207,166.992
1532214767.862,-6.348,32.715,34.668,-14.160,-164.551
1532214767.866,-17.578,30.762,35.156,-13.184,-144.531
1532214767.870,-21.973,28.809,38.086,-9.766,190.430
1532214767.874,-18.066,23.926,44.922,-10.254,237.793
1532214767.877,-14.648,27.832,41.992,-17.090,-124.023
1532214767.881,-7.324,36.621,27.832,-15.625,-223.145
1532214767.885,-14.160,38.574,23.926,-12.207,115.723
1532214767.889,-20.508,34.180,34.668,-19.043,282.715
1532214767.893,-9.277,30.762,39.551,-24.414,-0.488
1532214767.897,-2.441,37.109,33.203,-18.555,-250.977
1532214767.901,-9.277,43.457,24.414,-19.043,18.066
1532214767.905,-16.113,42.480,24.902,-24.414,300.293
1532214767.909,-5.371,44.922,25.391,-25.879,115.723
1532214767.913,8.789,51.758,18.066,-16.113,-235.352
1532214767.917,4.395,45.898,20.996,-10.742,-132.324
1532214767.920,-8.789,41.016,26.367,-18.555,223.145
1532214767.924,-10.254,41.016,26.367,-19.043,198.242
1532214767.928,-4.883,37.109,29.785,-15.625,-155.273
1532214767.932,0.488,38.574,27.832,-7.812,-180.664
1532214767.936,-1.465,34.180,26.367,-2.930,148.438
1532214767.940,6.348,32.227,26.367,-3.418,237.305
1532214767.944,18.066,32.227,30.273,-6.836,-29.297
1532214767.948,3.906,25.879,32.715,-8.789,-202.637
1532214767.952,-4.395,28.320,30.762,-3.906,67.871
1532214767.956,2.930,38.574,27.832,-15.137,239.746
1532214767.960,-1.953,40.527,26.855,-27.344,14.160
1532214767.963,-7.324,37.109,24.414,-19.043,-217.285
1532214767.967,-6.348,40.039,26.367,-10.254,-24.902
1532214767.971,-4.883,44.922,23.926,-12.695,268.066
1532214767.975,-2.930,48.828,18.555,-24.902,144.531
1532214767.979,-3.906,50.293,18.555,-22.949,-187.500
1532214767.983,-9.766,47.363,18.555,-13.184,-110.840
1532214767.987,-11.230,44.922,24.902,-15.625,220.215
1532214767.991,-16.113,44.434,29.785,-21.484,220.703
1532214767.995,-20.020,41.992,27.832,-26.367,-132.324
1532214767.999,-16.113,41.504,29.785,-19.531,-222.656
1532214768.002,-19.043,35.156,35.156,-20.508,131.348
1532214768.006,-19.531,30.762,37.598,-20.996,247.559
1532214768.010,-7.324,35.156,34.668,-16.113,-49.316
1532214768.014,-11.230,38.086,31.250,-23.926,-241.211
1532214768.018,-29.297,39.062,31.250,-31.250,-0.977
1532214768.022,-28.320,36.621,36.133,-24.902,248.047
1532214768.026,-18.066,36.621,38.574,-21.484,55.176
1532214768.030,-14.648,40.527,34.668,-27.344,-251.465
1532214768.034,-1.465,45.898,25.879,-26.855,-66.895
1532214768.038,-3.906,49.805,22.461,-20.508,262.695
1532214768.042,-28.320,44.434,30.762,-26.855,153.809
1532214768.045,-28.320,38.086,38.086,-35.645,-231.934
1532214768.049,-17.578,37.109,32.715,-26.855,-166.992
1532214768.053,-13.672,37.598,28.320,-16.602,185.547
1532214768.057,-17.578,35.645,28.320,-21.973,213.379
1532214768.061,-22.461,37.109,26.855,-22.461,-77.637
1532214768.065,-25.391,37.598,26.367,-18.066,-183.594
1532214768.069,-26.367,35.156,29.785,-17.578,162.598
1532214768.073,-16.602,36.133,35.156,-13.184,303.223
1532214768.077,-10.742,36.621,37.598,-11.719,-26.367
1532214768.081,-15.625,33.203,34.668,-9.766,-238.770
1532214768.085,-11.719,29.785,37.109,-0.488,35.645
1532214768.088,-11.230,26.367,44.922,5.859,293.945
1532214768.092,-10.254,27.832,45.898,-2.441,77.637
1532214768.096,-7.324,32.715,42.969,-17.090,-252.930
1532214768.100,-8.789,35.156,39.062,-10.254,-86.426
1532214768.104,-8.301,42.480,31.250,-6.348,268.066
1532214768.108,-0.977,49.805,23.438,-13.672,188.965
1532214768.112,2.441,46.387,26.855,-15.137,-183.594
1532214768.116,-11.719,39.551,33.691,-17.090,-164.551
1532214768.120,-10.742,40.039,29.785,-9.277,203.613
1532214768.124,-15.625,37.109,33.691,-7.812,245.117
1532214768.127,-22.949,35.156,39.551,-13.672,-106.934
1532214768.131,-10.254,36.621,37.109,-6.836,-200.684
1532214768.135,2.930,41.992,31.250,1.953,111.816
1532214768.139,6.836,43.945,30.762,4.395,258.789
1532214768.143,-1.465,40.039,37.598,-3.906,9.766
1532214768.147,-3.906,39.062,38.574,-3.906,-220.215
1532214768.151,8.301,39.551,34.668,7.812,21.973
1532214768.155,13.184,38.574,35.156,0.488,281.738
1532214768.159,1.465,39.551,36.133,-13.184,115.723
1532214768.163,-0.488,42.480,30.762,-14.160,-188.477
1532214768.167,0.488,44.922,22.461,-9.277,-75.684
1532214768.170,-3.906,41.504,20.996,-7.324,241.699
1532214768.174,-0.977,39.062,23.926,-12.207,203.125
1532214768.178,14.648,40.527,24.414,-9.277,-149.902
1532214768.182,-0.977,38.574,26.367,-6.348,-188.965
1532214768.186,-20.996,33.691,31.738,-3.418,151.855
1532214768.190,0.488,31.250,33.203,1.953,233.398
1532214768.194,12.207,40.039,26.367,-9.277,-102.051
1532214768.198,11.230,47.363,18.555,-15.137,-266.602
1532214768.202,7.324,40.527,20.020,-6.836,49.805
1532214768.206,4.883,36.133,25.879,-13.184,266.602
1532214768.210,12.695,38.086,22.949,-19.531,59.570
1532214768.213,19.043,39.551,23.438,-18.066,-235.840
1532214768.217,22.949,36.133,25.391,-12.695,-63.965
1532214768.221,23.926,34.668,27.832,1.465,267.090
1532214768.225,20.020,35.645,29.785,7.812,159.180
1532214768.229,4.395,33.203,29.785,7.812,-196.289
1532214768.233,-8.789,29.297,34.180,10.742,-135.742
1532214768.237,-6.836,27.344,38.574,11.230,200.684
1532214768.241,2.930,31.738,39.062,16.113,178.711
1532214768.245,3.418,40.039,35.156,4.883,-141.113
1532214768.249,-2.441,42.969,28.809,-1.465,-172.852
1532214768.252,-2.441,40.039,30.762,4.883,131.348
1532214768.256,-0.977,39.062,32.715,1.465,240.723
1532214768.260,4.883,41.992,27.832,-3.906,-25.879
1532214768.264,8.789,43.457,23.438,-3.906,-227.539
1532214768.268,0.488,38.574,24.902,-1.953,38.574
1532214768.272,-8.301,34.180,29.297,-10.254,278.320
1532214768.276,-15.137,35.645,30.762,-20.020,64.453
1532214768.280,-13.672,32.715,34.180,-17.090,-208.984
1532214768.284,-3.418,29.785,33.203,-3.418,-40.527
1532214768.288,2.930,34.180,27.832,1.465,247.070
1532214768.292,3.906,41.504,25.391,-3.906,156.250
1532214768.295,14.648,44.922,18.066,-13.672,-212.402
1532214768.299,22.461,41.016,13.184,-8.789,-190.430
1532214768.303,1.953,36.621,21.973,-2.441,198.730
1532214768.307,-0.488,38.086,24.902,-3.418,248.535
1532214768.311,12.695,37.109,26.855,2.441,-116.211
1532214768.315,5.371,33.203,32.227,3.418,-235.840
1532214768.319,3.906,32.715,26.855,9.277,111.816
1532214768.323,13.672,37.109,20.020,10.254,275.391
1532214768.327,19.043,41.016,20.508,4.395,-22.949
1532214768.331,6.836,36.621,21.973,1.953,-240.723
1532214768.334,-4.395,34.180,23.926,-6.836,-6.348
1532214768.338,2.441,36.621,24.902,-12.207,229.492
1532214768.342,11.719,37.109,22.461,-1.465,39.551
1532214768.346,13.672,38.574,22.461,8.789,-240.723
1532214768.350,23.926,36.621,24.902,13.672,-62.500
1532214768.354,24.414,33.691,24.414,15.137,243.164
1532214768.358,12.695,36.133,22.949,2.930,155.762
1532214768.362,13.184,37.109,23.438,-6.348,-198.730
1532214768.366,10.254,34.668,25.391,-0.488,-168.457
1532214768.370,10.742,33.691,27.344,2.930,176.758
1532214768.374,10.254,35.645,28.320,-5.859,211.914
1532214768.377,3.418,37.598,29.297,-15.625,-103.516
1532214768.381,-1.953,35.156,27.832,-9.766,-221.191
1532214768.385,-0.488,29.297,32.227,1.465,92.773
1532214768.389,5.371,29.785,32.227,4.395,240.723
1532214768.393,15.625,32.715,30.762,5.859,-28.809
1532214768.397,23.438,33.691,34.668,11.719,-235.352
1532214768.401,21.973,40.039,30.273,17.578,8.301
1532214768.405,20.020,42.969,30.762,12.695,277.832
1532214768.409,5.859,42.969,39.062,-5.371,121.094
1532214768.413,-6.836,41.504,40.039,-15.137,-204.102
1532214768.417,0.000,38.574,36.621,-6.348,-94.238
1532214768.420,2.930,40.039,35.156,-0.977,249.512
1532214768.424,2.441,42.480,27.344,-11.230,188.477
1532214768.428,2.930,43.457,20.996,-20.020,-159.668
1532214768.432,-10.254,40.039,28.320,-18.555,-171.875
1532214768.436,-24.902,37.109,35.156,-26.367,154.297
1532214768.440,-12.695,32.227,37.598,-20.020,208.984
1532214768.444,5.371,27.832,38.086,-3.418,-86.914
1532214768.448,8.789,38.086,30.762,-2.441,-211.426
1532214768.452,14.648,48.340,24.902,0.977,68.848
1532214768.456,22.949,50.293,24.902,3.418,276.367
1532214768.459,24.414,44.434,29.785,-2.930,27.344
1532214768.463,22.949,39.551,32.227,-1.953,-231.934
1532214768.467,15.137,35.645,30.762,7.324,-0.977
1532214768.471,8.789,31.250,29.785,8.789,278.809
1532214768.475,1.953,29.785,31.738,-2.441,114.258
1532214768.479,-0.977,28.320,35.645,-11.719,-225.098
1532214768.483,5.859,29.785,32.227,-0.977,-139.160
1532214768.487,13.672,32.715,26.367,9.277,207.520
1532214768.491,16.602,32.715,31.250,5.859,206.055
1532214768.495,12.695,34.668,34.668,-1.953,-160.645
1532214768.499,-7.324,35.156,35.156,-2.930,-208.984
1532214768.502,-12.695,33.203,37.598,1.953,146.484
1532214768.506,5.371,31.738,38.574,8.301,279.297
1532214768.510,19.043,32.227,34.668,3.906,-12.207
1532214768.514,13.184,33.203,31.250,-3.418,-246.094
1532214768.518,5.371,34.180,34.668,-2.441,38.574
1532214768.522,2.441,35.645,38.086,-3.906,308.594
1532214768.526,2.441,37.109,36.621,-5.859,65.918
1532214768.530,5.859,35.645,34.180,-5.371,-215.332
1532214768.534,2.930,34.180,38.574,-2.930,-37.109
1532214768.538,-0.977,34.668,40.527,-3.418,233.887
1532214768.542,-3.906,33.691,37.598,-6.836,157.715
1532214768.545,0.488,35.156,34.180,-8.789,-181.152
1532214768.549,9.766,35.645,34.180,1.953,-147.461
1532214768.553,-1.465,34.668,39.551,0.488,190.430
1532214768.557,-9.277,36.621,41.504,-16.602,220.215
1532214768.561,-2.441,36.133,37.598,-18.555,-105.469
1532214768.565,-6.836,33.203,38.086,-10.742,-207.520
1532214768.569,-7.324,27.344,40.039,-0.488,103.516
1532214768.573,2.930,25.391,41.504,-3.418,234.375
1532214768.577,2.441,33.203,37.598,-20.508,-29.785
1532214768.581,0.977,41.504,25.391,-18.066,-225.586
1532214768.584,-4.883,40.527,25.879,-8.789,32.715
1532214768.588,-16.113,36.133,36.621,-15.137,281.738
1532214768.592,-6.836,37.598,36.133,-16.113,82.031
1532214768.596,-1.953,38.574,37.598,-10.742,-227.539
1532214768.600,-11.230,34.180,43.457,-4.395,-64.941
1532214768.604,-12.207,32.715,41.992,-8.301,261.719
1532214768.608,-7.812,35.156,36.133,-16.113,193.848
1532214768.612,-2.930,33.203,36.621,-18.066,-172.363
1532214768.616,0.488,33.691,38.086,-19.531,-203.125
1532214768.620,-0.488,37.598,37.109,-12.695,159.180
1532214768.624,-6.836,39.062,38.574,-9.277,211.914
1532214768.627,-3.418,40.039,39.551,-14.160,-109.375
1532214768.631,5.859,38.086,40.039,-10.742,-225.098
1532214768.635,1.953,34.668,40.039,-7.324,59.570
1532214768.639,0.000,36.621,37.598,-6.836,238.770
1532214768.643,7.324,42.969,33.691,-8.789,11.230
1532214768.647,12.207,45.898,30.762,-2.930,-228.516
1532214768.651,7.324,41.016,32.715,0.000,-5.859
1532214768.655,-9.766,39.062,36.621,-12.695,250.977
1532214768.659,-9.277,40.039,37.598,-8.301,100.586
1532214768.663,7.324,41.016,34.180,-0.488,-214.355
1532214768.666,5.371,39.062,30.273,-1.953,-100.098
1532214768.670,-1.953,34.668,33.691,-2.441,245.605
1532214768.674,1.953,36.133,36.133,-6.836,192.383
1532214768.678,11.719,39.551,32.715,-9.766,-183.594
1532214768.682,18.066,36.621,30.762,-2.441,-207.520
1532214768.686,7.812,32.227,30.762,-5.859,148.438
1532214768.690,3.418,33.203,32.227,-16.602,214.355
1532214768.694,9.277,35.645,32.227,-18.555,-88.379
1532214768.698,5.371,34.668,29.785,-10.742,-223.633
1532214768.702,3.418,37.109,28.320,-1.953,62.988
1532214768.706,6.348,41.016,27.832,-0.977,286.133
1532214768.709,11.230,39.551,29.785,-5.859,44.922
1532214768.713,9.766,36.133,31.250,-9.277,-260.254
1532214768.717,3.906,34.668,29.785,-7.324,-48.828
1532214768.721,3.418,35.156,28.320,-4.883,257.324
1532214768.725,9.277,35.156,30.273,-6.836,123.047
1532214768.729,12.207,34.180,32.227,-6.348,-198.242
1532214768.733,18.555,34.668,28.809,-2.441,-121.094
1532214768.737,19.043,35.156,26.855,-5.371,180.664
1532214768.741,16.113,37.109,26.367,-9.277,189.941
1532214768.745,20.996,41.016,26.855,-9.277,-139.160
1532214768.749,20.996,41.992,26.367,-6.836,-207.520
1532214768.752,19.531,38.574,24.414,-5.859,141.602
1532214768.756,21.973,37.598,26.367,-9.766,256.348
1532214768.760,20.508,39.062,28.320,-8.301,-62.012
1532214768.764,17.090,38.574,26.855,0.488,-229.980
1532214768.768,19.043,38.574,26.367,8.301,62.500
1532214768.772,19.043,37.109,26.855,10.254,256.836
1532214768.776,16.602,36.133,26.367,8.301,44.434
1532214768.780,10.254,36.621,25.391,4.395,-230.469
1532214768.784,10.742,36.133,25.391,6.836,-71.289
1532214768.788,9.277,36.621,22.949,3.906,243.164
1532214768.791,6.348,39.062,21.973,-6.348,152.344
1532214768.795,14.648,41.504,23.926,-12.695,-195.801
1532214768.799,10.254,42.969,22.461,-12.207,-138.184
1532214768.803,11.719,42.969,23.926,-3.906,204.102
1532214768.807,8.301,40.039,24.902,-8.301,224.121
1532214768.811,-7.324,36.621,22.949,-18.066,-83.008
1532214768.815,-7.324,34.668,25.879,-18.555,-187.012
1532214768.819,-8.301,36.133,26.855,-11.230,104.004
1532214768.823,-8.301,35.645,23.926,-10.254,269.531
1532214768.827,-6.348,34.180,27.344,-11.230,5.859
1532214768.831,-12.207,33.691,30.762,-7.324,-224.609
1532214768.834,-15.625,32.715,31.250,-3.906,46.875
1532214768.838,-9.277,33.691,32.715,-4.395,305.176
1532214768.842,-19.531,33.203,35.645,-11.719,90.820
1532214768.846,-25.391,34.668,33.691,-13.184,-227.539
1532214768.850,-18.555,36.133,30.762,-6.348,-62.012
1532214768.854,-5.859,38.574,27.832,-16.602,218.750
1532214768.858,-8.789,46.387,20.996,-36.621,126.465
1532214768.862,-23.926,45.898,18.555,-33.203,-170.410
1532214768.866,-28.320,39.551,21.973,-22.949,-138.672
1532214768.870,-26.855,37.598,26.367,-19.043,181.641
1532214768.874,-17.578,38.574,28.320,-20.996,240.723
1532214768.877,-7.812,38.086,28.809,-22.949,-64.941
1532214768.881,-1.465,36.133,27.832,-16.602,-180.176
1532214768.885,3.418,33.203,29.297,-14.160,139.160
1532214768.889,-4.883,34.180,28.809,-19.531,302.246
1532214768.893,-15.137,37.598,25.391,-27.344,2.930
1532214768.897,-14.648,37.598,25.391,-36.621,-262.207
1532214768.901,-22.461,33.691,28.809,-32.227,-28.809
1532214768.905,-22.949,28.809,33.203,-26.855,258.301
1532214768.909,-16.113,30.762,33.203,-26.367,118.652
1532214768.913,-9.766,31.250,35.156,-23.926,-198.730
1532214768.916,0.977,28.809,34.668,-14.160,-81.055
1532214768.920,-3.418,33.691,32.227,-13.184,228.516
1532214768.924,3.418,36.133,30.273,-23.926,202.637
1532214768.928,9.766,38.086,28.809,-22.949,-118.164
1532214768.932,-4.395,41.504,29.297,-15.625,-179.688
1532214768.936,-4.395,41.016,28.320,-12.695,132.812
1532214768.940,-5.859,39.062,32.227,-16.113,226.562
1532214768.944,-5.859,41.992,31.250,-22.949,-75.195
1532214768.948,-7.812,41.016,28.320,-22.949,-218.750
1532214768.952,-5.859,39.062,32.227,-15.625,70.801
1532214768.956,4.883,40.527,31.738,-19.531,241.699
1532214768.959,7.324,40.039,30.273,-24.414,16.602
1532214768.963,9.766,39.062,31.250,-15.625,-224.121
1532214768.967,8.789,36.133,32.715,-9.277,-20.508
1532214768.971,-3.418,35.645,32.227,-8.789,268.066
1532214768.975,-8.301,33.691,29.297,-15.625,129.395
1532214768.979,-6.836,31.250,34.668,-12.695,-190.918
1532214768.983,3.418,33.691,40.039,-1.953,-117.188
1532214768.987,4.395,38.086,33.691,-0.977,223.145
1532214768.991,-2.930,39.062,29.785,-8.789,243.652
1532214768.995,1.465,38.574,31.250,-22.949,-136.719
1532214768.999,-1.465,37.109,32.227,-21.973,-206.543
1532214769.002,-16.602,33.691,32.715,-11.719,161.621
1532214769.006,-9.766,32.227,34.668,-14.160,277.832
1532214769.010,5.859,30.273,36.621,-10.742,-20.020
1532214769.014,4.395,29.297,36.133,-10.742,-234.375
1532214769.018,-4.883,31.250,33.691,-17.090,34.668
1532214769.022,-13.672,35.645,31.738,-18.066,266.113
1532214769.026,-6.836,41.992,26.855,-18.066,41.992
1532214769.030,-0.488,43.457,22.949,-20.508,-231.445
1532214769.034,-2.930,43.457,24.902,-19.531,-62.500
1532214769.038,-8.301,41.992,27.832,-24.902,215.332
1532214769.041,-20.996,38.086,30.762,-28.809,129.395
1532214769.045,-18.066,39.062,33.203,-20.508,-168.457
1532214769.049,-8.301,39.062,26.855,-8.789,-104.980
1532214769.053,-7.324,35.645,20.020,-7.324,197.754
1532214769.057,-14.648,32.715,24.902,-12.207,231.445
1532214769.061,-15.625,32.227,33.203,-17.578,-86.914
1532214769.065,-12.695,34.180,34.180,-11.719,-189.453
1532214769.069,-14.648,34.180,30.273,-3.906,136.230
1532214769.073,-12.695,36.133,33.203,-4.395,259.277
1532214769.077,-12.695,34.668,39.551,-9.766,-7.324
1532214769.081,-9.766,31.738,37.109,-7.812,-218.750
1532214769.084,-4.395,34.180,28.809,-3.418,26.855
1532214769.088,-5.859,41.504,25.879,-11.719,282.227
1532214769.092,-7.812,43.945,24.902,-21.973,83.984
1532214769.096,-10.742,39.062,23.926,-30.273,-222.656
1532214769.100,-15.625,37.109,26.367,-22.949,-81.543
1532214769.104,-16.113,35.645,29.785,-15.625,248.047
1532214769.108,-18.066,32.227,30.762,-20.996,191.406
1532214769.112,-17.090,31.250,31.738,-18.066,-164.551
1532214769.116,-4.395,33.203,30.273,-7.812,-164.062
1532214769.120,10.254,35.156,24.414,-0.977,186.035
1532214769.123,15.137,38.086,24.414,0.000,232.910
1532214769.127,12.695,38.086,26.855,-8.789,-83.008
1532214769.131,3.418,33.203,22.461,-15.625,-204.590
1532214769.135,-4.395,29.297,26.367,-22.949,72.754
1532214769.139,0.488,30.762,30.273,-27.832,223.145
1532214769.143,11.230,32.715,28.809,-18.066,17.090
1532214769.147,11.719,28.809,33.203,-16.602,-193.359
1532214769.151,11.230,25.391,31.738,-17.578,12.207
1532214769.155,17.090,28.809,27.344,-10.742,252.930
1532214769.159,15.625,31.250,28.320,-3.906,96.680
1532214769.163,8.301,28.809,31.738,1.953,-208.984
1532214769.166,-5.371,27.344,33.691,13.184,-97.168
1532214769.170,-10.254,29.297,30.273,23.438,214.355
1532214769.174,-6.348,31.250,28.320,14.160,179.199
1532214769.178,6.836,31.738,29.297,4.883,-169.922
1532214769.182,1.465,31.250,26.367,9.766,-175.781
1532214769.186,-11.719,33.203,22.461,10.254,177.734
1532214769.190,-4.883,33.203,23.438,9.277,245.605
1532214769.194,1.465,33.691,23.926,-0.488,-92.773
1532214769.198,1.465,33.203,20.996,-6.836,-235.352
1532214769.202,-2.441,28.809,20.996,-1.953,67.383
1532214769.206,-0.488,27.344,20.508,-2.930,262.207
1532214769.209,0.000,27.832,22.461,-7.812,29.297
1532214769.213,-0.488,30.762,25.391,-6.348,-247.559
1532214769.217,8.301,32.227,22.949,1.465,-59.082
1532214769.221,17.090,33.691,21.973,7.324,214.844
1532214769.225,11.719,35.156,22.461,3.906,113.770
1532214769.229,7.324,36.133,18.066,0.000,-195.312
1532214769.233,8.789,37.109,21.484,3.418,-105.469
1532214769.237,9.277,34.668,27.344,6.348,208.008
1532214769.241,9.277,33.203,26.367,9.277,197.266
1532214769.245,8.301,32.715,26.855,10.254,-111.328
1532214769.248,5.371,30.762,30.762,13.672,-172.363
1532214769.252,5.371,29.785,29.297,8.301,128.906
1532214769.256,7.812,30.273,25.391,-2.441,225.586
1532214769.260,9.277,30.762,25.879,-11.719,-33.691
1532214769.264,2.930,28.809,26.367,-16.113,-228.027
1532214769.268,-2.441,29.297,26.367,-13.672,42.480
1532214769.272,-1.953,31.250,20.996,-14.648,275.879
1532214769.276,1.953,33.203,19.531,-22.461,16.113
1532214769.280,7.324,32.715,26.367,-20.508,-235.840
1532214769.284,8.301,32.715,24.902,-6.348,-38.574
1532214769.288,14.648,32.227,21.973,-2.441,244.141
1532214769.291,17.090,33.203,24.414,-4.883,145.508
1532214769.295,12.695,34.668,25.391,-2.441,-203.125
1532214769.299,18.555,33.203,23.438,0.488,-150.391
1532214769.303,13.672,29.785,20.020,1.953,199.219
1532214769.307,9.277,25.391,20.020,0.488,202.148
1532214769.311,11.230,26.855,20.996,-7.812,-124.512
1532214769.315,6.836,28.320,20.508,-15.137,-229.492
1532214769.319,1.953,24.414,18.066,-16.113,80.078
1532214769.323,12.695,25.391,18.555,-5.371,241.699
1532214769.327,23.438,27.344,20.020,-2.441,-30.762
1532214769.331,24.902,27.344,19.043,2.441,-243.652
1532214769.334,29.785,27.832,17.090,11.230,31.738
1532214769.338,39.551,26.855,17.090,9.277,257.812
1532214769.342,33.691,28.320,15.625,2.930,63.477
1532214769.346,23.926,31.250,14.160,3.906,-186.523
1532214769.350,30.273,30.273,17.090,10.742,-51.270
1532214769.354,26.855,31.738,19.043,6.836,243.652
1532214769.358,21.973,34.180,18.066,4.395,159.668
1532214769.362,21.484,33.203,16.113,2.930,-182.617
1532214769.366,21.484,31.738,12.695,-3.906,-159.668
1532214769.370,24.902,32.227,15.137,0.488,190.918
1532214769.373,20.020,33.691,20.020,2.930,241.211
1532214769.377,19.043,35.645,20.996,-4.883,-107.910
1532214769.381,20.508,33.691,20.996,-4.395,-213.379
1532214769.385,21.973,35.156,22.461,1.953,116.211
1532214769.389,20.996,38.574,24.414,-2.441,271.484
1532214769.393,15.137,37.109,26.367,-16.113,13.184
1532214769.397,18.066,35.645,29.297,-17.578,-215.332
1532214769.401,9.277,36.621,24.414,-17.090,16.602
1532214769.405,-4.883,39.062,22.461,-20.996,259.766
1532214769.409,-0.977,39.062,27.344,-24.902,88.867
1532214769.413,-3.418,37.109,31.738,-29.297,-217.773
1532214769.416,-9.277,34.180,33.691,-29.785,-139.160
1532214769.420,1.465,33.203,32.227,-23.438,193.848
1532214769.424,15.137,38.086,31.738,-14.648,174.316
1532214769.428,0.977,44.434,30.762,-21.973,-150.879
1532214769.432,-19.043,44.922,31.738,-28.809,-146.973
1532214769.436,-20.508,41.016,35.645,-29.297,161.621
1532214769.440,-21.484,39.551,39.551,-31.250,241.211
1532214769.444,-24.414,35.156,46.875,-26.367,-58.105
1532214769.448,-14.160,34.668,43.457,-19.531,-211.914
1532214769.452,-14.160,43.945,33.691,-19.043,86.914
1532214769.455,-19.531,46.875,32.227,-30.762,250.977
1532214769.459,-16.602,43.457,32.715,-34.180,13.672
1532214769.463,-18.555,42.969,32.715,-30.762,-208.496
1532214769.467,-23.926,39.062,36.133,-31.250,-9.277
1532214769.471,-16.113,38.086,32.715,-25.879,279.297
1532214769.475,-12.207,40.039,26.367,-26.367,138.184
1532214769.479,-16.113,37.109,27.832,-30.273,-199.707
1532214769.483,-14.648,38.574,28.320,-22.949,-104.492
1532214769.487,-3.906,43.457,27.344,-4.883,229.980
1532214769.491,4.395,44.434,26.367,0.000,214.844
1532214769.495,-2.441,44.434,29.297,-11.230,-120.117
1532214769.498,-0.977,45.898,27.344,-8.301,-181.641
1532214769.502,1.953,43.945,20.996,-3.906,131.836
1532214769.506,2.930,39.551,23.926,-6.348,239.258
1532214769.510,4.883,37.109,29.785,-5.371,-37.109
1532214769.514,4.883,36.133,29.297,-6.836,-215.820
1532214769.518,1.953,34.668,26.855,-4.883,47.363
1532214769.522,3.906,34.668,23.926,0.977,300.781
1532214769.526,6.348,36.133,23.438,-2.441,83.008
1532214769.530,7.324,35.645,26.367,-4.395,-205.566
1532214769.534,17.090,36.621,27.344,2.930,-37.598
1532214769.538,21.484,39.062,31.250,5.859,238.281
1532214769.541,8.789,39.551,32.715,1.465,133.789
1532214769.545,6.348,36.133,28.809,-0.488,-217.773
1532214769.549,1.953,33.691,28.320,-0.488,-159.668
1532214769.553,-1.953,33.203,28.809,0.000,182.617
1532214769.557,4.883,33.691,27.832,-6.836,169.434
1532214769.561,12.695,35.156,27.832,-9.277,-160.156
1532214769.565,8.301,36.621,25.391,-3.906,-216.797
1532214769.569,9.766,34.668,20.996,0.000,104.980
1532214769.573,14.160,31.250,23.438,0.000,246.094
1532214769.577,12.695,33.691,25.879,-2.930,-17.578
1532214769.580,20.020,36.133,23.926,1.465,-196.777
1532214769.584,14.648,32.227,19.043,4.395,73.730
1532214769.588,10.254,31.738,17.090,3.906,296.387
1532214769.592,13.184,31.738,20.508,2.441,69.336
1532214769.596,13.184,30.762,20.508,-4.395,-242.188
1532214769.600,11.719,31.738,20.020,0.488,-74.219
1532214769.604,13.184,32.715,17.090,3.906,215.332
1532214769.608,12.695,34.180,15.625,3.418,122.070
1532214769.612,13.184,35.645,17.578,4.883,-195.801
1532214769.616,15.625,35.645,18.555,4.395,-167.480
1532214769.620,16.113,31.738,17.578,8.301,178.711
1532214769.623,12.695,32.715,17.090,3.418,229.980
1532214769.627,10.254,36.133,20.020,2.930,-95.215
1532214769.631,10.742,35.645,20.020,9.766,-210.938
1532214769.635,8.301,36.133,18.555,6.348,88.379
1532214769.639,6.348,37.109,19.043,2.930,267.578
1532214769.643,13.672,39.551,21.973,0.000,13.672
1532214769.647,16.113,38.086,23.438,0.000,-223.633
1532214769.651,9.277,36.621,22.949,6.836,-1.953
1532214769.655,4.883,38.086,28.809,3.418,220.703
1532214769.659,0.488,38.086,33.691,-2.930,78.613
1532214769.663,2.930,35.645,34.180,-1.953,-222.656
1532214769.666,2.441,33.691,32.715,3.418,-104.980
1532214769.670,-2.441,30.273,31.250,4.395,238.770
1532214769.674,-0.488,31.250,30.273,0.977,181.152
1532214769.678,1.465,34.668,25.391,-2.930,-168.945
1532214769.682,2.441,32.715,21.973,-0.488,-182.129
1532214769.686,11.230,32.227,21.973,4.883,142.090
1532214769.690,11.230,32.227,21.484,3.418,207.031
1532214769.694,4.883,32.715,22.461,-0.488,-99.609
1532214769.698,7.324,34.180,24.414,-1.465,-237.305
1532214769.702,4.395,34.180,21.973,9.277,83.008
1532214769.705,7.324,36.621,20.508,15.625,251.465
1532214769.709,16.113,39.062,21.973,12.695,9.277
1532214769.713,20.508,36.621,20.508,12.695,-212.402
1532214769.717,16.113,34.180,20.996,15.625,-16.602
1532214769.721,9.277,36.133,19.531,15.625,245.117
1532214769.725,9.766,38.574,18.066,7.324,127.930
1532214769.729,4.395,35.156,19.531,-1.465,-156.738
1532214769.733,1.465,32.227,19.531,1.465,-72.754
1532214769.737,5.859,34.180,18.555,-3.906,200.195
1532214769.741,2.930,33.203,18.066,-5.859,166.504
1532214769.745,12.207,30.762,20.996,3.906,-133.301
1532214769.748,11.719,30.762,22.461,8.789,-163.086
1532214769.752,-5.371,30.273,23.926,9.766,165.527
1532214769.756,-4.395,30.762,25.879,6.348,263.672
1532214769.760,0.488,32.715,23.438,5.371,-27.344
1532214769.764,3.418,31.738,22.949,10.742,-204.102
1532214769.768,6.348,32.227,24.414,16.602,71.777
1532214769.772,9.277,34.180,22.949,12.695,273.926
1532214769.776,9.277,34.668,20.020,6.348,33.691
1532214769.780,5.859,33.203,19.531,7.812,-228.516
1532214769.784,6.836,30.273,19.043,6.348,-54.199
1532214769.788,3.906,29.297,20.508,6.836,233.398
1532214769.791,-4.883,30.762,23.438,5.371,118.652
1532214769.795,2.441,35.156,26.855,0.488,-217.773
1532214769.799,11.230,32.227,27.344,2.930,-164.062
1532214769.803,8.301,29.297,24.902,9.766,161.621
1532214769.807,10.742,32.715,24.902,8.301,167.480
1532214769.811,19.043,33.691,21.973,7.812,-115.723
1532214769.815,12.207,29.785,22.461,11.230,-185.547
1532214769.819,5.371,28.320,22.949,10.254,125.000
1532214769.823,14.160,31.250,22.461,13.672,230.469
1532214769.827,17.578,30.762,23.926,10.254,-66.895
1532214769.830,18.066,30.273,24.414,6.836,-234.863
1532214769.834,19.531,30.273,21.973,6.348,8.301
1532214769.838,13.184,29.785,19.043,3.906,218.262
1532214769.842,17.578,30.762,20.996,5.371,42.480
1532214769.846,25.879,29.785,19.531,5.859,-201.172
1532214769.850,23.438,29.297,16.602,10.254,-53.223
1532214769.854,24.414,31.250,22.461,15.137,217.285
1532214769.858,31.250,32.227,24.902,14.160,136.230
1532214769.862,24.902,28.809,24.902,10.742,-175.293
1532214769.866,17.090,29.297,27.832,11.230,-136.719
1532214769.870,17.090,35.156,25.391,16.113,196.289
1532214769.873,15.137,36.133,24.902,2.441,225.586
1532214769.877,11.230,36.621,25.391,-12.207,-96.191
1532214769.881,14.648,39.062,23.438,-5.859,-215.332
1532214769.885,13.672,38.574,22.461,-1.953,104.004
1532214769.889,7.812,37.109,22.949,0.977,245.117
1532214769.893,7.812,37.598,24.414,-4.883,-22.461
1532214769.897,5.859,40.039,26.367,-5.859,-223.145
1532214769.901,7.812,39.551,25.879,0.000,16.602
1532214769.905,9.766,36.621,24.902,-2.441,257.324
1532214769.909,5.371,35.156,29.297,-9.277,82.031
1532214769.912,4.883,38.086,31.738,-10.254,-222.656
1532214769.916,6.348,38.574,29.297,-7.812,-91.309
1532214769.920,12.695,36.621,26.855,-2.441,234.375
1532214769.924,11.719,37.109,29.297,-3.906,173.828
1532214769.928,4.395,37.598,29.297,-6.348,-140.625
1532214769.932,5.859,36.133,26.367,-2.441,-165.527
1532214769.936,5.371,37.598,27.832,-3.906,134.277
1532214769.940,4.883,40.039,28.809,-4.883,216.797
1532214769.944,4.883,36.621,27.344,-8.301,-57.129
1532214769.948,1.465,32.715,26.367,-7.324,-197.266
1532214769.952,0.000,32.715,27.344,-0.977,94.238
1532214769.955,-1.953,34.668,23.438,-5.859,270.020
1532214769.959,1.953,33.691,20.508,-15.625,21.973
1532214769.963,2.930,32.715,22.461,-12.207,-230.469
1532214769.967,-4.395,32.227,20.508,-1.465,-45.898
1532214769.971,-2.441,31.738,19.531,-1.953,238.281
1532214769.975,0.977,31.738,22.461,-8.301,81.543
1532214769.979,7.324,32.227,25.391,-7.324,-245.605
1532214769.983,5.859,31.738,22.461,2.930,-120.117
1532214769.987,-0.977,29.785,21.973,4.395,224.609
1532214769.991,2.930,29.297,25.391,0.977,229.004
1532214769.995,1.953,28.320,27.344,1.953,-73.242
1532214769.998,-0.977,27.344,25.391,2.930,-145.020
1532214770.002,2.930,28.320,22.461,4.395,148.926
1532214770.006,6.836,28.809,27.344,4.395,223.145
1532214770.010,6.348,28.809,29.297,2.441,-75.684
1532214770.014,5.859,32.227,28.320,-1.953,-227.539
1532214770.018,5.859,35.156,29.785,-0.488,47.852
1532214770.022,9.766,35.156,27.344,1.465,233.398
1532214770.026,8.301,34.180,28.320,-3.418,36.133
1532214770.030,1.953,33.691,27.344,-2.441,-195.312
1532214770.034,-3.906,32.227,21.484,-6.348,-13.672
1532214770.037,-2.930,33.203,24.902,-9.277,252.441
1532214770.041,6.348,34.180,31.250,-2.441,159.668
1532214770.045,12.695,33.691,29.785,0.000,-126.465
1532214770.049,8.789,33.691,27.832,3.906,-89.844
1532214770.053,7.324,32.227,26.855,5.371,207.520
1532214770.057,10.254,32.715,27.344,0.000,198.242
1532214770.061,10.742,32.715,28.320,-3.418,-124.512
1532214770.065,6.348,29.785,26.855,-5.371,-209.961
1532214770.069,18.066,29.785,25.879,-6.348,127.930
1532214770.073,23.438,32.227,24.414,-11.230,244.629
1532214770.077,18.555,34.668,26.367,-19.043,-85.449
1532214770.080,17.578,35.156,25.879,-8.301,-234.375
1532214770.084,11.719,33.203,21.484,6.348,51.758
1532214770.088,7.324,30.273,20.996,11.719,240.723
1532214770.092,5.371,30.762,23.926,12.695,29.785
1532214770.096,2.441,32.715,25.391,14.648,-222.168
1532214770.100,-1.465,31.738,26.367,20.020,-52.246
1532214770.104,-3.906,29.785,26.855,20.996,234.863
1532214770.108,-1.953,31.738,27.344,15.625,161.621
1532214770.112,4.395,33.691,28.809,8.301,-143.555
1532214770.116,-2.441,33.203,26.855,1.953,-138.184
1532214770.120,-6.836,32.715,24.902,0.977,180.664
1532214770.123,-3.418,34.668,24.414,0.977,197.266
1532214770.127,-2.930,33.691,21.973,-1.953,-112.793
1532214770.131,-3.418,31.250,21.484,-0.488,-191.406
1532214770.135,1.465,31.738,22.949,3.418,112.793
1532214770.139,10.254,30.273,23.926,4.883,248.047
1532214770.143,9.277,29.785,26.855,4.395,-9.766
1532214770.147,4.883,29.785,26.367,5.371,-198.242
1532214770.151,10.742,31.250,22.949,9.766,40.039
1532214770.155,12.695,32.227,22.461,7.812,270.020
1532214770.159,6.836,31.738,22.949,2.441,112.793
1532214770.162,8.789,32.227,24.902,5.859,-175.781
1532214770.166,6.348,32.227,25.391,12.207,-54.199
1532214770.170,2.930,32.227,22.949,13.184,248.047
1532214770.174,3.906,32.227,22.949,6.836,157.715
1532214770.178,15.625,31.738,22.949,5.371,-169.922
1532214770.182,16.113,29.785,21.484,11.719,-140.625
1532214770.186,2.441,30.273,21.973,13.672,188.477
1532214770.190,4.883,33.691,21.484,18.066,230.469
1532214770.194,10.742,36.133,20.996,17.578,-65.918
1532214770.198,9.277,34.668,23.926,14.160,-199.707
1532214770.202,12.695,35.156,26.367,20.508,77.148
1532214770.205,15.625,36.621,27.832,20.020,272.949
1532214770.209,1.465,34.668,29.785,9.277,59.082
1532214770.213,-2.441,34.180,28.809,3.418,-206.055
1532214770.217,0.488,34.180,28.320,3.906,-32.715
1532214770.221,-0.977,33.203,25.391,4.883,239.258
1532214770.225,4.395,37.598,21.484,4.395,98.633
1532214770.229,1.953,37.109,22.949,6.348,-190.918
1532214770.233,6.348,35.156,23.926,10.742,-106.934
1532214770.237,13.672,35.645,22.949,11.230,207.520
1532214770.241,4.395,36.133,25.391,10.742,202.148
1532214770.244,0.488,36.621,27.344,8.789,-120.605
1532214770.248,2.930,37.598,26.855,14.160,-151.855
1532214770.252,6.836,38.574,26.367,20.020,177.246
1532214770.256,4.395,37.109,22.949,10.254,230.469
1532214770.260,7.812,35.156,20.996,1.953,-52.734
1532214770.264,17.090,37.109,22.461,9.766,-196.777
1532214770.268,16.602,37.109,21.484,17.578,63.965
1532214770.272,11.719,35.645,18.066,13.184,294.922
1532214770.276,11.719,35.156,20.996,6.348,76.172
1532214770.280,15.137,34.180,20.996,6.348,-203.125
1532214770.284,11.719,31.738,18.066,9.766,-38.574
1532214770.287,10.742,31.250,20.508,11.230,238.281
1532214770.291,17.578,32.715,23.438,12.695,168.457
1532214770.295,11.719,32.715,25.391,10.742,-163.574
1532214770.299,15.137,34.180,23.926,11.719,-136.719
1532214770.303,21.973,35.645,20.020,13.672,190.430
1532214770.307,15.625,36.621,21.484,4.883,205.078
1532214770.311,11.230,36.133,23.438,-2.441,-80.078
1532214770.315,11.230,35.645,19.043,-9.277,-192.871
1532214770.319,10.254,34.668,20.508,-11.230,90.820
1532214770.323,6.348,31.250,23.926,-5.859,245.605
1532214770.327,4.395,35.156,22.949,-9.277,-20.996
1532214770.330,8.301,36.133,25.391,-8.789,-202.148
1532214770.334,5.859,35.645,26.367,-10.254,24.414
1532214770.338,0.488,35.645,23.438,-16.113,239.746
1532214770.342,5.371,33.203,22.949,-15.137,44.434
1532214770.346,2.441,33.203,20.020,-19.043,-233.887
1532214770.350,-6.836,31.738,20.020,-16.113,-48.828
1532214770.354,-4.883,32.227,25.391,-14.648,242.676
1532214770.358,0.000,31.250,23.926,-21.484,114.258
1532214770.362,-3.906,30.273,19.531,-18.066,-189.453
1532214770.366,-4.883,30.273,18.555,-9.766,-142.090
1532214770.369,-0.977,31.250,19.531,-2.930,185.059
1532214770.373,3.906,35.156,20.020,-2.930,186.035
1532214770.377,2.441,34.180,22.461,-3.418,-129.395
1532214770.381,1.465,29.297,22.949,3.418,-190.918
1532214770.385,11.230,33.691,18.066,11.230,95.215
1532214770.389,12.207,38.086,19.531,14.160,261.719
1532214770.393,13.184,37.598,19.531,8.301,0.977
1532214770.397,14.648,35.645,16.113,1.465,-242.676
1532214770.401,5.859,33.691,19.531,8.301,16.602
1532214770.405,5.859,33.203,20.508,13.672,262.207
1532214770.409,6.348,33.691,21.484,10.254,96.191
1532214770.412,9.766,36.133,21.973,11.230,-204.102
1532214770.416,8.789,37.109,20.508,15.137,-72.754
1532214770.420,1.465,34.668,22.949,14.160,234.863
1532214770.424,8.789,32.715,25.391,7.812,173.340
1532214770.428,15.137,31.738,23.438,4.883,-136.230
1532214770.432,10.254,33.203,23.926,9.766,-160.645
1532214770.436,3.418,37.109,25.391,8.789,125.977
1532214770.440,0.000,37.598,26.367,2.441,199.219
1532214770.444,2.930,39.062,30.762,-0.977,-89.844
1532214770.448,-2.441,41.504,31.738,-4.395,-212.402
1532214770.452,-6.348,36.133,31.250,-1.953,92.285
1532214770.455,-1.465,38.086,30.762,-3.906,244.141
1532214770.459,1.465,42.969,28.809,-5.371,-6.836
1532214770.463,1.953,35.645,27.344,-4.395,-241.211
1532214770.467,2.930,33.203,25.391,0.000,-22.949
1532214770.471,8.789,34.668,24.902,2.441,258.301
1532214770.475,6.836,34.180,27.832,-7.812,81.543
1532214770.479,2.441,35.645,26.855,-7.324,-226.562
1532214770.483,0.000,37.109,25.391,4.883,-105.469
1532214770.487,6.348,39.062,26.855,12.695,222.168
1532214770.491,11.230,36.621,30.273,14.160,216.797
1532214770.494,9.277,34.668,29.785,1.465,-136.719
1532214770.498,10.254,37.598,27.344,-6.348,-209.961
1532214770.502,10.254,37.598,25.391,1.953,124.023
1532214770.506,13.184,35.156,24.414,2.441,258.789
1532214770.510,13.184,37.598,27.344,-1.465,-19.043
1532214770.514,4.883,40.039,28.809,5.859,-211.426
1532214770.518,8.301,39.551,28.809,12.207,52.246
1532214770.522,8.301,37.109,27.344,1.953,245.117
1532214770.526,9.277,34.180,29.297,-1.953,11.230
1532214770.530,19.531,37.598,30.762,6.348,-233.887
1532214770.534,15.137,36.133,30.762,9.766,-61.523
1532214770.537,3.906,31.738,31.738,1.953,199.219
1532214770.541,3.418,33.203,30.762,-4.883,105.469
1532214770.545,4.395,32.715,29.785,-8.789,-181.152
1532214770.549,-4.395,29.785,25.879,-7.812,-120.605
1532214770.553,-4.395,29.297,25.391,-2.930,209.473
1532214770.557,6.348,32.227,28.320,-4.395,191.406
1532214770.561,8.301,34.180,27.344,-5.859,-147.461
1532214770.565,0.488,32.715,24.902,-7.324,-188.965
1532214770.569,-0.977,32.227,22.949,-6.836,145.020
1532214770.573,1.465,33.203,24.414,-7.324,249.512
1532214770.577,-0.488,33.691,28.809,-10.254,-47.852
1532214770.580,-3.418,34.180,29.785,-8.789,-215.820
1532214770.584,-6.348,32.715,23.926,-1.953,61.523
1532214770.588,-7.324,31.250,23.438,-4.395,277.344
1532214770.592,-0.488,34.180,25.391,-10.742,45.898
1532214770.596,3.906,35.156,26.855,-7.812,-237.305
1532214770.600,4.883,34.180,26.367,-2.441,-36.621
1532214770.604,9.766,34.668,25.879,0.488,261.719
1532214770.608,9.277,34.668,26.367,-1.953,163.086
1532214770.612,5.371,35.645,21.973,-7.812,-165.527
1532214770.616,5.859,32.715,23.926,-4.883,-153.320
1532214770.619,12.695,32.227,22.949,1.953,190.430
1532214770.623,6.348,33.203,18.066,-0.488,205.078
1532214770.627,1.465,34.180,24.414,-2.441,-123.047
1532214770.631,8.301,37.109,24.902,4.883,-197.266
1532214770.635,7.812,35.645,22.949,0.977,72.266
1532214770.639,12.207,35.156,26.367,-4.395,178.223
1532214770.643,14.648,35.645,27.832,2.930,-26.367
1532214770.647,11.719,34.180,31.250,5.371,-206.543
1532214770.651,9.277,36.133,32.227,11.719,7.812
1532214770.655,6.836,35.645,32.715,10.254,249.023
1532214770.659,8.301,32.715,32.715,-0.488,67.871
1532214770.662,2.930,32.715,28.809,-7.324,-212.402
1532214770.666,0.977,33.203,29.785,-6.836,-86.426
1532214770.670,6.348,34.668,29.297,-5.371,233.887
1532214770.674,-1.953,36.133,32.227,-13.184,183.594
1532214770.678,-8.789,36.133,35.645,-20.996,-177.246
1532214770.682,-8.789,35.645,35.156,-10.742,-150.391
1532214770.686,-4.883,36.133,35.156,-3.906,207.031
1532214770.690,-1.465,35.645,33.691,-7.324,228.516
1532214770.694,-2.441,34.668,29.297,-12.207,-99.609
1532214770.698,-3.418,33.691,28.320,-14.160,-204.590
1532214770.701,-2.441,32.227,27.832,-7.812,114.746
1532214770.705,1.465,35.156,27.344,-11.230,278.809
1532214770.709,-0.488,38.086,28.320,-19.043,1.953
1532214770.713,-3.906,38.086,28.320,-15.137,-222.656
1532214770.717,-2.930,38.574,29.785,-8.301,-8.789
1532214770.721,0.000,37.109,29.785,-4.395,263.184
1532214770.725,1.465,37.598,26.367,-5.859,138.184
1532214770.729,7.812,36.621,27.832,-3.418,-182.617
1532214770.733,6.836,35.645,27.832,-0.488,-82.031
1532214770.737,2.930,37.109,24.902,-6.836,206.543
1532214770.741,12.695,38.086,28.320,-6.836,133.789
1532214770.744,9.277,37.598,28.809,-5.371,-166.504
1532214770.748,0.977,37.598,26.855,-2.930,-165.527
1532214770.752,0.977,39.551,26.367,2.441,153.809
1532214770.756,0.000,36.133,26.855,1.465,225.586
1532214770.760,1.953,32.715,26.367,-4.883,-87.402
1532214770.764,10.254,37.598,32.227,0.000,-250.000
1532214770.768,7.812,38.086,35.645,3.418,55.176
1532214770.772,1.465,34.668,29.297,-0.488,258.301
1532214770.776,4.883,37.109,24.902,-13.672,14.160
1532214770.780,13.184,41.992,25.879,-14.160,-237.305
1532214770.784,2.930,38.086,33.691,-0.488,-43.457
1532214770.787,-6.348,34.668,26.855,-3.418,250.000
1532214770.791,-0.977,38.086,24.414,-4.883,161.621
1532214770.795,6.836,40.527,28.320,-6.836,-194.336
1532214770.799,6.836,39.062,25.391,-2.930,-138.672
1532214770.803,-3.906,35.156,25.391,0.977,240.723
1532214770.807,-3.906,33.691,24.414,-4.395,225.586
1532214770.811,-0.977,32.715,23.926,-8.301,-108.887
1532214770.815,5.859,32.227,24.902,-5.371,-188.965
1532214770.819,8.789,33.203,26.367,0.000,140.137
1532214770.823,6.836,35.156,27.832,5.371,298.340
1532214770.826,7.812,38.086,26.855,4.395,-6.348
1532214770.830,5.371,41.016,26.367,6.836,-203.613
1532214770.834,6.348,39.062,28.320,10.254,66.895
1532214770.838,6.836,36.133,28.809,3.906,296.387
1532214770.842,9.766,38.086,32.227,2.930,94.238
1532214770.846,20.020,38.086,33.691,10.254,-215.820
1532214770.850,24.414,34.668,27.832,20.020,-52.246
1532214770.854,11.719,33.203,24.902,20.508,248.535
1532214770.858,11.230,36.133,29.297,14.160,108.887
1532214770.862,13.672,37.109,27.832,9.277,-210.938
1532214770.866,11.719,37.109,26.367,11.230,-186.523
1532214770.869,15.625,41.992,31.250,15.137,173.828
1532214770.873,9.766,42.480,32.715,9.277,209.473
1532214770.877,0.977,36.621,27.832,-1.953,-141.113
1532214770.881,-4.395,35.645,24.902,-1.953,-209.961
1532214770.885,3.418,39.062,26.855,7.324,113.281
1532214770.889,10.254,38.574,26.855,8.301,258.301
1532214770.893,1.953,37.598,27.344,0.977,-30.273
1532214770.897,2.930,40.527,29.297,0.000,-253.418
1532214770.901,3.418,39.551,32.227,2.930,8.301
1532214770.905,3.418,37.109,34.668,2.930,265.137
1532214770.909,6.836,39.551,32.715,-1.465,59.082
1532214770.912,3.906,41.016,28.320,-3.906,-272.461
1532214770.916,-0.977,40.039,26.367,-11.230,-155.273
1532214770.920,0.000,38.574,26.855,-11.719,212.402
1532214770.924,2.930,37.598,25.879,-8.301,175.781
1532214770.928,3.906,37.598,25.879,-9.766,-159.668
1532214770.932,1.953,35.645,25.879,-4.883,-163.086
1532214770.936,0.488,32.715,28.320,-6.836,168.457
1532214770.940,3.906,35.156,26.367,-5.859,243.164
1532214770.944,10.742,40.039,23.438,-2.930,-89.844
1532214770.948,5.859,41.992,24.902,-0.488,-214.355
1532214770.951,1.465,39.551,24.902,6.348,115.234
1532214770.955,3.418,39.062,24.414,-4.883,278.320
1532214770.959,5.371,40.527,22.949,-15.137,3.906
1532214770.963,2.441,38.574,19.043,-8.301,-232.910
1532214770.967,0.977,37.598,20.996,-0.488,14.160
1532214770.971,1.465,35.645,24.902,-1.465,302.246
1532214770.975,1.465,35.156,24.414,-15.137,95.215
1532214770.979,8.789,36.621,22.949,-17.090,-244.141
1532214770.983,7.812,37.598,25.391,-3.418,-120.117
1532214770.987,0.488,39.062,28.320,-3.906,242.676
1532214770.991,13.672,40.527,26.855,-8.789,213.379
1532214770.994,18.555,39.062,25.879,-12.695,-144.531
1532214770.998,10.254,41.992,25.879,-10.742,-178.223
1532214771.002,7.812,43.945,27.832,-8.301,159.668
1532214771.006,11.719,43.457,30.273,-7.812,247.070
1532214771.010,6.836,42.480,29.785,-5.859,-60.547
1532214771.014,-14.648,42.480,30.762,-7.324,-217.773
1532214771.018,-23.926,38.086,34.180,-6.348,58.594
1532214771.022,-26.855,36.621,37.109,-5.859,259.766
1532214771.026,-31.738,38.574,38.574,-13.184,33.203
1532214771.030,-37.109,34.668,44.922,-8.789,-234.863
1532214771.033,-26.367,29.297,51.270,6.348,-50.293
1532214771.037,-4.395,37.109,44.434,4.395,243.164
1532214771.041,-9.766,50.293,35.156,-19.531,120.117
1532214771.045,-25.879,56.641,25.879,-40.527,-215.332
1532214771.049,-23.926,59.082,27.344,-36.133,-146.973
1532214771.053,-24.414,58.594,33.691,-30.273,201.172
1532214771.057,-26.367,62.988,31.250,-43.457,210.449
1532214771.061,-28.809,65.918,29.785,-49.805,-113.281
1532214771.065,-25.879,64.453,27.344,-43.945,-183.594
1532214771.069,-30.273,62.988,25.879,-40.527,168.457
1532214771.073,-35.156,64.453,30.273,-43.457,278.320
1532214771.076,-35.645,64.453,34.180,-51.758,-40.039
1532214771.080,-35.645,62.988,30.762,-46.875,-208.984
1532214771.084,-32.227,62.012,27.832,-35.645,53.223
1532214771.088,-34.668,63.965,30.762,-41.016,264.160
1532214771.092,-25.879,64.453,33.691,-40.527,41.504
1532214771.096,-29.297,58.105,34.668,-48.340,-254.883
1532214771.100,-37.109,56.152,35.156,-43.945,-67.383
1532214771.104,-31.738,55.176,33.691,-32.715,244.141
1532214771.108,-22.949,55.176,28.320,-33.203,169.922
1532214771.112,-24.902,54.688,26.367,-32.227,-151.855
1532214771.116,-30.762,51.270,26.367,-32.715,-135.254
1532214771.119,-30.762,47.852,27.832,-27.832,204.590
1532214771.123,-26.855,49.805,29.297,-23.926,247.070
1532214771.127,-22.461,48.828,28.320,-24.414,-71.289
1532214771.131,-19.531,44.434,28.320,-19.043,-196.289
1532214771.135,-12.207,44.922,27.832,-9.766,93.750
1532214771.139,-6.836,45.410,24.902,-8.789,246.094
1532214771.143,-5.859,41.992,24.414,-12.695,6.836
1532214771.147,-6.348,40.527,25.879,-9.277,-192.871
1532214771.151,-2.441,41.016,26.855,1.465,13.184
1532214771.155,1.465,38.086,25.879,4.883,194.336
1532214771.158,11.230,37.109,25.391,0.488,83.496
1532214771.162,15.625,37.598,23.438,1.953,-98.145
1532214771.166,9.766,38.086,19.531,4.395,-96.680
1532214771.170,11.230,41.016,23.438,12.695,76.660
1532214771.174,12.207,39.062,27.344,12.207,96.191
1532214771.178,15.137,38.086,25.879,8.789,-56.152
1532214771.182,21.484,40.039,25.391,16.113,-108.398
1532214771.186,17.578,36.133,24.414,16.113,55.664
1532214771.190,15.137,35.156,24.414,15.137,115.234
1532214771.194,23.438,37.598,25.879,11.719,-53.223
1532214771.198,20.020,38.086,23.438,8.789,-102.539
1532214771.201,11.230,34.180,21.973,10.742,35.156
1532214771.205,17.090,31.738,26.855,13.672,106.934
1532214771.209,19.043,28.320,27.344,12.695,0.488
1532214771.213,24.414,25.391,23.438,8.301,-98.633
1532214771.217,29.785,25.879,20.996,5.371,-34.668
1532214771.221,22.461,22.461,23.926,8.301,105.957
1532214771.225,16.113,20.020,25.391,5.859,95.703
1532214771.229,17.090,22.949,21.973,7.812,-69.824
1532214771.233,17.578,22.461,22.461,11.719,-49.805
1532214771.237,15.625,20.508,23.438,3.906,97.656
1532214771.241,23.438,20.020,20.508,8.789,76.660
1532214771.244,30.762,19.043,20.020,15.137,-35.645
1532214771.248,23.438,18.555,21.484,10.742,-23.438
1532214771.252,16.113,16.602,21.973,9.277,93.750
1532214771.256,21.484,20.508,21.973,6.836,123.047
1532214771.260,27.344,23.438,23.438,4.395,1.465
1532214771.264,24.414,23.926,25.391,4.395,-51.758
1532214771.268,22.949,23.926,26.855,4.883,104.492
1532214771.272,19.531,24.902,27.344,4.883,201.172
1532214771.276,14.648,28.320,25.879,-0.977,62.500
1532214771.280,16.602,26.855,24.414,-5.371,-95.703
1532214771.283,18.066,25.391,25.391,-1.465,-9.766
1532214771.287,14.648,24.414,25.879,-2.930,157.227
1532214771.291,17.578,26.367,23.438,-2.930,125.977
1532214771.295,21.484,27.832,23.438,-1.465,-75.684
1532214771.299,13.672,26.855,25.879,3.906,-86.426
1532214771.303,4.883,26.855,26.367,5.859,124.023
1532214771.307,3.906,29.297,25.391,1.465,145.020
1532214771.311,3.906,30.762,26.367,5.371,-28.809
1532214771.315,6.348,29.297,26.367,9.277,-65.430
1532214771.319,-0.488,26.855,23.926,8.301,105.957
1532214771.323,-5.371,23.926,21.973,4.883,161.621
1532214771.326,6.836,25.391,20.508,5.371,18.555
1532214771.330,4.883,26.855,20.996,7.324,-67.871
1532214771.334,-0.977,29.785,25.391,9.277,21.973
1532214771.338,0.977,32.227,27.344,10.742,103.516
1532214771.342,4.883,33.203,25.879,14.648,26.367
1532214771.346,12.207,37.109,22.461,12.695,-91.797
1532214771.350,9.766,35.645,23.438,9.766,-20.020
1532214771.354,9.766,35.645,27.832,9.277,143.066
1532214771.358,9.277,39.062,27.344,6.836,110.840
1532214771.362,10.742,40.527,25.879,3.906,-89.844
1532214771.366,3.418,39.551,28.320,2.441,-77.637
1532214771.369,1.465,38.574,28.320,4.883,145.996
1532214771.373,10.254,40.527,28.320,0.977,163.086
1532214771.377,6.348,41.504,29.297,-5.371,-66.895
1532214771.381,2.441,39.062,27.832,0.000,-125.000
1532214771.385,-1.953,40.527,25.391,3.906,96.680
1532214771.389,-3.418,42.480,27.344,6.836,222.656
1532214771.393,2.930,43.457,29.785,2.930,22.949
1532214771.397,8.789,44.434,27.344,1.953,-184.082
1532214771.401,3.418,41.016,23.438,9.766,14.648
1532214771.405,-1.465,39.551,26.367,5.859,248.535
1532214771.408,3.906,40.527,27.832,5.371,88.379
1532214771.412,8.301,40.527,23.926,9.277,-187.988
1532214771.416,8.789,40.039,22.949,17.090,-89.844
1532214771.420,6.348,39.062,24.414,14.648,184.082
1532214771.424,2.441,38.574,26.367,5.859,150.879
1532214771.428,8.301,39.062,23.438,10.742,-156.250
1532214771.432,7.812,41.016,23.438,13.672,-164.062
1532214771.436,1.953,43.945,29.785,7.812,147.949
1532214771.440,6.836,41.504,25.879,1.953,217.773
1532214771.444,5.859,40.527,23.438,2.441,-68.848
1532214771.448,9.277,41.992,23.926,9.766,-211.914
1532214771.451,18.555,40.527,24.902,20.020,86.914
1532214771.455,16.113,40.527,24.414,13.672,275.391
1532214771.459,5.859,42.969,25.879,4.883,10.742
1532214771.463,2.441,43.457,26.367,3.418,-240.723
1532214771.467,-2.441,41.016,21.973,3.418,-20.020
1532214771.471,0.488,42.480,22.949,5.859,291.504
1532214771.475,6.836,44.434,27.344,0.000,103.516
1532214771.479,6.348,43.457,30.762,-11.230,-233.887
1532214771.483,0.000,42.969,32.227,-3.906,-87.891
1532214771.487,0.488,43.945,33.203,0.000,246.094
1532214771.490,-5.371,43.945,31.738,-12.207,209.473
1532214771.494,-9.277,43.457,32.227,-18.066,-166.992
1532214771.498,-8.301,42.969,36.621,-14.160,-209.473
1532214771.502,-13.184,42.480,38.574,-11.230,174.316
1532214771.506,-13.672,43.945,36.621,-14.648,291.504
1532214771.510,-11.230,45.410,39.062,-19.531,-45.898
1532214771.514,-7.324,47.852,41.504,-23.926,-251.953
1532214771.518,-5.859,49.316,39.551,-29.785,52.246
1532214771.522,-6.836,48.340,38.574,-22.949,284.180
1532214771.526,-13.184,49.316,40.527,-20.020,33.691
1532214771.530,-20.508,48.828,43.945,-27.832,-261.230
1532214771.533,-30.273,49.316,44.922,-30.762,-36.133
1532214771.537,-27.832,51.270,39.551,-29.297,287.598
1532214771.541,-16.113,53.223,38.574,-31.738,129.395
1532214771.545,-17.090,55.664,41.504,-37.598,-222.656
1532214771.549,-21.973,53.223,38.574,-36.621,-142.090
1532214771.553,-25.879,47.852,39.062,-33.203,248.047
1532214771.557,-25.391,44.922,44.434,-35.645,275.391
1532214771.561,-22.461,45.898,47.363,-38.086,-133.789
1532214771.565,-32.227,47.363,47.852,-29.785,-236.816
1532214771.569,-31.738,46.875,48.828,-20.508,136.719
1532214771.573,-27.344,43.945,41.504,-27.344,264.648
1532214771.576,-25.391,42.480,39.551,-36.621,-58.105
1532214771.580,-26.855,38.574,43.457,-34.180,-254.883
1532214771.584,-23.926,35.645,40.527,-20.508,62.988
1532214771.588,-13.672,34.180,39.551,-15.137,301.270
1532214771.592,-7.324,31.738,41.992,-19.531,40.039
1532214771.596,-14.160,33.203,38.086,-23.438,-301.758
1532214771.600,-12.695,37.109,35.156,-13.672,-97.168
1532214771.604,-2.441,36.133,38.086,-4.395,290.527
1532214771.608,-1.465,32.227,39.551,-11.719,208.984
1532214771.612,-8.789,32.227,36.621,-19.531,-152.832
1532214771.615,-7.812,33.691,31.738,-20.020,-174.316
1532214771.619,-5.859,33.203,31.250,-18.555,175.293
1532214771.623,-12.207,33.691,29.785,-19.531,245.117
1532214771.627,-8.789,32.715,30.273,-18.555,-119.141
1532214771.631,-4.395,29.785,32.715,-12.207,-227.051
1532214771.635,-0.488,31.250,37.109,-2.930,130.371
1532214771.639,3.906,34.180,38.574,-2.930,267.578
1532214771.643,3.906,35.156,34.668,-6.348,-65.918
1532214771.647,6.348,34.668,36.133,-2.930,-280.762
1532214771.651,5.859,36.621,32.715,4.395,17.578
1532214771.655,2.930,34.180,26.367,1.465,302.734
1532214771.658,4.395,32.715,29.297,-5.371,118.652
1532214771.662,4.883,33.203,31.738,-5.371,-240.234
1532214771.666,5.859,34.180,27.832,-4.395,-104.004
1532214771.670,10.254,35.645,28.809,0.977,277.832
1532214771.674,7.812,32.227,34.180,-5.859,169.922
1532214771.678,5.859,31.250,34.180,-19.531,-240.234
1532214771.682,5.859,29.785,31.738,-9.766,-198.730
1532214771.686,7.324,26.855,30.273,1.465,233.887
1532214771.690,8.789,26.855,29.297,-0.488,282.715
1532214771.694,1.953,25.391,26.855,-8.789,-97.656
1532214771.698,1.465,26.367,24.414,-6.348,-209.473
1532214771.701,9.277,30.762,22.949,7.812,102.539
1532214771.705,11.719,33.691,23.438,11.230,259.766
1532214771.709,11.719,31.250,25.391,5.859,-15.625
1532214771.713,11.719,35.156,24.414,-2.930,-286.621
1532214771.717,14.648,36.621,20.996,-5.859,-31.738
1532214771.721,21.484,31.738,20.996,-2.930,303.711
1532214771.725,12.207,32.227,21.973,-3.418,121.582
1532214771.729,8.789,32.715,24.414,-0.488,-226.074
1532214771.733,9.766,33.203,25.391,3.906,-110.840
1532214771.737,10.742,36.133,24.902,3.906,234.375
1532214771.740,15.625,40.039,25.879,-0.977,212.891
1532214771.744,15.137,39.551,23.926,-5.859,-166.992
1532214771.748,13.184,36.133,22.461,2.441,-198.242
1532214771.752,8.301,38.574,22.949,6.348,187.012
1532214771.756,8.301,40.039,24.902,-1.465,246.094
1532214771.760,12.207,34.180,25.879,-6.348,-96.191
1532214771.764,14.160,34.668,24.902,-0.977,-239.746
1532214771.768,19.531,37.598,25.391,1.953,112.793
1532214771.772,12.695,35.645,23.926,-3.906,318.848
1532214771.776,6.836,40.039,23.926,-5.859,5.859
1532214771.780,13.672,40.039,24.414,-3.418,-247.559
1532214771.783,7.324,37.109,22.949,1.953,0.488
1532214771.787,-0.488,35.156,22.949,3.906,295.410
1532214771.791,0.977,34.668,24.414,-1.465,127.930
1532214771.795,0.488,34.668,23.926,-7.812,-229.492
1532214771.799,1.953,32.227,25.879,1.953,-134.766
1532214771.803,12.207,33.203,29.785,13.672,245.605
1532214771.807,11.230,33.203,30.273,8.301,277.832
1532214771.811,7.324,33.691,33.203,6.348,-96.680
1532214771.815,9.277,33.691,35.645,5.371,-216.797
1532214771.819,13.184,34.668,36.133,7.812,131.348
1532214771.822,21.973,39.062,37.598,14.160,249.512
1532214771.826,19.043,39.551,36.621,10.254,-47.363
1532214771.830,13.184,39.062,32.227,6.348,-239.746
1532214771.834,15.137,39.062,28.809,8.301,50.781
1532214771.838,16.113,37.109,29.297,9.277,292.969
1532214771.842,8.789,36.133,26.367,-1.465,41.016
1532214771.846,2.930,35.645,27.344,-4.883,-239.258
1532214771.850,8.301,37.109,29.785,5.859,-33.691
1532214771.854,11.230,37.598,26.367,4.395,284.668
1532214771.858,5.371,38.086,26.367,-9.277,161.133
1532214771.862,1.465,38.086,29.785,-11.230,-205.566
1532214771.865,0.488,38.574,28.320,-0.977,-158.691
1532214771.869,5.859,41.992,28.809,5.371,209.473
1532214771.873,8.301,41.992,31.250,0.977,226.562
1532214771.877,4.883,41.504,29.785,-5.859,-135.254
1532214771.881,4.883,43.457,31.738,-1.465,-225.098
1532214771.885,8.301,43.457,29.297,2.930,140.625
1532214771.889,5.371,40.039,25.879,0.977,303.223
1532214771.893,3.906,42.480,29.785,-11.719,1.953
1532214771.897,0.977,45.410,28.320,-17.090,-277.344
1532214771.901,7.812,41.504,24.414,-3.906,-4.883
1532214771.905,12.207,38.086,23.438,-3.906,308.594
1532214771.908,8.789,39.062,25.391,-12.207,112.305
1532214771.912,13.672,41.016,27.344,-10.742,-238.770
1532214771.916,12.695,39.062,23.438,-6.836,-109.375
1532214771.920,9.277,36.621,23.926,-10.254,270.996
1532214771.924,19.531,39.062,24.902,-16.113,208.008
1532214771.928,25.879,41.016,23.926,-16.113,-182.129
1532214771.932,23.926,41.504,21.484,-11.230,-159.180
1532214771.936,29.785,41.992,22.461,-2.441,186.523
1532214771.940,23.438,39.551,25.879,1.953,251.465
1532214771.944,8.301,37.598,29.297,-1.465,-90.332
1532214771.947,0.488,39.062,29.785,0.977,-238.281
1532214771.951,-3.906,37.109,27.832,8.301,130.371
1532214771.955,-0.488,35.156,28.809,1.465,280.762
1532214771.959,1.953,36.621,30.762,-4.883,-36.621
1532214771.963,-1.953,38.574,29.785,1.465,-270.508
1532214771.967,-6.836,39.062,28.809,3.906,-1.465
1532214771.971,-3.418,36.621,31.250,1.465,287.109
1532214771.975,3.418,38.086,31.738,-10.254,94.238
1532214771.979,-1.465,40.039,28.320,-17.090,-228.516
1532214771.983,-8.789,38.086,28.320,-8.789,-95.215
1532214771.987,-2.930,38.574,31.738,-8.301,266.602
1532214771.990,3.418,38.574,31.738,-11.719,208.496
1532214771.994,8.789,38.086,29.297,-15.625,-198.730
1532214771.998,1.953,39.062,28.809,-17.578,-237.305
1532214772.002,-5.371,35.645,27.344,-11.719,157.227
1532214772.006,-0.977,36.621,24.902,-8.301,272.461
1532214772.010,5.859,41.016,26.855,-9.277,-62.988
1532214772.014,7.812,39.062,28.320,-7.324,-224.609
1532214772.018,7.324,38.086,28.320,-0.977,72.754
1532214772.022,3.906,39.551,28.320,-0.977,298.828
1532214772.026,4.883,38.574,28.809,-0.977,94.238
1532214772.030,5.371,36.133,26.855,-0.488,-211.914
1532214772.033,0.488,35.156,22.461,0.000,-20.996
1532214772.037,5.859,34.180,24.902,-6.836,250.488
1532214772.041,3.418,33.691,26.367,-14.160,117.676
1532214772.045,1.953,36.133,26.367,-8.789,-218.750
1532214772.049,3.418,36.621,26.367,-0.488,-154.785
1532214772.053,-1.953,37.109,24.902,3.906,226.074
1532214772.057,2.930,37.109,28.320,2.930,211.914
1532214772.061,2.930,33.203,29.785,-1.953,-141.113
1532214772.065,-1.953,31.738,27.832,-2.441,-183.105
1532214772.069,-0.977,33.691,25.879,1.465,164.062
1532214772.072,2.930,34.668,27.832,0.000,281.250
1532214772.076,6.836,35.645,32.227,-3.418,-41.992
1532214772.080,6.348,36.621,31.250,-0.977,-245.605
1532214772.084,5.371,38.574,28.809,2.930,70.312
1532214772.088,10.254,41.504,31.250,3.906,283.203
1532214772.092,11.230,42.969,35.156,1.465,32.227
1532214772.096,-1.465,42.969,34.668,-12.207,-283.691
1532214772.100,-8.301,40.039,31.250,-17.090,-90.820
1532214772.104,-4.883,38.086,27.832,-8.789,253.906
1532214772.108,-2.930,39.062,24.902,-8.301,143.555
1532214772.112,7.324,38.574,24.902,-7.812,-205.566
1532214772.115,13.184,38.086,25.879,0.488,-157.227
1532214772.119,4.395,38.086,27.344,8.789,212.402
1532214772.123,5.859,40.527,27.344,6.348,230.957
1532214772.127,9.766,42.969,25.391,-0.488,-136.230
1532214772.131,10.742,41.992,26.367,1.953,-245.605
1532214772.135,10.742,43.457,26.367,-1.465,99.609
1532214772.139,7.324,42.969,23.438,-6.348,237.793
1532214772.143,9.766,39.062,23.926,-2.930,-46.875
1532214772.147,13.672,37.598,26.367,0.488,-258.789
1532214772.151,11.719,38.574,26.367,4.395,44.922
1532214772.155,12.207,38.086,24.902,0.000,305.176
1532214772.158,13.672,38.086,26.367,-4.883,66.406
1532214772.162,16.113,39.062,26.855,-1.465,-231.934
1532214772.166,12.207,39.551,27.832,3.418,-77.148
1532214772.170,13.184,41.016,28.320,7.324,268.066
1532214772.174,19.531,38.574,26.367,-2.930,207.031
1532214772.178,16.602,35.645,26.367,-13.184,-202.637
1532214772.182,11.230,36.133,22.461,-2.441,-214.355
1532214772.186,9.277,37.109,21.484,4.395,198.242
1532214772.190,6.836,35.645,22.949,1.465,254.395
1532214772.194,4.883,36.621,21.973,-0.977,-113.770
1532214772.197,3.906,38.086,20.020,-3.418,-231.445
1532214772.201,8.301,36.621,25.391,-0.488,115.234
1532214772.205,15.625,38.086,28.809,1.465,275.879
1532214772.209,12.207,42.969,29.297,-3.418,-26.367
1532214772.213,9.766,40.527,29.297,-2.930,-274.414
1532214772.217,6.348,36.133,27.344,2.930,-22.461
1532214772.221,4.395,39.551,26.855,1.953,307.617
1532214772.225,1.953,41.992,28.320,-6.836,145.020
1532214772.229,0.000,41.992,30.762,-11.719,-219.238
1532214772.233,4.395,42.969,30.762,-4.883,-115.234
1532214772.237,1.465,40.527,28.809,-11.230,225.586
1532214772.240,-6.348,38.086,28.809,-17.090,185.547
1532214772.244,-4.883,38.574,26.855,-14.648,-164.062
1532214772.248,-4.883,40.039,24.414,-13.672,-190.918
1532214772.252,-9.277,38.086,25.391,-10.254,181.641
1532214772.256,-3.906,37.598,25.391,-12.207,272.949
1532214772.260,0.488,41.016,22.949,-15.137,-76.660
1532214772.264,2.930,42.969,20.020,-11.719,-231.934
1532214772.268,3.906,41.504,21.484,-6.836,97.656
1532214772.272,8.789,39.551,24.902,-8.301,326.660
1532214772.276,1.953,38.574,27.832,-19.531,57.129
1532214772.279,-6.348,39.551,27.832,-19.531,-285.156
1532214772.283,-4.395,39.551,26.367,-5.859,-49.805
1532214772.287,-3.906,36.621,29.785,-1.465,283.203
1532214772.291,0.977,37.598,33.203,0.000,153.320
1532214772.295,5.859,41.016,31.250,-2.441,-198.730
1532214772.299,-2.441,38.086,29.297,-3.906,-148.926
1532214772.303,-10.742,36.133,27.832,-0.488,217.285
1532214772.307,-5.371,40.527,26.855,-6.348,234.863
1532214772.311,-4.883,42.969,26.855,-13.184,-155.762
1532214772.315,-5.371,41.992,22.461,-12.207,-252.930
1532214772.319,3.418,41.504,21.484,-11.230,109.863
1532214772.322,0.488,40.039,23.438,-9.766,262.207
1532214772.326,-0.488,40.527,22.949,-11.230,-65.430
1532214772.330,0.488,41.992,20.996,-11.230,-263.672
1532214772.334,0.000,40.039,20.508,-1.953,57.129
1532214772.338,3.418,41.016,24.414,0.977,281.738
1532214772.342,13.672,43.945,27.832,-4.883,16.113
1532214772.346,17.578,42.969,25.391,-2.441,-263.672
1532214772.350,1.465,39.062,22.461,3.906,-57.129
1532214772.354,0.977,39.551,26.367,6.836,254.883
1532214772.358,-0.977,40.039,25.391,-0.488,122.070
1532214772.362,-3.906,35.645,20.996,-10.742,-233.398
1532214772.365,-0.488,36.133,18.555,-7.324,-145.996
1532214772.369,-5.859,38.574,21.973,-1.465,232.422
1532214772.373,-4.395,39.062,24.902,-4.883,237.305
1532214772.377,0.488,38.574,25.391,-7.812,-139.160
1532214772.381,-2.930,36.133,24.414,-5.371,-217.773
1532214772.385,-4.883,36.621,23.926,0.488,134.277
1532214772.389,-3.906,41.992,25.879,1.465,259.766
1532214772.393,2.441,39.551,28.809,-6.348,-51.758
1532214772.397,5.371,35.156,27.344,-12.695,-287.109
1532214772.401,-0.488,35.156,19.531,-6.348,5.371
1532214772.404,6.836,34.180,19.043,-0.488,301.758
1532214772.408,4.395,37.109,21.973,-6.836,85.938
1532214772.412,-3.418,40.527,21.973,-4.395,-224.609
1532214772.416,-2.930,39.551,22.949,-2.930,-95.215
1532214772.420,-0.977,38.574,27.344,-1.465,257.324
1532214772.424,0.000,39.062,24.902,-2.441,218.750
1532214772.428,1.465,39.062,23.438,-7.324,-145.508
1532214772.432,2.441,37.598,25.391,-0.977,-140.137
1532214772.436,-0.488,39.062,25.391,5.371,218.750
1532214772.440,4.883,44.922,25.391,3.906,294.922
1532214772.444,11.230,43.945,26.855,0.000,-74.219
1532214772.447,1.953,41.504,26.367,1.953,-225.098
1532214772.451,0.000,41.016,23.438,6.348,120.117
1532214772.455,8.789,40.039,24.414,0.000,287.598
1532214772.459,11.230,41.504,22.949,-8.301,-3.906
1532214772.463,10.254,40.527,18.555,-3.418,-240.723
1532214772.467,14.648,37.109,23.438,5.859,19.043
1532214772.471,14.160,39.551,24.414,9.277,319.336
1532214772.475,18.066,43.457,23.438,3.418,116.211
1532214772.479,20.508,41.504,28.320,-0.488,-240.234
1532214772.483,20.020,39.551,25.391,6.836,-121.582
1532214772.487,19.531,42.480,23.438,12.695,229.004
1532214772.490,7.812,42.969,27.832,4.883,223.145
1532214772.494,5.859,40.039,25.879,-1.953,-154.785
1532214772.498,8.789,41.016,28.320,7.812,-186.035
1532214772.502,10.254,40.527,30.762,14.648,185.059
1532214772.506,9.277,37.598,27.832,5.371,259.766
1532214772.510,5.371,40.527,27.344,-1.953,-80.566
1532214772.514,1.953,42.969,28.809,-1.953,-265.625
1532214772.518,0.488,38.574,31.250,-0.977,55.176
1532214772.522,7.812,36.133,31.738,-0.488,288.574
1532214772.526,2.930,34.668,32.715,-4.883,26.367
1532214772.529,-5.371,35.156,34.668,-4.395,-257.812
1532214772.533,-1.465,39.062,33.691,1.953,-10.742
1532214772.537,0.488,41.016,31.250,0.488,296.875
1532214772.541,0.488,38.086,29.785,-8.789,138.184
1532214772.545,-2.441,38.086,32.715,-14.648,-218.750
1532214772.549,-6.836,41.992,34.668,-9.277,-133.789
1532214772.553,-5.859,41.016,34.668,-4.395,241.699
1532214772.557,-4.395,41.992,34.668,-17.578,183.105
1532214772.561,-9.766,42.480,33.203,-18.066,-172.852
1532214772.565,-10.254,39.062,31.738,-4.883,-194.336
1532214772.569,-10.742,40.039,30.273,0.977,175.293
1532214772.572,-1.953,41.992,29.785,-1.465,294.922
1532214772.576,6.348,41.016,28.320,-4.883,-46.875
1532214772.580,3.906,41.992,27.832,0.977,-242.676
1532214772.584,5.371,41.016,24.902,7.812,61.523
1532214772.588,-0.488,38.574,24.902,7.812,303.711
1532214772.592,1.953,40.039,27.832,7.324,51.270
1532214772.596,6.348,40.527,28.320,0.977,-288.574
1532214772.600,5.371,39.062,29.785,-0.488,-80.566
1532214772.604,5.371,42.480,27.344,3.418,272.949
1532214772.608,9.766,43.457,25.879,0.488,139.648
1532214772.611,9.766,42.480,25.391,-0.977,-211.426
1532214772.615,0.488,41.992,28.320,0.488,-142.090
1532214772.619,0.488,38.574,28.809,3.906,217.773
1532214772.623,2.930,39.062,25.879,-1.465,221.680
1532214772.627,0.977,40.039,24.902,-4.395,-145.020
1532214772.631,0.977,40.527,26.367,4.395,-216.797
1532214772.635,3.906,39.551,27.832,2.930,142.090
1532214772.639,8.789,37.598,26.855,-3.418,257.324
1532214772.643,15.625,39.062,30.273,-4.883,-59.082
1532214772.647,2.930,40.039,31.738,-4.883,-256.836
1532214772.651,-2.441,40.527,28.809,3.906,35.156
1532214772.654,0.977,39.062,28.320,0.977,291.016
1532214772.658,-4.395,40.527,26.855,-7.812,75.684
1532214772.662,-4.883,43.945,28.809,-2.930,-240.723
1532214772.666,0.488,41.504,34.180,6.836,-70.312
1532214772.670,5.371,39.551,33.691,5.371,274.414
1532214772.674,7.324,39.062,33.203,-2.930,174.316
1532214772.678,6.836,37.598,35.645,-3.906,-217.773
1532214772.682,2.441,36.621,34.668,1.953,-176.758
1532214772.686,7.324,36.621,35.156,6.836,221.680
1532214772.690,10.742,37.109,32.715,0.488,239.258
1532214772.694,6.348,38.086,30.762,-11.719,-125.000
1532214772.697,8.301,42.480,33.203,-13.184,-265.137
1532214772.701,10.742,43.945,34.180,-0.488,100.098
1532214772.705,11.230,41.992,34.668,1.953,316.406
1532214772.709,16.113,42.969,35.645,-2.441,18.066
1532214772.713,14.648,42.969,36.621,-1.465,-245.117
1532214772.717,10.254,41.504,35.156,-0.488,-0.977
1532214772.721,14.160,42.480,34.668,1.465,288.086
1532214772.725,21.973,42.969,35.645,-2.930,103.027
1532214772.729,12.207,41.504,33.691,-7.324,-236.328
1532214772.733,0.488,38.086,30.762,-1.465,-111.328
1532214772.736,-1.465,39.551,30.273,-6.836,238.281
1532214772.740,1.465,42.480,33.691,-11.230,190.430
1532214772.744,6.836,42.969,34.180,-8.789,-166.016
1532214772.748,1.953,42.480,32.227,-2.441,-176.270
1532214772.752,-2.441,41.016,27.344,3.906,171.387
1532214772.756,2.930,39.551,24.902,0.000,270.508
1532214772.760,8.301,40.527,27.832,-0.488,-44.922
1532214772.764,3.418,42.969,26.855,-0.488,-239.258
1532214772.768,-1.953,40.527,25.391,2.441,71.289
1532214772.772,7.324,38.574,23.438,2.441,300.781
1532214772.776,7.812,39.551,24.414,-6.348,64.941
1532214772.779,6.348,41.016,23.926,-7.324,-221.680
1532214772.783,7.324,40.039,28.320,5.371,-35.645
1532214772.787,1.465,39.062,29.785,9.766,270.508
1532214772.791,8.789,39.551,23.438,0.977,147.461
1532214772.795,7.324,39.551,25.391,-8.301,-246.094
1532214772.799,2.441,37.109,28.809,-5.371,-179.199
1532214772.803,1.465,38.086,26.855,2.441,241.211
1532214772.807,6.348,38.574,26.367,1.465,264.648
1532214772.811,10.742,38.086,28.809,1.465,-136.719
1532214772.815,11.230,36.621,26.855,5.371,-220.215
1532214772.819,11.719,35.645,24.902,10.742,156.738
1532214772.822,14.160,35.156,24.902,9.766,291.992
1532214772.826,14.648,37.109,28.809,6.348,-63.965
1532214772.830,4.395,38.086,30.762,8.301,-260.254
1532214772.834,2.441,39.062,27.832,6.836,58.105
1532214772.838,4.395,41.016,27.832,-0.488,265.625
1532214772.842,4.395,43.457,28.320,-5.859,53.223
1532214772.846,5.371,42.969,30.762,-3.906,-237.793
1532214772.850,0.000,39.551,32.715,1.465,-42.969
1532214772.854,2.441,41.992,32.227,0.977,270.996
1532214772.858,7.812,45.410,32.227,-4.883,150.879
1532214772.861,9.766,44.434,32.715,-13.184,-201.660
1532214772.865,14.160,42.480,30.762,-14.160,-148.438
1532214772.869,19.043,44.922,30.762,-5.371,212.402
1532214772.873,21.484,45.410,32.227,-1.465,231.934
1532214772.877,17.090,41.504,32.227,-9.766,-166.504
1532214772.881,12.207,40.039,32.227,0.488,-258.789
1532214772.885,2.930,39.551,28.809,19.531,141.602
1532214772.889,1.465,39.062,31.250,21.973,305.664
1532214772.893,-0.977,39.062,37.109,19.531,-10.254
1532214772.897,-6.348,35.156,35.156,17.090,-241.699
1532214772.901,-3.906,33.691,34.180,16.113,53.711
1532214772.904,0.000,34.180,33.691,15.625,315.430
1532214772.908,3.418,34.668,36.133,10.742,88.379
1532214772.912,11.230,38.574,41.016,3.906,-250.977
1532214772.916,5.859,35.156,36.621,2.930,-88.867
1532214772.920,1.465,30.762,32.227,2.930,249.512
1532214772.924,7.812,33.203,33.203,-1.465,145.996
1532214772.928,11.719,37.109,38.086,-2.441,-213.867
1532214772.932,10.254,38.574,37.109,1.953,-177.246
1532214772.936,7.324,38.086,36.133,0.488,156.738
1532214772.940,5.859,36.621,39.062,-8.301,190.430
1532214772.944,2.930,37.598,34.180,-4.883,-133.301
1532214772.947,4.883,38.086,32.227,1.465,-230.957
1532214772.951,4.883,37.109,32.227,2.930,120.605
1532214772.955,0.977,37.598,29.785,0.488,288.574
1532214772.959,6.836,40.527,32.227,-4.395,-17.578
1532214772.963,2.441,41.992,32.227,-1.953,-291.016
1532214772.967,-5.859,41.504,26.367,0.488,-26.855
1532214772.971,0.488,41.504,22.461,3.418,280.762
1532214772.975,2.930,45.410,20.996,-5.371,73.730
1532214772.979,3.906,45.410,19.043,-17.578,-258.301
1532214772.983,2.441,42.480,19.043,-2.930,-94.238
1532214772.986,0.000,42.480,19.531,2.441,270.508
1532214772.990,4.395,41.504,20.996,-6.348,207.031
1532214772.994,8.301,42.480,24.414,-5.371,-193.359
1532214772.998,4.395,41.992,22.461,-0.488,-215.820
1532214773.002,-1.953,40.039,19.043,2.441,174.805
1532214773.006,0.977,40.527,21.484,-1.953,283.691
1532214773.010,3.418,43.457,20.996,-6.348,-67.871
1532214773.014,-1.465,43.457,18.066,-8.301,-272.949
1532214773.018,-2.930,41.016,18.555,-6.836,41.992
1532214773.022,3.906,40.527,19.531,2.441,260.742
1532214773.026,5.371,41.504,20.020,3.418,11.719
1532214773.029,8.301,41.504,20.996,3.906,-233.887
1532214773.033,13.184,40.527,21.484,4.395,-33.203
1532214773.037,1.953,37.598,24.902,-1.465,241.211
1532214773.041,-4.395,37.598,26.367,-3.418,102.539
1532214773.045,0.488,39.551,28.320,-2.441,-220.215
1532214773.049,0.488,43.457,32.227,2.441,-114.258
1532214773.053,8.789,42.480,27.832,3.418,243.652
1532214773.057,10.742,37.109,27.832,-2.441,215.820
1532214773.061,-2.441,36.133,33.203,-5.371,-155.273
1532214773.065,-0.977,35.156,33.203,3.906,-215.820
1532214773.068,8.301,34.668,31.250,9.277,173.828
1532214773.072,10.254,37.109,32.715,-0.488,288.574
1532214773.076,8.301,38.086,35.156,-11.719,-55.664
1532214773.080,7.324,37.109,30.273,-12.695,-238.281
1532214773.084,4.395,38.574,28.809,-5.859,73.242
1532214773.088,2.930,43.457,31.738,-6.348,333.984
1532214773.092,6.836,44.434,33.203,-8.301,109.863
1532214773.096,9.766,43.457,33.203,-8.301,-250.488
1532214773.100,2.441,43.945,27.344,-6.348,-64.453
1532214773.104,1.953,42.480,27.344,-3.906,276.855
1532214773.108,7.324,41.992,31.738,-7.324,154.785
1532214773.111,11.230,45.410,33.203,-10.742,-194.336
1532214773.115,7.324,44.922,32.715,-11.719,-158.203
1532214773.119,-3.418,41.992,32.227,-12.695,197.754
1532214773.123,-3.906,40.527,33.691,-12.207,211.426
1532214773.127,4.883,40.527,34.668,-16.602,-129.883
1532214773.131,-2.441,40.039,34.668,-14.160,-197.754
1532214773.135,-12.207,39.062,29.785,-8.301,110.352
1532214773.139,-8.789,38.574,26.367,-9.277,238.281
1532214773.143,-3.418,36.621,30.273,-11.719,-49.316
1532214773.147,-0.977,35.645,30.762,-12.207,-257.812
1532214773.151,-4.395,34.180,28.320,-4.395,44.434
1532214773.154,-2.930,36.133,29.785,-6.348,306.641
1532214773.158,2.930,39.551,33.203,-14.648,60.547
1532214773.162,4.883,39.551,33.691,-8.789,-254.395
1532214773.166,2.441,39.062,33.203,-3.906,-89.844
1532214773.170,2.441,41.016,29.297,-4.395,272.461
1532214773.174,1.465,40.527,29.297,-12.695,174.316
1532214773.178,-3.418,41.016,28.320,-20.996,-221.191
1532214773.182,1.465,42.480,27.832,-10.254,-180.176
1532214773.186,4.395,41.504,31.738,-3.418,219.238
1532214773.190,0.000,40.527,27.832,-7.812,275.879
1532214773.193,-6.348,40.527,28.809,-17.578,-102.539
1532214773.197,-8.301,38.086,30.762,-16.602,-230.957
1532214773.201,-11.230,36.133,30.273,-3.418,98.145
1532214773.205,-14.160,37.109,30.762,-1.953,293.945
1532214773.209,-2.930,37.109,32.227,-3.906,25.879
1532214773.213,-1.953,36.621,36.133,-2.441,-277.832
1532214773.217,0.977,37.109,35.645,-1.953,-53.223
1532214773.221,5.371,40.039,35.645,-0.488,264.648
1532214773.225,0.977,41.504,34.180,-0.977,120.605
1532214773.229,2.930,38.574,32.227,-0.977,-210.449
1532214773.233,2.930,36.133,30.273,0.488,-79.102
1532214773.236,2.441,36.133,27.832,-1.953,264.648
1532214773.240,1.465,36.621,25.879,-5.371,180.176
1532214773.244,1.953,37.109,27.832,-4.395,-178.223
1532214773.248,0.000,36.621,28.809,-3.418,-186.523
1532214773.252,0.000,37.109,29.297,1.953,184.082
1532214773.256,5.859,40.527,32.715,6.348,237.305
1532214773.260,-3.906,40.039,27.832,-5.371,-119.629
1532214773.264,-14.648,37.109,26.367,-8.789,-243.164
1532214773.268,-8.301,34.180,30.273,-1.953,101.074
1532214773.272,-4.883,33.691,33.203,-4.395,284.180
1532214773.276,-4.395,39.551,30.762,-13.184,2.930
1532214773.279,-3.418,40.039,27.344,-8.789,-251.953
1532214773.283,-4.883,36.133,31.738,3.906,-16.113
1532214773.287,-2.441,36.621,34.180,6.836,319.336
1532214773.291,3.906,37.598,32.715,3.418,146.973
1532214773.295,3.906,39.551,29.785,-0.488,-231.445
1532214773.299,4.395,41.504,29.785,2.441,-115.723
1532214773.303,5.859,41.016,34.668,5.371,273.438
1532214773.307,5.371,39.551,31.250,-0.977,227.539
1532214773.311,7.324,41.016,27.344,-0.488,-155.273
1532214773.315,9.766,44.922,27.344,1.953,-219.727
1532214773.318,4.883,40.527,29.297,1.953,142.578
1532214773.322,0.000,38.086,32.227,1.953,265.625
1532214773.326,-5.371,39.551,32.715,-2.930,-65.918
1532214773.330,-3.906,37.109,33.691,-1.953,-238.281
1532214773.334,-4.883,37.109,34.668,-6.348,53.223
1532214773.338,-8.301,39.551,33.203,-12.695,311.523
1532214773.342,-4.395,45.410,38.574,-9.277,105.469
1532214773.346,-2.441,45.410,41.992,-8.301,-227.539
1532214773.350,-14.648,37.109,35.156,-8.789,-39.062
1532214773.354,-19.531,35.156,33.691,-11.719,276.855
1532214773.358,-15.137,40.527,37.109,-21.973,108.398
1532214773.361,-21.484,43.945,35.156,-26.855,-245.605
1532214773.365,-19.531,43.945,32.227,-19.043,-170.410
1532214773.369,-16.113,41.992,35.645,-14.160,204.590
1532214773.373,-14.648,41.504,41.504,-19.531,237.793
1532214773.377,-16.602,41.504,41.016,-22.461,-128.906
1532214773.381,-20.020,39.551,40.527,-19.531,-208.984
1532214773.385,-21.484,43.945,40.527,-23.438,158.203
1532214773.389,-27.832,51.758,37.598,-35.156,295.898
1532214773.393,-34.180,55.176,38.086,-40.039,-13.184
1532214773.397,-40.039,50.293,38.086,-45.410,-276.855
1532214773.400,-39.062,45.898,40.527,-41.992,3.906
1532214773.404,-30.273,46.387,41.992,-30.273,317.871
1532214773.408,-25.391,43.945,42.969,-28.320,121.582
1532214773.412,-23.926,42.480,46.875,-33.691,-237.793
1532214773.416,-27.344,46.387,42.969,-33.203,-78.613
1532214773.420,-27.344,50.293,38.574,-26.367,263.184
1532214773.424,-20.508,50.781,41.016,-26.367,180.664
1532214773.428,-21.484,47.852,43.457,-38.086,-159.668
1532214773.432,-20.508,50.781,40.527,-36.621,-161.133
1532214773.436,-17.578,52.734,36.133,-25.879,204.590
1532214773.440,-24.414,51.270,38.086,-29.785,263.184
1532214773.443,-24.902,46.387,40.039,-34.668,-84.473
1532214773.447,-18.555,43.945,36.621,-25.391,-218.262
1532214773.451,-0.977,46.387,33.203,-10.254,115.723
1532214773.455,5.859,48.828,35.645,-13.672,261.719
1532214773.459,-11.719,48.828,37.598,-31.738,-52.246
1532214773.463,-17.090,42.480,34.180,-27.832,-277.832
1532214773.467,-7.324,41.992,31.250,-10.742,1.953
1532214773.471,-4.395,42.969,33.691,-3.906,290.527
1532214773.475,-2.930,37.598,38.574,-5.859,80.566
1532214773.479,4.395,35.645,39.551,-3.906,-267.090
1532214773.483,-0.977,39.551,36.621,6.348,-117.676
1532214773.486,-8.789,40.527,33.691,4.883,265.625
1532214773.490,0.000,40.039,33.203,-1.953,183.594
1532214773.494,3.906,42.480,28.320,-4.395,-214.355
1532214773.498,6.836,42.969,23.438,-0.977,-207.520
1532214773.502,6.348,42.480,22.949,0.977,167.969
1532214773.506,8.789,43.457,22.949,-6.348,232.910
1532214773.510,16.602,45.898,24.414,-9.277,-99.609
1532214773.514,7.812,42.969,20.020,-10.742,-249.512
1532214773.518,8.789,39.062,20.508,-6.836,55.664
1532214773.522,20.020,40.039,27.344,0.977,280.762
1532214773.525,23.438,40.527,26.367,0.000,20.020
1532214773.529,18.555,38.574,20.996,-0.977,-257.812
1532214773.533,10.254,37.598,19.043,2.441,-40.039
1532214773.537,11.719,35.645,21.973,-2.930,273.926
1532214773.541,1.953,33.691,19.531,-12.207,145.508
1532214773.545,-11.719,35.645,15.625,-16.602,-218.750
1532214773.549,-4.395,37.598,18.066,-11.719,-110.840
1532214773.553,1.953,35.156,22.461,-5.859,287.598
1532214773.557,6.836,32.715,21.973,-7.812,271.973
1532214773.561,7.812,36.133,20.996,-11.230,-138.672
1532214773.565,6.348,37.109,21.484,-11.230,-214.844
1532214773.568,6.348,37.598,25.879,-3.418,166.992
1532214773.572,3.906,36.621,27.344,-3.906,258.301
1532214773.576,5.371,36.133,24.414,-22.949,-85.938
1532214773.580,6.348,38.086,25.879,-19.531,-277.832
1532214773.584,4.395,40.039,27.832,-0.977,61.035
1532214773.588,3.906,40.039,24.902,-4.395,320.312
1532214773.592,4.883,39.062,23.926,-10.254,44.434
1532214773.596,6.836,39.551,26.367,-8.301,-268.066
1532214773.600,0.977,37.109,26.855,-4.395,-65.430
1532214773.604,1.953,35.156,25.879,-4.395,285.645
1532214773.608,6.348,35.645,25.391,-9.277,201.172
1532214773.611,-1.465,35.156,27.832,-13.184,-182.129
1532214773.615,-0.977,33.203,27.344,-5.371,-163.574
1532214773.619,-2.441,30.762,24.902,-2.441,218.262
1532214773.623,-4.883,32.715,24.902,-8.789,241.699
1532214773.627,1.465,34.668,25.391,-8.789,-128.418
1532214773.631,4.395,34.668,27.344,-3.418,-206.055
1532214773.635,9.766,39.062,28.809,1.953,126.465
1532214773.639,14.648,41.504,29.785,-4.395,261.719
1532214773.643,11.719,39.062,29.297,-8.301,-21.484
1532214773.647,11.230,39.062,28.320,-1.465,-217.773
1532214773.650,7.812,39.551,31.738,6.348,60.547
1532214773.654,4.395,39.062,32.715,4.395,313.477
1532214773.658,5.371,37.109,33.203,-1.465,97.656
1532214773.662,-1.465,38.086,35.645,-6.836,-227.051
1532214773.666,-1.953,37.109,35.156,-0.488,-66.406
1532214773.670,5.859,34.668,33.691,6.836,269.043
1532214773.674,7.812,37.598,32.715,0.977,189.453
1532214773.678,6.348,38.574,32.227,-0.977,-178.223
1532214773.682,6.836,36.621,31.738,5.859,-169.434
1532214773.686,5.371,36.621,32.715,8.789,182.617
1532214773.690,4.883,38.574,34.668,6.836,229.980
1532214773.693,6.348,39.551,34.668,0.977,-151.855
1532214773.697,7.324,40.039,32.227,0.000,-274.902
1532214773.701,9.766,40.039,28.320,2.930,125.977
1532214773.705,11.719,39.062,28.809,1.465,296.387
1532214773.709,12.207,39.551,32.227,-2.930,-14.160
1532214773.713,5.371,37.598,30.762,-2.441,-266.113
1532214773.717,-1.465,35.645,29.297,1.465,-17.578
1532214773.721,6.836,37.598,32.227,0.977,292.969
1532214773.725,5.371,37.598,32.227,-2.441,125.488
1532214773.729,-4.395,34.668,31.738,-2.441,-230.469
1532214773.732,1.465,35.156,32.227,4.883,-141.113
1532214773.736,3.418,36.621,30.762,0.000,181.152
1532214773.740,0.977,34.180,26.855,-10.254,181.152
1532214773.744,5.371,34.668,25.879,-7.812,-158.203
1532214773.748,6.836,35.156,25.391,-3.418,-188.477
1532214773.752,7.324,34.180,22.461,-3.906,189.453
1532214773.756,4.883,36.621,25.879,-9.277,257.324
1532214773.760,2.930,37.598,26.855,-12.695,-86.426
1532214773.764,4.883,36.133,20.996,-10.742,-225.586
1532214773.768,9.277,39.551,18.555,-6.348,78.613
1532214773.772,19.043,43.457,19.531,-7.324,290.039
1532214773.775,24.414,41.504,19.531,-19.531,16.602
1532214773.779,29.297,37.598,24.902,-19.043,-291.504
1532214773.783,27.832,34.668,27.344,-0.977,-29.297
1532214773.787,23.438,35.645,28.809,11.230,284.180
1532214773.791,14.160,35.156,30.273,11.230,125.977
1532214773.795,1.953,33.203,29.785,14.648,-218.262
1532214773.799,-3.906,34.180,30.273,18.066,-127.441
1532214773.803,-8.301,32.715,29.297,13.184,234.863
1532214773.807,-9.766,35.645,31.250,8.301,209.473
1532214773.811,-9.277,38.574,31.738,-0.977,-183.105
1532214773.815,-15.137,36.133,29.297,-7.812,-247.559
1532214773.818,-9.277,34.180,30.273,-6.836,143.066
1532214773.822,-2.441,38.574,28.809,-1.953,274.414
1532214773.826,-8.789,41.016,31.250,-2.930,-83.984
1532214773.830,-11.719,38.574,31.738,-6.836,-280.762
1532214773.834,-14.648,40.039,25.879,-6.348,45.410
1532214773.838,-12.695,39.551,30.273,-10.254,320.801
1532214773.842,-11.230,37.109,37.109,-18.066,98.145
1532214773.846,-12.695,39.062,35.645,-16.602,-221.680
1532214773.850,-13.672,40.527,35.645,-10.742,-28.809
1532214773.854,-14.648,41.016,38.086,-8.789,257.812
1532214773.857,-18.066,39.551,36.621,-15.625,134.277
1532214773.861,-17.090,36.133,33.203,-22.949,-204.102
1532214773.865,-16.602,31.738,28.809,-18.066,-146.484
1532214773.869,-9.766,32.227,29.297,-12.695,233.398
1532214773.873,-2.441,37.598,35.156,-13.184,226.562
1532214773.877,-4.395,38.086,35.156,-25.391,-166.016
1532214773.881,-3.906,36.133,30.762,-23.438,-232.910
1532214773.885,-4.883,35.156,30.273,-6.836,162.109
1532214773.889,-3.418,35.156,30.762,-5.859,314.453
1532214773.893,0.000,37.109,31.250,-9.766,-24.902
1532214773.897,0.000,35.645,30.762,-8.301,-256.836
1532214773.900,-2.930,32.715,33.691,-3.418,54.199
1532214773.904,0.977,32.715,33.691,-1.953,281.250
1532214773.908,4.395,32.227,32.715,-6.348,60.547
1532214773.912,7.324,31.738,28.809,-6.836,-228.027
1532214773.916,5.371,32.715,25.391,-8.301,-118.164
1532214773.920,-0.977,36.133,24.902,-9.277,256.348
1532214773.924,-2.930,34.668,23.926,-10.254,214.844
1532214773.928,2.441,34.180,25.879,-11.719,-180.176
1532214773.932,4.395,37.598,25.391,-1.465,-179.199
1532214773.936,-4.883,37.598,26.367,3.906,186.035
1532214773.940,-1.953,36.621,28.809,1.465,242.676
1532214773.943,4.883,36.621,31.738,-0.977,-94.238
1532214773.947,-0.488,35.156,31.250,-6.836,-236.328
1532214773.951,0.000,34.180,27.832,-5.371,125.977
1532214773.955,7.324,37.109,27.832,-5.371,279.297
1532214773.959,7.324,37.598,31.250,-10.742,-51.270
1532214773.963,6.348,36.621,30.762,-5.859,-265.625
1532214773.967,5.859,33.203,26.367,1.953,0.000
1532214773.971,4.395,31.738,28.320,3.906,315.918
1532214773.975,2.441,36.621,32.227,-4.883,134.766
1532214773.979,2.930,40.527,33.691,-7.812,-250.000
1532214773.982,2.930,40.039,30.762,-1.465,-107.910
1532214773.986,1.953,37.109,31.250,-0.977,291.016
1532214773.990,5.371,38.086,35.645,-3.418,219.238
1532214773.994,9.766,39.551,35.645,-7.324,-194.336
1532214773.998,7.324,39.062,33.691,-7.324,-205.566
1532214774.002,0.488,38.086,30.762,-0.488,190.430
1532214774.006,4.395,37.109,28.809,-1.953,235.840
1532214774.010,4.395,36.133,30.273,-8.301,-99.121
1532214774.014,-4.395,37.598,32.227,-6.348,-258.301
1532214774.018,-0.488,38.574,31.250,-2.930,60.059
1532214774.022,11.230,38.086,32.715,3.418,301.270
1532214774.025,12.695,39.062,34.668,4.395,43.945
1532214774.029,11.719,38.086,31.738,-0.977,-240.723
1532214774.033,9.277,38.086,26.367,4.883,-34.668
1532214774.037,4.883,39.551,26.855,4.883,272.949
1532214774.041,-4.395,39.551,28.320,-5.371,109.863
1532214774.045,-10.254,36.133,29.785,-6.348,-242.188
1532214774.049,1.953,35.645,32.227,-0.977,-125.000
1532214774.053,1.953,35.645,31.738,-1.953,240.723
1532214774.057,-8.301,35.645,35.156,-12.695,163.086
1532214774.061,-4.395,35.645,36.133,-17.578,-203.613
1532214774.065,-4.395,39.062,34.180,-4.395,-208.496
1532214774.068,-2.930,40.527,31.250,1.465,178.711
1532214774.072,0.977,37.598,30.273,-2.930,287.598
1532214774.076,-1.465,37.598,34.668,-8.301,-81.543
1532214774.080,-7.324,36.621,36.133,-5.371,-272.461
