timestamps,TP9,AF7,AF8,TP10,Right AUX
1532373436.305,13.672,41.992,14.160,10.254,48.340
1532373436.309,17.090,43.945,11.719,12.695,64.941
1532373436.313,13.184,41.504,10.742,10.254,40.527
1532373436.316,12.207,42.969,12.695,13.672,17.090
1532373436.320,13.184,42.480,10.254,25.879,40.527
1532373436.324,16.113,40.039,11.230,31.738,65.430
1532373436.328,17.090,39.551,13.184,34.668,71.289
1532373436.332,17.090,41.504,14.648,35.156,39.062
1532373436.336,17.578,42.480,15.625,25.879,11.719
1532373436.340,15.137,40.527,17.578,23.438,41.992
1532373436.344,12.207,40.039,18.066,27.832,62.500
1532373436.348,13.672,40.527,18.066,27.344,38.086
1532373436.352,20.508,43.945,23.438,30.762,35.156
1532373436.356,21.973,47.852,22.949,33.203,43.457
1532373436.359,18.066,48.340,20.996,27.832,52.734
1532373436.363,15.137,48.340,25.391,26.367,23.926
1532373436.367,15.137,43.457,27.344,19.531,19.531
1532373436.371,16.113,41.992,25.879,11.230,56.152
1532373436.375,12.695,45.898,27.832,10.254,52.734
1532373436.379,12.207,45.410,30.273,7.812,32.227
1532373436.383,13.672,41.992,26.855,4.395,22.949
1532373436.387,5.371,41.992,24.414,2.441,46.387
1532373436.391,-0.977,40.039,22.461,-3.906,47.363
1532373436.395,-2.441,35.156,19.531,-9.766,19.531
1532373436.398,-1.953,35.645,16.602,-4.395,5.859
1532373436.402,0.000,38.086,17.090,-1.465,8.789
1532373436.406,4.395,41.504,18.066,2.441,60.059
1532373436.410,4.395,40.039,16.113,4.883,67.871
1532373436.414,0.488,38.574,17.578,2.930,22.949
1532373436.418,5.859,40.527,18.555,11.719,19.043
1532373436.422,14.160,42.480,15.137,14.160,27.344
1532373436.426,19.043,41.504,11.230,14.648,37.598
1532373436.430,15.137,40.039,10.254,22.461,22.461
1532373436.434,10.254,41.504,9.766,22.461,-18.555
1532373436.438,13.672,42.969,13.672,18.066,-11.719
1532373436.441,21.484,43.457,13.184,11.230,49.316
1532373436.445,20.508,42.969,3.906,-1.953,45.410
1532373436.449,18.066,43.457,-0.488,-3.906,-7.324
1532373436.453,14.648,42.480,4.883,6.836,-11.230
1532373436.457,9.766,37.598,7.812,15.137,34.668
1532373436.461,10.254,36.133,7.324,23.438,21.484
1532373436.465,1.953,33.203,10.254,25.391,-12.207
1532373436.469,-1.953,33.203,10.742,22.461,-19.531
1532373436.473,-2.441,35.645,12.695,16.113,-5.859
1532373436.477,-6.836,35.156,12.207,11.719,11.719
1532373436.481,-6.836,34.180,8.301,15.625,-19.043
1532373436.484,-4.395,37.109,12.207,21.973,-16.113
1532373436.488,-2.441,39.062,16.602,19.531,43.945
1532373436.492,2.441,40.039,18.555,14.648,57.129
1532373436.496,-0.488,39.062,16.602,6.348,-10.742
1532373436.500,-8.301,35.645,12.207,0.000,-3.418
1532373436.504,-8.301,34.668,11.230,-3.906,27.344
1532373436.508,-0.977,38.086,7.812,-4.883,17.090
1532373436.512,5.371,38.574,10.254,1.953,1.465
1532373436.516,3.418,36.621,14.648,2.441,-9.766
1532373436.520,2.441,36.621,14.160,2.930,4.395
1532373436.523,5.371,38.086,17.578,10.742,33.203
1532373436.527,6.836,38.574,19.531,13.672,25.879
1532373436.531,6.836,41.504,22.461,10.254,-1.953
1532373436.535,5.371,42.480,18.066,-0.488,-13.184
1532373436.539,-2.441,38.574,12.207,-8.301,-12.695
1532373436.543,-5.371,36.621,17.090,-2.930,25.879
1532373436.547,-0.977,33.691,22.949,9.766,8.301
1532373436.551,11.230,30.762,29.297,24.902,-34.668
1532373436.555,15.625,37.109,27.344,22.461,-16.602
1532373436.559,4.883,48.340,19.531,0.000,20.020
1532373436.563,-0.488,48.340,17.090,-7.812,18.555
1532373436.566,6.348,45.410,24.414,4.883,-26.367
1532373436.570,6.348,48.828,28.320,7.324,-22.949
1532373436.574,3.418,52.246,24.414,1.465,7.324
1532373436.578,12.207,52.246,23.438,0.977,5.859
1532373436.582,11.230,49.316,22.949,2.441,-4.883
1532373436.586,9.766,49.805,27.344,7.812,-9.766
1532373436.590,10.254,49.805,25.879,7.812,23.926
1532373436.594,7.324,48.340,21.484,2.930,3.906
1532373436.598,15.137,47.852,22.461,7.324,-48.340
1532373436.602,19.043,46.875,27.344,15.137,2.930
1532373436.606,23.438,44.434,31.250,18.555,51.270
1532373436.609,24.414,42.969,28.809,21.973,34.180
1532373436.613,16.113,45.410,25.391,18.066,-4.395
1532373436.617,14.160,46.875,28.809,12.695,-6.836
1532373436.621,17.578,48.828,30.273,22.461,18.555
1532373436.625,19.043,47.852,26.855,27.832,52.246
1532373436.629,13.184,44.434,28.320,26.367,47.363
1532373436.633,4.883,40.527,27.344,22.461,3.906
1532373436.637,1.953,41.504,21.973,22.461,21.973
1532373436.641,4.395,42.969,20.996,25.879,73.730
1532373436.645,11.719,43.945,26.855,27.344,68.359
1532373436.648,14.648,41.992,28.320,30.762,46.387
1532373436.652,10.742,36.621,25.879,30.762,29.785
1532373436.656,11.230,36.621,24.902,27.344,65.430
1532373436.660,11.230,36.133,22.949,29.297,97.168
1532373436.664,2.441,34.668,22.949,24.902,38.574
1532373436.668,4.883,38.086,27.832,21.484,22.949
1532373436.672,9.766,40.527,31.250,21.973,33.203
1532373436.676,8.301,40.039,28.809,25.391,39.551
1532373436.680,7.324,41.992,30.273,25.879,38.574
1532373436.684,7.812,41.504,32.227,20.508,-5.371
1532373436.688,7.324,38.086,29.785,20.020,26.855
1532373436.691,7.812,37.109,32.715,24.902,56.152
1532373436.695,12.695,38.574,37.109,30.762,19.531
1532373436.699,15.625,39.062,33.691,30.762,7.324
1532373436.703,16.602,39.551,34.180,22.461,36.133
1532373436.707,24.414,41.504,39.062,26.367,75.195
1532373436.711,20.996,41.504,42.480,28.320,70.312
1532373436.715,13.672,40.527,43.945,23.926,19.531
1532373436.719,12.695,40.527,38.086,24.902,50.781
1532373436.723,8.789,40.527,34.668,21.973,103.516
1532373436.727,13.672,41.016,36.133,24.414,103.027
1532373436.730,19.043,41.992,38.574,36.133,52.734
1532373436.734,15.625,41.992,38.086,35.156,23.438
1532373436.738,13.672,43.945,33.691,28.320,73.242
1532373436.742,14.648,44.434,35.645,26.855,98.633
1532373436.746,9.277,41.992,36.621,19.531,61.035
1532373436.750,8.789,39.551,39.062,24.902,20.020
1532373436.754,15.137,41.504,41.504,29.297,25.391
1532373436.758,17.578,41.992,42.480,21.484,37.598
1532373436.762,19.531,41.016,44.434,27.344,27.832
1532373436.766,21.484,45.410,45.410,34.668,40.527
1532373436.770,23.438,45.898,42.969,39.551,58.594
1532373436.773,19.043,42.480,41.504,43.457,51.758
1532373436.777,14.648,44.434,44.434,42.480,57.129
1532373436.781,17.578,46.875,43.945,42.480,36.621
1532373436.785,20.020,44.922,44.922,45.898,25.879
1532373436.789,11.719,45.410,47.852,49.805,66.406
1532373436.793,7.324,45.410,46.875,54.199,105.957
1532373436.797,11.230,43.945,45.898,57.129,68.359
1532373436.801,13.184,45.410,49.316,55.664,27.344
1532373436.805,11.230,47.852,49.316,54.199,49.805
1532373436.809,10.254,46.387,47.852,55.664,83.008
1532373436.813,10.254,43.457,49.316,51.270,39.062
1532373436.816,14.648,41.016,48.828,45.898,-11.719
1532373436.820,16.113,40.039,43.457,39.551,45.410
1532373436.824,12.207,42.480,42.480,37.109,68.359
1532373436.828,16.602,42.480,45.898,47.363,37.598
1532373436.832,13.184,40.527,44.922,47.852,29.785
1532373436.836,7.812,40.527,42.480,46.387,32.715
1532373436.840,9.277,39.062,42.480,50.293,57.129
1532373436.844,4.883,39.551,43.457,44.922,72.266
1532373436.848,5.371,42.969,46.875,43.945,23.438
1532373436.852,14.160,42.969,48.340,50.781,2.930
1532373436.855,20.996,42.480,48.828,56.152,54.199
1532373436.859,13.672,41.504,49.805,47.363,70.801
1532373436.863,2.441,41.992,44.434,31.738,47.363
1532373436.867,1.953,41.016,42.969,32.227,13.672
1532373436.871,7.324,38.574,48.340,34.180,25.391
1532373436.875,10.742,42.969,54.199,33.691,36.621
1532373436.879,8.301,45.898,51.758,32.715,4.395
1532373436.883,8.301,45.410,47.363,31.738,-4.395
1532373436.887,7.324,45.898,49.805,30.762,22.949
1532373436.891,6.836,44.922,47.363,26.367,52.734
1532373436.895,2.441,43.945,44.434,21.973,38.574
1532373436.898,-0.977,41.992,47.852,24.414,7.324
1532373436.902,7.812,43.945,51.758,32.227,39.551
1532373436.906,10.254,45.898,54.199,33.203,83.496
1532373436.910,8.789,45.898,54.199,33.691,74.219
1532373436.914,11.230,48.340,52.734,34.180,21.484
1532373436.918,7.812,45.410,50.293,29.785,14.648
1532373436.922,5.859,43.945,47.852,27.832,65.430
1532373436.926,6.836,43.457,49.316,27.344,83.496
1532373436.930,9.766,42.969,48.828,19.531,45.410
1532373436.934,16.113,42.969,49.805,20.020,14.648
1532373436.937,19.531,43.945,49.316,32.227,45.410
1532373436.941,19.043,45.410,50.781,39.062,66.406
1532373436.945,19.043,46.875,54.199,40.527,51.758
1532373436.949,21.484,47.852,55.664,49.316,41.504
1532373436.953,22.461,49.316,52.246,57.129,46.387
1532373436.957,18.555,47.852,50.781,46.387,80.566
1532373436.961,16.602,42.969,53.223,37.598,71.289
1532373436.965,21.973,43.945,53.223,40.527,6.348
1532373436.969,20.020,42.969,52.246,32.227,25.879
1532373436.973,13.672,41.992,50.293,17.578,51.270
1532373436.977,9.766,47.852,49.316,17.578,25.879
1532373436.980,16.602,49.805,50.293,22.461,4.395
1532373436.984,21.973,47.852,51.270,19.043,-6.836
1532373436.988,19.531,49.316,50.781,17.578,32.715
1532373436.992,20.508,47.852,51.758,12.207,53.711
1532373436.996,17.090,43.457,51.270,12.207,22.949
1532373437.000,14.160,44.434,43.945,26.855,31.250
1532373437.004,13.672,44.922,42.480,36.133,47.363
1532373437.008,14.160,43.457,48.340,41.016,72.266
1532373437.012,23.438,44.922,53.223,47.363,44.434
1532373437.016,26.855,46.387,55.664,54.688,2.441
1532373437.020,25.879,45.898,54.199,57.129,37.598
1532373437.023,21.973,46.387,49.316,50.781,66.406
1532373437.027,17.578,44.922,48.340,45.410,75.195
1532373437.031,14.648,42.480,47.363,42.969,17.578
1532373437.035,12.207,39.062,47.363,43.457,-39.062
1532373437.039,11.230,33.691,48.828,54.199,13.184
1532373437.043,13.672,34.180,44.922,59.570,46.875
1532373437.047,13.672,36.133,42.480,63.965,7.324
1532373437.051,8.301,34.180,44.922,67.383,-1.953
1532373437.055,11.230,33.691,46.875,60.547,22.949
1532373437.059,14.160,34.668,47.852,59.570,57.617
1532373437.062,5.859,35.156,47.363,61.523,49.316
1532373437.066,5.371,36.133,45.898,57.129,13.184
1532373437.070,8.301,35.156,44.922,52.246,31.738
1532373437.074,3.418,34.180,45.410,46.875,75.684
1532373437.078,-5.371,32.715,44.434,39.062,40.039
1532373437.082,-5.371,32.227,43.945,35.645,-13.184
1532373437.086,-0.488,28.809,41.992,39.551,-4.395
1532373437.090,1.953,28.320,39.551,44.434,48.340
1532373437.094,-0.977,30.273,41.016,43.457,44.922
1532373437.098,-1.465,31.738,44.434,43.457,-8.789
1532373437.102,5.371,34.180,42.480,37.598,9.277
1532373437.105,0.977,33.203,40.527,30.762,46.387
1532373437.109,0.488,32.715,42.480,34.180,47.363
1532373437.113,2.930,29.785,41.016,29.297,-4.883
1532373437.117,4.883,26.855,40.039,26.855,-19.043
1532373437.121,12.695,28.809,43.457,35.156,30.762
1532373437.125,11.719,28.809,43.945,40.039,46.387
1532373437.129,13.672,27.344,42.969,45.898,13.672
1532373437.133,11.719,29.297,41.992,44.434,-22.949
1532373437.137,4.883,29.297,45.410,41.504,-40.039
1532373437.141,3.906,30.273,44.922,45.410,0.000
1532373437.145,3.418,32.227,43.945,41.016,-19.043
1532373437.148,-1.465,30.762,44.434,34.668,-43.945
1532373437.152,-6.836,28.809,42.969,31.738,-15.137
1532373437.156,-4.395,29.297,41.504,27.344,30.762
1532373437.160,-7.812,30.762,42.480,20.020,40.039
1532373437.164,-11.230,31.250,44.922,16.113,-22.949
1532373437.168,-3.906,32.227,44.434,19.531,-26.855
1532373437.172,-1.465,31.738,43.457,15.137,-3.906
1532373437.176,-2.441,32.227,42.969,8.789,-19.043
1532373437.180,0.000,35.645,44.434,21.484,-48.340
1532373437.184,3.418,34.668,45.410,30.762,-32.227
1532373437.187,3.906,36.133,44.434,29.297,13.672
1532373437.191,10.742,36.133,44.434,28.809,19.531
1532373437.195,12.207,36.133,45.410,29.785,-26.855
1532373437.199,2.441,38.574,45.410,32.715,-18.555
1532373437.203,-1.465,37.109,44.434,32.227,0.000
1532373437.207,0.488,35.645,44.434,33.691,28.320
1532373437.211,4.395,36.133,46.387,35.156,58.105
1532373437.215,2.930,34.180,43.457,31.738,3.418
1532373437.219,3.906,32.227,41.992,33.203,-28.809
1532373437.223,5.371,35.156,41.016,30.273,10.254
1532373437.227,6.836,36.133,41.992,28.809,37.598
1532373437.230,11.230,35.156,44.434,36.133,0.000
1532373437.234,15.137,36.133,43.945,36.133,-20.996
1532373437.238,9.766,35.645,41.992,35.156,12.695
1532373437.242,4.395,35.156,42.480,33.203,21.484
1532373437.246,6.348,38.086,44.434,27.832,17.578
1532373437.250,1.953,36.133,41.992,21.484,11.719
1532373437.254,0.000,34.180,44.434,20.020,16.113
1532373437.258,3.418,33.691,46.875,23.926,33.203
1532373437.262,8.301,37.109,47.363,30.762,33.691
1532373437.266,6.836,39.062,47.852,29.785,-7.324
1532373437.269,8.789,38.574,50.293,30.273,5.859
1532373437.273,10.254,38.574,53.711,29.785,48.340
1532373437.277,2.441,39.062,48.828,22.949,11.719
1532373437.281,-2.441,39.551,47.363,24.414,-22.949
1532373437.285,0.488,38.086,48.828,29.297,25.391
1532373437.289,2.930,36.133,44.922,33.691,56.641
1532373437.293,5.371,37.109,44.922,40.039,58.105
1532373437.297,8.301,37.109,47.852,39.551,44.434
1532373437.301,9.277,35.156,49.805,38.086,22.461
1532373437.305,7.812,34.668,47.363,37.109,47.852
1532373437.309,5.859,35.645,43.945,38.574,70.801
1532373437.312,11.719,37.598,45.410,45.410,33.203
1532373437.316,16.113,38.574,43.945,48.340,-3.418
1532373437.320,11.719,38.086,48.828,48.340,28.809
1532373437.324,15.137,36.133,53.223,50.781,83.008
1532373437.328,25.391,36.133,49.805,52.246,65.918
1532373437.332,23.926,34.668,49.316,51.758,32.715
1532373437.336,13.184,33.203,45.898,48.828,39.062
1532373437.340,13.672,35.156,45.410,46.875,63.477
1532373437.344,19.531,35.156,50.293,47.852,93.750
1532373437.348,19.043,33.691,53.711,48.340,55.664
1532373437.352,18.066,34.668,55.176,48.340,30.273
1532373437.355,18.555,35.645,56.641,47.852,56.641
1532373437.359,15.137,36.133,52.734,44.434,70.312
1532373437.363,13.184,34.668,48.828,43.457,43.945
1532373437.367,15.137,36.133,52.246,50.293,8.301
1532373437.371,14.648,35.156,52.734,52.734,27.832
1532373437.375,16.113,34.180,53.711,53.223,30.762
1532373437.379,13.672,36.133,53.223,49.316,4.883
1532373437.383,8.789,35.156,52.246,44.434,0.488
1532373437.387,5.371,33.691,49.805,45.410,45.898
1532373437.391,1.465,33.203,47.363,43.945,83.984
1532373437.394,4.883,33.691,52.246,42.480,68.848
1532373437.398,8.789,36.133,56.152,45.410,33.691
1532373437.402,8.789,39.551,57.617,46.387,21.973
1532373437.406,10.254,42.480,60.547,46.387,38.574
1532373437.410,10.742,43.457,57.129,46.387,71.777
1532373437.414,12.207,43.457,53.223,48.828,10.254
1532373437.418,19.531,42.480,55.664,54.688,-26.367
1532373437.422,22.461,42.969,56.152,62.012,41.992
1532373437.426,22.949,45.898,58.594,68.359,79.590
1532373437.430,24.414,49.316,61.523,68.848,71.777
1532373437.434,28.809,51.758,61.523,66.895,40.039
1532373437.437,30.762,52.734,61.035,67.871,48.828
1532373437.441,23.438,51.758,58.594,59.570,72.266
1532373437.445,19.043,48.828,57.617,52.734,64.453
1532373437.449,24.414,50.781,60.059,52.734,40.039
1532373437.453,23.438,51.758,61.035,50.293,34.668
1532373437.457,22.949,52.246,59.082,54.199,67.871
1532373437.461,26.855,52.734,62.012,62.988,73.242
1532373437.465,25.391,51.270,61.035,62.500,24.902
1532373437.469,22.461,51.758,58.105,59.570,44.434
1532373437.473,19.043,51.758,59.570,55.664,62.988
1532373437.476,19.531,48.828,55.664,51.270,71.777
1532373437.480,20.020,44.434,56.152,54.199,37.109
1532373437.484,16.113,40.039,55.176,53.223,-10.742
1532373437.488,20.020,40.039,51.270,54.199,52.734
1532373437.492,25.391,41.504,55.664,58.105,83.496
1532373437.496,20.020,37.598,57.617,58.105,44.922
1532373437.500,17.578,39.551,55.664,58.105,23.926
1532373437.504,16.113,40.527,55.176,54.688,29.297
1532373437.508,20.508,39.062,55.176,58.105,62.500
1532373437.512,20.996,38.574,55.176,60.547,42.969
1532373437.516,16.602,42.480,55.664,56.152,-1.953
1532373437.519,12.207,44.922,55.664,52.246,18.555
1532373437.523,13.184,41.992,55.176,49.805,49.316
1532373437.527,21.973,41.992,56.152,54.688,67.871
1532373437.531,21.484,41.992,61.523,55.664,4.395
1532373437.535,14.648,39.551,57.129,48.340,-31.250
1532373437.539,11.719,36.621,48.828,41.992,25.879
1532373437.543,10.742,37.109,48.828,35.156,42.480
1532373437.547,6.348,36.621,50.781,27.832,34.668
1532373437.551,10.254,33.691,52.246,34.180,-2.930
1532373437.555,13.184,35.156,53.711,35.156,3.418
1532373437.559,11.230,38.086,49.805,24.902,67.383
1532373437.562,11.719,37.109,48.828,28.320,64.941
1532373437.566,14.648,36.621,49.316,31.250,21.973
1532373437.570,16.113,37.598,45.898,28.809,13.672
1532373437.574,16.602,37.109,44.922,31.250,54.199
1532373437.578,18.066,34.180,44.434,33.691,53.711
1532373437.582,15.625,34.180,42.480,33.203,0.000
1532373437.586,12.695,34.180,41.504,28.320,28.320
1532373437.590,11.719,35.645,41.016,29.785,74.219
1532373437.594,12.207,34.668,40.039,31.250,48.340
1532373437.598,13.672,33.691,39.551,29.785,9.277
1532373437.601,19.043,36.621,43.457,31.738,15.137
1532373437.605,20.996,36.133,42.480,29.785,72.754
1532373437.609,15.137,33.203,39.551,29.785,88.867
1532373437.613,11.230,31.738,40.039,25.391,34.180
1532373437.617,9.766,28.809,39.062,25.879,33.691
1532373437.621,11.230,30.273,43.945,31.250,70.801
1532373437.625,15.625,33.691,44.434,39.551,80.078
1532373437.629,14.160,29.785,40.039,45.898,56.152
1532373437.633,13.672,30.762,42.969,40.039,41.992
1532373437.637,15.137,32.227,42.480,27.344,33.691
1532373437.641,6.348,29.297,37.598,21.484,58.105
1532373437.644,8.301,28.320,38.086,24.902,76.660
1532373437.648,14.648,29.785,39.551,27.832,41.504
1532373437.652,17.090,30.762,42.969,29.297,18.555
1532373437.656,19.043,31.738,45.898,29.297,49.805
1532373437.660,16.602,32.227,44.922,23.438,60.059
1532373437.664,12.695,31.250,44.922,22.461,35.156
1532373437.668,7.324,32.227,42.969,20.508,26.855
1532373437.672,4.883,33.691,42.969,15.137,29.297
1532373437.676,11.230,30.273,48.340,19.531,62.500
1532373437.680,9.766,28.320,45.410,26.855,35.645
1532373437.683,3.906,29.297,41.504,18.555,1.465
1532373437.687,5.371,29.297,38.574,8.789,15.625
1532373437.691,7.812,28.320,41.016,7.812,55.664
1532373437.695,6.348,26.367,48.340,3.906,60.547
1532373437.699,5.371,25.879,47.852,-0.977,9.766
1532373437.703,12.207,29.297,46.387,0.977,34.668
1532373437.707,15.137,31.738,48.828,13.184,83.008
1532373437.711,13.184,30.762,49.316,15.625,33.691
1532373437.715,8.789,29.785,49.316,10.254,-4.883
1532373437.719,10.254,28.809,50.293,11.230,35.645
1532373437.723,12.207,29.785,48.340,10.254,49.316
1532373437.726,9.277,29.785,47.363,5.859,44.922
1532373437.730,10.742,26.367,47.852,3.418,28.809
1532373437.734,8.789,22.461,47.852,-3.418,-8.789
1532373437.738,7.812,24.414,47.852,-2.930,8.301
1532373437.742,11.230,28.320,46.387,-1.465,63.965
1532373437.746,15.625,27.344,45.898,-1.953,30.762
1532373437.750,18.555,28.320,49.805,0.488,-12.695
1532373437.754,18.555,27.344,50.781,-0.488,18.555
1532373437.758,19.043,30.273,51.758,0.488,42.969
1532373437.762,10.254,31.738,49.805,-5.859,43.945
1532373437.766,7.324,31.738,43.457,-8.789,21.484
1532373437.769,15.137,32.715,45.898,-1.953,13.672
1532373437.773,11.719,31.250,50.781,-2.930,34.180
1532373437.777,12.207,31.738,51.758,-2.930,33.203
1532373437.781,15.137,27.832,51.270,4.883,-4.395
1532373437.785,19.043,25.391,52.734,8.301,-4.395
1532373437.789,21.973,28.320,48.340,3.906,13.672
1532373437.793,23.926,28.809,47.363,-1.953,7.324
1532373437.797,32.227,28.809,49.805,-3.906,-6.348
1532373437.801,37.109,29.297,50.293,-4.395,13.184
1532373437.805,31.738,30.762,49.805,-6.348,29.297
1532373437.808,27.344,32.227,48.828,-5.371,39.062
1532373437.812,21.973,29.297,48.340,-4.883,4.883
1532373437.816,7.812,25.391,50.781,-2.930,-33.691
1532373437.820,1.465,23.926,52.734,1.953,17.578
1532373437.824,6.836,25.879,54.688,7.812,44.922
1532373437.828,7.324,25.879,57.129,5.371,13.672
1532373437.832,-1.465,22.949,50.781,-4.883,-27.832
1532373437.836,-5.371,23.926,44.434,-7.324,-42.969
1532373437.840,0.977,27.832,47.363,0.000,12.695
1532373437.844,5.859,28.320,47.852,3.418,47.363
1532373437.848,7.812,28.809,47.363,4.883,-4.883
1532373437.851,10.742,30.273,52.734,4.395,-55.176
1532373437.855,14.160,30.273,57.129,1.953,-9.277
1532373437.859,12.695,29.297,59.082,1.465,15.625
1532373437.863,1.953,27.344,53.223,-4.395,-18.066
1532373437.867,-1.465,26.855,47.852,-7.324,-41.992
1532373437.871,4.883,28.320,50.293,4.395,-7.812
1532373437.875,7.324,28.809,54.199,7.812,8.789
1532373437.879,7.812,27.832,51.270,5.859,-11.719
1532373437.883,8.789,28.320,46.875,6.348,0.000
1532373437.887,8.301,29.785,45.410,4.395,8.789
1532373437.891,11.719,29.785,45.898,12.207,12.695
1532373437.894,14.160,29.785,42.969,11.230,8.789
1532373437.898,11.230,27.344,43.457,1.465,-8.789
1532373437.902,14.160,26.367,47.852,3.906,-11.230
1532373437.906,16.602,27.344,49.316,9.766,6.348
1532373437.910,19.531,27.344,47.852,0.488,14.648
1532373437.914,19.043,27.832,49.316,-4.395,3.906
1532373437.918,16.113,27.344,53.223,5.371,-20.020
1532373437.922,12.207,26.855,52.246,4.395,-20.508
1532373437.926,2.930,25.879,48.340,-9.766,30.762
1532373437.930,3.906,26.855,47.363,-11.230,32.227
1532373437.933,11.230,27.832,54.688,-8.789,-16.113
1532373437.937,12.207,27.832,54.688,-10.254,4.883
1532373437.941,13.672,28.320,46.875,-10.742,64.453
1532373437.945,23.438,30.762,47.363,-7.812,36.621
1532373437.949,24.902,30.273,50.293,-4.395,7.812
1532373437.953,18.066,30.762,51.270,-2.930,22.949
1532373437.957,22.949,36.133,54.199,-4.883,62.988
1532373437.961,18.555,38.086,57.617,-9.766,82.031
1532373437.965,8.301,35.645,54.199,-12.695,57.617
1532373437.969,4.883,34.180,53.223,-16.113,26.855
1532373437.973,0.488,33.203,57.617,-12.207,43.945
1532373437.976,2.441,33.203,63.965,-1.953,72.754
1532373437.980,1.953,33.203,62.500,0.977,59.082
1532373437.984,2.441,34.180,57.617,-1.953,25.879
1532373437.988,4.883,33.691,56.641,-6.348,35.645
1532373437.992,7.812,32.715,58.594,-12.207,48.340
1532373437.996,9.766,34.180,63.477,-12.695,16.602
1532373438.000,14.160,33.203,63.477,-6.348,9.766
1532373438.004,16.113,30.762,61.035,-3.418,51.758
1532373438.008,12.207,28.809,60.547,-5.859,75.684
1532373438.012,10.742,29.785,56.641,-11.230,52.734
1532373438.015,8.789,29.297,55.664,-14.160,21.484
1532373438.019,11.719,28.809,57.617,-11.230,28.320
1532373438.023,14.160,32.715,57.617,-9.277,64.453
1532373438.027,11.719,35.156,54.199,-7.812,63.477
1532373438.031,16.113,32.715,54.688,-0.977,49.805
1532373438.035,16.602,31.738,57.129,0.977,31.250
1532373438.039,19.043,35.645,50.781,3.418,62.500
1532373438.043,27.344,37.109,54.199,11.719,79.102
1532373438.047,28.809,34.180,61.035,7.324,27.832
1532373438.051,22.461,32.715,58.105,1.953,3.418
1532373438.055,18.066,32.715,57.129,5.371,53.223
1532373438.058,17.090,35.156,55.664,5.859,93.750
1532373438.062,13.672,36.621,53.223,2.441,67.871
1532373438.066,17.578,36.133,53.223,5.859,48.340
1532373438.070,19.043,36.621,54.688,7.324,55.176
1532373438.074,19.043,41.504,58.105,4.883,51.758
1532373438.078,18.066,39.551,51.270,5.859,39.062
1532373438.082,20.020,32.715,47.363,6.836,25.879
1532373438.086,18.555,33.203,51.270,6.836,39.551
1532373438.090,16.113,37.109,54.199,3.906,67.383
1532373438.094,18.066,36.621,53.223,2.441,92.773
1532373438.098,18.066,36.133,51.270,6.836,81.543
1532373438.101,23.438,41.992,55.664,15.137,31.738
1532373438.105,29.297,48.828,59.082,27.344,30.762
1532373438.109,27.344,48.828,59.082,35.645,63.965
1532373438.113,27.344,44.434,61.523,37.598,19.043
1532373438.117,32.715,46.387,64.941,45.410,-25.391
1532373438.121,32.227,47.852,65.430,58.105,18.555
1532373438.125,31.738,44.922,63.477,61.035,60.547
1532373438.129,31.738,44.434,60.059,52.246,37.109
1532373438.133,29.297,47.852,63.965,43.457,21.484
1532373438.137,34.668,48.340,67.383,43.457,47.363
1532373438.140,39.551,49.316,73.242,52.246,76.660
1532373438.144,37.598,48.340,73.242,54.199,76.172
1532373438.148,26.367,41.504,64.941,33.691,28.809
1532373438.152,22.949,41.992,66.895,31.738,21.484
1532373438.156,36.621,50.293,71.289,53.711,51.270
1532373438.160,41.504,52.734,72.754,53.711,52.734
1532373438.164,36.133,50.293,71.777,42.480,9.766
1532373438.168,39.062,49.805,71.289,43.457,9.766
1532373438.172,41.992,50.781,66.895,53.711,16.113
1532373438.176,38.574,49.805,65.918,50.293,14.648
1532373438.180,32.227,48.340,67.383,35.156,15.625
1532373438.183,33.203,48.828,64.941,28.320,4.883
1532373438.187,33.691,46.875,64.941,24.414,36.621
1532373438.191,26.367,42.969,60.059,18.066,52.246
1532373438.195,21.484,41.504,53.223,16.113,27.344
1532373438.199,20.020,41.992,51.270,19.531,8.301
1532373438.203,21.484,41.016,51.758,23.926,13.184
1532373438.207,24.414,40.527,52.734,21.484,67.383
1532373438.211,23.438,41.504,53.223,25.391,67.383
1532373438.215,24.414,41.992,51.270,26.367,-1.465
1532373438.219,25.391,41.504,45.898,29.785,4.395
1532373438.222,22.949,39.551,47.852,35.156,70.801
1532373438.226,19.043,38.574,47.852,22.461,116.211
1532373438.230,17.090,38.086,44.434,11.230,47.852
1532373438.234,22.949,36.621,49.805,22.461,14.160
1532373438.238,27.344,38.086,50.293,23.926,52.246
1532373438.242,27.344,39.551,46.875,16.602,73.242
1532373438.246,25.879,38.086,42.969,15.625,54.199
1532373438.250,21.973,36.133,42.480,9.277,22.949
1532373438.254,16.602,34.180,41.992,3.906,45.898
1532373438.258,16.602,35.645,41.504,11.719,79.102
1532373438.262,20.508,33.203,42.969,22.461,61.523
1532373438.265,18.555,29.785,45.410,23.926,21.973
1532373438.269,15.625,32.715,44.922,20.020,34.180
1532373438.273,15.625,33.203,43.945,14.160,67.871
1532373438.277,13.184,30.762,44.434,10.742,48.340
1532373438.281,12.207,30.762,41.992,4.883,9.766
1532373438.285,13.184,33.203,43.945,5.859,34.668
1532373438.289,18.066,35.156,47.363,14.160,50.781
1532373438.293,22.949,34.668,45.410,18.066,44.922
1532373438.297,20.508,33.691,44.434,21.973,44.922
1532373438.301,17.090,33.691,44.434,23.438,37.109
1532373438.305,12.695,31.738,42.969,22.461,51.758
1532373438.308,14.648,32.715,45.898,27.344,86.914
1532373438.312,21.973,34.668,47.363,31.738,61.523
1532373438.316,24.414,31.738,44.434,29.297,29.297
1532373438.320,20.020,29.297,43.457,28.320,44.434
1532373438.324,20.020,32.715,45.410,24.414,59.082
1532373438.328,20.508,33.203,51.758,17.578,61.035
1532373438.332,16.602,29.785,51.270,10.254,14.160
1532373438.336,16.113,33.691,47.363,6.836,7.324
1532373438.340,20.020,34.668,48.828,18.555,35.156
1532373438.344,21.484,31.250,48.828,24.414,31.250
1532373438.347,18.555,32.227,48.340,20.508,32.715
1532373438.351,20.996,32.227,45.898,20.020,18.066
1532373438.355,22.949,32.715,46.387,19.531,21.484
1532373438.359,21.484,35.156,52.246,19.043,44.434
1532373438.363,20.020,37.598,50.781,15.137,48.340
1532373438.367,20.996,39.062,51.758,18.066,7.324
1532373438.371,21.973,38.086,53.223,18.555,-10.254
1532373438.375,20.508,37.598,48.828,20.020,48.340
1532373438.379,22.461,35.156,48.828,30.273,37.598
1532373438.383,20.996,33.203,51.270,26.855,-4.883
1532373438.387,12.695,32.227,49.805,14.160,18.555
1532373438.390,11.719,32.227,47.852,13.672,31.250
1532373438.394,14.648,32.715,48.340,10.254,-2.930
1532373438.398,16.602,33.691,46.387,8.301,-10.254
1532373438.402,23.926,38.086,47.852,17.090,17.090
1532373438.406,30.762,38.086,55.664,19.043,53.223
1532373438.410,26.367,36.621,58.105,13.672,63.477
1532373438.414,18.555,35.156,56.641,11.230,26.855
1532373438.418,19.531,35.156,56.641,14.160,21.484
1532373438.422,19.531,36.621,59.082,12.695,22.949
1532373438.426,17.090,36.133,58.594,3.906,28.320
1532373438.429,12.207,35.156,58.105,1.953,37.109
1532373438.433,15.137,36.621,57.617,8.789,-2.930
1532373438.437,20.508,39.551,60.547,12.207,-4.395
1532373438.441,22.949,40.527,63.965,13.672,31.250
1532373438.445,24.414,39.062,61.035,13.672,43.457
1532373438.449,24.902,36.621,57.129,16.113,22.949
1532373438.453,25.879,36.621,57.129,21.973,-17.090
1532373438.457,25.879,39.062,55.176,18.066,-14.160
1532373438.461,22.461,39.062,52.734,14.160,5.859
1532373438.465,25.391,37.109,53.223,15.625,-6.836
1532373438.469,30.762,38.574,54.199,20.020,6.836
1532373438.472,33.691,40.527,55.664,24.902,11.230
1532373438.476,35.645,41.016,53.711,18.066,19.043
1532373438.480,34.180,39.062,49.316,7.324,6.348
1532373438.484,32.715,37.109,44.922,6.836,-24.902
1532373438.488,40.527,39.551,44.434,21.973,-7.812
1532373438.492,41.992,35.645,48.828,30.273,2.930
1532373438.496,31.250,34.180,49.805,24.902,-6.836
1532373438.500,24.414,31.738,49.805,28.809,-16.602
1532373438.504,19.531,30.762,49.316,35.156,-10.742
1532373438.508,18.066,33.691,50.293,41.016,11.719
1532373438.512,17.090,33.691,51.270,40.039,10.254
1532373438.515,6.348,33.203,50.293,28.809,-8.789
1532373438.519,2.441,33.691,48.828,27.832,-18.066
1532373438.523,10.254,34.180,50.293,36.621,12.695
1532373438.527,11.719,33.691,52.246,28.320,22.949
1532373438.531,13.672,33.203,48.828,18.555,3.418
1532373438.535,14.648,34.180,49.316,20.996,-13.672
1532373438.539,14.160,35.156,55.176,19.531,24.414
1532373438.543,16.602,35.156,55.664,15.625,66.406
1532373438.547,17.090,33.203,53.711,15.625,30.273
1532373438.551,16.113,31.250,54.199,18.066,3.418
1532373438.554,10.254,30.273,53.223,20.996,16.113
1532373438.558,10.254,31.738,53.223,23.926,57.617
1532373438.562,15.625,30.762,52.246,26.855,48.340
1532373438.566,9.277,28.809,48.340,25.879,19.043
1532373438.570,5.859,28.809,47.363,20.508,16.113
1532373438.574,8.301,28.809,46.387,16.602,15.137
1532373438.578,14.648,31.738,48.340,20.996,27.832
1532373438.582,20.996,33.203,51.758,30.273,17.090
1532373438.586,17.578,31.250,47.363,30.762,15.625
1532373438.590,19.531,30.762,46.875,28.320,56.152
1532373438.594,20.996,28.320,48.828,22.949,48.340
1532373438.597,21.484,30.762,46.875,17.090,0.000
1532373438.601,22.461,32.715,46.875,17.090,20.996
1532373438.605,25.879,32.227,46.875,21.484,66.895
1532373438.609,28.809,34.180,48.340,26.367,85.449
1532373438.613,20.020,33.203,51.270,22.949,64.453
1532373438.617,12.695,29.297,47.363,13.184,35.156
1532373438.621,15.137,30.273,43.457,13.184,26.367
1532373438.625,20.996,34.180,45.898,20.020,25.391
1532373438.629,26.855,33.691,50.781,26.855,29.785
1532373438.633,27.832,33.691,51.758,25.391,1.953
1532373438.637,21.484,33.203,51.758,20.996,-14.160
1532373438.640,15.625,32.227,49.805,15.137,31.250
1532373438.644,13.184,33.691,48.340,10.254,42.969
1532373438.648,12.695,32.715,50.781,9.766,23.926
1532373438.652,12.695,29.785,50.781,11.230,20.020
1532373438.656,17.578,31.250,50.781,15.625,59.082
1532373438.660,21.484,34.180,51.270,17.090,84.473
1532373438.664,17.578,32.227,48.828,16.602,51.758
1532373438.668,20.508,34.180,45.898,24.902,16.602
1532373438.672,20.508,33.691,45.410,26.855,38.086
1532373438.676,16.113,31.250,46.387,21.484,35.156
1532373438.679,20.508,35.156,48.340,26.855,21.484
1532373438.683,23.438,38.574,51.758,32.227,33.691
1532373438.687,29.297,44.434,59.082,38.086,29.297
1532373438.691,36.621,47.363,62.500,45.898,71.777
1532373438.695,43.945,49.805,65.918,53.711,72.754
1532373438.699,49.316,53.711,70.312,55.664,3.418
1532373438.703,51.270,55.176,71.777,52.734,18.555
1532373438.707,51.270,56.641,74.219,53.223,60.547
1532373438.711,48.828,58.105,72.266,57.129,52.734
1532373438.715,52.734,59.082,72.266,59.570,10.254
1532373438.719,56.641,60.059,76.660,63.965,18.066
1532373438.722,58.594,62.500,83.008,69.336,72.266
1532373438.726,55.176,64.941,80.566,62.988,72.754
1532373438.730,50.293,64.941,74.707,55.176,37.598
1532373438.734,56.641,63.477,80.078,55.176,8.789
1532373438.738,53.223,63.965,81.543,57.129,38.086
1532373438.742,47.363,65.918,78.613,62.500,80.078
1532373438.746,52.246,66.406,83.984,61.035,70.801
1532373438.750,46.387,62.988,86.426,56.641,26.367
1532373438.754,43.945,62.988,80.566,58.594,17.090
1532373438.758,51.270,67.383,81.055,63.477,57.129
1532373438.761,52.734,66.406,80.078,67.871,46.387
1532373438.765,52.246,64.453,73.242,63.477,18.066
1532373438.769,53.223,65.430,75.684,60.547,40.039
1532373438.773,52.734,62.988,78.613,57.129,38.086
1532373438.777,52.246,61.035,80.566,54.688,30.762
1532373438.781,52.246,61.035,79.590,58.594,34.180
1532373438.785,54.688,61.523,73.730,63.477,45.410
1532373438.789,53.711,63.477,75.195,68.848,77.637
1532373438.793,50.293,61.523,77.637,63.965,62.988
1532373438.797,48.340,62.012,74.219,66.895,45.898
1532373438.801,51.758,62.500,75.195,70.801,40.527
1532373438.804,52.246,57.617,77.637,73.242,46.387
1532373438.808,46.875,57.617,74.219,75.684,40.039
1532373438.812,44.922,58.594,72.266,71.289,15.625
1532373438.816,40.527,56.641,71.777,63.965,5.371
1532373438.820,40.039,56.152,72.266,61.523,-1.465
1532373438.824,40.039,54.199,69.336,62.500,29.785
1532373438.828,29.297,50.781,67.383,57.129,65.430
1532373438.832,27.344,47.852,68.359,46.387,0.977
1532373438.836,34.180,49.316,64.453,40.527,-41.504
1532373438.840,33.691,49.316,57.617,45.898,33.203
1532373438.844,34.180,44.434,59.082,49.316,78.613
1532373438.847,34.668,43.457,60.547,49.316,39.551
1532373438.851,33.203,44.434,58.105,56.641,4.395
1532373438.855,34.180,45.410,55.176,54.199,31.250
1532373438.859,30.273,42.480,49.316,47.852,37.598
1532373438.863,27.832,39.551,47.852,50.781,-5.371
1532373438.867,27.344,39.062,50.293,45.898,-22.949
1532373438.871,31.738,39.551,51.270,38.086,13.184
1532373438.875,37.109,41.016,47.852,35.645,31.738
1532373438.879,31.738,40.039,45.898,31.738,6.348
1532373438.883,28.809,40.527,48.340,25.391,-10.254
1532373438.886,26.855,35.645,52.734,25.391,-2.441
1532373438.890,19.043,32.715,50.781,24.414,28.320
1532373438.894,20.020,35.156,49.316,31.250,49.316
1532373438.898,24.902,33.203,51.270,39.062,19.043
1532373438.902,21.973,31.738,50.781,37.598,13.184
1532373438.906,20.020,34.180,48.828,38.086,62.012
1532373438.910,18.066,33.691,47.852,33.691,47.363
1532373438.914,16.113,31.738,45.898,24.414,-23.438
1532373438.918,15.625,30.273,42.969,23.926,-23.926
1532373438.922,16.113,28.809,44.922,33.203,30.273
1532373438.926,17.090,30.273,43.945,39.062,62.012
1532373438.929,13.672,31.250,41.992,38.574,54.199
1532373438.933,12.207,33.691,44.922,36.621,10.254
1532373438.937,19.531,36.621,48.340,36.621,8.789
1532373438.941,30.762,35.645,47.363,35.645,44.434
1532373438.945,30.762,35.645,43.945,30.762,37.598
1532373438.949,20.996,33.203,43.457,23.438,2.441
1532373438.953,15.625,28.320,42.969,12.207,-6.348
1532373438.957,15.625,29.297,43.457,7.324,33.203
1532373438.961,17.578,30.273,41.504,7.812,51.758
1532373438.965,17.090,30.273,43.457,9.766,22.461
1532373438.968,18.555,28.809,46.875,11.719,15.137
1532373438.972,19.043,28.320,44.434,11.230,22.461
1532373438.976,19.531,29.785,42.480,14.648,51.270
1532373438.980,15.625,29.785,42.480,13.184,23.438
1532373438.984,12.695,29.297,46.387,17.090,0.000
1532373438.988,15.625,29.297,48.340,27.344,38.086
1532373438.992,11.719,31.250,48.340,23.438,59.570
1532373438.996,7.812,28.809,46.875,20.996,28.809
1532373439.000,9.766,26.855,45.410,28.320,-6.348
1532373439.004,9.277,27.344,47.363,25.391,20.020
1532373439.008,14.160,27.344,46.387,23.926,40.527
1532373439.011,19.531,30.762,48.340,26.367,34.668
1532373439.015,20.020,31.738,49.316,22.949,1.953
1532373439.019,23.438,33.203,49.316,20.508,0.000
1532373439.023,22.949,35.645,48.828,15.137,28.809
1532373439.027,17.090,33.691,51.270,9.766,60.547
1532373439.031,16.602,29.297,52.734,9.277,33.691
1532373439.035,19.531,31.250,52.246,11.719,-18.066
1532373439.039,25.391,31.738,57.129,17.090,-0.488
1532373439.043,26.855,32.715,56.641,14.648,20.996
1532373439.047,19.531,33.691,52.734,13.184,14.648
1532373439.051,17.578,31.738,55.664,15.625,0.977
1532373439.054,17.090,35.645,59.570,9.766,-19.043
1532373439.058,12.207,35.156,59.570,3.906,5.371
1532373439.062,5.859,31.250,56.641,6.348,44.922
1532373439.066,2.441,30.762,54.688,5.371,18.555
1532373439.070,-4.395,28.809,51.758,1.465,-3.906
1532373439.074,-5.859,27.344,55.176,4.883,41.504
1532373439.078,-2.930,28.809,60.059,8.789,48.828
1532373439.082,-4.395,29.297,57.617,2.930,9.277
1532373439.086,-2.930,29.785,60.059,-1.465,42.480
1532373439.090,-1.953,32.715,63.477,4.883,55.176
1532373439.093,5.371,36.133,60.059,9.277,16.602
1532373439.097,7.324,34.180,49.316,4.883,-15.137
1532373439.101,1.465,31.250,52.246,2.441,-8.301
1532373439.105,4.883,33.203,56.152,3.418,34.180
1532373439.109,10.254,35.645,56.152,12.207,39.551
1532373439.113,13.672,30.273,57.617,9.277,4.395
1532373439.117,15.137,27.832,54.199,3.418,-21.973
1532373439.121,18.555,30.273,53.711,5.371,4.395
1532373439.125,20.508,27.832,58.105,10.254,64.453
1532373439.129,20.996,29.297,63.477,15.625,54.199
1532373439.133,16.113,33.691,62.500,16.113,-6.836
1532373439.136,13.672,33.691,57.129,13.184,-8.301
1532373439.140,15.625,30.762,57.617,14.160,26.367
1532373439.144,15.137,28.320,59.570,15.137,44.922
1532373439.148,14.160,29.297,60.059,15.625,27.344
1532373439.152,21.973,33.203,60.059,16.113,-12.695
1532373439.156,27.832,32.227,60.547,16.113,2.930
1532373439.160,23.926,32.227,57.129,18.066,40.527
1532373439.164,25.879,34.668,55.664,16.602,24.414
1532373439.168,30.273,33.691,58.594,15.625,5.859
1532373439.172,36.621,33.691,59.570,17.090,11.719
1532373439.175,41.992,37.598,57.129,18.555,34.668
1532373439.179,39.551,37.109,56.641,20.996,38.574
1532373439.183,40.527,33.691,59.082,23.438,16.113
1532373439.187,38.574,31.738,59.082,26.367,55.176
1532373439.191,31.250,29.785,56.641,36.133,66.406
1532373439.195,24.902,31.250,57.617,38.086,13.672
1532373439.199,21.973,31.250,58.105,33.203,16.113
1532373439.203,16.602,27.832,58.105,33.691,46.387
1532373439.207,10.742,26.855,53.711,34.180,70.312
1532373439.211,7.812,24.902,56.152,30.762,75.195
1532373439.215,5.859,23.438,56.641,26.367,39.062
1532373439.218,12.207,28.320,52.734,30.762,17.578
1532373439.222,22.949,30.762,58.594,36.621,48.340
1532373439.226,27.344,31.250,63.477,44.434,72.754
1532373439.230,24.414,30.762,62.988,37.598,33.691
1532373439.234,21.484,33.203,62.500,20.996,11.230
1532373439.238,23.926,39.551,63.965,18.066,39.551
1532373439.242,24.414,36.621,64.941,20.996,78.613
1532373439.246,19.531,32.227,65.918,22.949,66.406
1532373439.250,18.066,32.715,64.453,21.973,4.883
1532373439.254,18.066,34.180,62.988,17.578,0.000
1532373439.258,17.578,35.156,63.477,12.695,48.828
1532373439.261,17.090,33.691,62.012,12.207,58.594
1532373439.265,15.625,31.738,58.594,5.371,20.508
1532373439.269,18.066,34.180,61.035,11.230,41.992
1532373439.273,18.066,32.227,63.477,14.160,54.199
1532373439.277,14.648,29.297,57.129,3.906,27.344
1532373439.281,18.555,31.738,53.711,3.418,47.852
1532373439.285,26.367,34.180,55.176,1.465,55.176
1532373439.289,25.879,33.691,54.688,5.859,56.641
1532373439.293,28.320,31.250,51.270,12.207,62.012
1532373439.297,29.785,32.715,51.758,14.160,39.551
1532373439.300,20.996,33.203,54.688,10.742,35.645
1532373439.304,16.113,28.809,49.316,10.742,34.668
1532373439.308,25.879,29.785,49.316,20.020,70.312
1532373439.312,28.320,30.273,53.711,25.879,68.848
1532373439.316,25.391,30.273,52.734,24.902,31.250
1532373439.320,24.902,32.715,50.293,19.531,45.410
1532373439.324,22.949,32.227,50.781,17.090,88.379
1532373439.328,21.484,29.297,51.758,23.438,87.402
1532373439.332,21.973,29.297,51.270,28.809,37.598
1532373439.336,28.809,31.738,55.664,37.598,2.441
1532373439.340,30.273,33.203,56.641,39.062,34.180
1532373439.343,26.855,34.668,54.199,30.273,74.707
1532373439.347,30.762,35.645,58.594,30.273,42.969
1532373439.351,34.180,39.551,62.500,32.227,5.371
1532373439.355,35.645,37.598,62.500,32.715,37.598
1532373439.359,39.551,36.133,63.965,33.203,103.027
1532373439.363,40.039,37.598,65.918,34.668,60.059
1532373439.367,39.551,39.062,62.012,35.645,26.855
1532373439.371,33.691,40.039,58.594,33.691,57.129
1532373439.375,29.785,40.527,61.035,31.250,58.105
1532373439.379,22.949,38.574,60.547,26.367,44.434
1532373439.383,19.043,36.621,57.617,22.949,8.301
1532373439.386,21.973,38.086,57.617,30.762,16.113
1532373439.390,27.344,40.039,61.035,36.133,41.992
1532373439.394,33.203,43.457,63.965,29.785,20.996
1532373439.398,36.621,43.945,60.059,35.645,11.719
1532373439.402,37.109,40.039,58.105,43.945,13.184
1532373439.406,35.645,38.574,60.059,38.574,28.320
1532373439.410,39.062,41.504,62.988,39.551,41.504
1532373439.414,40.039,42.480,62.500,40.527,15.625
1532373439.418,36.133,43.457,56.641,40.527,-6.836
1532373439.422,34.668,42.969,61.035,39.551,15.137
1532373439.425,33.691,41.504,64.941,35.156,74.219
1532373439.429,29.297,39.551,58.105,29.297,38.086
1532373439.433,30.273,39.551,60.059,22.949,0.977
1532373439.437,37.109,43.945,61.035,26.855,18.555
1532373439.441,41.504,44.922,61.035,32.227,35.645
1532373439.445,39.551,43.945,63.965,29.297,33.203
1532373439.449,35.645,44.922,61.035,23.926,25.879
1532373439.453,34.668,41.016,58.594,21.484,26.855
1532373439.457,27.344,41.504,59.082,11.719,57.617
1532373439.461,26.855,47.363,57.617,5.859,83.008
1532373439.465,24.902,46.875,59.570,9.766,21.484
1532373439.468,17.578,44.922,65.430,11.719,-3.418
1532373439.472,19.531,45.410,67.383,12.695,42.480
1532373439.476,21.484,46.387,65.918,12.695,27.832
1532373439.480,22.949,48.828,65.918,13.184,-20.020
1532373439.484,20.020,47.363,67.383,10.254,-8.789
1532373439.488,18.066,45.898,67.871,7.324,26.367
1532373439.492,19.043,43.945,69.336,3.906,43.945
1532373439.496,19.043,40.527,66.406,3.906,46.387
1532373439.500,20.020,41.992,62.012,6.348,11.719
1532373439.504,19.531,44.434,64.941,6.836,-7.324
1532373439.507,20.996,42.969,70.801,9.277,45.410
1532373439.511,17.578,40.039,71.777,5.859,60.547
1532373439.515,13.184,37.598,68.359,-3.418,-20.020
1532373439.519,15.137,36.621,64.941,2.930,-20.996
1532373439.523,20.508,37.598,66.406,12.207,48.340
1532373439.527,27.832,39.062,66.406,17.090,53.711
1532373439.531,32.715,37.109,63.477,20.020,15.625
1532373439.535,29.785,35.645,59.082,10.742,21.973
1532373439.539,28.809,36.621,61.035,10.254,75.684
1532373439.543,33.691,40.039,65.430,24.902,79.590
1532373439.547,31.250,41.504,63.477,30.273,56.641
1532373439.550,22.949,36.621,61.035,27.344,23.926
1532373439.554,21.973,34.668,61.523,24.414,34.668
1532373439.558,25.391,35.645,64.453,27.344,71.777
1532373439.562,23.926,35.645,65.918,33.691,49.805
1532373439.566,22.949,34.668,61.035,26.367,5.371
1532373439.570,23.926,32.715,59.570,25.391,26.367
1532373439.574,21.484,33.203,59.082,25.391,51.270
1532373439.578,23.438,34.180,56.641,26.855,31.738
1532373439.582,29.297,33.691,58.105,35.645,6.348
1532373439.586,32.227,32.227,61.035,38.086,17.090
1532373439.590,30.273,31.250,62.012,40.527,38.086
1532373439.593,30.762,33.691,62.988,47.363,45.410
1532373439.597,32.227,34.180,65.918,44.434,27.832
1532373439.601,31.738,33.691,64.453,40.039,3.906
1532373439.605,36.133,36.133,65.430,45.898,28.809
1532373439.609,33.691,35.645,60.547,52.246,65.918
1532373439.613,30.273,33.691,52.246,47.852,-2.441
1532373439.617,36.133,33.203,54.688,46.387,-28.320
1532373439.621,45.898,36.133,59.570,54.688,30.273
1532373439.625,48.828,40.527,60.547,58.105,52.246
1532373439.629,40.527,36.621,60.547,59.082,43.945
1532373439.632,42.480,33.691,59.082,59.570,10.742
1532373439.636,40.527,31.738,57.129,53.711,23.438
1532373439.640,35.645,32.227,55.664,47.852,51.270
1532373439.644,38.574,37.109,56.641,50.293,26.855
1532373439.648,35.645,34.180,58.105,51.270,-3.418
1532373439.652,35.156,30.762,59.570,50.293,0.977
1532373439.656,39.062,33.203,61.523,52.246,35.645
1532373439.660,40.527,34.180,56.641,51.270,78.613
1532373439.664,41.992,34.180,51.758,45.410,66.406
1532373439.668,42.969,33.203,55.176,44.922,40.039
1532373439.672,42.969,32.227,53.223,48.828,22.949
1532373439.675,41.016,32.227,53.711,51.270,31.738
1532373439.679,42.969,31.250,60.059,57.129,59.570
1532373439.683,48.340,30.273,57.617,62.012,19.531
1532373439.687,42.969,29.297,53.711,61.035,17.578
1532373439.691,36.621,30.273,53.223,62.500,69.336
1532373439.695,39.551,29.785,50.781,64.453,40.527
1532373439.699,41.992,29.297,50.781,67.383,-10.254
1532373439.703,39.551,27.344,52.734,66.406,-13.672
1532373439.707,40.039,27.832,56.152,59.570,24.414
1532373439.711,39.551,29.785,56.152,52.734,36.621
1532373439.714,37.109,26.367,52.246,45.898,-20.508
1532373439.718,37.598,23.926,54.199,46.387,-6.836
1532373439.722,40.527,24.902,53.223,47.852,20.020
1532373439.726,45.898,27.344,50.293,49.805,59.082
1532373439.730,50.293,28.320,55.664,56.152,43.945
1532373439.734,49.805,28.320,55.664,55.176,-20.020
1532373439.738,49.805,28.320,49.316,52.734,8.301
1532373439.742,45.410,30.273,47.363,55.176,18.066
1532373439.746,41.992,27.344,48.340,56.641,16.113
1532373439.750,47.363,23.926,49.316,64.941,-14.160
1532373439.754,49.316,24.414,52.734,76.172,-27.344
1532373439.757,47.363,26.855,55.176,73.730,14.648
1532373439.761,48.340,30.273,48.828,65.918,64.453
1532373439.765,46.875,28.809,45.898,62.012,26.367
1532373439.769,46.387,29.297,49.316,63.965,-5.859
1532373439.773,47.363,30.273,50.781,62.988,32.715
1532373439.777,43.457,29.785,48.340,52.246,32.227
1532373439.781,37.598,27.832,44.922,41.504,-6.348
1532373439.785,35.156,27.832,45.410,38.574,-4.395
1532373439.789,38.574,29.297,46.875,39.062,31.250
1532373439.793,41.504,29.297,46.875,42.480,44.922
1532373439.797,42.480,26.367,41.016,38.574,37.598
1532373439.800,38.574,24.414,37.598,32.715,-8.789
1532373439.804,39.551,27.832,39.551,34.668,-6.836
1532373439.808,42.969,27.832,39.062,37.598,50.293
1532373439.812,45.410,28.320,37.109,35.156,28.320
1532373439.816,42.480,27.832,38.574,33.203,-23.926
1532373439.820,39.062,24.902,41.016,40.527,-9.277
1532373439.824,46.875,26.367,43.457,45.898,32.227
1532373439.828,47.363,23.926,36.621,41.992,55.664
1532373439.832,44.922,24.902,31.738,41.504,21.484
1532373439.836,51.270,27.344,37.109,42.480,3.418
1532373439.839,53.711,27.344,36.621,39.551,28.809
1532373439.843,52.246,26.367,30.273,36.133,41.504
1532373439.847,50.293,24.414,28.809,40.527,18.066
1532373439.851,52.734,22.461,30.762,53.711,2.930
1532373439.855,49.805,20.996,38.086,64.941,36.133
1532373439.859,38.574,17.090,39.062,68.359,66.406
1532373439.863,34.180,19.531,39.062,72.266,46.387
1532373439.867,38.574,22.949,41.016,74.707,21.484
1532373439.871,39.062,22.461,36.133,75.684,37.598
1532373439.875,31.738,22.461,38.086,77.148,38.086
1532373439.879,28.809,23.926,42.480,75.195,2.930
1532373439.882,26.855,22.949,39.551,68.359,-5.859
1532373439.886,25.879,20.020,37.598,60.059,10.742
1532373439.890,26.367,19.531,33.691,58.105,25.391
1532373439.894,28.809,20.996,32.227,58.594,61.523
1532373439.898,35.645,21.484,34.668,60.059,39.551
1532373439.902,32.715,21.484,33.203,51.758,24.414
1532373439.906,27.344,20.020,27.832,44.434,71.289
1532373439.910,34.180,19.043,26.855,52.734,73.242
1532373439.914,40.039,20.508,31.738,58.105,23.438
1532373439.918,40.039,20.020,35.156,60.059,3.418
1532373439.921,40.039,16.113,33.691,58.105,45.898
1532373439.925,44.922,19.043,31.738,55.664,90.820
1532373439.929,44.922,21.484,32.227,54.199,73.242
1532373439.933,42.969,18.555,30.762,51.758,18.066
1532373439.937,45.898,19.043,30.762,55.176,16.113
1532373439.941,46.875,18.066,28.320,57.129,53.711
1532373439.945,48.340,20.996,27.832,59.570,62.988
1532373439.949,53.223,24.414,29.297,61.523,34.180
1532373439.953,52.246,22.949,32.227,62.500,22.461
1532373439.957,45.410,20.508,33.203,63.477,38.574
1532373439.961,42.969,19.531,30.273,62.012,52.734
1532373439.964,51.758,21.484,31.738,64.941,40.039
1532373439.968,53.711,24.414,33.203,69.336,42.969
1532373439.972,51.758,25.879,34.180,66.895,50.781
1532373439.976,51.758,24.414,30.273,61.035,62.988
1532373439.980,50.293,23.926,26.367,63.965,46.875
1532373439.984,55.176,23.926,31.250,68.359,16.602
1532373439.988,62.988,23.926,29.785,76.660,47.852
1532373439.992,69.336,23.438,29.785,76.172,47.852
1532373439.996,65.918,21.484,31.738,68.848,14.648
1532373440.000,61.523,22.461,26.367,70.801,0.977
1532373440.004,64.453,23.926,26.855,73.730,20.020
1532373440.007,62.988,24.902,26.855,67.383,61.035
1532373440.011,61.523,21.973,25.391,63.477,88.379
1532373440.015,58.594,20.508,27.832,63.477,41.016
1532373440.019,55.176,20.020,29.297,63.965,7.812
1532373440.023,56.152,18.066,27.832,64.941,31.738
1532373440.027,60.547,19.531,26.855,67.383,50.781
1532373440.031,63.965,19.531,25.391,65.918,32.715
1532373440.035,65.430,18.555,28.320,61.035,-1.953
1532373440.039,67.383,20.020,30.762,62.988,50.781
1532373440.043,67.383,19.531,24.414,62.012,86.914
1532373440.046,66.895,19.531,25.391,63.965,54.688
1532373440.050,65.430,19.043,28.320,67.383,18.066
1532373440.054,63.477,18.555,20.996,66.895,22.949
1532373440.058,61.523,20.020,16.602,65.430,54.688
1532373440.062,66.406,20.020,18.555,67.871,62.012
1532373440.066,71.777,20.020,16.602,71.777,17.090
1532373440.070,70.801,20.996,13.672,68.359,3.906
1532373440.074,69.824,20.508,15.137,70.801,49.805
1532373440.078,64.453,18.555,15.625,79.102,55.176
1532373440.082,65.918,18.066,14.648,79.102,5.859
1532373440.086,71.777,16.602,14.648,73.242,22.461
1532373440.089,72.754,16.113,14.648,70.312,65.918
1532373440.093,67.383,13.672,10.742,67.383,37.598
1532373440.097,66.895,14.648,11.230,66.895,-3.418
1532373440.101,68.848,17.090,13.672,71.777,0.977
1532373440.105,63.965,15.625,10.254,71.777,31.250
1532373440.109,57.129,14.160,8.301,65.918,74.219
1532373440.113,55.664,16.602,5.859,63.477,55.176
1532373440.117,53.711,18.555,4.395,65.918,-12.207
1532373440.121,56.641,15.625,7.812,68.359,-15.625
1532373440.125,60.547,15.137,7.812,74.219,34.180
1532373440.129,56.152,14.648,5.371,72.754,43.945
1532373440.132,54.688,14.648,4.395,68.359,-11.719
1532373440.136,55.664,12.695,6.836,71.289,-25.391
1532373440.140,55.664,11.230,7.324,73.730,39.551
1532373440.144,55.176,10.742,4.395,71.289,54.199
1532373440.148,52.734,10.742,5.859,67.871,15.625
1532373440.152,54.688,14.648,4.883,70.801,19.043
1532373440.156,66.406,18.066,9.277,82.031,49.805
1532373440.160,83.008,22.949,24.902,93.750,69.336
1532373440.164,87.402,28.320,26.855,94.238,38.086
1532373440.168,79.102,27.344,18.066,87.891,-5.371
1532373440.171,75.195,27.832,19.531,82.520,8.789
1532373440.175,77.148,31.250,21.484,80.566,23.438
1532373440.179,76.660,29.785,19.531,82.031,16.113
1532373440.183,77.148,28.809,20.020,83.496,-16.602
1532373440.187,78.613,29.785,20.020,82.520,-7.812
1532373440.191,80.078,29.297,17.090,85.938,37.109
1532373440.195,78.613,28.320,12.207,85.938,16.602
1532373440.199,82.520,27.832,15.625,82.520,0.000
1532373440.203,83.984,30.273,20.996,81.543,35.156
1532373440.207,76.660,28.320,18.555,79.590,54.199
1532373440.211,78.125,26.855,14.648,76.660,44.434
1532373440.214,78.613,28.320,13.184,73.730,14.648
1532373440.218,72.754,29.297,11.719,77.637,10.254
1532373440.222,71.289,26.855,6.836,77.637,32.227
1532373440.226,72.754,26.367,3.418,71.777,48.828
1532373440.230,73.242,26.855,3.906,73.242,20.020
1532373440.234,76.172,25.391,4.883,81.543,-28.320
1532373440.238,75.195,20.508,3.906,82.520,0.488
1532373440.242,74.219,16.602,0.488,84.473,65.430
1532373440.246,78.125,13.184,-1.953,84.473,43.457
1532373440.250,73.730,7.812,-6.348,81.543,20.508
1532373440.253,66.895,8.789,-12.207,82.031,34.180
1532373440.257,68.359,7.812,-12.695,78.125,45.410
1532373440.261,70.801,4.395,-13.672,74.707,51.758
1532373440.265,70.801,5.371,-16.602,74.707,10.742
1532373440.269,61.035,3.906,-16.113,72.266,-15.625
1532373440.273,50.293,0.977,-21.484,69.824,30.273
1532373440.277,46.875,0.000,-23.926,66.895,44.922
1532373440.281,45.898,0.000,-20.508,62.988,6.348
1532373440.285,50.293,0.977,-20.508,66.895,0.488
1532373440.289,52.246,2.930,-20.020,67.383,44.434
1532373440.293,51.270,1.465,-17.578,65.918,42.969
1532373440.296,45.898,-0.488,-18.555,64.453,-0.488
1532373440.300,44.922,0.000,-19.531,62.012,-1.953
1532373440.304,47.852,0.488,-19.531,59.570,4.395
1532373440.308,43.457,0.000,-23.926,53.711,40.039
1532373440.312,41.016,-1.953,-23.438,53.223,30.273
1532373440.316,42.480,-4.883,-17.578,53.223,-21.973
1532373440.320,42.969,-5.371,-14.648,50.781,6.836
1532373440.324,41.992,-4.395,-20.508,49.805,58.594
1532373440.328,44.434,-6.348,-21.973,49.805,75.195
1532373440.332,50.293,-6.836,-20.020,50.781,29.297
1532373440.336,51.270,-6.348,-23.926,53.223,25.391
1532373440.339,46.387,-6.348,-27.344,56.152,48.340
1532373440.343,47.852,-3.906,-26.855,54.688,55.664
1532373440.347,46.387,-4.395,-28.320,50.781,38.086
1532373440.351,41.016,-2.930,-31.250,50.293,9.766
1532373440.355,45.898,0.488,-29.785,55.176,4.883
1532373440.359,53.223,-1.953,-33.203,54.688,21.973
1532373440.363,49.805,-7.324,-37.109,47.363,24.414
1532373440.367,45.898,-5.859,-34.668,49.316,0.977
1532373440.371,50.293,-3.418,-32.715,49.805,7.812
1532373440.375,52.246,-3.418,-31.250,49.805,8.301
1532373440.378,47.852,-2.441,-34.668,50.781,15.137
1532373440.382,41.992,-3.906,-40.527,50.781,-10.742
1532373440.386,42.969,-3.418,-42.969,50.293,-8.789
1532373440.390,44.922,-1.465,-41.504,50.293,43.945
1532373440.394,47.363,3.418,-33.691,49.316,22.461
1532373440.398,45.898,0.977,-42.480,49.805,-0.488
1532373440.402,39.551,-3.418,-48.340,48.828,-1.465
1532373440.406,38.086,-0.977,-38.574,47.363,39.062
1532373440.410,41.992,0.000,-39.062,51.758,40.527
1532373440.414,41.992,-0.977,-43.457,51.270,0.000
1532373440.418,43.457,-0.977,-40.039,50.781,-7.324
1532373440.421,44.434,0.977,-40.039,51.270,25.391
1532373440.425,41.992,0.488,-44.434,46.875,70.312
1532373440.429,43.457,-1.953,-41.992,49.316,41.504
1532373440.433,48.340,-1.953,-41.504,49.805,-26.367
1532373440.437,48.340,-2.930,-41.992,50.293,-25.879
1532373440.441,45.898,-7.324,-46.387,48.828,39.551
1532373440.445,40.039,-5.859,-49.316,41.992,62.988
1532373440.449,37.598,-2.441,-49.316,39.551,35.156
1532373440.453,41.992,-3.418,-45.898,43.945,-26.855
1532373440.457,46.875,-4.395,-42.969,49.316,11.230
1532373440.460,48.340,-2.441,-42.480,45.410,64.453
1532373440.464,43.945,-2.930,-42.480,37.598,3.906
1532373440.468,40.039,-4.883,-48.828,32.227,0.000
1532373440.472,43.457,-6.348,-50.293,33.203,38.574
1532373440.476,52.246,-4.883,-49.316,40.527,41.504
1532373440.480,56.152,-3.906,-53.223,39.551,25.391
1532373440.484,56.641,-4.883,-50.781,39.062,26.855
1532373440.488,57.129,-4.883,-47.363,32.715,46.387
1532373440.492,57.617,-4.883,-51.270,22.461,42.480
1532373440.496,64.453,-3.418,-48.340,24.414,26.855
1532373440.500,72.754,0.488,-44.922,22.461,-7.812
1532373440.503,66.895,0.977,-43.457,19.043,15.137
1532373440.507,58.594,-0.488,-44.434,24.414,63.965
1532373440.511,54.199,1.465,-41.504,31.250,22.949
1532373440.515,44.922,5.371,-32.227,36.621,-39.062
1532373440.519,41.504,8.301,-26.855,44.434,-32.715
1532373440.523,42.969,8.301,-27.832,48.340,35.156
1532373440.527,40.527,13.184,-31.738,44.922,65.430
1532373440.531,33.691,17.090,-27.832,38.086,21.484
1532373440.535,38.086,14.648,-18.066,34.668,-1.465
1532373440.539,46.875,16.602,-15.137,30.762,38.086
1532373440.543,45.898,20.996,-14.160,26.855,51.270
1532373440.546,39.551,22.949,-10.742,24.902,16.113
1532373440.550,32.227,22.461,-6.836,23.438,-1.465
1532373440.554,29.297,20.996,-1.953,20.020,10.254
1532373440.558,29.785,20.508,-3.418,18.066,71.777
1532373440.562,32.715,23.438,-6.348,16.602,70.312
1532373440.566,30.762,24.902,-2.930,16.113,16.602
1532373440.570,26.855,25.391,1.465,14.648,18.066
1532373440.574,31.738,23.926,3.418,9.277,84.961
1532373440.578,40.527,24.902,4.883,10.742,92.773
1532373440.582,36.621,26.855,3.906,7.812,26.855
1532373440.585,37.109,26.367,5.859,8.789,-1.465
1532373440.589,42.969,30.762,8.789,18.066,38.086
1532373440.593,41.016,32.715,8.789,17.578,65.430
1532373440.597,37.598,31.738,2.930,10.254,38.086
1532373440.601,34.668,32.227,0.488,13.672,32.715
1532373440.605,36.133,31.738,2.930,24.902,38.574
1532373440.609,39.551,30.273,6.836,33.203,62.012
1532373440.613,39.062,23.926,11.719,37.109,77.148
1532373440.617,41.504,20.020,12.207,41.504,45.898
1532373440.621,50.293,24.902,9.766,42.969,43.457
1532373440.625,57.129,30.762,5.859,41.016,85.938
1532373440.628,56.152,29.297,5.371,37.598,76.172
1532373440.632,50.781,25.879,6.836,35.645,8.301
1532373440.636,47.363,27.344,3.418,29.297,13.184
1532373440.640,49.316,28.809,1.953,23.438,38.086
1532373440.644,50.781,25.879,3.906,27.344,36.133
1532373440.648,57.129,25.879,3.418,39.062,36.621
1532373440.652,60.059,26.855,3.906,42.969,3.418
1532373440.656,56.641,26.855,2.441,37.109,-0.488
1532373440.660,55.176,25.879,1.465,43.457,43.457
1532373440.664,51.758,23.926,-0.977,43.457,57.617
1532373440.667,52.246,23.926,-5.859,42.480,25.879
1532373440.671,58.594,20.996,-6.836,48.828,9.277
1532373440.675,67.383,22.461,-3.906,54.688,22.461
1532373440.679,66.895,23.926,-4.395,57.617,37.598
1532373440.683,63.477,25.391,-13.672,54.199,12.207
1532373440.687,74.707,26.855,-16.113,62.012,23.926
1532373440.691,76.660,25.391,-3.418,64.453,48.340
1532373440.695,72.754,24.414,-1.953,49.316,16.113
1532373440.699,69.336,23.926,-7.812,42.480,-1.465
1532373440.703,68.359,25.391,-9.277,38.574,19.531
1532373440.707,71.777,24.902,-8.301,42.480,31.250
1532373440.710,71.289,25.879,-8.301,43.457,16.113
1532373440.714,73.242,30.762,-10.742,39.062,-18.555
1532373440.718,76.172,29.785,-10.254,31.738,-22.949
1532373440.722,73.242,26.855,-6.836,22.949,21.973
1532373440.726,70.801,28.809,-6.836,35.156,62.012
1532373440.730,72.754,27.832,-5.859,41.992,47.363
1532373440.734,69.824,28.320,-5.371,36.621,3.418
1532373440.738,67.871,28.809,-8.301,22.949,-2.930
1532373440.742,69.824,28.809,-8.789,8.301,59.082
1532373440.746,64.453,27.832,-9.766,7.812,75.684
1532373440.750,63.965,24.414,-8.301,25.879,20.508
1532373440.753,66.406,22.461,-3.906,40.039,22.461
1532373440.757,62.500,20.996,-4.395,43.457,57.617
1532373440.761,61.035,19.531,-6.836,44.922,55.176
1532373440.765,59.570,16.113,-5.371,33.203,19.043
1532373440.769,53.223,15.625,-10.254,14.648,15.625
1532373440.773,53.223,16.602,-14.160,8.301,58.105
1532373440.777,53.223,13.672,-6.836,-1.465,71.289
1532373440.781,43.457,10.742,-4.395,-4.395,37.598
1532373440.785,41.504,11.719,-3.906,7.324,27.344
1532373440.789,41.992,13.184,-2.930,11.230,62.012
1532373440.792,38.086,10.254,-7.324,14.648,64.453
1532373440.796,39.551,8.301,-7.812,19.043,50.293
1532373440.800,44.434,9.766,-5.859,21.484,55.664
1532373440.804,42.480,10.254,-5.371,23.926,55.176
1532373440.808,38.574,6.836,-7.324,23.438,71.777
1532373440.812,38.086,9.277,-7.324,24.414,41.992
1532373440.816,34.180,10.742,-8.301,21.484,24.414
1532373440.820,38.086,9.766,-5.371,22.461,36.133
1532373440.824,39.551,11.230,-2.441,25.391,51.758
1532373440.828,31.250,10.254,-3.418,20.020,52.246
1532373440.832,31.738,9.766,-3.906,30.273,23.926
1532373440.835,39.062,12.207,1.465,46.387,11.719
1532373440.839,42.969,12.207,-0.488,45.410,35.156
1532373440.843,43.945,12.695,-4.395,48.828,79.590
1532373440.847,43.457,14.648,-5.371,48.828,75.195
1532373440.851,38.086,12.695,-5.859,41.992,33.691
1532373440.855,34.180,12.207,-0.488,44.922,54.688
1532373440.859,33.203,12.695,-3.906,44.922,97.656
1532373440.863,36.133,12.695,-10.254,37.109,50.781
1532373440.867,41.992,13.672,-2.930,30.762,5.859
1532373440.871,48.340,14.160,3.418,26.855,23.438
1532373440.875,44.434,14.160,-2.930,19.531,7.812
1532373440.878,35.156,10.742,-6.836,15.137,16.113
1532373440.882,38.086,7.812,-5.371,21.973,3.418
1532373440.886,45.898,11.719,-2.930,29.297,-20.508
1532373440.890,46.387,13.672,0.000,24.414,30.762
1532373440.894,42.480,15.625,1.465,22.461,50.781
1532373440.898,38.574,17.578,-1.953,24.902,3.906
1532373440.902,33.691,14.160,-1.465,20.996,-10.254
1532373440.906,35.156,13.672,0.488,20.020,25.391
1532373440.910,37.109,17.578,3.906,19.043,37.109
1532373440.914,42.480,16.602,7.324,25.879,10.254
1532373440.917,45.898,14.648,2.930,32.715,-22.949
1532373440.921,43.457,13.672,2.930,28.809,-5.371
1532373440.925,40.527,16.113,4.883,27.344,53.711
1532373440.929,41.504,18.555,2.930,33.203,45.410
1532373440.933,39.551,16.113,4.395,30.273,-3.906
1532373440.937,34.668,15.137,6.836,27.344,-17.090
1532373440.941,32.227,17.090,4.883,35.645,26.367
1532373440.945,29.785,18.066,7.812,37.109,54.688
1532373440.949,27.344,15.625,6.836,30.762,8.789
1532373440.953,28.320,16.113,8.789,30.762,-1.465
1532373440.957,30.762,16.113,11.230,32.227,29.785
1532373440.960,32.715,18.066,10.254,37.109,42.480
1532373440.964,38.574,21.484,12.695,42.480,-3.906
1532373440.968,36.621,19.043,15.625,45.898,-7.324
1532373440.972,31.250,21.484,18.066,43.945,-9.277
1532373440.976,39.551,25.391,18.555,46.387,8.301
1532373440.980,48.828,23.926,19.531,46.387,34.668
1532373440.984,43.457,24.902,18.555,37.109,-21.484
1532373440.988,43.945,25.879,20.508,40.527,1.953
1532373440.992,51.270,24.902,24.414,50.781,47.852
1532373440.996,47.852,21.973,26.855,59.570,61.523
1532373440.999,33.203,20.996,24.902,52.246,10.254
1532373441.003,29.785,23.438,25.879,46.387,17.578
1532373441.007,40.527,25.879,24.414,55.664,57.129
1532373441.011,41.016,25.391,21.973,55.664,20.508
1532373441.015,32.715,23.926,21.973,49.805,-13.672
1532373441.019,32.227,20.996,19.531,45.898,-20.996
1532373441.023,33.203,18.555,14.160,43.945,21.484
1532373441.027,35.156,18.555,10.254,43.457,75.195
1532373441.031,36.133,16.602,8.789,42.480,41.016
1532373441.035,42.480,19.531,11.230,43.945,-21.484
1532373441.039,42.969,19.043,13.184,47.363,34.180
1532373441.042,36.133,16.113,13.184,44.434,86.914
1532373441.046,34.180,18.555,13.184,41.016,54.199
1532373441.050,25.391,15.625,5.371,32.227,19.043
1532373441.054,18.555,10.254,0.488,27.832,51.270
1532373441.058,24.414,10.742,3.906,35.645,69.824
1532373441.062,29.785,13.672,6.836,43.457,40.039
1532373441.066,26.367,15.625,9.277,41.992,9.277
1532373441.070,24.902,13.672,6.348,37.598,13.672
1532373441.074,27.344,12.207,5.371,39.551,22.949
1532373441.078,22.461,12.695,3.418,32.715,38.574
1532373441.082,21.973,12.695,2.441,34.180,29.785
1532373441.085,22.461,11.230,2.930,40.527,24.414
1532373441.089,20.996,13.184,2.930,44.434,79.590
1532373441.093,22.461,12.207,6.836,50.293,88.867
1532373441.097,20.508,10.742,3.418,48.828,53.223
1532373441.101,20.508,11.230,0.488,49.316,32.227
1532373441.105,20.508,11.230,1.953,49.316,23.926
1532373441.109,27.344,12.695,2.930,47.852,71.777
1532373441.113,31.250,16.602,9.277,49.316,61.035
1532373441.117,28.320,15.625,13.184,47.363,10.742
1532373441.121,28.809,15.625,7.812,44.922,31.250
1532373441.124,28.809,16.113,1.465,42.969,50.293
1532373441.128,33.203,15.625,1.953,42.969,44.922
1532373441.132,41.504,17.090,6.836,51.270,7.812
1532373441.136,41.992,15.625,7.812,54.688,19.043
1532373441.140,42.969,19.531,6.348,54.199,74.219
1532373441.144,43.457,21.973,7.324,51.758,54.199
1532373441.148,42.480,20.508,5.859,48.828,29.785
1532373441.152,35.645,21.973,2.930,42.480,25.391
1532373441.156,31.250,21.973,3.906,31.738,-5.859
1532373441.160,38.574,19.531,4.883,31.250,17.090
1532373441.164,42.969,19.531,3.418,37.109,22.461
1532373441.167,42.480,22.461,3.906,42.480,4.395
1532373441.171,35.645,20.996,7.324,45.898,13.672
1532373441.175,25.879,15.625,5.859,48.828,32.715
1532373441.179,23.438,14.648,7.324,44.922,43.945
1532373441.183,22.461,14.648,11.230,47.363,26.367
1532373441.187,16.602,15.137,7.812,48.828,30.762
1532373441.191,15.137,15.625,6.348,48.828,57.617
1532373441.195,20.508,14.648,10.742,54.199,48.828
1532373441.199,21.484,15.137,12.207,47.852,10.742
1532373441.203,21.973,17.578,9.277,42.969,2.441
1532373441.206,22.949,17.578,7.812,35.156,41.504
1532373441.210,18.555,15.137,6.836,20.508,53.223
1532373441.214,13.672,16.602,3.906,17.090,7.324
1532373441.218,18.555,22.461,6.836,22.949,13.184
1532373441.222,20.996,21.973,8.789,35.156,41.992
1532373441.226,18.555,18.555,7.324,38.574,52.734
1532373441.230,19.043,18.066,6.348,32.227,23.438
1532373441.234,21.484,19.531,5.371,32.227,-16.602
1532373441.238,20.020,19.043,12.695,37.109,0.000
1532373441.242,19.531,18.066,16.602,39.551,11.719
1532373441.246,20.020,17.578,10.254,36.133,5.859
1532373441.249,21.484,19.043,8.789,32.715,-11.230
1532373441.253,24.902,23.438,10.742,37.598,-6.348
1532373441.257,24.902,24.414,7.324,41.016,15.137
1532373441.261,21.973,25.879,6.836,37.598,34.180
1532373441.265,16.602,24.414,5.371,33.691,22.949
1532373441.269,10.742,21.973,4.395,32.227,15.625
1532373441.273,9.277,22.461,4.883,31.250,46.875
1532373441.277,14.160,25.879,6.348,36.621,52.246
1532373441.281,20.996,24.414,9.766,43.945,14.160
1532373441.285,21.973,22.461,10.742,51.758,4.395
1532373441.289,22.949,24.902,9.766,52.246,15.625
1532373441.292,27.832,24.414,13.184,49.805,42.969
1532373441.296,26.855,21.484,10.742,45.898,28.809
1532373441.300,26.367,24.414,10.742,44.434,-3.906
1532373441.304,31.250,27.832,18.066,48.340,-18.066
1532373441.308,33.691,26.367,15.625,50.293,32.227
1532373441.312,33.691,25.879,14.648,47.363,44.922
1532373441.316,29.297,25.879,13.672,43.945,-20.020
1532373441.320,26.855,24.902,16.113,46.875,-6.348
1532373441.324,28.809,27.344,17.090,45.898,17.578
1532373441.328,27.344,30.273,17.578,41.992,16.602
1532373441.331,32.227,31.250,19.531,40.527,-17.578
1532373441.335,26.855,29.297,19.043,40.527,-32.227
1532373441.339,23.926,31.250,20.996,43.945,-14.648
1532373441.343,28.809,33.691,24.414,43.457,29.785
1532373441.347,29.785,33.203,23.926,42.969,43.457
1532373441.351,31.250,33.691,25.879,45.410,-6.836
1532373441.355,29.785,36.133,29.785,43.457,-11.230
1532373441.359,30.273,41.016,30.273,46.387,26.855
1532373441.363,33.203,43.945,30.273,56.152,15.625
1532373441.367,36.133,46.875,34.180,55.176,18.066
1532373441.371,37.109,45.898,31.250,50.781,39.062
1532373441.374,38.574,46.875,28.809,56.641,58.594
1532373441.378,39.062,48.828,37.109,58.594,43.945
1532373441.382,42.969,48.828,42.969,62.012,-2.930
1532373441.386,49.316,48.828,41.992,65.430,-3.418
1532373441.390,48.340,48.828,42.969,61.523,37.109
1532373441.394,44.434,47.363,39.062,60.547,36.621
1532373441.398,44.922,49.316,35.156,60.059,22.949
1532373441.402,45.898,47.363,40.039,62.500,17.090
1532373441.406,48.340,43.945,41.504,65.918,29.785
1532373441.410,48.340,43.457,38.574,65.430,61.523
1532373441.413,48.340,43.945,40.527,62.012,24.902
1532373441.417,46.387,47.363,36.621,54.688,-1.953
1532373441.421,41.992,46.875,32.227,47.363,7.812
1532373441.425,40.039,43.945,29.785,49.805,12.695
1532373441.429,32.227,41.016,24.902,48.340,54.199
1532373441.433,26.367,38.574,27.344,42.969,48.340
1532373441.437,26.855,39.551,32.227,47.363,19.043
1532373441.441,26.855,36.621,32.715,54.199,41.016
1532373441.445,21.973,32.227,30.762,57.129,68.848
1532373441.449,23.926,29.785,24.414,50.781,41.992
1532373441.453,15.625,28.809,20.020,33.691,5.859
1532373441.456,6.348,28.809,19.531,29.297,40.039
1532373441.460,14.160,30.273,19.531,34.668,48.828
1532373441.464,15.137,31.738,19.531,35.156,28.809
1532373441.468,15.625,30.273,16.602,35.156,54.199
1532373441.472,16.602,29.297,14.160,29.297,60.547
1532373441.476,20.508,28.320,21.973,29.297,78.125
1532373441.480,28.320,28.809,26.367,40.527,62.988
1532373441.484,26.855,27.832,22.461,35.645,3.418
1532373441.488,20.508,26.855,19.043,27.344,27.832
1532373441.492,20.020,28.320,19.531,26.855,69.824
1532373441.496,19.043,27.832,22.949,22.461,51.270
1532373441.499,16.113,21.973,21.484,25.879,24.902
1532373441.503,9.766,17.090,21.484,29.297,28.809
1532373441.507,10.742,20.020,22.949,29.297,68.848
1532373441.511,10.742,20.996,25.879,29.297,81.543
1532373441.515,6.836,20.020,28.320,25.391,44.922
1532373441.519,1.953,20.996,23.438,20.020,35.156
1532373441.523,-3.418,20.996,20.508,13.672,64.941
1532373441.527,-2.930,19.043,24.414,11.719,67.383
1532373441.531,-2.930,22.949,19.531,5.859,32.227
1532373441.535,0.000,22.949,19.531,0.488,31.738
1532373441.538,9.277,16.602,23.438,1.465,48.828
1532373441.542,13.672,18.555,21.973,3.418,65.430
1532373441.546,8.301,20.996,25.879,4.883,64.941
1532373441.550,9.277,20.996,27.344,7.324,29.785
1532373441.554,12.695,20.508,22.461,11.230,29.297
1532373441.558,5.859,19.043,21.484,10.742,54.688
1532373441.562,2.930,20.020,22.461,11.230,63.477
1532373441.566,11.230,21.484,24.902,16.113,32.227
1532373441.570,12.695,20.996,23.926,20.996,17.578
1532373441.574,8.789,18.555,21.973,24.902,24.414
1532373441.578,12.207,20.508,28.320,32.715,20.020
1532373441.581,12.207,20.996,29.785,40.039,-22.461
1532373441.585,8.301,19.043,25.391,37.109,-35.156
1532373441.589,9.766,18.066,24.414,33.691,20.508
1532373441.593,12.207,18.555,27.344,31.250,30.762
1532373441.597,6.348,21.484,26.855,25.879,44.922
1532373441.601,11.230,21.973,27.832,26.855,26.367
1532373441.605,18.555,23.926,26.855,27.344,15.137
1532373441.609,15.625,24.414,24.414,22.949,47.852
1532373441.613,11.230,23.926,28.809,20.020,0.000
1532373441.617,16.602,25.879,32.227,23.438,-39.062
1532373441.621,22.461,24.902,29.785,26.855,-24.902
1532373441.624,25.391,29.297,29.297,26.367,28.809
1532373441.628,20.508,31.250,30.273,25.391,48.340
1532373441.632,20.508,27.832,34.668,17.578,-20.020
1532373441.636,19.531,29.297,35.156,14.160,-35.645
1532373441.640,13.672,31.738,31.738,15.625,16.113
1532373441.644,16.602,32.227,31.738,15.625,39.551
1532373441.648,13.184,28.320,29.297,12.695,1.465
1532373441.652,9.277,28.809,26.855,9.766,0.000
1532373441.656,12.695,34.180,31.738,9.766,35.156
1532373441.660,11.230,36.621,35.645,10.254,47.363
1532373441.663,20.020,36.621,31.250,6.836,12.695
1532373441.667,27.832,38.574,21.973,7.324,-20.996
1532373441.671,25.391,41.504,22.949,14.648,8.789
1532373441.675,29.785,45.898,32.227,19.531,19.043
1532373441.679,33.691,48.828,36.133,30.273,2.441
1532373441.683,37.598,56.152,38.574,44.434,-14.160
1532373441.687,41.504,63.965,46.387,54.199,10.742
1532373441.691,43.945,64.453,54.688,60.059,34.180
1532373441.695,44.434,67.871,54.199,64.453,38.574
1532373441.699,44.922,71.289,51.270,63.965,11.719
1532373441.703,49.805,71.777,54.688,69.336,-17.090
1532373441.706,55.664,72.266,61.523,75.684,37.598
1532373441.710,57.617,75.684,65.430,74.707,73.242
1532373441.714,61.035,78.125,63.477,72.754,34.180
1532373441.718,64.453,78.613,63.965,71.777,1.953
1532373441.722,62.988,78.613,66.406,66.406,25.391
1532373441.726,60.547,78.613,67.871,61.523,46.875
1532373441.730,64.453,79.590,69.824,63.477,32.227
1532373441.734,62.012,80.566,66.895,54.199,-24.414
1532373441.738,59.082,82.520,63.965,46.875,-12.207
1532373441.742,57.617,80.078,58.594,49.805,46.387
1532373441.745,51.758,72.754,53.223,40.527,67.383
1532373441.749,43.457,69.336,52.246,22.949,30.273
1532373441.753,43.945,67.871,48.340,18.066,-0.977
1532373441.757,47.363,64.453,44.434,17.090,45.898
1532373441.761,31.738,62.012,41.504,11.230,54.199
1532373441.765,18.555,55.176,41.016,5.859,20.996
1532373441.769,24.414,44.922,43.945,11.230,26.367
1532373441.773,32.227,44.922,41.016,13.672,14.160
1532373441.777,22.949,52.246,32.715,2.930,30.762
1532373441.781,11.230,52.734,29.297,2.930,40.527
1532373441.785,12.207,48.828,29.785,12.695,7.812
1532373441.788,15.137,46.387,28.320,18.066,20.996
1532373441.792,12.695,43.945,31.250,13.184,31.738
1532373441.796,16.113,43.457,34.180,14.160,36.133
1532373441.800,15.137,43.457,28.809,11.719,22.461
1532373441.804,14.648,48.340,23.438,6.348,15.625
1532373441.808,19.043,52.246,20.996,2.441,53.223
1532373441.812,23.438,47.852,18.555,-1.953,35.156
1532373441.816,23.926,45.410,21.484,-1.953,13.184
1532373441.820,24.902,45.898,21.973,-6.348,42.969
1532373441.824,28.809,46.875,23.926,-1.953,62.012
1532373441.828,24.902,45.898,24.902,1.953,38.574
1532373441.831,16.113,43.945,23.438,-3.418,-22.461
1532373441.835,5.371,43.945,22.461,-4.395,-6.836
1532373441.839,6.836,45.898,27.832,8.301,47.363
1532373441.843,11.719,47.363,32.227,22.461,54.688
1532373441.847,9.277,45.410,33.203,22.949,45.898
1532373441.851,2.930,42.969,33.203,22.461,-5.859
1532373441.855,-2.930,40.039,37.598,26.855,0.488
1532373441.859,-4.395,42.480,44.922,29.785,60.547
1532373441.863,-6.348,41.504,43.457,25.391,61.035
1532373441.867,-6.836,39.062,41.016,19.043,23.438
1532373441.870,-2.930,42.969,38.086,14.648,22.949
1532373441.874,-3.418,40.039,39.062,13.672,41.016
1532373441.878,-5.859,35.156,39.062,12.695,38.086
1532373441.882,-3.418,36.133,37.598,11.719,20.020
1532373441.886,-0.977,35.645,38.086,13.184,25.391
1532373441.890,-4.395,33.691,38.574,11.719,66.895
1532373441.894,-3.906,35.645,38.086,8.301,77.148
1532373441.898,-1.953,32.227,38.574,4.395,32.715
1532373441.902,0.488,29.297,37.109,6.348,-0.488
1532373441.906,0.977,32.715,38.574,11.230,19.043
1532373441.910,-0.977,34.180,43.457,3.418,41.016
1532373441.913,-2.441,31.738,43.457,-5.371,26.367
1532373441.917,-8.301,26.855,41.504,-3.906,9.277
1532373441.921,-11.230,29.297,38.574,0.488,41.016
1532373441.925,-12.207,32.715,43.457,5.859,71.289
1532373441.929,-9.277,29.785,43.457,7.324,62.988
1532373441.933,-4.395,29.297,35.645,4.395,38.574
1532373441.937,-3.906,31.738,39.062,10.742,22.949
1532373441.941,-1.465,31.738,44.434,19.531,48.828
1532373441.945,3.906,32.227,42.969,18.066,61.523
1532373441.949,3.418,32.715,45.410,20.996,2.441
1532373441.952,6.836,31.250,46.875,17.090,-17.090
1532373441.956,5.371,33.203,42.969,7.324,9.766
1532373441.960,1.465,35.156,43.945,9.277,39.062
1532373441.964,7.324,34.668,43.945,8.789,13.184
1532373441.968,7.324,35.645,40.527,4.883,-20.996
1532373441.972,10.742,35.156,39.062,2.930,2.441
1532373441.976,17.090,35.645,38.574,1.953,50.781
1532373441.980,16.113,39.062,43.945,5.859,39.551
1532373441.984,13.672,38.086,43.457,4.395,-13.672
1532373441.988,14.648,36.621,41.016,-1.953,9.277
1532373441.992,18.066,37.598,44.434,-4.395,49.316
1532373441.995,13.184,33.203,45.898,-6.836,31.250
1532373441.999,2.930,32.227,46.875,-7.812,-8.789
1532373442.003,0.977,35.645,46.875,-9.766,-14.160
1532373442.007,0.488,33.691,44.922,-7.324,46.387
1532373442.011,1.465,31.250,49.316,-7.812,49.805
1532373442.015,4.883,32.715,56.152,-4.883,-26.367
1532373442.019,-1.953,32.715,55.664,3.418,-0.488
1532373442.023,-4.883,33.203,51.758,2.930,68.848
1532373442.027,3.906,34.180,50.293,0.488,73.730
1532373442.031,8.301,36.133,56.152,4.395,22.461
1532373442.035,5.371,39.062,57.617,8.301,0.488
1532373442.038,9.277,40.527,50.293,13.184,16.602
1532373442.042,14.648,38.574,51.270,17.090,34.668
1532373442.046,16.113,37.598,53.711,15.625,39.062
1532373442.050,19.043,41.016,53.711,15.625,-8.301
1532373442.054,20.996,43.457,55.176,20.996,-30.273
1532373442.058,20.020,42.480,52.734,22.461,23.438
1532373442.062,18.555,40.527,51.270,21.484,40.039
1532373442.066,14.648,39.062,55.664,20.508,14.160
1532373442.070,11.230,37.109,55.664,18.555,28.809
1532373442.074,12.695,39.551,55.176,20.508,52.246
1532373442.077,14.648,41.504,57.129,22.461,48.828
1532373442.081,8.301,41.016,58.594,21.484,3.906
1532373442.085,2.930,40.039,62.988,22.461,-11.719
1532373442.089,-1.465,41.016,61.035,18.555,39.062
1532373442.093,-2.441,42.480,56.641,10.254,41.016
1532373442.097,-2.930,43.945,58.105,8.301,-10.742
1532373442.101,-9.277,41.992,59.082,9.766,-4.883
1532373442.105,-10.742,41.016,60.059,7.324,22.949
1532373442.109,-15.137,43.457,62.012,5.371,49.805
1532373442.113,-10.742,42.969,60.059,15.625,24.902
1532373442.117,-5.859,41.016,62.012,25.879,8.301
1532373442.120,-12.695,39.062,67.871,17.090,38.574
1532373442.124,-18.555,37.598,67.871,9.766,50.293
1532373442.128,-10.742,37.598,60.547,13.672,32.227
1532373442.132,6.348,39.062,56.641,20.508,-9.766
1532373442.136,3.906,39.062,59.082,20.020,-17.578
1532373442.140,-9.766,36.133,64.941,15.625,29.785
1532373442.144,-5.859,33.691,67.383,15.625,62.012
1532373442.148,4.395,27.832,66.895,23.926,25.391
1532373442.152,7.812,23.926,65.918,28.320,6.836
1532373442.156,13.184,30.273,60.547,29.785,36.133
1532373442.159,18.066,34.180,59.082,31.738,66.406
1532373442.163,14.160,33.691,62.012,29.785,36.621
1532373442.167,5.371,31.738,66.406,27.344,14.160
1532373442.171,2.441,31.250,64.941,26.855,28.320
1532373442.175,6.348,26.855,60.547,26.367,59.082
1532373442.179,10.742,27.832,55.664,24.902,55.664
1532373442.183,12.695,32.227,52.246,20.020,8.301
1532373442.187,8.789,31.738,54.199,20.508,-6.836
1532373442.191,7.324,30.762,54.199,22.949,12.695
1532373442.195,7.812,29.297,51.758,22.949,14.648
1532373442.199,9.277,32.227,53.711,27.344,7.324
1532373442.202,16.113,37.109,55.176,28.809,-6.348
1532373442.206,16.113,36.133,52.246,24.414,19.043
1532373442.210,11.230,34.180,51.270,21.484,47.363
1532373442.214,6.348,30.273,49.316,15.137,-30.273
1532373442.218,5.859,28.809,49.805,19.043,-39.062
1532373442.222,8.301,33.691,50.293,31.738,16.602
1532373442.226,15.137,35.645,53.223,33.203,58.105
1532373442.230,17.578,34.180,53.711,31.250,42.969
1532373442.234,15.137,32.715,53.711,29.297,-28.320
1532373442.238,13.672,34.668,54.688,25.391,19.531
1532373442.242,18.066,35.645,54.199,29.785,61.523
1532373442.245,16.602,33.691,53.711,29.785,40.527
1532373442.249,15.625,35.645,49.316,23.438,18.555
1532373442.253,19.531,35.645,47.363,24.902,-13.672
1532373442.257,20.020,35.645,45.898,31.250,31.738
1532373442.261,17.578,35.645,46.875,31.738,63.477
1532373442.265,12.695,33.691,45.898,29.785,25.391
1532373442.269,14.648,33.691,46.387,32.715,40.039
1532373442.273,15.625,36.133,44.922,32.227,61.035
1532373442.277,19.043,38.574,43.457,28.809,37.598
1532373442.281,24.902,35.645,46.875,29.297,36.133
1532373442.284,23.438,31.738,46.387,31.738,27.344
1532373442.288,27.832,35.645,47.852,34.668,39.062
1532373442.292,32.227,40.527,48.828,31.738,41.016
1532373442.296,30.762,39.062,49.316,31.738,21.973
1532373442.300,30.273,38.574,51.270,37.598,26.855
1532373442.304,24.414,37.598,45.410,35.645,32.715
1532373442.308,19.531,34.180,42.480,33.691,63.965
1532373442.312,20.996,34.180,46.875,35.156,50.293
1532373442.316,25.879,35.156,47.363,40.039,-9.277
1532373442.320,30.273,33.691,49.316,49.316,13.184
1532373442.324,29.297,34.180,49.316,44.434,32.227
1532373442.327,28.809,35.645,48.340,38.086,43.945
1532373442.331,27.344,34.668,50.781,37.109,2.441
1532373442.335,26.855,38.086,52.246,35.645,-33.203
1532373442.339,28.809,39.551,51.758,39.551,59.570
1532373442.343,29.297,37.109,53.223,44.922,74.219
1532373442.347,25.879,36.621,54.199,41.992,11.230
1532373442.351,22.461,36.621,52.246,30.273,-9.277
1532373442.355,22.461,36.621,48.340,25.391,19.531
1532373442.359,22.949,34.180,46.875,31.250,57.129
1532373442.363,23.438,34.180,49.805,32.715,48.828
1532373442.367,26.855,35.156,51.270,30.273,24.902
1532373442.370,31.738,34.180,52.246,34.180,12.695
1532373442.374,32.227,34.668,50.781,34.668,38.086
1532373442.378,29.785,35.156,49.805,32.715,47.363
1532373442.382,30.273,31.738,49.316,30.762,19.531
1532373442.386,31.738,27.832,47.363,28.320,13.672
1532373442.390,29.297,30.762,48.340,25.879,15.625
1532373442.394,27.344,33.691,50.293,23.438,24.414
1532373442.398,28.320,32.227,50.781,23.438,22.461
1532373442.402,31.738,30.762,49.316,29.297,-8.301
1532373442.406,35.156,31.738,47.852,29.785,-2.441
1532373442.409,31.250,34.668,48.340,22.461,37.598
1532373442.413,24.902,35.645,47.363,20.508,11.719
1532373442.417,23.926,31.250,47.852,20.020,-29.297
1532373442.421,20.508,27.832,44.434,17.578,5.859
1532373442.425,21.973,28.809,41.992,19.043,55.176
1532373442.429,29.785,26.855,43.945,22.949,45.410
1532373442.433,39.551,27.832,41.016,24.902,16.602
1532373442.437,43.457,30.273,39.551,26.855,34.668
1532373442.441,41.992,29.297,40.527,30.273,66.895
1532373442.445,40.039,30.762,38.086,33.203,59.082
1532373442.449,40.527,33.691,39.062,37.598,22.461
1532373442.452,45.410,34.668,41.504,39.551,19.043
1532373442.456,48.828,33.691,42.480,36.621,55.176
1532373442.460,49.316,34.668,47.363,37.598,41.504
1532373442.464,46.875,32.715,45.410,39.062,17.578
1532373442.468,42.969,30.273,39.062,31.250,19.043
1532373442.472,40.039,33.203,40.039,20.020,38.086
1532373442.476,45.898,34.180,38.574,26.855,56.641
1532373442.480,52.734,34.668,37.109,45.898,44.922
1532373442.484,50.781,37.598,40.039,54.688,25.879
1532373442.488,40.527,35.645,41.016,55.176,61.523
1532373442.491,33.203,33.203,48.340,56.152,62.988
1532373442.495,35.156,28.809,49.316,61.035,48.828
1532373442.499,39.551,27.832,44.434,68.848,36.133
1532373442.503,36.133,30.762,41.992,68.359,43.457
1532373442.507,31.250,28.809,40.039,67.383,65.430
1532373442.511,32.715,29.785,42.480,65.918,67.871
1532373442.515,30.273,29.297,41.016,59.570,37.109
1532373442.519,30.762,27.344,34.180,58.594,18.066
1532373442.523,34.180,27.832,35.645,62.988,65.918
1532373442.527,38.574,26.367,36.133,65.430,76.660
1532373442.531,42.969,26.367,33.691,63.477,18.555
1532373442.534,37.598,26.855,33.203,59.082,8.789
1532373442.538,38.086,24.902,33.203,56.152,25.391
1532373442.542,40.039,27.344,33.203,52.734,58.594
1532373442.546,41.504,28.320,29.785,50.781,68.848
1532373442.550,44.434,26.855,24.902,54.199,1.953
1532373442.554,41.992,27.344,21.973,59.082,11.230
1532373442.558,37.598,26.367,22.949,62.500,63.477
1532373442.562,38.086,25.879,24.902,62.988,17.090
1532373442.566,41.016,24.902,23.926,63.965,-33.203
1532373442.570,39.551,21.973,20.996,63.477,-3.418
1532373442.574,39.551,20.508,21.484,57.129,13.672
1532373442.577,44.434,21.973,21.484,59.082,33.203
1532373442.581,46.387,20.996,20.020,63.965,33.691
1532373442.585,51.758,21.484,23.926,62.500,-8.789
1532373442.589,58.105,20.508,25.879,65.430,18.555
1532373442.593,60.059,19.531,23.438,65.430,46.387
1532373442.597,62.500,18.555,19.531,62.012,34.668
1532373442.601,56.641,14.648,12.207,60.547,11.719
1532373442.605,53.223,15.625,12.695,60.059,9.766
1532373442.609,52.734,14.648,16.602,62.500,57.129
1532373442.613,52.734,10.742,13.184,61.523,30.273
1532373442.616,49.805,10.254,12.207,60.547,-35.645
1532373442.620,42.969,11.230,12.695,61.035,11.230
1532373442.624,42.480,10.254,11.230,62.012,73.730
1532373442.628,39.062,10.254,13.672,59.570,74.219
1532373442.632,36.621,9.277,16.602,54.199,20.508
1532373442.636,38.086,7.324,15.137,50.781,9.277
1532373442.640,36.621,8.301,10.742,45.410,63.965
1532373442.644,32.715,4.883,5.859,47.363,98.633
1532373442.648,30.762,2.930,-0.977,45.410,41.016
1532373442.652,31.250,3.418,-2.930,41.016,-5.859
1532373442.656,29.297,2.441,0.000,41.504,29.297
1532373442.659,33.203,3.418,0.977,46.387,56.152
1532373442.663,45.410,2.930,-1.953,55.176,39.062
1532373442.667,49.805,3.906,-1.465,64.453,9.766
1532373442.671,51.270,6.348,-1.465,68.359,22.949
1532373442.675,54.688,6.836,-5.859,68.359,48.340
1532373442.679,52.734,6.348,-8.789,76.172,41.016
1532373442.683,46.387,5.859,-10.254,73.242,17.090
1532373442.687,42.969,5.859,-10.742,65.918,26.855
1532373442.691,45.898,6.836,-11.230,69.824,49.805
1532373442.695,50.293,8.301,-6.836,72.754,35.156
1532373442.698,50.781,9.766,-3.906,67.383,0.000
1532373442.702,53.711,9.766,-4.395,66.406,-6.836
1532373442.706,53.223,10.254,-7.324,64.941,21.973
1532373442.710,51.270,9.277,-9.277,58.105,27.344
1532373442.714,49.316,7.812,-10.254,53.223,-24.414
1532373442.718,47.852,8.789,-11.719,48.340,-41.016
1532373442.722,44.434,6.836,-11.719,50.293,6.836
1532373442.726,47.363,6.348,-14.648,54.688,40.039
1532373442.730,53.223,9.277,-10.742,61.523,4.395
1532373442.734,50.293,7.812,-12.207,64.941,-25.879
1532373442.738,48.828,3.906,-13.672,63.477,5.371
1532373442.741,46.387,0.000,-15.137,61.035,39.551
1532373442.745,46.875,0.977,-16.113,62.012,65.918
1532373442.749,43.945,3.906,-14.160,62.988,23.926
1532373442.753,40.039,4.395,-14.160,64.941,-9.766
1532373442.757,46.387,5.371,-10.254,70.801,15.625
1532373442.761,48.828,5.371,-11.719,67.383,39.062
1532373442.765,50.293,4.883,-15.137,66.895,11.719
1532373442.769,60.059,10.742,-8.789,78.125,1.465
1532373442.773,67.383,14.648,-6.836,84.961,43.945
1532373442.777,67.871,14.160,-10.742,88.379,66.406
1532373442.781,70.312,15.137,-7.812,88.867,13.184
1532373442.784,65.918,16.602,-9.766,82.520,-28.320
1532373442.788,66.895,15.137,-10.742,86.426,5.859
1532373442.792,69.336,15.137,-2.930,90.332,38.086
1532373442.796,67.383,13.672,-1.465,87.402,24.902
1532373442.800,63.477,13.672,-6.348,82.031,0.977
1532373442.804,62.012,15.625,-8.789,77.637,8.789
1532373442.808,71.289,15.625,-5.859,87.891,48.828
1532373442.812,73.730,16.113,-2.930,89.844,70.312
1532373442.816,73.730,19.043,-1.953,90.332,39.551
1532373442.820,78.125,17.578,-1.953,94.727,27.344
1532373442.823,80.566,15.625,-5.371,96.191,56.152
1532373442.827,76.660,17.578,-8.789,96.191,60.547
1532373442.831,74.219,19.043,-7.812,95.215,9.766
1532373442.835,78.613,20.508,-7.324,95.703,-8.301
1532373442.839,86.914,20.508,-6.836,99.609,40.039
1532373442.843,88.867,18.555,-3.418,102.539,72.266
1532373442.847,88.379,19.531,-4.395,99.609,56.152
1532373442.851,87.891,17.578,-6.836,96.680,21.484
1532373442.855,80.078,15.625,-7.812,94.727,28.809
1532373442.859,72.754,15.625,-6.836,96.191,53.711
1532373442.863,70.312,16.602,-5.371,95.703,54.688
1532373442.866,66.406,17.090,-4.883,89.355,37.598
1532373442.870,67.383,17.578,-5.859,87.891,48.340
1532373442.874,63.965,15.625,-6.836,81.543,43.945
1532373442.878,60.547,12.695,-9.277,77.637,39.062
1532373442.882,66.895,16.113,-8.301,87.891,43.457
1532373442.886,64.453,16.602,-7.812,90.820,33.691
1532373442.890,64.941,16.602,-8.789,86.914,63.477
1532373442.894,70.312,16.602,-4.883,91.309,74.707
1532373442.898,69.336,16.602,-7.324,95.703,40.527
1532373442.902,67.871,17.578,-13.184,96.680,28.809
1532373442.905,69.824,16.113,-10.254,104.004,43.945
1532373442.909,74.219,19.043,-7.324,113.281,76.172
1532373442.913,73.730,18.555,-11.230,108.398,32.715
1532373442.917,71.777,17.090,-15.625,99.609,-5.859
1532373442.921,69.336,15.625,-17.090,102.051,39.551
1532373442.925,66.895,15.137,-16.113,107.422,85.449
1532373442.929,71.777,17.578,-18.555,109.863,70.801
1532373442.933,75.195,17.090,-17.090,104.492,10.742
1532373442.937,70.312,15.625,-17.578,97.656,13.184
1532373442.941,65.430,12.695,-20.996,97.168,57.129
1532373442.945,64.941,9.766,-23.438,95.215,77.637
1532373442.948,66.895,10.254,-26.855,96.680,52.734
1532373442.952,69.336,9.277,-28.809,101.074,12.207
1532373442.956,74.707,9.766,-28.320,104.980,45.410
1532373442.960,76.172,9.277,-24.414,104.980,91.797
1532373442.964,73.242,5.859,-26.367,103.516,37.598
1532373442.968,72.754,4.883,-29.297,101.562,13.184
1532373442.972,69.336,4.883,-31.738,90.820,39.551
1532373442.976,66.406,2.441,-31.738,83.496,51.758
1532373442.980,63.965,0.977,-31.738,83.008,67.871
1532373442.984,62.012,0.000,-32.227,87.402,17.090
1532373442.988,60.059,-3.418,-30.762,89.844,4.395
1532373442.991,53.711,-2.930,-34.180,79.590,47.363
1532373442.995,54.199,0.000,-37.109,65.918,22.461
1532373442.999,60.547,-3.418,-37.109,68.848,0.488
1532373443.003,57.617,-4.883,-38.086,72.266,36.133
1532373443.007,55.664,-3.906,-39.551,74.707,81.543
1532373443.011,55.664,-3.906,-41.016,73.730,79.102
1532373443.015,50.781,-7.324,-41.016,63.965,5.859
1532373443.019,48.340,-8.301,-40.039,62.012,19.043
1532373443.023,47.363,-5.859,-41.504,60.059,60.059
1532373443.027,42.969,-6.348,-42.480,56.641,60.547
1532373443.030,40.039,-7.324,-39.551,56.641,17.578
1532373443.034,38.086,-10.254,-38.574,53.711,-26.367
1532373443.038,41.504,-10.254,-40.039,53.711,0.000
1532373443.042,48.828,-6.836,-39.062,58.594,38.574
1532373443.046,50.781,-9.766,-40.527,61.523,24.902
1532373443.050,56.152,-10.254,-39.062,64.453,4.395
1532373443.054,64.453,-7.324,-36.133,69.336,-8.301
1532373443.058,66.895,-4.883,-37.598,72.266,24.902
1532373443.062,65.430,-3.906,-39.062,71.289,70.801
1532373443.066,66.406,-3.906,-43.457,70.801,21.973
1532373443.070,68.848,-6.348,-42.969,72.754,3.906
1532373443.073,65.430,-6.836,-40.039,70.801,26.367
1532373443.077,64.941,-1.953,-40.039,69.824,58.594
1532373443.081,65.918,-1.953,-35.645,72.266,28.320
1532373443.085,60.547,-7.324,-29.785,65.430,-25.391
1532373443.089,55.176,-5.859,-29.785,62.012,18.555
1532373443.093,54.688,-5.859,-34.180,58.594,19.043
1532373443.097,53.223,-7.812,-37.109,47.363,-5.371
1532373443.101,54.688,-5.371,-36.133,46.875,5.371
1532373443.105,57.129,-0.488,-33.691,50.293,2.441
1532373443.109,55.664,0.488,-34.668,51.758,55.664
1532373443.113,52.734,-2.930,-34.668,45.898,50.293
1532373443.116,49.805,-5.859,-37.598,34.668,0.488
1532373443.120,51.758,-3.906,-40.039,36.133,14.160
1532373443.124,56.152,0.488,-41.504,34.668,45.898
1532373443.128,60.059,1.953,-42.969,34.668,53.223
1532373443.132,64.941,1.953,-37.598,42.969,-32.715
1532373443.136,66.895,-0.977,-33.691,51.758,-64.941
1532373443.140,62.988,-1.953,-31.738,54.199,29.297
1532373443.144,58.594,2.441,-34.668,51.758,60.059
1532373443.148,48.340,4.395,-33.203,50.781,41.016
1532373443.152,47.363,1.953,-29.785,53.711,40.039
1532373443.155,48.828,1.465,-36.133,56.152,50.293
1532373443.159,41.504,4.883,-40.527,49.805,65.430
1532373443.163,38.086,4.883,-39.551,40.527,48.340
1532373443.167,38.574,2.930,-37.598,34.668,10.742
1532373443.171,45.410,6.348,-35.156,34.668,6.836
1532373443.175,52.246,9.277,-32.715,34.180,32.715
1532373443.179,47.852,10.254,-39.062,30.762,66.895
1532373443.183,47.852,11.719,-41.016,34.668,52.734
1532373443.187,51.758,11.719,-34.668,38.086,33.691
1532373443.191,48.340,10.742,-34.668,28.809,42.969
1532373443.195,44.434,9.277,-40.527,19.531,73.730
1532373443.198,44.434,7.324,-41.504,14.648,55.176
1532373443.202,48.340,6.348,-39.551,19.043,35.645
1532373443.206,52.246,8.301,-41.992,23.926,63.965
1532373443.210,53.711,11.719,-40.039,28.320,91.309
1532373443.214,56.152,14.648,-37.598,32.227,50.781
1532373443.218,56.641,12.695,-36.133,32.227,0.977
1532373443.222,52.246,12.207,-37.109,35.156,27.344
1532373443.226,48.340,12.207,-40.039,36.133,72.266
1532373443.230,46.387,10.254,-39.062,40.039,63.965
1532373443.234,45.898,9.766,-40.527,35.645,-12.207
1532373443.237,43.457,8.789,-42.969,29.785,16.113
1532373443.241,42.969,6.348,-41.016,36.621,54.688
1532373443.245,47.363,5.371,-35.645,42.969,34.668
1532373443.249,51.758,8.301,-31.250,49.805,25.879
1532373443.253,53.711,10.254,-30.762,46.875,16.113
1532373443.257,49.316,9.766,-31.250,44.922,29.785
1532373443.261,45.410,9.766,-32.715,40.527,37.109
1532373443.265,44.434,7.812,-29.297,34.668,2.441
1532373443.269,41.992,8.301,-21.973,42.969,-15.137
1532373443.273,46.387,12.207,-20.996,39.551,1.953
1532373443.277,45.898,13.184,-23.926,32.227,18.555
1532373443.280,39.551,10.254,-20.508,33.203,13.184
1532373443.284,37.598,9.277,-20.508,31.250,-23.926
1532373443.288,40.039,11.230,-23.926,34.180,-2.441
1532373443.292,40.527,12.207,-23.926,32.715,39.551
1532373443.296,35.156,10.742,-22.461,26.367,17.578
1532373443.300,34.668,9.766,-22.461,26.855,-5.371
1532373443.304,37.109,11.719,-20.996,31.738,5.859
1532373443.308,38.574,14.160,-21.973,33.691,21.973
1532373443.312,39.062,14.160,-23.926,30.273,49.805
1532373443.316,40.039,12.207,-20.996,37.598,17.090
1532373443.320,41.504,9.766,-20.508,30.762,6.836
1532373443.323,38.574,9.277,-23.926,16.602,46.875
1532373443.327,41.992,9.277,-22.949,24.902,59.570
1532373443.331,44.922,11.719,-21.484,24.902,32.715
1532373443.335,42.969,12.207,-22.461,16.113,-12.207
1532373443.339,41.992,9.277,-22.461,16.113,24.414
1532373443.343,45.410,13.672,-20.020,24.414,62.012
1532373443.347,43.457,12.207,-19.531,27.344,42.480
1532373443.351,40.039,9.766,-20.020,20.020,5.859
1532373443.355,39.062,10.742,-17.578,16.602,16.113
1532373443.359,41.016,9.766,-17.578,22.949,35.645
1532373443.362,42.969,10.742,-15.625,27.344,21.973
1532373443.366,43.457,6.348,-17.090,21.484,11.719
1532373443.370,43.457,3.906,-21.973,20.020,12.695
1532373443.374,39.551,5.371,-20.020,21.973,18.555
1532373443.378,41.504,7.324,-15.625,25.879,27.344
1532373443.382,43.945,11.719,-16.113,32.227,16.602
1532373443.386,46.387,13.672,-16.602,36.621,25.879
1532373443.390,41.992,11.230,-18.555,39.062,62.012
1532373443.394,38.086,10.742,-17.090,39.551,56.152
1532373443.398,37.109,9.277,-16.602,38.574,39.551
1532373443.402,38.574,7.812,-17.578,45.410,31.738
1532373443.405,39.062,7.812,-17.090,48.828,18.066
1532373443.409,38.086,5.859,-20.020,45.410,28.320
1532373443.413,42.480,7.812,-19.531,46.387,-12.207
1532373443.417,44.922,7.324,-18.066,49.805,-12.695
1532373443.421,45.898,5.859,-19.043,50.781,43.945
1532373443.425,48.828,11.230,-16.602,55.176,50.293
1532373443.429,49.805,14.160,-13.672,59.082,40.039
1532373443.433,42.969,11.719,-17.090,53.711,14.160
1532373443.437,37.598,11.230,-18.066,47.852,14.648
1532373443.441,36.133,13.184,-13.672,49.316,34.180
1532373443.444,36.621,12.695,-13.672,50.293,43.457
1532373443.448,31.738,10.254,-16.113,44.434,19.043
1532373443.452,27.832,9.766,-15.625,42.969,-35.156
1532373443.456,29.785,11.719,-12.207,46.387,-10.254
1532373443.460,26.855,13.672,-10.254,45.898,45.410
1532373443.464,32.227,15.137,-9.766,46.875,11.230
1532373443.468,36.133,13.184,-7.324,50.781,-14.648
1532373443.472,36.133,13.672,-9.766,50.293,15.137
1532373443.476,36.621,17.578,-10.254,52.734,46.875
1532373443.480,34.180,17.090,-10.742,47.852,30.273
1532373443.484,36.621,14.648,-13.184,41.992,-10.254
1532373443.487,33.691,13.672,-14.160,38.574,16.602
1532373443.491,34.180,18.066,-13.672,38.086,41.504
1532373443.495,37.598,17.090,-10.254,40.527,13.184
1532373443.499,33.691,10.742,-10.254,38.574,-0.488
1532373443.503,37.109,9.277,-11.230,40.039,17.090
1532373443.507,40.039,11.719,-11.230,43.945,32.715
1532373443.511,37.598,13.184,-12.695,45.898,16.113
1532373443.515,35.156,13.184,-8.301,46.387,-22.949
1532373443.519,32.715,14.160,-6.836,48.340,-8.301
1532373443.523,34.668,14.160,-4.883,57.129,27.832
1532373443.527,33.691,14.648,-3.906,61.035,53.711
1532373443.530,31.250,13.672,-8.301,62.012,39.062
1532373443.534,33.691,15.625,-7.324,62.012,11.719
1532373443.538,31.250,14.160,-5.859,53.223,33.691
1532373443.542,29.785,14.160,-2.441,48.340,71.289
1532373443.546,32.227,13.184,-2.441,42.969,35.645
1532373443.550,34.180,13.672,-3.906,37.598,-13.184
1532373443.554,27.832,16.602,-8.789,26.367,-20.996
1532373443.558,24.902,17.578,-8.301,25.879,14.160
1532373443.562,35.156,20.020,-1.465,39.551,61.523
1532373443.566,41.504,22.949,6.348,49.316,42.969
1532373443.569,39.062,24.902,5.371,51.758,6.836
1532373443.573,38.086,23.926,4.883,60.059,12.207
1532373443.577,38.574,24.902,8.789,65.430,43.945
1532373443.581,37.598,27.344,5.859,60.059,38.086
1532373443.585,38.574,26.367,9.277,61.035,9.766
1532373443.589,39.551,28.320,11.719,61.523,7.324
1532373443.593,41.016,31.738,17.578,61.035,30.762
1532373443.597,47.363,31.250,24.414,64.941,30.273
1532373443.601,59.082,32.227,23.926,70.312,15.625
1532373443.605,63.965,34.668,20.508,69.336,11.230
1532373443.609,66.406,39.062,19.531,62.500,52.246
1532373443.612,74.707,38.574,19.531,58.105,43.457
1532373443.616,78.125,36.621,17.578,57.617,3.906
1532373443.620,77.148,40.527,18.555,55.176,18.066
1532373443.624,80.078,41.016,21.484,52.734,53.711
1532373443.628,75.195,37.109,22.461,50.293,73.730
1532373443.632,68.848,36.133,20.020,48.340,24.902
1532373443.636,62.500,36.133,19.043,46.387,-8.301
1532373443.640,56.152,35.645,20.508,46.387,25.879
1532373443.644,54.688,34.668,21.973,47.852,39.062
1532373443.648,51.270,34.180,20.508,49.316,3.906
1532373443.652,49.316,32.715,21.484,48.828,-25.391
1532373443.655,45.410,33.691,22.461,45.410,0.977
1532373443.659,42.969,33.691,22.949,51.270,56.641
1532373443.663,42.480,31.738,23.926,54.199,41.016
1532373443.667,34.668,30.273,21.484,50.293,0.488
1532373443.671,32.227,27.832,20.508,47.852,17.090
1532373443.675,35.645,28.320,18.555,44.434,33.691
1532373443.679,32.715,29.297,14.648,36.621,39.062
1532373443.683,33.203,28.809,14.160,28.809,-8.301
1532373443.687,35.156,27.344,15.137,27.832,-19.043
1532373443.691,34.180,28.809,15.137,25.879,23.438
1532373443.694,38.086,30.762,14.160,28.320,42.969
1532373443.698,43.457,30.273,11.230,34.180,31.250
1532373443.702,45.410,29.297,9.766,38.086,-3.418
1532373443.706,43.945,29.785,9.277,36.133,36.133
1532373443.710,46.387,31.738,10.742,36.621,69.824
1532373443.714,46.387,27.344,10.742,43.457,37.598
1532373443.718,41.504,25.879,3.906,41.504,10.254
1532373443.722,37.598,27.344,5.371,36.621,34.180
1532373443.726,35.645,27.344,8.301,38.574,55.664
1532373443.730,37.109,24.902,7.324,40.039,37.598
1532373443.734,40.039,27.832,7.324,35.645,4.883
1532373443.737,39.062,30.273,0.000,33.203,7.812
1532373443.741,43.457,25.391,-0.488,36.621,51.270
1532373443.745,44.434,25.391,2.930,41.016,45.898
1532373443.749,36.133,28.809,-1.953,37.109,15.137
1532373443.753,32.715,30.762,0.977,33.203,-5.371
1532373443.757,32.227,29.297,3.418,34.668,8.789
1532373443.761,31.738,30.762,0.977,32.715,67.383
1532373443.765,27.832,31.250,2.441,23.438,52.734
1532373443.769,23.438,30.273,0.488,19.043,20.020
1532373443.773,23.438,29.297,2.930,17.090,24.414
1532373443.776,22.949,28.320,2.930,16.602,36.133
1532373443.780,20.996,30.273,0.000,18.555,19.531
1532373443.784,20.020,30.762,1.953,14.160,-11.230
1532373443.788,18.555,28.809,2.441,8.301,24.414
1532373443.792,19.531,26.855,3.418,8.301,48.340
1532373443.796,20.020,30.273,2.441,5.371,29.297
1532373443.800,20.996,30.762,4.395,0.488,4.883
1532373443.804,23.438,28.320,-0.488,-0.977,11.230
1532373443.808,29.297,27.832,-7.324,-5.859,58.105
1532373443.812,29.785,26.855,-6.348,-15.137,72.266
1532373443.816,29.785,24.414,-9.277,-18.555,36.621
1532373443.819,35.645,20.996,-7.324,-13.672,5.859
1532373443.823,29.297,20.508,-1.953,-7.324,18.555
1532373443.827,20.508,20.020,0.977,-3.418,25.879
1532373443.831,18.066,20.020,2.441,8.301,-0.977
1532373443.835,17.578,20.508,3.418,11.719,-17.578
1532373443.839,17.090,21.484,0.488,9.766,22.949
1532373443.843,10.742,18.555,-0.977,8.789,53.711
1532373443.847,7.324,18.066,3.906,12.695,50.293
1532373443.851,7.812,18.066,3.906,13.184,11.719
1532373443.855,12.207,19.531,2.930,8.789,-3.906
1532373443.859,20.020,28.809,8.301,17.578,42.969
1532373443.862,21.973,35.645,11.719,20.996,49.316
1532373443.866,26.367,35.645,22.461,26.855,11.230
1532373443.870,32.227,37.598,27.344,35.645,-13.184
1532373443.874,32.715,38.574,26.855,36.133,-28.320
1532373443.878,34.180,37.598,28.320,30.762,-14.648
1532373443.882,31.738,39.062,23.438,18.555,-8.789
1532373443.886,33.203,41.016,19.043,16.602,-16.113
1532373443.890,39.062,40.527,19.043,21.973,17.578
1532373443.894,37.598,38.574,18.555,19.043,26.367
1532373443.898,40.039,36.133,19.043,17.578,6.836
1532373443.901,41.992,33.691,19.043,19.531,2.441
1532373443.905,31.250,31.738,19.043,18.555,21.973
1532373443.909,24.902,30.762,16.602,14.648,51.758
1532373443.913,27.344,31.738,15.625,14.160,26.855
1532373443.917,28.320,29.785,16.113,17.090,14.160
1532373443.921,28.809,30.273,14.648,17.578,26.855
1532373443.925,29.785,31.738,16.113,18.555,37.598
1532373443.929,27.832,28.320,15.137,17.578,42.480
1532373443.933,27.832,28.809,11.719,9.277,-11.230
1532373443.937,28.809,32.227,10.254,8.789,16.113
1532373443.941,22.461,27.344,11.719,7.324,46.875
1532373443.944,16.113,23.438,10.742,5.859,48.828
1532373443.948,16.113,23.438,9.277,8.301,39.551
1532373443.952,16.602,22.461,16.113,15.137,14.160
1532373443.956,16.113,23.438,24.414,22.461,31.250
1532373443.960,10.742,22.461,19.043,22.461,23.438
1532373443.964,8.301,20.996,9.766,17.090,-9.277
1532373443.968,11.719,24.902,10.742,17.090,-18.555
1532373443.972,15.137,26.367,11.719,13.184,-3.418
1532373443.976,16.602,29.297,11.719,3.418,23.926
1532373443.980,12.207,29.297,10.742,2.930,36.133
1532373443.983,15.137,29.297,11.719,11.230,27.344
1532373443.987,21.484,30.273,16.113,16.113,50.293
1532373443.991,20.020,29.785,18.555,18.066,63.965
1532373443.995,17.578,29.297,13.184,17.090,76.660
1532373443.999,14.648,28.809,13.672,10.742,48.340
1532373444.003,17.578,28.320,14.648,8.301,19.531
1532373444.007,20.996,28.809,9.277,11.719,22.949
1532373444.011,18.555,29.785,9.766,10.254,52.246
1532373444.015,20.996,30.762,11.230,9.277,32.227
1532373444.019,24.902,31.250,16.113,14.648,6.836
1532373444.023,24.902,32.715,19.531,14.160,53.223
1532373444.026,24.902,32.715,20.020,17.090,110.840
1532373444.030,22.949,32.227,19.043,25.391,64.941
1532373444.034,17.090,33.203,12.207,20.508,20.996
1532373444.038,20.020,29.785,14.160,17.578,64.453
1532373444.042,21.484,29.785,18.066,20.020,72.266
1532373444.046,17.090,32.227,16.602,17.090,41.016
1532373444.050,16.602,33.203,18.066,17.578,-2.930
1532373444.054,14.648,33.203,18.555,20.508,20.020
1532373444.058,3.906,31.738,16.113,16.113,44.434
1532373444.062,0.977,30.273,20.996,13.184,21.973
1532373444.066,6.348,28.809,22.461,17.578,4.395
1532373444.069,5.371,28.809,19.043,15.137,11.230
1532373444.073,4.395,26.367,19.043,10.742,29.297
1532373444.077,7.812,32.715,19.043,13.184,45.898
1532373444.081,7.812,34.668,21.484,11.230,13.184
1532373444.085,5.859,31.738,20.508,4.395,-17.090
1532373444.089,6.836,37.598,17.578,2.441,18.066
1532373444.093,11.719,39.551,20.020,2.930,16.113
1532373444.097,20.020,38.574,25.879,6.348,9.277
1532373444.101,17.090,37.109,23.438,9.766,6.348
1532373444.105,14.160,36.621,22.461,7.324,12.207
1532373444.108,13.184,35.645,21.973,5.371,46.875
1532373444.112,6.836,35.156,22.461,7.812,29.785
1532373444.116,8.789,36.133,25.391,10.254,2.441
1532373444.120,12.207,36.621,23.926,13.184,25.879
1532373444.124,14.648,39.062,24.902,15.625,69.336
1532373444.128,17.090,38.574,27.344,18.066,61.035
1532373444.132,18.555,38.086,27.832,21.484,27.832
1532373444.136,22.949,41.016,30.762,24.414,30.762
1532373444.140,25.391,41.504,32.715,24.414,58.105
1532373444.144,21.973,40.039,27.344,20.508,79.102
1532373444.148,16.602,42.480,27.344,20.020,55.664
1532373444.151,13.184,44.434,28.809,20.020,17.578
1532373444.155,10.742,41.016,25.391,17.090,21.484
1532373444.159,10.254,37.109,24.902,23.926,48.340
1532373444.163,11.719,36.133,29.297,29.785,19.043
1532373444.167,10.254,35.645,29.785,24.414,-11.719
1532373444.171,5.371,35.645,26.855,16.113,-7.324
1532373444.175,4.883,38.086,28.809,14.160,-1.953
1532373444.179,6.836,38.574,30.762,13.184,3.906
1532373444.183,9.277,37.109,26.855,11.230,9.766
1532373444.187,10.742,38.086,25.391,14.648,8.301
1532373444.190,10.254,39.551,29.297,10.254,5.859
1532373444.194,10.742,37.598,27.832,5.371,23.438
1532373444.198,13.672,36.133,26.855,10.254,9.277
1532373444.202,19.531,42.480,32.715,21.484,-8.301
1532373444.206,23.438,44.434,36.133,21.484,18.555
1532373444.210,23.926,39.062,34.668,17.090,28.809
1532373444.214,17.578,35.156,34.180,15.137,6.836
1532373444.218,10.254,35.156,33.203,11.230,-13.184
1532373444.222,6.836,33.691,29.785,13.672,2.441
1532373444.226,7.812,32.227,32.227,13.672,48.828
1532373444.230,12.695,33.691,36.133,14.648,53.711
1532373444.233,15.137,35.156,36.133,13.184,-19.531
1532373444.237,12.207,32.715,34.180,8.789,-3.418
1532373444.241,7.812,33.691,30.273,7.324,25.879
1532373444.245,5.859,35.645,30.762,4.395,21.484
1532373444.249,9.277,34.668,32.227,7.324,9.766
1532373444.253,10.254,35.645,32.227,15.137,14.160
1532373444.257,6.836,34.180,34.668,17.090,55.176
1532373444.261,0.488,35.645,35.645,12.207,66.895
1532373444.265,4.395,41.016,40.039,15.137,41.992
1532373444.269,11.230,43.945,39.062,19.531,25.391
1532373444.273,6.348,42.480,39.551,17.578,30.762
1532373444.276,3.418,42.480,42.480,11.230,30.273
1532373444.280,5.371,45.410,41.992,7.324,14.648
1532373444.284,4.883,46.387,45.410,6.348,12.695
1532373444.288,3.906,50.293,48.340,3.418,33.691
1532373444.292,8.301,54.688,53.223,1.465,43.457
1532373444.296,7.812,56.152,57.617,0.488,22.461
1532373444.300,6.348,56.641,60.547,12.695,-13.672
1532373444.304,9.277,54.688,61.523,20.508,-3.906
1532373444.308,11.230,53.223,60.059,21.484,28.809
1532373444.312,13.184,53.711,58.105,15.625,56.641
1532373444.315,9.277,54.688,54.199,8.789,9.766
1532373444.319,11.719,59.082,56.152,20.508,-11.230
1532373444.323,20.020,62.012,63.965,30.273,41.016
1532373444.327,23.438,63.477,65.430,28.320,35.156
1532373444.331,32.715,65.430,62.988,26.855,-0.977
1532373444.335,30.762,62.500,62.988,27.344,6.836
1532373444.339,24.414,62.012,64.941,29.785,37.109
1532373444.343,33.691,68.359,68.848,35.156,61.523
1532373444.347,31.250,66.406,68.359,27.832,60.547
1532373444.351,27.832,62.500,66.406,23.438,28.320
1532373444.355,29.785,64.941,66.895,30.762,-10.254
1532373444.358,24.414,63.965,69.336,30.762,28.809
1532373444.362,26.855,60.547,69.824,28.809,84.473
1532373444.366,34.668,59.082,65.918,33.203,37.598
1532373444.370,31.250,60.059,62.012,31.738,28.320
1532373444.374,27.832,58.594,58.594,21.973,54.199
1532373444.378,32.227,57.129,63.477,24.902,63.477
1532373444.382,35.645,58.594,69.824,32.715,33.203
1532373444.386,32.227,61.035,67.383,29.297,21.484
1532373444.390,18.555,56.152,58.105,18.555,50.781
1532373444.394,12.695,48.828,52.734,9.766,47.363
1532373444.398,16.113,49.805,53.223,8.789,15.137
1532373444.401,15.137,50.781,52.246,15.137,20.020
1532373444.405,18.066,55.176,54.199,24.414,41.016
1532373444.409,16.602,50.293,55.664,24.902,62.500
1532373444.413,11.230,41.992,46.875,17.578,52.734
1532373444.417,10.742,45.898,41.016,16.602,24.414
1532373444.421,11.719,45.410,38.574,15.137,31.250
1532373444.425,11.719,44.922,40.039,12.695,59.082
1532373444.429,12.207,45.898,45.410,15.137,62.988
1532373444.433,13.672,42.480,45.410,19.531,13.672
1532373444.437,17.090,42.969,44.922,19.531,-11.230
1532373444.440,16.602,44.922,48.340,15.137,43.457
1532373444.444,13.184,45.410,45.898,13.184,83.984
1532373444.448,14.648,41.992,42.969,12.695,53.711
1532373444.452,11.230,38.574,45.898,3.906,9.766
1532373444.456,6.348,38.086,42.969,2.930,1.953
1532373444.460,12.695,41.016,39.551,15.137,35.645
1532373444.464,16.113,41.992,42.969,19.043,32.715
1532373444.468,15.625,39.062,43.945,20.996,-17.578
1532373444.472,17.090,39.062,43.457,16.602,-12.695
1532373444.476,14.648,41.504,41.504,5.859,55.176
1532373444.480,17.578,43.945,41.504,2.441,60.547
1532373444.483,22.461,46.387,41.016,2.930,20.508
1532373444.487,29.297,46.387,46.387,8.789,39.062
1532373444.491,31.250,44.434,48.340,11.719,32.715
1532373444.495,23.926,41.016,40.527,6.348,4.883
1532373444.499,14.648,40.039,41.016,8.301,8.789
1532373444.503,6.836,40.039,43.945,15.137,-12.207
1532373444.507,2.441,37.598,43.457,19.531,31.250
1532373444.511,2.930,38.086,44.434,19.531,81.055
1532373444.515,2.930,39.551,44.434,14.160,0.000
1532373444.519,3.418,38.086,43.945,17.090,-32.715
1532373444.522,-0.488,35.645,46.387,15.137,38.086
1532373444.526,-6.836,35.645,43.945,7.812,71.777
1532373444.530,-2.441,39.551,43.945,-0.977,31.250
1532373444.534,0.488,37.109,47.363,-8.301,-5.859
1532373444.538,-2.930,38.086,46.875,-11.719,26.367
1532373444.542,-2.441,38.086,46.387,-21.973,78.125
1532373444.546,-2.441,37.109,40.039,-30.762,90.332
1532373444.550,-0.488,39.062,35.156,-30.273,39.551
1532373444.554,2.930,39.551,41.504,-30.273,30.762
1532373444.558,4.395,40.527,43.457,-28.320,49.805
1532373444.562,3.418,41.504,42.480,-28.809,59.570
1532373444.565,0.000,42.969,41.992,-35.156,35.156
1532373444.569,0.000,41.504,40.039,-31.738,38.574
1532373444.573,4.883,41.016,42.969,-30.762,36.133
1532373444.577,5.859,41.992,46.387,-33.691,22.461
1532373444.581,0.977,39.062,41.016,-36.133,32.715
1532373444.585,0.000,39.062,40.527,-35.645,35.156
1532373444.589,2.441,41.016,43.945,-31.250,55.176
1532373444.593,3.418,41.504,42.480,-23.438,67.383
1532373444.597,4.395,43.945,42.480,-17.090,47.852
1532373444.601,7.324,43.945,48.828,-7.812,8.301
1532373444.605,3.418,41.016,50.293,-9.277,0.000
1532373444.608,-0.488,39.551,48.828,-15.137,44.434
1532373444.612,2.441,39.551,50.293,-12.207,38.086
1532373444.616,1.953,41.016,49.805,-10.742,22.461
1532373444.620,1.953,43.457,48.828,-7.324,20.996
1532373444.624,7.324,46.387,51.758,0.977,30.273
1532373444.628,10.254,45.898,52.246,4.395,74.219
1532373444.632,7.324,43.945,49.805,0.977,27.832
1532373444.636,7.324,45.898,49.316,0.000,0.488
1532373444.640,6.348,47.852,47.852,-2.441,52.246
1532373444.644,5.371,48.340,50.293,-1.953,76.172
1532373444.647,7.324,48.828,55.664,1.953,78.613
1532373444.651,6.348,44.922,52.734,-1.465,27.832
1532373444.655,6.348,44.922,51.758,0.977,20.020
1532373444.659,6.836,49.316,50.781,4.883,41.992
1532373444.663,0.977,46.387,54.199,2.930,27.832
1532373444.667,-9.766,41.992,60.547,0.000,26.855
1532373444.671,-7.812,45.410,57.129,0.488,22.461
1532373444.675,0.000,45.898,53.223,3.906,57.129
1532373444.679,-7.324,44.922,55.664,0.977,72.754
1532373444.683,-12.207,47.852,57.129,-4.883,23.926
1532373444.687,-2.930,49.805,55.176,0.000,11.230
1532373444.690,-4.883,46.387,58.105,0.488,4.883
1532373444.694,-16.602,44.434,61.523,-3.906,20.996
1532373444.698,-19.043,41.504,59.082,-5.371,23.438
1532373444.702,-12.207,39.551,56.641,-1.953,8.789
1532373444.706,-7.812,46.387,54.688,-0.488,12.207
1532373444.710,-7.812,50.781,53.223,-9.277,21.973
1532373444.714,-10.254,48.340,53.711,-14.160,11.719
1532373444.718,-6.348,45.410,54.688,-10.254,6.348
1532373444.722,-0.488,46.387,59.082,-4.883,14.648
1532373444.726,2.930,45.410,57.617,-0.488,35.156
1532373444.729,2.930,41.504,53.223,0.488,14.160
1532373444.733,-0.488,42.480,54.688,-4.883,-32.227
1532373444.737,-6.348,41.016,61.523,-3.906,-25.391
1532373444.741,-5.859,37.109,62.988,1.953,31.738
1532373444.745,2.441,37.598,59.570,2.441,65.918
1532373444.749,4.883,40.527,56.152,0.977,16.113
1532373444.753,5.859,44.922,57.129,5.371,-4.883
1532373444.757,1.953,47.363,55.664,10.742,28.320
1532373444.761,2.441,43.945,57.617,13.672,30.762
1532373444.765,6.836,44.922,59.082,5.859,33.203
1532373444.769,8.789,47.363,58.105,1.953,14.160
1532373444.772,10.742,44.922,58.594,4.883,-6.836
1532373444.776,12.695,44.922,59.570,7.324,9.766
1532373444.780,13.672,41.016,58.105,7.812,30.273
1532373444.784,12.207,39.062,55.664,3.418,21.484
1532373444.788,9.277,38.086,56.641,4.883,36.621
1532373444.792,9.277,38.574,55.176,7.324,65.430
1532373444.796,11.719,41.016,53.711,8.789,61.035
1532373444.800,13.184,40.039,57.129,15.625,19.531
1532373444.804,15.625,41.016,55.664,15.137,17.090
1532373444.808,15.625,42.480,53.223,16.602,54.688
1532373444.812,20.020,43.457,57.129,21.484,51.758
1532373444.815,20.996,41.992,60.547,13.672,-20.020
1532373444.819,20.996,43.457,59.082,11.230,-19.531
1532373444.823,22.461,46.875,59.082,18.555,36.133
1532373444.827,18.066,42.969,57.617,17.578,58.105
1532373444.831,14.648,38.574,55.664,14.160,24.414
1532373444.835,14.648,40.527,62.988,16.602,-25.879
1532373444.839,16.602,42.969,60.059,16.113,18.555
1532373444.843,16.113,40.527,52.246,17.578,85.449
1532373444.847,15.625,43.945,52.734,20.996,59.082
1532373444.851,19.043,45.898,51.758,19.043,7.324
1532373444.854,20.020,43.457,53.711,18.066,21.973
1532373444.858,17.090,43.945,57.129,16.602,55.176
1532373444.862,12.695,42.969,55.176,10.254,79.102
1532373444.866,9.277,43.457,52.246,2.930,39.062
1532373444.870,5.859,43.457,49.805,-1.465,0.977
1532373444.874,8.301,41.016,46.875,-2.930,13.184
1532373444.878,7.324,41.504,47.363,-3.418,40.527
1532373444.882,2.441,40.039,45.410,-5.859,33.203
1532373444.886,1.953,41.504,44.434,-5.859,27.832
1532373444.890,8.789,42.969,45.898,1.465,47.363
1532373444.894,19.531,47.363,51.758,8.789,74.707
1532373444.897,22.949,50.293,57.617,12.695,60.059
1532373444.901,27.832,52.734,62.012,18.555,28.809
1532373444.905,30.273,57.129,65.918,21.484,44.922
1532373444.909,30.762,56.152,66.895,21.484,63.477
1532373444.913,37.109,57.129,70.801,24.902,22.461
1532373444.917,39.062,61.523,68.359,25.879,-8.301
1532373444.921,32.715,59.082,64.941,26.367,37.598
1532373444.925,39.062,59.082,74.219,35.156,65.918
1532373444.929,42.969,60.547,75.195,43.945,48.340
1532373444.933,39.551,57.617,71.777,45.898,-3.418
1532373444.936,36.621,58.105,74.707,43.457,2.441
1532373444.940,27.832,59.082,73.730,36.133,51.270
1532373444.944,27.344,60.059,73.730,33.203,73.730
1532373444.948,31.250,60.547,76.660,39.551,48.340
1532373444.952,31.738,57.617,75.195,37.109,3.906
1532373444.956,31.250,58.594,71.289,36.133,27.832
1532373444.960,31.738,57.617,74.219,39.062,65.430
1532373444.964,31.738,55.664,75.195,31.738,11.719
1532373444.968,28.809,58.105,73.242,25.391,-18.066
1532373444.972,26.367,59.082,75.684,27.832,5.859
1532373444.976,31.738,59.570,75.684,30.273,30.762
1532373444.979,31.738,58.594,72.754,29.785,55.176
1532373444.983,30.762,59.082,75.195,27.344,28.320
1532373444.987,33.203,62.988,81.055,25.879,26.367
1532373444.991,33.691,63.965,81.543,27.344,45.410
1532373444.995,32.715,64.453,78.125,28.320,23.438
1532373444.999,27.832,64.941,77.637,30.273,9.277
1532373445.003,27.832,62.988,76.172,30.273,13.672
1532373445.007,33.691,65.430,78.125,33.203,54.688
1532373445.011,35.645,65.430,80.078,34.668,63.965
1532373445.015,36.621,63.965,75.684,27.344,12.695
1532373445.019,37.109,65.918,72.754,25.879,11.719
1532373445.022,38.574,67.383,71.777,25.391,41.016
1532373445.026,43.457,67.871,81.055,25.879,67.383
1532373445.030,37.598,66.895,85.449,29.785,42.480
1532373445.034,26.855,65.430,77.148,24.414,-10.254
1532373445.038,21.973,64.453,73.242,23.438,-21.484
1532373445.042,21.973,63.965,76.172,27.344,32.227
1532373445.046,21.973,62.988,75.684,28.809,44.434
1532373445.050,21.973,59.082,69.336,26.855,-0.977
1532373445.054,22.949,55.664,70.801,26.367,-28.809
1532373445.058,23.926,59.082,71.777,24.414,16.602
1532373445.061,22.461,59.082,65.918,20.020,67.871
1532373445.065,16.113,54.199,63.965,14.648,48.828
1532373445.069,16.602,53.223,60.547,11.719,19.531
1532373445.073,16.113,52.246,57.617,8.301,-1.953
1532373445.077,15.625,52.734,57.617,6.348,29.785
1532373445.081,20.020,49.805,61.523,6.836,55.664
1532373445.085,21.973,46.875,61.523,7.324,13.184
1532373445.089,20.020,46.875,55.664,8.301,5.371
1532373445.093,20.508,47.363,55.176,9.766,26.367
1532373445.097,18.555,46.387,55.176,8.301,16.602
1532373445.101,17.578,45.898,50.293,6.836,4.883
1532373445.104,17.090,47.852,45.898,7.812,30.273
1532373445.108,17.090,46.875,49.316,15.625,69.824
1532373445.112,18.066,45.410,54.688,18.555,54.688
1532373445.116,13.184,38.574,53.223,11.230,18.555
1532373445.120,8.789,36.621,53.711,11.719,46.875
1532373445.124,9.766,40.039,53.711,17.090,84.473
1532373445.128,11.230,38.086,53.711,15.137,74.219
1532373445.132,5.859,35.156,51.270,8.789,38.574
1532373445.136,3.418,32.715,49.316,12.695,17.090
1532373445.140,8.301,33.691,50.781,14.648,29.785
1532373445.144,6.348,37.109,49.316,11.230,59.082
1532373445.147,5.371,38.086,50.781,10.254,62.012
1532373445.151,4.395,37.598,53.223,1.953,13.184
1532373445.155,2.441,38.086,54.199,-9.277,6.348
1532373445.159,7.324,39.551,52.734,-14.648,70.312
1532373445.163,9.766,37.598,49.316,-18.555,61.035
1532373445.167,11.719,35.645,47.363,-17.578,0.000
1532373445.171,13.184,39.551,49.316,-15.137,15.137
1532373445.175,13.184,40.039,52.734,-15.625,14.648
1532373445.179,11.719,37.598,53.711,-12.207,12.207
1532373445.183,4.395,34.668,44.922,-5.371,-16.602
1532373445.186,1.465,33.203,43.457,-1.465,-13.672
1532373445.190,0.000,34.180,46.387,-6.836,54.688
1532373445.194,0.000,35.645,44.922,-9.766,47.852
1532373445.198,5.371,35.645,47.363,0.000,30.762
1532373445.202,6.836,33.203,51.270,1.953,23.438
1532373445.206,6.348,33.691,50.781,-3.418,40.039
1532373445.210,7.812,37.109,46.875,-1.953,62.988
1532373445.214,9.766,37.109,50.293,2.930,32.715
1532373445.218,14.160,36.133,51.270,10.254,16.113
1532373445.222,16.113,37.598,47.363,17.578,50.781
1532373445.226,16.113,38.086,49.316,17.090,96.191
1532373445.229,12.695,36.133,49.805,12.695,47.363
1532373445.233,7.324,36.621,48.340,13.184,-14.648
1532373445.237,6.836,38.086,51.758,13.672,14.160
1532373445.241,14.160,39.062,56.641,20.020,69.336
1532373445.245,21.973,42.969,56.152,29.297,68.359
1532373445.249,21.484,42.480,50.781,27.344,4.883
1532373445.253,16.113,38.574,52.734,20.996,-9.766
1532373445.257,14.648,40.527,58.594,16.602,44.434
1532373445.261,16.602,44.434,61.035,18.555,59.570
1532373445.265,12.695,42.969,58.105,16.602,40.039
1532373445.268,12.695,43.457,52.246,14.648,1.465
1532373445.272,17.090,46.387,53.711,18.066,4.883
1532373445.276,18.066,44.434,59.570,19.531,42.480
1532373445.280,17.578,43.457,60.547,20.020,51.758
1532373445.284,16.113,43.945,59.082,23.438,24.414
1532373445.288,15.137,42.969,57.617,25.879,33.691
1532373445.292,17.090,43.457,58.594,20.996,39.551
1532373445.296,17.578,42.969,60.547,16.602,2.441
1532373445.300,17.578,40.039,62.500,18.555,-1.953
1532373445.304,15.137,38.574,60.547,19.531,11.230
1532373445.308,16.113,40.527,57.617,20.508,44.922
1532373445.311,20.020,40.527,57.617,20.996,64.453
1532373445.315,18.066,38.574,57.617,22.461,37.109
1532373445.319,24.902,37.598,56.641,22.461,11.230
1532373445.323,26.855,36.621,54.199,19.043,16.113
1532373445.327,21.973,39.062,52.246,19.043,36.621
1532373445.331,21.973,40.039,48.828,16.602,19.531
1532373445.335,24.414,39.062,55.664,19.531,-13.184
1532373445.339,29.785,43.457,61.035,29.785,0.000
1532373445.343,29.297,43.945,58.105,35.156,46.875
1532373445.347,26.367,40.039,57.617,33.203,67.383
1532373445.351,19.531,38.574,55.664,30.273,18.555
1532373445.354,12.695,39.062,53.223,20.996,-12.207
1532373445.358,12.695,40.039,56.641,16.113,21.973
1532373445.362,14.648,38.086,59.082,15.625,60.547
1532373445.366,18.555,39.062,59.082,19.043,31.738
1532373445.370,21.973,42.480,62.988,31.250,-12.695
1532373445.374,19.531,44.922,64.941,29.785,-7.324
1532373445.378,14.648,46.387,61.523,22.949,48.828
1532373445.382,17.578,45.410,64.453,25.879,43.457
1532373445.386,20.508,44.922,68.359,23.438,5.859
1532373445.390,19.043,45.410,62.988,20.996,22.461
1532373445.393,16.602,44.434,57.617,22.461,63.477
1532373445.397,18.555,43.945,65.430,27.832,54.688
1532373445.401,20.020,44.434,68.848,30.273,7.324
1532373445.405,19.043,45.410,66.895,24.902,17.578
1532373445.409,19.531,44.922,68.359,21.484,55.176
1532373445.413,14.160,43.945,66.895,21.484,52.246
1532373445.417,8.789,44.434,62.012,14.160,21.484
1532373445.421,9.277,40.039,61.035,14.160,28.320
1532373445.425,12.207,38.574,63.965,18.066,59.082
1532373445.429,11.230,41.504,66.895,22.461,56.641
1532373445.433,9.277,39.551,63.477,22.949,18.066
1532373445.436,13.672,36.621,66.895,25.391,7.812
1532373445.440,18.066,35.645,71.777,35.156,53.223
1532373445.444,19.531,40.527,65.430,27.344,98.633
1532373445.448,20.020,45.410,59.570,14.160,89.355
1532373445.452,18.555,45.410,61.035,9.277,37.109
1532373445.456,9.766,46.387,59.570,10.254,53.711
1532373445.460,8.789,46.875,57.617,2.441,71.289
1532373445.464,9.766,43.945,58.105,-0.977,5.859
1532373445.468,8.789,43.945,59.570,9.277,-9.277
1532373445.472,15.625,45.410,65.918,20.508,34.668
1532373445.475,19.531,44.434,68.359,28.320,47.363
1532373445.479,13.672,43.457,62.012,25.879,55.176
1532373445.483,7.812,40.039,62.500,18.066,35.156
1532373445.487,8.789,36.621,67.383,24.414,35.156
1532373445.491,13.184,40.527,70.801,31.250,64.453
1532373445.495,15.625,40.527,66.406,27.344,66.895
1532373445.499,17.090,40.527,61.035,21.973,27.344
1532373445.503,15.137,42.969,59.570,15.137,25.879
1532373445.507,11.230,41.016,57.129,10.254,63.477
1532373445.511,18.555,41.016,58.594,12.207,51.758
1532373445.515,21.484,40.039,59.082,10.742,-0.977
1532373445.518,17.090,38.574,54.688,16.602,-11.719
1532373445.522,21.484,42.480,57.617,25.391,22.461
1532373445.526,17.578,41.992,58.105,20.996,55.664
1532373445.530,14.648,39.062,54.199,18.555,41.504
1532373445.534,18.555,40.039,54.199,16.602,4.883
