timestamps,TP9,AF7,AF8,TP10,Right AUX
1532385673.909,54.688,32.227,53.223,52.734,92.773
1532385673.912,46.875,39.551,41.504,48.828,43.457
1532385673.916,43.457,33.203,48.340,43.457,-31.250
1532385673.920,46.875,53.711,50.781,37.598,-12.207
1532385673.924,37.598,49.316,51.270,35.156,69.336
1532385673.928,43.945,33.203,54.199,37.109,34.180
1532385673.932,51.758,39.551,56.641,36.621,-69.824
1532385673.936,48.340,40.527,59.082,40.039,-80.078
1532385673.940,45.410,39.551,52.734,43.457,9.277
1532385673.944,41.992,39.551,51.270,48.828,59.082
1532385673.948,48.340,34.668,57.129,57.129,4.395
1532385673.952,62.500,48.340,63.965,61.523,-54.199
1532385673.955,48.828,46.387,60.059,49.316,10.742
1532385673.959,36.621,36.621,50.781,43.945,72.754
1532385673.963,47.852,35.156,51.758,46.387,25.391
1532385673.967,41.504,35.156,50.293,47.363,-10.742
1532385673.971,51.270,34.180,41.992,53.223,-2.930
1532385673.975,49.805,43.945,43.945,47.852,80.566
1532385673.979,40.039,47.363,54.688,49.805,69.824
1532385673.983,43.945,38.086,62.500,51.758,-29.297
1532385673.987,36.621,41.992,54.688,39.062,-23.438
1532385673.991,46.387,39.062,59.082,41.016,31.250
1532385673.995,49.805,41.504,65.430,43.945,41.992
1532385673.998,41.016,48.828,53.711,34.668,-29.297
1532385674.002,36.621,35.645,45.410,29.785,-41.504
1532385674.006,35.156,34.180,48.340,34.668,38.574
1532385674.010,40.039,47.852,50.781,39.551,67.383
1532385674.014,36.621,48.828,43.457,34.180,14.648
1532385674.018,28.320,48.828,50.293,29.297,-13.184
1532385674.022,24.902,34.668,56.152,31.250,35.156
1532385674.026,34.180,32.715,54.199,33.691,86.426
1532385674.030,39.551,46.875,51.758,28.809,37.598
1532385674.034,51.270,35.156,58.105,33.203,-28.320
1532385674.037,46.875,35.645,60.059,33.203,-14.160
1532385674.041,22.949,54.688,46.387,22.949,67.871
1532385674.045,23.926,45.898,36.133,25.391,64.453
1532385674.049,27.344,21.484,29.297,25.391,-35.156
1532385674.053,24.902,30.273,38.574,20.996,7.324
1532385674.057,32.227,48.340,50.293,22.461,104.492
1532385674.061,53.223,48.828,50.293,30.762,91.797
1532385674.065,42.480,42.969,50.781,30.273,25.879
1532385674.069,45.898,30.762,55.664,25.879,-8.789
1532385674.073,60.547,23.926,53.223,27.832,56.641
1532385674.077,47.852,41.016,44.922,24.902,124.023
1532385674.080,47.363,58.594,46.875,23.438,64.453
1532385674.084,56.641,55.176,56.152,40.039,-0.488
1532385674.088,53.223,39.551,56.152,46.387,36.133
1532385674.092,42.480,21.484,47.852,38.574,79.102
1532385674.096,42.480,12.695,45.898,43.945,-0.488
1532385674.100,36.621,16.602,49.316,50.781,-85.938
1532385674.104,33.691,33.203,47.852,49.805,-33.203
1532385674.108,39.062,49.805,39.551,50.293,66.895
1532385674.112,40.039,44.434,40.527,47.852,44.922
1532385674.116,27.832,38.574,47.852,44.922,-45.410
1532385674.119,21.484,43.457,51.270,41.016,-41.504
1532385674.123,29.297,31.738,44.922,33.203,49.805
1532385674.127,26.367,20.020,43.945,36.621,71.777
1532385674.131,31.250,22.949,50.781,35.645,-27.832
1532385674.135,30.273,25.879,45.410,29.297,-50.293
1532385674.139,32.227,29.297,47.852,34.668,36.133
1532385674.143,34.668,37.109,53.711,37.109,104.492
1532385674.147,20.996,34.180,48.340,36.133,42.969
1532385674.151,28.809,25.879,45.898,40.039,-38.574
1532385674.155,33.203,30.762,48.828,38.574,22.461
1532385674.159,33.203,22.949,50.293,38.574,104.004
1532385674.162,35.645,11.719,40.527,44.922,44.922
1532385674.166,28.809,36.621,34.180,37.109,1.953
1532385674.170,34.668,50.293,44.922,36.133,19.043
1532385674.174,48.340,44.434,56.641,45.898,59.570
1532385674.178,32.227,41.016,44.922,38.086,75.684
1532385674.182,25.879,28.809,29.297,26.855,21.973
1532385674.186,27.344,18.555,32.227,24.414,10.742
1532385674.190,32.227,24.414,34.180,30.762,67.871
1532385674.194,31.738,22.461,31.250,33.691,111.328
1532385674.198,39.062,32.715,37.598,41.016,25.391
1532385674.202,49.805,41.016,42.480,45.898,-25.879
1532385674.205,35.645,42.480,32.715,30.273,44.434
1532385674.209,23.438,40.527,25.391,27.832,75.684
1532385674.213,24.414,32.227,29.785,31.250,38.574
1532385674.217,32.227,29.785,32.227,30.762,-32.227
1532385674.221,37.598,34.180,30.762,30.273,9.277
1532385674.225,34.180,24.902,28.809,20.996,113.770
1532385674.229,30.273,24.414,28.320,24.902,64.453
1532385674.233,40.039,37.109,25.879,27.344,-11.719
1532385674.237,49.805,41.992,20.508,25.879,20.508
1532385674.241,47.363,37.109,25.391,35.156,102.539
1532385674.244,36.133,35.156,35.156,36.133,112.305
1532385674.248,31.250,32.227,35.156,32.715,12.695
1532385674.252,38.574,26.367,28.320,35.645,-25.391
1532385674.256,53.711,32.227,31.738,41.016,83.008
1532385674.260,45.410,36.621,29.785,41.504,98.145
1532385674.264,23.926,28.809,13.672,31.250,15.137
1532385674.268,16.602,20.020,12.695,29.297,-13.184
1532385674.272,24.902,10.254,19.043,26.367,24.414
1532385674.276,39.551,19.043,16.602,31.250,88.379
1532385674.280,42.480,35.156,7.812,41.016,39.062
1532385674.284,33.203,36.133,5.371,35.156,-44.434
1532385674.287,35.156,41.016,9.766,30.762,-10.254
1532385674.291,54.199,43.457,15.137,34.180,66.895
1532385674.295,48.340,34.668,18.066,35.645,81.055
1532385674.299,35.156,39.062,17.090,33.691,21.484
1532385674.303,31.250,37.109,18.555,27.832,1.953
1532385674.307,38.574,33.691,23.438,34.668,73.730
1532385674.311,42.480,25.879,17.090,36.621,73.730
1532385674.315,38.086,26.367,6.836,25.391,-6.348
1532385674.319,29.785,23.926,0.977,24.414,-33.203
1532385674.323,24.902,10.742,-5.371,21.484,46.387
1532385674.327,33.691,21.973,-4.395,26.367,118.164
1532385674.330,32.227,40.039,4.395,33.691,42.480
1532385674.334,36.133,45.410,6.836,38.574,-42.969
1532385674.338,39.551,39.551,-0.488,34.180,-2.441
1532385674.342,32.227,35.156,-6.348,27.832,90.332
1532385674.346,34.668,34.668,-3.906,34.668,73.730
1532385674.350,28.809,36.133,-9.766,33.203,-17.090
1532385674.354,24.902,16.113,-13.184,26.855,1.465
1532385674.358,32.227,1.953,0.977,29.785,65.430
1532385674.362,35.645,13.672,6.836,28.809,52.734
1532385674.366,36.621,20.020,3.906,34.668,19.531
1532385674.369,35.645,39.062,-4.395,35.156,14.648
1532385674.373,30.273,53.223,-8.301,37.598,89.844
1532385674.377,19.043,46.387,-3.906,38.574,98.633
1532385674.381,21.484,42.969,3.418,35.645,27.344
1532385674.385,37.109,39.551,7.812,36.133,1.953
1532385674.389,31.250,31.250,0.488,33.691,58.105
1532385674.393,27.344,30.273,-2.441,29.785,101.074
1532385674.397,34.668,27.344,0.977,25.879,34.668
1532385674.401,26.367,27.832,1.953,30.762,-29.785
1532385674.405,30.273,34.180,0.977,33.203,22.461
1532385674.409,37.109,29.297,0.488,37.109,111.328
1532385674.412,33.203,22.949,3.418,35.156,35.645
1532385674.416,36.133,29.785,2.930,29.297,-67.383
1532385674.420,35.156,38.574,-0.977,35.156,-23.438
1532385674.424,39.062,37.598,6.836,43.945,71.777
1532385674.428,40.039,35.645,17.578,43.945,57.617
1532385674.432,29.785,35.645,10.742,35.645,-11.719
1532385674.436,29.785,35.645,0.977,31.250,-16.113
1532385674.440,33.203,36.133,-3.906,34.180,47.852
1532385674.444,45.898,40.039,3.418,46.875,70.312
1532385674.448,48.340,31.738,10.742,50.781,16.113
1532385674.452,39.551,28.809,10.742,42.480,-33.203
1532385674.455,56.641,45.410,15.137,46.387,-15.137
1532385674.459,56.152,38.574,8.789,51.270,71.289
1532385674.463,46.875,24.414,-1.953,47.852,54.688
1532385674.467,45.898,40.039,5.371,46.875,-11.230
1532385674.471,36.133,51.270,19.531,50.293,13.672
1532385674.475,30.762,41.016,14.648,47.363,80.566
1532385674.479,25.391,36.133,10.254,41.992,62.500
1532385674.483,31.738,26.367,12.695,41.992,-18.066
1532385674.487,41.992,21.484,13.184,38.574,0.977
1532385674.491,46.387,26.855,0.977,36.621,89.844
1532385674.494,49.805,30.762,-1.953,36.621,70.801
1532385674.498,52.734,33.691,9.277,46.875,-10.742
1532385674.502,37.109,33.691,13.184,51.270,-33.203
1532385674.506,28.809,46.875,9.766,47.363,62.500
1532385674.510,54.199,51.270,15.625,53.711,93.750
1532385674.514,59.082,41.992,16.602,54.199,-22.949
1532385674.518,33.691,37.109,5.371,42.480,-39.062
1532385674.522,37.109,37.109,-0.977,36.621,50.781
1532385674.526,40.527,38.086,0.977,34.668,99.609
1532385674.530,39.551,38.086,9.766,29.785,56.152
1532385674.534,41.992,35.645,9.766,35.645,-10.742
1532385674.537,38.086,35.156,3.906,42.480,6.836
1532385674.541,50.293,39.551,7.324,43.945,74.219
1532385674.545,58.105,43.945,14.648,50.293,61.523
1532385674.549,45.410,41.016,10.742,42.969,-11.719
1532385674.553,47.363,44.434,2.930,38.086,-19.043
1532385674.557,56.641,44.922,3.906,46.387,53.223
1532385674.561,48.828,46.875,3.418,40.039,74.219
1532385674.565,41.016,47.852,4.883,35.645,19.531
1532385674.569,35.156,36.621,8.789,37.109,-24.902
1532385674.573,46.875,37.598,3.906,37.598,21.484
1532385674.576,44.922,33.691,5.859,41.992,103.027
1532385674.580,45.410,24.902,8.301,52.734,39.551
1532385674.584,49.805,25.879,1.953,50.781,-22.461
1532385674.588,32.715,31.250,10.254,45.410,22.461
1532385674.592,28.809,46.387,12.695,37.109,48.828
1532385674.596,40.527,56.641,10.742,36.133,20.020
1532385674.600,46.875,43.945,15.137,46.387,-43.945
1532385674.604,40.039,40.527,11.230,39.551,-0.488
1532385674.608,43.945,32.227,7.812,35.156,114.746
1532385674.612,45.410,20.020,6.348,37.598,68.848
1532385674.616,36.621,33.691,5.371,35.645,-0.977
1532385674.619,30.273,35.156,7.324,27.832,-4.883
1532385674.623,31.250,15.137,8.301,26.855,40.527
1532385674.627,40.039,20.020,6.348,27.832,85.938
1532385674.631,38.574,35.156,4.395,26.367,-9.766
1532385674.635,40.527,39.062,3.418,32.715,-37.598
1532385674.639,47.363,48.340,6.836,41.504,69.824
1532385674.643,34.668,53.223,9.766,38.086,102.539
1532385674.647,34.668,45.410,5.371,34.668,23.438
1532385674.651,48.340,35.156,8.789,34.180,-39.062
1532385674.655,32.715,28.320,12.695,27.832,5.859
1532385674.659,27.344,26.367,11.230,33.691,81.055
1532385674.662,42.969,28.320,20.020,45.410,41.504
1532385674.666,42.480,19.531,20.020,35.156,-23.438
1532385674.670,29.297,18.555,13.672,34.668,-13.672
1532385674.674,25.391,36.133,13.184,36.621,62.012
1532385674.678,28.809,45.898,11.719,29.297,60.059
1532385674.682,28.320,36.133,13.672,26.367,-0.488
1532385674.686,25.879,35.156,20.020,27.832,0.000
1532385674.690,31.250,45.898,20.508,27.832,62.988
1532385674.694,26.855,45.410,7.812,14.160,67.383
1532385674.698,10.742,43.457,6.836,9.277,7.812
1532385674.701,17.090,25.391,11.719,19.043,-28.320
1532385674.705,24.414,19.043,13.184,25.879,57.129
1532385674.709,19.531,23.438,12.695,27.344,103.516
1532385674.713,15.625,35.156,7.324,23.926,13.184
1532385674.717,15.625,40.527,8.789,24.902,-44.434
1532385674.721,25.391,37.109,14.160,29.297,12.207
1532385674.725,38.086,34.668,12.695,35.156,78.125
1532385674.729,42.480,24.902,7.812,39.062,45.898
1532385674.733,41.016,30.762,19.531,38.574,-42.480
1532385674.737,38.086,24.902,20.996,34.668,-37.598
1532385674.741,26.855,18.066,7.812,24.414,70.801
1532385674.744,27.344,33.203,9.766,26.855,97.168
1532385674.748,41.504,36.133,19.531,38.574,-8.789
1532385674.752,44.434,13.184,22.949,39.062,-68.848
1532385674.756,30.273,23.926,10.742,31.738,37.109
1532385674.760,32.715,38.086,9.277,39.062,106.445
1532385674.764,42.969,34.180,19.531,41.504,44.922
1532385674.768,36.133,31.738,20.020,31.738,-20.996
1532385674.772,46.875,39.551,23.438,38.086,31.250
1532385674.776,48.340,43.945,21.484,41.504,82.031
1532385674.780,33.203,38.574,10.742,33.691,36.621
1532385674.784,40.527,35.156,13.672,30.273,-4.883
1532385674.787,58.105,26.855,7.812,30.273,27.344
1532385674.791,57.129,35.645,1.953,34.180,65.918
1532385674.795,44.434,38.574,17.090,26.855,38.086
1532385674.799,47.852,27.344,27.344,22.949,1.953
1532385674.803,46.387,39.062,21.973,23.926,10.742
1532385674.807,41.504,49.316,13.184,29.297,62.012
1532385674.811,42.969,31.250,12.207,33.203,59.082
1532385674.815,36.621,23.438,14.160,31.738,-2.930
1532385674.819,31.738,44.922,16.602,40.039,-26.367
1532385674.823,37.109,54.688,20.020,46.875,40.039
1532385674.826,34.180,35.645,23.438,43.945,108.398
1532385674.830,32.227,26.855,24.902,37.109,10.254
1532385674.834,31.738,37.598,20.996,31.250,-62.500
1532385674.838,19.531,29.297,17.090,32.227,35.645
1532385674.842,17.090,14.648,13.184,36.133,92.285
1532385674.846,24.414,33.203,14.160,27.832,39.062
1532385674.850,20.996,54.688,15.625,17.578,-9.277
1532385674.854,16.602,52.246,13.184,19.531,10.742
1532385674.858,20.996,47.852,13.184,20.020,75.684
1532385674.862,32.227,43.945,14.160,24.414,82.031
1532385674.866,51.758,34.668,17.578,31.250,-8.301
1532385674.869,45.898,39.062,21.484,31.250,-45.898
1532385674.873,30.273,31.738,18.555,24.902,24.414
1532385674.877,30.762,17.578,21.484,28.320,70.801
1532385674.881,26.367,30.762,22.949,32.227,20.508
1532385674.885,18.555,46.875,19.531,26.855,-20.020
1532385674.889,25.391,47.363,20.020,16.602,24.414
1532385674.893,26.855,49.316,19.043,20.508,74.219
1532385674.897,35.156,50.293,17.578,29.785,44.922
1532385674.901,45.410,22.461,19.531,28.320,-7.324
1532385674.905,36.133,15.625,19.043,30.762,29.785
1532385674.908,33.203,41.016,15.137,31.738,98.145
1532385674.912,39.062,48.340,18.066,35.156,33.691
1532385674.916,38.086,45.898,23.926,36.621,-35.645
1532385674.920,32.715,36.621,16.113,28.320,8.789
1532385674.924,39.551,28.320,9.766,20.996,79.102
1532385674.928,41.992,35.156,11.230,23.926,41.504
1532385674.932,29.297,48.828,10.254,28.320,-33.691
1532385674.936,27.832,47.852,4.395,29.785,-28.809
1532385674.940,32.227,42.480,10.254,34.180,65.430
1532385674.944,38.574,39.062,18.555,39.062,105.469
1532385674.948,40.527,31.738,22.461,44.434,31.250
1532385674.951,43.457,33.203,31.738,41.016,-24.902
1532385674.955,47.852,36.133,29.785,33.203,10.742
1532385674.959,40.039,37.109,18.555,30.273,89.355
1532385674.963,36.621,34.668,12.695,31.250,36.621
1532385674.967,39.062,28.320,16.602,32.715,-23.438
1532385674.971,40.527,40.039,22.461,33.203,9.277
1532385674.975,49.316,50.781,25.879,38.086,70.312
1532385674.979,53.223,41.016,30.762,41.016,91.309
1532385674.983,53.223,39.062,33.203,43.457,35.645
1532385674.987,44.434,39.062,25.391,41.992,15.625
1532385674.991,34.668,32.227,14.648,30.273,97.168
1532385674.994,46.875,37.109,10.254,35.156,105.957
1532385674.998,50.293,33.203,13.184,37.109,11.230
1532385675.002,34.180,36.133,19.043,26.855,-12.695
1532385675.006,33.203,33.203,16.113,34.180,46.875
1532385675.010,37.598,30.762,19.531,31.738,67.871
1532385675.014,39.062,31.250,29.297,25.391,0.000
1532385675.018,42.480,30.273,34.180,30.273,-44.434
1532385675.022,43.945,28.320,36.133,32.227,52.246
1532385675.026,29.297,33.203,34.668,30.273,127.930
1532385675.030,26.367,40.039,28.809,30.762,40.039
1532385675.033,38.574,39.062,26.855,34.180,-20.020
1532385675.037,45.898,46.387,30.762,37.598,13.184
1532385675.041,38.086,36.621,30.273,37.109,102.051
1532385675.045,29.785,11.230,31.738,30.762,79.590
1532385675.049,41.016,20.508,35.645,26.367,-50.781
1532385675.053,41.992,39.062,32.227,28.320,-70.312
1532385675.057,30.273,38.086,28.809,29.785,62.500
1532385675.061,32.715,33.203,31.738,28.320,94.238
1532385675.065,38.086,37.109,35.156,29.297,19.043
1532385675.069,32.715,47.363,37.598,31.250,-10.254
1532385675.073,36.621,52.734,43.945,36.133,26.367
1532385675.076,38.086,45.898,42.480,36.133,71.289
1532385675.080,37.598,25.879,34.668,28.320,43.945
1532385675.084,40.039,17.578,36.621,31.738,-26.855
1532385675.088,41.016,32.715,44.922,35.156,3.418
1532385675.092,31.250,44.922,45.410,32.227,72.754
1532385675.096,21.484,40.527,41.504,28.809,41.992
1532385675.100,38.086,37.598,45.410,29.297,-13.184
1532385675.104,40.527,31.738,47.852,34.180,2.930
1532385675.108,26.855,32.227,43.457,28.809,73.730
1532385675.112,19.043,41.504,45.898,17.090,14.160
1532385675.116,23.438,38.086,48.340,19.043,-61.523
1532385675.119,36.621,23.926,54.199,35.156,-19.043
1532385675.123,34.180,10.254,54.688,35.645,49.316
1532385675.127,24.902,28.320,50.781,28.320,89.844
1532385675.131,27.344,51.758,46.875,35.645,32.715
1532385675.135,18.066,51.758,43.945,34.668,-8.789
1532385675.139,21.484,44.922,51.758,26.367,50.293
1532385675.143,20.996,34.180,52.734,22.949,92.285
1532385675.147,17.090,21.484,48.828,20.996,47.363
1532385675.151,23.438,21.484,48.828,25.879,-40.039
1532385675.155,28.809,33.203,49.805,35.156,-12.695
1532385675.158,27.832,34.180,52.734,33.203,71.289
1532385675.162,31.250,30.762,58.594,35.156,42.480
1532385675.166,34.180,30.762,62.012,41.992,-20.508
1532385675.170,24.414,25.391,66.895,40.527,-12.207
1532385675.174,20.996,25.391,70.801,35.645,70.312
1532385675.178,20.508,38.086,55.664,27.344,71.777
1532385675.182,30.273,28.809,45.898,27.832,6.836
1532385675.186,30.762,13.184,47.852,25.879,-17.578
1532385675.190,30.762,26.367,45.410,21.973,50.293
1532385675.194,39.551,39.062,46.387,21.484,79.590
1532385675.198,28.320,36.133,51.758,20.996,2.441
1532385675.201,25.879,34.180,53.223,26.855,-41.016
1532385675.205,28.320,28.320,51.270,33.691,13.184
1532385675.209,19.043,20.508,48.340,37.598,53.223
1532385675.213,25.391,22.461,48.340,36.133,15.625
1532385675.217,22.949,33.691,50.293,33.203,-15.625
1532385675.221,26.855,44.922,53.223,35.156,9.277
1532385675.225,27.344,45.410,49.316,31.250,96.680
1532385675.229,14.160,38.086,47.363,23.926,68.359
1532385675.233,20.508,19.043,48.828,24.414,-25.879
1532385675.237,30.762,25.879,39.062,25.879,-11.230
1532385675.240,21.484,36.621,38.574,26.855,59.082
1532385675.244,17.578,30.273,48.340,34.180,85.938
1532385675.248,23.926,24.902,53.223,31.738,12.695
1532385675.252,31.250,22.461,52.734,26.367,-62.500
1532385675.256,33.691,28.320,52.734,29.785,-8.301
1532385675.260,29.785,32.227,46.875,31.738,75.195
1532385675.264,31.738,36.621,44.922,38.086,40.039
1532385675.268,28.320,30.762,52.246,35.645,-6.348
1532385675.272,40.527,31.738,59.570,37.598,42.969
1532385675.276,49.805,46.387,58.105,42.480,107.422
1532385675.280,38.086,40.039,50.781,34.668,62.988
1532385675.283,22.461,31.738,46.387,27.344,-31.250
1532385675.287,21.973,24.902,44.922,31.738,-25.391
1532385675.291,40.527,20.508,45.410,32.227,50.293
1532385675.295,38.574,27.832,46.387,25.879,66.406
1532385675.299,31.250,43.457,51.270,28.809,-10.742
1532385675.303,38.574,46.387,45.410,33.203,-37.109
1532385675.307,47.363,26.367,41.504,41.504,64.941
1532385675.311,61.035,33.691,50.293,50.781,96.680
1532385675.315,50.293,57.129,47.852,44.434,33.203
1532385675.319,28.320,41.992,38.574,31.738,-31.738
1532385675.323,20.020,32.715,42.480,26.367,8.301
1532385675.326,28.320,35.156,50.293,30.762,97.168
1532385675.330,34.180,30.762,52.246,35.156,26.367
1532385675.334,32.715,29.297,49.805,35.645,-44.434
1532385675.338,33.203,30.762,45.410,32.227,5.859
1532385675.342,28.320,37.109,46.875,32.227,80.078
1532385675.346,40.039,35.156,48.828,41.016,60.547
1532385675.350,50.293,34.668,47.852,39.551,-40.039
1532385675.354,40.527,43.945,42.480,31.250,-33.203
1532385675.358,34.668,47.852,41.016,34.668,79.590
1532385675.362,44.434,41.992,52.246,46.387,81.055
1532385675.365,38.086,36.621,53.223,44.434,-0.488
1532385675.369,34.180,27.344,47.852,35.156,-17.090
1532385675.373,41.504,36.133,47.363,33.691,68.848
1532385675.377,34.180,36.133,42.480,29.785,119.141
1532385675.381,30.273,22.949,37.109,30.273,15.625
1532385675.385,39.551,33.691,41.504,35.645,-54.688
1532385675.389,44.434,35.645,44.434,39.551,7.812
1532385675.393,37.598,29.297,37.109,37.598,70.801
1532385675.397,31.250,34.180,38.574,37.598,33.203
1532385675.401,30.273,29.297,41.016,31.250,-11.719
1532385675.405,37.598,27.832,45.898,40.527,32.227
1532385675.408,42.969,31.250,52.734,49.805,78.613
1532385675.412,29.785,25.391,47.363,30.762,31.250
1532385675.416,17.090,20.508,37.109,23.926,-7.812
1532385675.420,24.902,21.973,37.598,29.785,-1.465
1532385675.424,32.227,30.762,46.387,35.645,57.129
1532385675.428,25.391,21.973,49.316,37.109,68.848
1532385675.432,31.738,6.836,47.363,36.621,-19.043
1532385675.436,41.992,17.090,42.480,33.691,-52.734
1532385675.440,25.879,36.621,37.109,30.273,34.180
1532385675.444,19.531,23.926,38.574,31.738,112.793
1532385675.448,44.922,13.672,45.410,36.621,49.805
1532385675.451,49.316,22.949,50.293,41.992,-27.344
1532385675.455,35.645,23.926,41.504,40.039,35.156
1532385675.459,33.691,24.902,33.203,34.668,104.492
1532385675.463,28.320,32.227,40.527,36.621,44.434
1532385675.467,32.227,33.691,48.340,35.645,-27.832
1532385675.471,36.621,22.461,47.852,25.879,-4.395
1532385675.475,35.645,21.484,43.457,21.484,77.637
1532385675.479,31.738,24.414,41.016,27.344,60.547
1532385675.483,34.180,24.902,48.340,33.691,-41.016
1532385675.487,29.297,20.020,48.340,33.691,-41.016
1532385675.490,33.691,19.531,41.992,41.016,49.316
1532385675.494,48.828,23.438,47.852,42.969,52.734
1532385675.498,39.551,20.508,44.434,29.785,8.789
1532385675.502,32.227,21.973,37.109,28.320,-12.207
1532385675.506,36.621,18.066,33.691,27.344,33.203
1532385675.510,38.086,29.785,38.574,28.320,62.012
1532385675.514,53.711,36.621,43.945,33.203,12.207
1532385675.518,52.734,37.598,42.969,26.855,-32.227
1532385675.522,38.086,41.504,43.457,15.625,6.348
1532385675.526,45.898,35.645,40.527,7.812,72.266
1532385675.530,49.316,26.855,39.551,13.184,41.016
1532385675.533,43.945,30.762,41.016,26.367,-31.250
1532385675.537,44.434,43.945,44.434,35.156,-17.090
1532385675.541,43.457,28.320,43.945,37.109,51.758
1532385675.545,32.227,17.090,38.574,38.574,47.852
1532385675.549,20.996,22.949,43.457,34.180,-4.395
1532385675.553,19.043,19.531,49.316,35.156,-8.789
1532385675.557,24.902,21.973,46.875,34.668,65.430
1532385675.561,26.367,34.668,44.434,36.621,89.355
1532385675.565,31.250,35.156,45.898,43.457,12.695
1532385675.569,38.574,30.273,46.875,43.945,-24.414
1532385675.573,34.668,33.203,47.852,38.574,45.898
1532385675.576,31.250,35.156,48.340,32.715,104.492
1532385675.580,33.203,34.668,50.781,31.738,43.457
1532385675.584,33.203,36.621,44.434,34.180,-17.578
1532385675.588,39.062,28.809,39.062,38.574,4.395
1532385675.592,41.016,31.250,47.852,32.715,66.406
1532385675.596,34.668,40.527,50.781,32.715,49.316
1532385675.600,34.668,16.602,42.969,39.062,-20.020
1532385675.604,36.621,5.859,36.133,34.180,-8.789
1532385675.608,37.598,35.645,40.527,31.250,84.961
1532385675.612,34.668,53.223,51.270,36.621,78.613
1532385675.615,32.227,46.875,46.875,43.457,0.000
1532385675.619,39.551,43.945,37.598,41.504,-26.367
1532385675.623,36.133,41.504,47.363,42.969,53.711
1532385675.627,39.551,31.250,50.781,43.945,81.055
1532385675.631,38.574,33.691,41.504,32.227,-28.809
1532385675.635,25.879,32.227,37.109,29.785,-79.102
1532385675.639,32.227,20.020,40.039,31.738,2.441
1532385675.643,41.016,28.320,44.922,31.250,84.473
1532385675.647,48.340,40.039,41.016,35.645,38.574
1532385675.651,44.922,39.551,31.250,32.715,-34.180
1532385675.655,37.598,36.621,37.109,28.809,5.859
1532385675.658,31.738,38.574,49.805,28.809,76.172
1532385675.662,32.227,43.457,49.805,28.809,33.691
1532385675.666,30.762,39.062,45.410,31.250,-32.227
1532385675.670,23.438,27.344,51.270,35.156,-21.973
1532385675.674,28.320,28.809,49.316,39.062,47.363
1532385675.678,29.785,56.152,41.504,39.062,76.660
1532385675.682,31.738,60.547,43.945,37.598,2.441
1532385675.686,31.738,40.527,41.992,31.738,-15.137
1532385675.690,44.434,36.133,41.016,36.133,53.223
1532385675.694,49.316,30.273,43.945,42.969,59.082
1532385675.697,45.410,28.320,45.410,36.621,5.371
1532385675.701,38.574,30.762,43.945,31.738,-25.879
1532385675.705,32.715,35.156,41.504,34.180,19.531
1532385675.709,33.203,48.340,42.969,30.273,79.102
1532385675.713,34.668,50.293,41.992,30.762,45.410
1532385675.717,42.969,42.969,47.363,45.410,-13.672
1532385675.721,59.082,51.270,51.758,52.734,-6.836
1532385675.725,50.781,53.223,41.016,38.574,54.688
1532385675.729,42.480,38.086,45.410,36.133,30.273
1532385675.733,50.293,39.551,56.152,35.645,-32.715
1532385675.737,44.922,35.156,54.688,32.715,-34.668
1532385675.740,36.133,32.227,47.363,38.574,54.199
1532385675.744,44.434,44.434,47.363,38.574,90.820
1532385675.748,44.922,38.574,48.828,37.598,17.578
1532385675.752,41.504,43.945,44.434,41.016,-27.832
1532385675.756,39.551,50.781,44.922,44.434,33.203
1532385675.760,47.852,48.828,49.316,47.363,103.516
1532385675.764,56.152,49.316,50.781,49.805,38.574
1532385675.768,48.340,32.715,47.852,42.480,-9.766
1532385675.772,38.574,27.344,44.434,35.156,24.902
1532385675.776,30.273,38.086,46.387,31.738,89.844
1532385675.780,33.203,39.551,48.828,29.785,74.707
1532385675.783,40.527,39.062,41.992,27.344,6.348
1532385675.787,32.715,36.133,39.062,32.715,-2.930
1532385675.791,17.578,33.203,40.527,33.691,64.453
1532385675.795,25.391,33.691,39.551,25.391,77.148
1532385675.799,34.180,37.598,41.992,30.273,-9.277
1532385675.803,34.180,41.504,45.410,34.668,-42.480
1532385675.807,42.969,29.297,48.828,37.598,74.219
1532385675.811,39.551,38.574,55.176,40.527,99.121
1532385675.815,32.227,54.199,49.805,39.062,6.348
1532385675.819,34.668,43.945,38.086,34.668,-17.090
1532385675.822,29.297,32.715,40.527,30.762,32.715
1532385675.826,19.531,28.320,41.016,30.762,114.746
1532385675.830,27.344,26.855,41.016,33.691,66.895
1532385675.834,40.527,24.414,42.969,34.668,-19.043
1532385675.838,31.250,35.645,44.922,40.039,18.555
1532385675.842,23.926,23.926,44.434,39.551,91.309
1532385675.846,28.320,17.578,47.363,38.086,74.219
1532385675.850,25.391,44.434,51.758,35.645,12.695
1532385675.854,28.320,41.992,51.270,30.762,22.949
1532385675.858,39.551,40.039,50.781,40.527,94.238
1532385675.862,28.320,29.785,44.434,39.062,70.801
1532385675.865,15.625,13.672,41.016,30.273,-9.766
1532385675.869,18.555,41.992,36.133,19.531,-36.621
1532385675.873,29.297,59.570,33.203,16.113,12.695
1532385675.877,33.203,28.809,39.062,19.531,82.520
1532385675.881,23.926,5.371,52.246,23.926,34.180
1532385675.885,21.484,14.648,54.199,30.273,-12.695
1532385675.889,22.949,38.574,47.363,30.762,41.504
1532385675.893,21.484,49.316,45.898,30.273,79.590
1532385675.897,20.508,40.039,43.945,26.855,54.688
1532385675.901,26.855,34.668,46.875,31.738,-19.531
1532385675.905,33.691,42.969,53.223,36.133,17.578
1532385675.908,31.738,41.992,48.340,31.738,118.652
1532385675.912,24.414,34.668,44.434,27.344,59.082
1532385675.916,23.438,19.531,40.527,27.832,-8.301
1532385675.920,32.227,20.508,38.086,29.297,-9.277
1532385675.924,25.879,31.250,40.039,27.832,65.430
1532385675.928,20.508,16.113,36.133,33.203,80.566
1532385675.932,29.785,11.719,33.691,34.180,-5.859
1532385675.936,30.273,35.645,37.109,30.762,-8.789
1532385675.940,32.715,50.293,35.645,35.645,51.758
1532385675.944,31.250,47.852,32.227,34.668,79.590
1532385675.947,35.156,40.039,32.227,31.250,22.949
1532385675.951,45.410,35.645,32.715,37.598,-57.129
1532385675.955,40.527,33.691,30.762,43.457,10.254
1532385675.959,32.227,31.250,25.391,37.109,115.234
1532385675.963,26.367,32.715,22.461,24.902,50.781
1532385675.967,24.902,23.926,25.391,25.879,-7.812
1532385675.971,28.809,7.324,24.414,29.785,23.926
1532385675.975,31.738,20.996,20.020,25.879,101.074
1532385675.979,35.156,54.199,16.602,20.508,97.168
1532385675.983,28.320,45.898,13.672,19.531,23.926
1532385675.987,30.273,39.551,19.531,27.344,9.277
1532385675.990,37.598,38.574,16.113,23.926,79.590
1532385675.994,25.391,28.320,6.836,20.508,91.797
1532385675.998,21.484,31.250,11.719,23.926,-5.371
1532385676.002,25.879,21.973,17.578,22.461,-30.273
1532385676.006,26.855,23.438,19.531,25.391,58.105
1532385676.010,27.832,32.715,19.531,22.949,109.375
1532385676.014,23.926,47.363,22.949,24.414,39.551
1532385676.018,24.414,51.270,16.602,28.809,-12.207
1532385676.022,17.090,47.852,5.859,25.879,42.480
1532385676.026,20.508,42.480,11.230,27.832,101.562
1532385676.029,31.250,38.086,19.043,32.715,53.711
1532385676.033,35.645,33.691,25.879,34.668,-12.695
1532385676.037,38.574,22.461,27.832,31.250,3.418
1532385676.041,25.879,25.391,17.090,27.832,70.801
1532385676.045,30.273,30.762,12.695,31.738,89.844
1532385676.049,39.551,24.414,20.020,32.227,-1.953
1532385676.053,32.715,23.438,19.531,30.762,-57.617
1532385676.057,32.227,30.762,18.555,33.203,44.434
1532385676.061,32.715,41.504,14.160,32.715,82.520
1532385676.065,36.621,43.457,12.207,36.133,30.273
1532385676.069,41.504,40.527,20.996,41.992,-10.254
1532385676.072,46.875,37.109,23.438,39.551,20.508
1532385676.076,35.156,34.180,14.648,30.762,85.449
1532385676.080,29.785,31.250,13.184,32.715,38.086
1532385676.084,39.551,23.926,13.672,34.180,-25.879
1532385676.088,39.551,11.719,9.766,35.645,8.301
1532385676.092,40.527,18.066,12.207,33.203,75.195
1532385676.096,34.180,30.762,17.090,28.809,50.781
1532385676.100,32.715,21.484,20.020,29.785,-17.090
1532385676.104,36.621,18.555,17.578,23.438,-10.254
1532385676.108,42.969,29.297,9.766,22.461,69.336
1532385676.112,59.570,49.805,12.207,29.297,85.938
1532385676.115,47.363,40.527,25.391,34.180,4.883
1532385676.119,30.762,31.738,32.715,46.387,-24.414
1532385676.123,43.945,29.297,25.879,48.828,41.992
1532385676.127,41.504,11.230,18.555,39.551,70.801
1532385676.131,33.203,30.762,14.648,28.320,18.555
1532385676.135,30.273,45.410,8.301,25.879,-28.320
1532385676.139,33.691,30.762,10.742,29.785,33.203
1532385676.143,40.527,23.438,10.254,29.785,100.098
1532385676.147,44.922,30.762,9.277,35.645,60.059
1532385676.151,44.922,50.781,11.719,37.109,-60.059
1532385676.154,36.133,44.434,14.648,28.320,-54.199
1532385676.158,34.668,26.855,25.391,34.180,51.270
1532385676.162,28.320,15.625,25.879,40.039,60.059
1532385676.166,29.785,23.926,22.949,41.504,-30.762
1532385676.170,33.691,19.531,24.414,40.039,-79.590
1532385676.174,25.391,3.418,14.648,24.902,25.391
1532385676.178,18.555,23.438,7.324,15.137,62.012
1532385676.182,22.949,28.809,7.324,19.043,-0.977
1532385676.186,25.391,26.855,10.254,25.391,1.465
1532385676.190,27.832,17.090,16.113,32.227,48.340
1532385676.194,41.016,21.973,16.602,38.086,86.426
1532385676.197,42.969,52.734,20.020,42.969,46.387
1532385676.201,34.180,52.734,20.020,38.086,-12.695
1532385676.205,37.109,30.273,15.137,29.785,33.691
1532385676.209,35.156,14.648,20.996,32.227,92.773
1532385676.213,29.785,17.578,16.113,29.297,45.410
1532385676.217,26.367,28.809,6.348,23.438,-1.465
1532385676.221,23.926,28.809,8.301,22.949,28.809
1532385676.225,22.949,18.066,14.160,28.320,99.121
1532385676.229,35.645,14.160,17.090,33.203,78.125
1532385676.233,48.828,28.320,14.648,37.109,-5.859
1532385676.237,35.645,39.062,10.254,37.598,-10.254
1532385676.240,27.832,32.227,11.719,34.668,38.574
1532385676.244,33.691,24.902,10.254,30.273,93.262
1532385676.248,36.133,16.602,8.789,30.762,30.273
1532385676.252,50.781,7.812,15.625,37.109,-71.777
1532385676.256,41.016,17.578,11.719,25.879,7.812
1532385676.260,24.902,16.602,9.277,23.438,104.492
1532385676.264,30.762,12.695,15.625,26.367,63.477
1532385676.268,33.203,14.648,16.113,22.949,-6.836
1532385676.272,47.363,20.996,21.973,30.273,13.672
1532385676.276,67.871,36.133,25.391,32.715,109.375
1532385676.279,63.477,29.297,20.996,23.438,82.031
1532385676.283,49.316,22.461,20.020,25.879,-10.742
1532385676.287,51.758,25.391,18.555,37.598,-2.930
1532385676.291,45.410,19.531,20.508,35.645,58.105
1532385676.295,31.250,9.277,23.926,36.133,53.223
1532385676.299,35.645,24.414,29.785,52.734,-28.320
1532385676.303,37.598,40.039,37.598,63.477,-21.973
1532385676.307,25.391,20.508,34.668,50.781,67.383
1532385676.311,27.344,3.418,32.715,46.875,71.289
1532385676.315,28.320,10.254,30.762,48.828,-2.441
1532385676.319,22.949,17.090,24.902,36.133,-40.527
1532385676.322,22.461,11.719,24.902,30.762,41.016
1532385676.326,31.250,6.348,25.391,34.180,99.121
1532385676.330,25.391,22.461,19.531,30.273,20.020
1532385676.334,25.879,29.297,21.484,27.832,-50.293
1532385676.338,28.320,24.414,26.367,36.133,-5.371
1532385676.342,21.484,33.691,26.855,34.180,83.984
1532385676.346,29.785,31.738,28.809,26.367,68.359
1532385676.350,40.039,17.578,35.645,30.273,-12.695
1532385676.354,34.668,18.066,34.668,29.785,-11.230
1532385676.358,21.973,30.762,25.391,26.855,83.984
1532385676.362,21.973,19.043,17.578,31.738,96.680
1532385676.365,28.809,13.184,15.137,31.250,9.277
1532385676.369,36.133,1.465,29.785,30.762,-6.836
1532385676.373,38.086,15.137,29.297,27.832,59.082
1532385676.377,27.832,43.457,18.555,25.879,94.727
1532385676.381,25.391,41.992,32.715,35.156,45.410
1532385676.385,33.203,35.156,41.016,39.551,-11.230
1532385676.389,36.621,29.785,34.668,33.203,14.160
1532385676.393,21.484,33.691,34.180,27.344,85.449
1532385676.397,30.273,31.738,32.715,30.762,57.129
1532385676.401,48.340,14.648,39.062,34.668,-11.719
1532385676.404,39.062,7.812,42.969,37.109,23.926
1532385676.408,29.785,33.691,30.762,35.645,103.516
1532385676.412,31.250,49.316,26.367,27.832,76.660
1532385676.416,41.504,31.738,38.086,33.203,11.719
1532385676.420,41.016,24.414,40.527,39.062,3.418
1532385676.424,47.852,33.203,41.504,41.016,84.473
1532385676.428,51.270,29.297,39.062,44.922,99.121
1532385676.432,45.410,29.785,32.715,41.504,-7.324
1532385676.436,46.875,38.574,37.109,35.156,-41.992
1532385676.440,38.086,27.832,31.738,24.902,53.711
1532385676.444,34.668,17.578,28.320,25.391,100.586
1532385676.447,34.180,20.996,34.180,22.949,15.625
1532385676.451,31.250,26.855,36.621,23.438,-57.129
1532385676.455,27.344,22.949,39.551,25.879,0.488
1532385676.459,29.297,25.879,38.574,22.949,86.426
1532385676.463,32.715,38.574,35.156,25.879,56.641
1532385676.467,36.621,31.250,36.133,28.320,-10.742
1532385676.471,35.156,12.695,34.180,20.508,-24.902
1532385676.475,32.227,20.508,31.250,20.996,50.781
1532385676.479,37.109,26.855,30.273,31.738,74.219
1532385676.483,40.039,25.391,25.879,26.855,0.000
1532385676.486,35.645,16.113,31.738,23.926,-29.785
1532385676.490,30.273,10.254,35.156,26.367,37.109
1532385676.494,20.508,25.879,31.250,21.484,66.406
1532385676.498,20.508,27.344,33.203,16.602,15.625
1532385676.502,28.809,31.250,36.621,18.066,-31.250
1532385676.506,33.691,26.855,38.086,20.996,20.508
1532385676.510,40.527,9.277,39.062,23.438,83.008
1532385676.514,32.227,11.719,41.016,20.020,22.949
1532385676.518,26.855,23.926,45.410,23.438,-36.133
1532385676.522,34.180,34.180,47.363,29.785,4.883
1532385676.526,25.879,34.180,42.969,23.926,84.961
1532385676.529,17.090,23.926,38.086,20.020,44.922
1532385676.533,19.531,19.531,35.645,16.113,-33.691
1532385676.537,20.996,21.484,31.250,18.066,-20.020
1532385676.541,26.855,16.602,37.109,24.902,55.664
1532385676.545,28.320,15.137,42.969,28.809,68.848
1532385676.549,15.625,18.555,43.457,28.809,-8.789
1532385676.553,18.066,23.926,46.875,30.762,-34.180
1532385676.557,27.344,26.367,45.410,28.320,35.156
1532385676.561,35.156,23.926,46.387,30.273,87.402
1532385676.565,32.715,25.391,52.734,33.691,42.969
1532385676.569,20.020,25.391,45.410,28.809,-20.020
1532385676.572,19.531,31.738,36.133,23.926,-3.418
1532385676.576,21.973,29.785,41.992,21.484,80.078
1532385676.580,20.508,24.414,47.363,22.949,59.570
1532385676.584,28.809,25.391,50.293,27.344,-29.785
1532385676.588,38.086,30.762,46.875,26.367,-23.438
1532385676.592,23.926,34.180,35.156,13.672,70.312
1532385676.596,17.090,31.738,37.598,12.207,81.543
1532385676.600,20.508,21.973,39.551,17.578,-22.461
1532385676.604,14.648,5.371,44.434,20.508,-41.016
1532385676.608,17.090,13.672,46.387,21.484,59.570
1532385676.611,16.113,31.738,38.574,9.766,69.824
1532385676.615,15.137,26.855,39.551,4.883,-11.230
1532385676.619,14.648,13.672,42.480,11.719,-29.297
1532385676.623,20.996,9.766,41.504,18.555,43.945
1532385676.627,19.043,23.926,36.621,22.949,93.262
1532385676.631,17.090,29.785,38.574,19.043,38.086
1532385676.635,30.273,9.766,44.922,23.926,-17.090
1532385676.639,25.391,0.977,42.480,21.484,22.949
1532385676.643,25.391,11.230,40.527,15.625,88.379
1532385676.647,32.715,32.715,39.551,23.438,50.293
1532385676.651,20.508,37.109,37.598,19.531,-21.484
1532385676.654,18.066,19.531,40.527,11.230,-8.789
1532385676.658,18.555,20.020,35.156,14.648,93.750
1532385676.662,10.742,22.461,28.809,14.160,90.820
1532385676.666,13.184,15.625,36.621,14.160,0.977
1532385676.670,15.625,18.555,41.504,21.973,-17.090
1532385676.674,11.719,18.555,37.598,20.020,65.918
1532385676.678,19.043,11.230,30.762,14.160,113.770
1532385676.682,30.762,3.906,33.691,18.555,42.969
1532385676.686,16.113,2.441,36.133,17.090,-8.301
1532385676.690,10.742,21.484,33.203,12.207,32.227
1532385676.694,22.949,36.133,35.645,21.973,69.824
1532385676.697,28.320,35.156,44.434,34.180,33.203
1532385676.701,22.949,20.020,36.133,29.785,-25.391
1532385676.705,15.625,3.418,21.973,17.090,17.090
1532385676.709,17.090,11.230,26.855,17.090,79.102
1532385676.713,22.461,9.766,33.691,20.508,13.672
1532385676.717,22.461,3.906,33.691,22.461,-26.367
1532385676.721,20.020,15.137,31.738,25.391,5.859
1532385676.725,25.391,8.301,37.598,16.602,68.848
1532385676.729,26.367,18.066,33.691,13.672,80.566
1532385676.733,20.996,37.109,30.273,18.555,32.715
1532385676.736,20.508,26.367,29.297,16.602,9.766
1532385676.740,28.320,20.020,33.691,23.926,52.246
1532385676.744,33.691,20.996,41.992,27.832,75.195
1532385676.748,32.227,18.066,34.180,13.184,17.578
1532385676.752,15.625,14.160,35.156,13.672,-34.180
1532385676.756,23.926,2.441,38.574,25.879,38.574
1532385676.760,29.297,9.766,37.598,28.809,87.891
1532385676.764,16.113,20.508,33.203,23.926,11.230
1532385676.768,20.020,15.137,31.738,16.113,-47.852
1532385676.772,22.949,13.672,36.133,12.695,-36.133
1532385676.776,27.832,25.879,33.203,20.996,75.195
1532385676.779,40.039,39.062,35.645,29.297,90.820
1532385676.783,40.039,39.551,39.062,32.227,-33.691
1532385676.787,26.855,26.855,28.809,33.203,-50.293
1532385676.791,21.484,9.277,26.367,23.926,43.457
1532385676.795,23.926,0.488,37.598,26.855,59.570
1532385676.799,25.879,-2.930,35.156,35.645,5.859
1532385676.803,20.020,-9.766,33.203,22.949,-41.016
1532385676.807,24.414,11.719,28.809,21.973,32.715
1532385676.811,28.320,32.227,23.926,25.391,109.863
1532385676.815,24.902,27.832,24.414,22.461,45.410
1532385676.818,26.367,35.645,25.879,19.531,-3.418
1532385676.822,25.391,32.227,35.645,20.020,38.574
1532385676.826,37.598,27.344,41.016,27.832,98.145
1532385676.830,29.297,14.160,39.062,23.438,31.250
1532385676.834,22.949,0.977,41.504,26.367,-25.879
1532385676.838,24.902,11.719,35.645,26.367,21.484
1532385676.842,22.949,21.484,23.926,20.020,95.215
1532385676.846,19.531,24.414,20.020,20.996,79.590
1532385676.850,20.020,20.996,26.367,19.043,-23.926
1532385676.854,30.273,7.324,36.621,21.973,-29.785
1532385676.858,27.344,9.277,39.551,28.809,62.988
1532385676.861,24.902,24.414,36.621,29.297,102.539
1532385676.865,41.992,22.461,36.133,26.367,1.465
1532385676.869,44.434,24.902,37.109,20.996,-61.523
1532385676.873,31.250,33.691,37.109,25.391,46.387
1532385676.877,42.969,41.504,36.621,33.691,121.582
1532385676.881,35.156,29.297,29.785,27.344,37.598
1532385676.885,22.949,5.859,29.297,26.855,-25.879
1532385676.889,26.855,10.742,28.320,23.438,25.391
1532385676.893,20.996,24.414,27.832,17.578,84.473
1532385676.897,27.344,14.160,33.691,22.949,63.965
1532385676.901,33.203,24.414,28.809,25.879,-25.879
1532385676.904,19.531,37.598,26.367,23.438,-24.902
1532385676.908,16.602,25.879,28.809,20.508,71.289
1532385676.912,26.855,29.785,34.180,21.484,59.082
1532385676.916,17.578,27.832,38.574,18.066,-1.465
1532385676.920,6.348,17.578,34.180,11.230,-0.488
1532385676.924,10.254,15.625,26.855,12.207,72.266
1532385676.928,10.254,20.508,25.879,17.090,89.355
1532385676.932,31.250,19.043,32.715,22.949,-4.883
1532385676.936,34.668,13.184,36.133,24.902,-46.387
1532385676.940,9.277,7.812,33.691,21.484,30.762
1532385676.943,8.789,15.625,32.715,21.973,120.117
1532385676.947,13.672,35.156,34.180,18.066,68.359
1532385676.951,18.555,31.250,35.645,17.578,-45.410
1532385676.955,20.996,21.484,39.062,24.414,6.836
1532385676.959,27.344,12.207,40.527,27.344,101.562
1532385676.963,24.414,13.184,36.621,29.785,51.270
1532385676.967,17.578,20.996,24.414,23.926,-25.391
1532385676.971,17.090,28.320,25.879,16.602,-11.230
1532385676.975,17.090,18.066,37.598,18.555,62.012
1532385676.979,14.160,2.441,35.156,17.578,68.848
1532385676.983,9.277,15.137,26.855,11.719,-6.836
1532385676.986,14.648,18.555,33.203,15.137,-19.043
1532385676.990,25.391,16.113,37.109,14.160,41.016
1532385676.994,16.602,26.367,33.691,16.602,65.918
1532385676.998,20.020,35.156,33.203,23.438,24.902
1532385677.002,29.297,31.250,28.809,21.484,-34.180
1532385677.006,25.879,25.879,39.551,23.438,27.832
1532385677.010,39.062,25.879,47.363,30.762,76.172
1532385677.014,44.434,14.160,36.621,21.973,26.855
1532385677.018,24.902,17.578,29.785,17.578,-25.391
1532385677.022,20.996,28.320,26.855,13.184,-7.324
1532385677.026,30.762,27.344,31.738,15.625,83.008
1532385677.029,31.738,21.484,32.715,11.230,64.453
1532385677.033,43.945,19.531,28.320,3.906,-17.578
1532385677.037,62.500,22.461,30.273,16.602,10.742
1532385677.041,55.664,22.949,32.227,25.391,63.965
1532385677.045,48.828,31.250,30.762,27.344,64.941
1532385677.049,42.969,27.832,31.250,24.414,18.066
1532385677.053,34.668,17.578,33.691,24.902,-7.812
1532385677.057,34.180,24.414,26.855,26.855,37.598
1532385677.061,19.043,29.297,30.273,29.297,81.543
1532385677.065,13.184,30.273,36.621,36.133,30.273
1532385677.068,10.742,17.578,36.133,36.621,-47.363
1532385677.072,9.277,8.789,32.715,26.367,-7.812
1532385677.076,23.438,33.203,30.273,22.949,88.379
1532385677.080,25.879,47.852,34.180,23.438,54.199
1532385677.084,15.137,37.109,39.551,26.855,-31.250
1532385677.088,27.832,25.879,43.457,38.574,-19.043
1532385677.092,31.250,20.996,38.086,29.785,68.848
1532385677.096,25.879,27.832,34.668,20.020,67.383
1532385677.100,36.621,39.062,40.039,23.926,-32.227
1532385677.104,35.645,27.832,40.527,25.391,-19.043
1532385677.108,22.461,23.438,31.250,18.066,75.684
1532385677.111,20.996,34.668,28.809,18.555,83.008
1532385677.115,24.414,23.438,34.668,27.832,-5.371
1532385677.119,27.832,14.160,31.250,36.621,-34.668
1532385677.123,30.273,24.902,28.320,35.156,33.203
1532385677.127,31.250,37.109,36.621,26.855,77.637
1532385677.131,39.062,33.203,35.645,24.414,10.742
1532385677.135,41.992,21.973,38.574,32.227,-55.664
1532385677.139,42.969,26.855,38.086,38.086,3.906
1532385677.143,28.809,35.156,25.391,30.762,82.031
1532385677.147,20.996,36.133,28.809,25.879,52.734
1532385677.150,24.414,30.762,36.133,29.785,-0.977
1532385677.154,16.602,9.277,37.598,31.250,8.301
1532385677.158,22.461,20.996,36.621,36.133,79.102
1532385677.162,30.762,47.363,32.227,33.203,87.891
1532385677.166,32.227,38.574,37.109,28.320,13.184
1532385677.170,30.762,27.832,35.645,30.762,-23.438
1532385677.174,41.016,13.184,22.949,31.250,47.363
1532385677.178,41.992,4.395,26.367,31.250,95.215
1532385677.182,25.879,34.668,39.551,32.715,28.320
1532385677.186,33.691,46.387,38.086,41.504,-11.719
1532385677.190,34.668,22.949,28.320,38.086,60.059
1532385677.193,35.156,21.973,30.762,35.156,104.492
1532385677.197,40.039,18.555,32.715,38.086,50.781
1532385677.201,43.945,21.484,28.809,32.715,-4.395
1532385677.205,52.246,44.434,34.180,28.809,22.949
1532385677.209,41.016,37.598,39.062,25.879,96.680
1532385677.213,31.250,24.902,32.715,21.973,73.242
1532385677.217,33.691,39.062,26.855,21.973,-3.906
1532385677.221,39.062,27.344,27.344,29.785,-13.184
1532385677.225,42.969,6.836,28.809,33.203,57.617
1532385677.229,46.875,31.738,35.156,31.250,64.941
1532385677.233,59.082,42.480,43.945,42.480,-10.742
1532385677.236,56.152,15.625,37.109,39.551,-34.180
1532385677.240,30.762,15.625,28.320,28.320,57.129
1532385677.244,27.344,30.762,29.297,25.879,104.980
1532385677.248,41.992,46.875,28.809,28.320,-0.977
1532385677.252,39.551,46.875,26.855,30.273,-58.105
1532385677.256,32.227,22.461,25.879,30.273,9.277
1532385677.260,41.016,14.648,29.785,31.738,73.730
1532385677.264,43.945,23.438,29.785,27.344,52.246
1532385677.268,27.832,39.551,31.738,24.414,9.766
1532385677.272,28.809,48.828,32.715,23.926,-24.902
1532385677.275,47.363,32.715,32.715,27.832,41.504
1532385677.279,44.434,20.996,37.598,33.203,82.031
1532385677.283,39.551,13.184,30.762,32.715,-2.441
1532385677.287,32.227,22.461,23.438,24.902,-17.578
1532385677.291,29.785,36.133,24.902,23.438,62.012
1532385677.295,38.574,30.273,26.855,32.227,71.777
1532385677.299,29.297,35.156,23.926,25.391,-3.418
1532385677.303,31.250,44.922,22.461,27.832,-50.781
1532385677.307,38.574,42.480,14.648,35.156,22.461
1532385677.311,44.434,28.320,15.137,29.297,57.617
1532385677.315,41.016,10.742,27.344,33.203,-9.766
1532385677.318,37.598,17.578,34.180,42.969,-33.691
1532385677.322,28.809,32.227,31.738,38.086,-1.465
1532385677.326,16.602,23.438,22.461,26.367,81.543
1532385677.330,16.602,17.578,23.438,20.996,60.059
1532385677.334,19.531,16.113,36.133,23.926,-11.230
1532385677.338,24.902,19.531,35.645,24.414,-6.348
1532385677.342,34.180,23.926,28.320,27.344,70.312
1532385677.346,31.250,14.648,27.344,27.832,74.219
1532385677.350,22.461,30.762,23.926,24.414,-16.113
1532385677.354,24.902,39.551,22.461,24.902,-50.781
1532385677.358,31.738,30.762,27.344,30.762,22.949
1532385677.361,40.527,33.691,35.645,40.039,74.219
1532385677.365,40.527,21.484,39.551,44.922,13.184
1532385677.369,28.320,15.137,27.832,33.691,-38.086
1532385677.373,17.090,24.902,18.066,20.020,23.438
1532385677.377,25.879,30.273,19.043,22.461,82.031
1532385677.381,34.668,22.949,19.531,29.785,23.438
1532385677.385,29.297,6.348,19.531,34.180,-20.996
1532385677.389,34.180,16.602,22.949,35.645,23.926
1532385677.393,36.621,45.410,23.438,36.133,74.219
1532385677.397,26.855,42.480,23.926,29.785,47.852
1532385677.400,36.133,33.691,21.973,29.785,-21.973
1532385677.404,43.945,30.762,22.949,37.598,-24.414
1532385677.408,25.391,42.969,22.949,28.320,63.965
1532385677.412,20.996,51.270,20.996,25.879,41.992
1532385677.416,22.949,35.645,14.648,25.879,-38.574
1532385677.420,19.531,30.273,10.742,21.484,-43.945
1532385677.424,23.438,24.902,10.254,22.949,23.438
1532385677.428,30.762,36.621,6.348,25.391,74.219
1532385677.432,40.527,41.992,7.324,25.879,6.348
1532385677.436,39.551,28.809,8.789,26.367,-44.434
1532385677.440,37.109,23.438,12.207,31.738,11.230
1532385677.443,34.668,37.109,14.160,30.273,69.336
1532385677.447,38.086,33.691,13.184,27.832,25.391
1532385677.451,40.527,43.945,14.648,29.785,-56.641
1532385677.455,33.203,56.641,9.766,25.391,-25.879
1532385677.459,36.621,45.410,6.348,24.414,81.543
1532385677.463,40.039,42.480,14.160,32.715,73.730
1532385677.467,38.086,31.738,11.719,27.832,-19.043
1532385677.471,38.574,30.762,2.930,20.996,-13.184
1532385677.475,37.598,38.086,6.348,22.461,89.355
1532385677.479,42.480,30.762,7.324,26.367,104.492
1532385677.483,46.875,19.043,0.488,29.785,43.945
1532385677.486,41.504,33.691,-0.977,28.809,3.906
1532385677.490,38.086,59.082,8.789,26.855,9.277
1532385677.494,28.320,52.246,12.207,22.949,69.824
1532385677.498,24.414,39.062,5.859,23.438,18.066
1532385677.502,25.879,42.480,-0.488,19.043,-36.133
1532385677.506,26.855,58.594,-1.465,15.625,50.293
1532385677.510,19.531,52.734,5.371,14.648,94.727
1532385677.514,22.461,39.062,8.789,16.113,16.113
1532385677.518,32.715,33.203,12.695,24.902,-29.297
1532385677.522,35.156,28.320,10.742,23.926,23.438
1532385677.525,34.668,21.484,10.742,33.203,97.656
1532385677.529,33.691,27.832,8.789,31.738,65.918
1532385677.533,37.598,43.945,0.977,20.996,-22.949
1532385677.537,30.273,38.086,0.488,20.996,-38.574
1532385677.541,34.668,32.227,9.277,20.508,35.645
1532385677.545,37.109,45.410,9.277,25.391,85.449
1532385677.549,26.367,47.852,3.418,23.926,3.418
1532385677.553,41.992,32.227,7.812,20.020,-47.363
1532385677.557,48.340,26.855,12.207,26.367,76.172
1532385677.561,35.156,31.250,12.695,26.855,145.996
1532385677.565,37.109,31.738,5.859,18.066,93.750
1532385677.568,43.945,34.668,7.324,24.902,6.348
1532385677.572,43.457,46.875,16.602,27.344,19.531
1532385677.576,35.156,48.828,14.160,24.414,100.586
1532385677.580,33.691,31.250,10.254,22.949,54.688
1532385677.584,47.852,29.297,14.648,27.344,-33.691
1532385677.588,48.828,46.875,24.902,39.551,-31.738
1532385677.592,30.273,44.434,21.484,37.598,33.203
1532385677.596,28.320,42.969,13.184,22.949,27.832
1532385677.600,27.344,35.645,10.254,17.578,-17.578
1532385677.604,23.438,27.344,7.812,18.066,12.207
1532385677.607,29.297,41.504,9.277,24.414,73.242
1532385677.611,30.273,27.832,19.531,35.645,77.148
1532385677.615,37.109,19.043,20.996,37.598,21.484
1532385677.619,43.457,41.016,13.672,35.645,-21.484
1532385677.623,38.574,43.457,17.090,30.273,47.852
1532385677.627,35.156,31.250,17.578,25.879,113.281
1532385677.631,34.668,34.180,20.508,32.715,20.020
1532385677.635,32.715,41.992,30.273,32.715,-45.410
1532385677.639,30.762,35.645,20.996,21.973,18.066
1532385677.643,27.344,38.086,12.207,14.160,99.609
1532385677.647,31.738,44.434,10.742,19.043,43.945
1532385677.650,38.574,32.715,14.648,21.973,-42.969
1532385677.654,38.574,14.160,18.555,20.508,-14.648
1532385677.658,37.598,22.949,13.672,27.344,88.379
1532385677.662,35.156,44.434,16.113,25.391,101.074
1532385677.666,30.273,45.898,22.461,26.855,20.508
1532385677.670,34.668,36.133,23.438,30.762,-6.836
1532385677.674,35.645,29.297,18.555,24.902,38.086
1532385677.678,39.551,39.551,18.555,28.809,72.266
1532385677.682,42.969,34.180,24.902,38.574,7.812
1532385677.686,34.180,10.254,20.996,32.715,-18.066
1532385677.690,35.156,14.160,15.625,24.902,32.227
1532385677.693,38.086,39.062,16.602,23.926,66.406
1532385677.697,27.832,54.688,15.625,24.414,62.988
1532385677.701,28.320,53.223,10.742,23.438,3.418
1532385677.705,24.902,38.574,13.672,25.879,10.254
1532385677.709,26.367,30.762,23.926,31.250,60.059
1532385677.713,36.133,30.273,21.484,31.738,33.691
1532385677.717,45.410,20.996,22.461,32.715,-16.602
1532385677.721,44.922,32.715,24.902,38.086,-21.973
1532385677.725,43.457,46.387,23.926,37.109,47.363
1532385677.729,52.246,29.297,32.227,42.480,79.590
1532385677.732,41.016,34.668,28.320,39.062,-27.832
1532385677.736,33.691,47.852,21.484,34.180,-65.918
1532385677.740,39.062,38.086,22.461,36.621,56.641
1532385677.744,40.039,42.969,21.973,37.598,126.465
1532385677.748,39.551,40.527,20.020,39.551,42.480
1532385677.752,41.504,29.297,19.531,32.715,-2.930
1532385677.756,42.969,28.809,19.043,26.855,46.875
1532385677.760,36.621,34.180,15.137,29.297,104.492
1532385677.764,36.621,38.086,24.414,31.738,60.547
1532385677.768,45.898,36.133,37.109,36.621,-20.996
1532385677.772,40.039,30.762,34.180,31.738,-29.297
1532385677.775,26.855,37.109,29.785,23.926,41.016
1532385677.779,25.391,40.527,25.391,27.344,68.848
1532385677.783,34.180,42.480,20.508,36.621,4.883
1532385677.787,33.691,50.781,23.438,33.691,-11.719
1532385677.791,41.992,49.316,26.855,28.809,67.383
1532385677.795,55.664,34.180,26.367,30.273,83.008
1532385677.799,55.176,19.531,21.973,24.902,-1.953
1532385677.803,64.941,24.902,30.273,29.785,-28.809
1532385677.807,67.871,30.762,36.621,40.039,41.016
1532385677.811,58.594,23.438,20.020,38.574,81.543
1532385677.815,51.758,30.762,12.695,30.273,28.320
1532385677.818,31.738,46.387,17.578,32.227,-31.250
1532385677.822,10.742,38.574,21.973,39.062,-10.254
1532385677.826,31.250,32.715,21.973,43.457,65.918
1532385677.830,33.691,20.996,28.320,48.828,55.664
1532385677.834,15.137,18.555,34.180,38.086,-11.719
1532385677.838,19.531,28.320,29.297,31.738,1.465
1532385677.842,21.973,26.367,33.203,38.574,79.102
1532385677.846,32.715,17.578,36.621,40.527,90.820
1532385677.850,45.410,22.949,42.969,48.828,20.020
1532385677.854,43.945,32.227,36.621,49.805,-0.488
1532385677.857,32.227,35.645,22.461,34.668,65.918
1532385677.861,33.203,25.879,23.438,28.320,80.566
1532385677.865,38.574,18.066,23.926,29.297,14.648
1532385677.869,29.785,17.578,23.926,26.367,-29.297
1532385677.873,25.879,28.320,20.508,24.902,-5.859
1532385677.877,32.715,49.316,19.043,27.832,62.988
1532385677.881,33.691,43.457,18.555,33.203,41.016
1532385677.885,38.086,31.250,22.949,40.039,-28.320
1532385677.889,38.574,24.902,24.902,37.598,-7.812
1532385677.893,44.922,30.273,27.344,37.109,75.684
1532385677.897,54.199,43.945,28.809,38.574,62.500
1532385677.900,41.992,22.949,15.137,29.785,20.508
1532385677.904,32.227,22.461,11.230,23.926,24.414
1532385677.908,35.156,45.410,18.555,22.461,67.871
1532385677.912,24.414,45.898,17.578,20.508,68.359
1532385677.916,21.484,55.176,19.531,22.461,29.785
1532385677.920,26.855,50.781,29.785,24.414,4.883
1532385677.924,28.809,32.715,34.180,26.855,43.945
1532385677.928,28.809,28.809,29.297,25.391,83.984
1532385677.932,47.852,33.203,31.250,26.367,-8.789
1532385677.936,43.945,33.691,37.598,24.414,-50.781
1532385677.939,23.438,28.320,39.062,26.855,42.480
1532385677.943,24.902,34.180,38.086,23.926,107.910
1532385677.947,23.438,41.016,34.668,18.555,56.152
1532385677.951,26.367,26.855,38.574,23.926,-15.625
1532385677.955,28.809,26.367,37.109,29.297,20.508
1532385677.959,42.480,32.227,32.227,34.668,90.820
1532385677.963,43.457,35.645,30.273,32.227,70.312
1532385677.967,39.062,33.203,37.109,31.738,4.883
1532385677.971,44.922,27.344,54.688,37.598,-34.180
1532385677.975,39.551,41.992,51.758,30.273,41.016
1532385677.979,29.785,49.316,33.691,17.578,102.539
1532385677.982,27.344,41.992,32.715,17.578,30.273
1532385677.986,33.203,38.574,36.133,24.414,-10.742
1532385677.990,33.203,32.715,39.062,31.250,52.246
1532385677.994,33.203,27.344,45.898,32.227,93.750
1532385677.998,41.504,23.438,43.945,30.762,32.715
1532385678.002,49.805,9.766,36.133,30.273,-37.109
1532385678.006,45.898,8.301,38.086,33.203,-8.789
1532385678.010,33.691,19.043,36.133,33.203,43.945
1532385678.014,30.762,39.551,27.344,25.391,-4.395
1532385678.018,35.645,63.965,35.645,29.785,-35.156
1532385678.022,29.785,51.758,41.504,32.227,4.395
1532385678.025,18.066,26.367,34.668,26.367,91.309
1532385678.029,20.508,25.879,33.203,22.461,78.613
1532385678.033,32.227,28.809,30.273,25.391,-0.488
1532385678.037,37.598,19.531,30.273,27.832,1.465
1532385678.041,40.039,8.301,31.738,29.785,51.758
1532385678.045,44.922,3.906,35.645,31.250,91.797
1532385678.049,41.016,22.949,41.504,23.438,13.672
1532385678.053,34.668,41.016,44.434,21.484,-66.895
1532385678.057,38.574,43.945,43.945,22.461,9.277
1532385678.061,41.504,44.922,38.574,23.926,88.379
1532385678.064,21.973,26.855,34.668,20.020,42.480
1532385678.068,13.672,17.578,36.621,13.184,-29.785
1532385678.072,35.156,25.391,39.062,9.277,-19.531
1532385678.076,39.062,10.254,35.156,16.113,70.312
1532385678.080,32.227,1.465,37.109,23.926,66.406
1532385678.084,29.297,14.160,45.410,27.832,-5.371
1532385678.088,20.020,17.578,45.898,23.926,-3.418
1532385678.092,16.113,24.414,37.598,17.578,52.734
1532385678.096,18.555,24.902,37.598,20.996,55.176
1532385678.100,15.137,23.438,44.434,16.113,-4.883
1532385678.104,19.531,34.668,52.734,22.461,-25.879
1532385678.107,26.855,33.691,47.363,36.621,62.012
1532385678.111,24.414,12.207,33.203,26.367,81.543
1532385678.115,24.414,13.672,38.574,21.973,-7.812
1532385678.119,25.391,21.484,52.734,29.297,-36.621
1532385678.123,22.461,21.973,51.270,25.391,13.184
1532385678.127,23.438,34.668,41.992,24.902,76.172
1532385678.131,26.855,20.020,39.551,22.949,52.734
1532385678.135,21.973,8.301,40.527,17.578,4.883
1532385678.139,21.484,19.531,42.969,20.996,22.949
1532385678.143,25.879,26.855,48.340,18.555,99.121
1532385678.147,22.461,29.297,50.781,20.020,77.148
1532385678.150,37.109,12.207,49.805,26.367,-6.836
1532385678.154,45.410,17.578,52.734,34.180,0.488
1532385678.158,48.340,27.832,49.316,39.062,82.520
1532385678.162,41.992,8.789,43.457,28.809,94.238
1532385678.166,25.879,26.367,43.457,24.902,20.996
1532385678.170,30.273,46.387,42.480,23.438,-29.785
1532385678.174,28.320,24.414,46.387,22.949,20.996
1532385678.178,22.949,13.672,41.016,27.832,81.543
1532385678.182,20.508,14.648,35.156,25.879,19.531
1532385678.186,23.926,2.441,41.992,21.973,-17.578
1532385678.189,22.949,10.254,47.852,15.625,18.066
1532385678.193,18.555,29.785,54.688,10.254,54.199
1532385678.197,32.715,22.461,58.105,19.531,54.199
1532385678.201,39.551,24.902,55.664,26.855,-18.066
1532385678.205,29.297,40.039,46.387,25.879,-31.738
1532385678.209,27.832,28.809,41.992,23.926,43.945
1532385678.213,37.109,21.484,48.340,22.461,33.691
1532385678.217,30.762,17.090,51.758,26.855,-7.324
1532385678.221,31.738,11.230,50.781,26.367,6.836
1532385678.225,37.598,21.484,54.199,27.832,76.172
1532385678.229,31.738,26.367,55.176,28.809,71.289
1532385678.232,30.762,45.410,46.387,27.344,15.625
1532385678.236,22.461,49.805,45.410,25.879,0.000
1532385678.240,16.602,28.809,47.852,20.020,41.504
1532385678.244,28.809,35.156,45.898,24.414,93.750
1532385678.248,34.668,41.016,45.898,22.461,42.480
1532385678.252,31.738,38.086,42.480,11.230,-43.457
1532385678.256,27.832,21.484,40.039,14.648,-19.043
1532385678.260,17.090,17.090,40.527,23.438,77.148
1532385678.264,23.438,39.551,44.434,25.391,51.758
1532385678.268,29.785,44.434,41.992,24.902,-23.438
1532385678.272,26.855,38.574,44.922,28.809,-2.930
1532385678.275,31.250,42.480,52.246,30.762,95.703
1532385678.279,34.180,21.484,53.711,28.320,104.492
1532385678.283,32.715,16.602,47.852,27.832,10.742
1532385678.287,34.180,47.363,45.410,34.180,-10.742
1532385678.291,36.133,52.246,52.246,32.715,49.316
1532385678.295,24.902,34.180,44.434,18.555,58.594
1532385678.299,20.508,23.926,39.551,14.648,0.488
1532385678.303,30.273,42.480,43.457,19.531,-24.902
1532385678.307,33.203,43.945,40.527,20.508,27.832
1532385678.311,29.297,30.762,40.039,22.949,58.105
1532385678.314,24.414,16.602,43.945,26.855,23.926
1532385678.318,30.762,21.973,47.363,29.785,-43.457
1532385678.322,37.109,39.551,44.434,27.832,10.742
1532385678.326,37.109,24.902,44.922,32.715,118.164
1532385678.330,25.879,25.879,50.293,28.320,63.477
1532385678.334,17.578,41.992,51.270,22.461,-33.691
1532385678.338,29.785,45.898,51.758,35.156,-34.180
1532385678.342,27.344,35.156,48.340,32.715,56.641
1532385678.346,20.020,33.203,47.363,27.832,95.215
1532385678.350,24.902,33.691,47.852,23.926,-3.418
1532385678.354,27.832,23.438,46.875,21.973,-37.109
1532385678.357,19.043,19.531,50.781,24.414,53.711
1532385678.361,23.438,12.695,48.340,27.344,95.703
1532385678.365,32.227,18.555,42.480,32.227,48.828
1532385678.369,25.879,43.457,42.480,23.926,-21.484
1532385678.373,28.809,41.504,48.340,20.020,27.832
1532385678.377,37.598,26.855,45.410,26.855,100.098
1532385678.381,29.785,25.391,41.504,22.949,35.645
1532385678.385,29.297,39.062,51.270,29.785,-28.320
1532385678.389,28.320,32.715,54.199,29.785,-9.766
1532385678.393,18.555,20.508,45.898,18.066,41.016
1532385678.396,26.855,30.762,43.945,22.461,26.855
1532385678.400,34.668,28.809,49.316,28.809,-39.551
1532385678.404,32.715,12.207,56.152,36.621,-33.691
1532385678.408,26.367,20.020,56.152,38.086,45.410
1532385678.412,21.484,40.039,47.852,38.086,100.098
1532385678.416,29.297,30.273,45.898,36.621,19.043
1532385678.420,41.504,22.949,46.875,35.645,-60.059
1532385678.424,45.898,36.133,44.922,42.480,33.203
1532385678.428,48.340,41.016,50.293,47.852,91.309
1532385678.432,43.457,22.461,47.363,36.621,1.465
1532385678.436,30.273,21.484,44.434,26.855,-49.316
1532385678.439,31.738,35.645,49.805,26.367,27.344
1532385678.443,32.715,23.438,51.758,28.809,101.074
1532385678.447,41.016,18.066,53.711,37.109,55.176
1532385678.451,41.016,35.156,58.105,48.340,-5.371
1532385678.455,42.969,38.574,53.223,46.387,4.883
1532385678.459,49.805,34.668,47.852,44.434,68.359
1532385678.463,45.898,34.668,47.852,45.898,48.340
1532385678.467,47.363,35.645,50.781,39.551,-16.602
1532385678.471,46.875,37.109,56.641,43.945,-15.137
1532385678.475,46.387,39.062,52.734,42.969,63.965
1532385678.479,47.852,38.086,49.316,30.762,82.031
1532385678.482,41.504,38.086,49.316,28.320,1.953
1532385678.486,41.016,31.738,47.363,29.785,-37.598
1532385678.490,41.016,19.531,49.316,29.297,5.859
1532385678.494,45.410,19.531,51.758,22.949,70.312
1532385678.498,40.527,46.387,50.781,25.391,52.246
1532385678.502,28.809,47.852,48.828,31.738,-3.418
1532385678.506,36.621,30.273,44.434,28.809,19.043
1532385678.510,43.945,44.434,43.457,28.809,103.516
1532385678.514,38.574,50.781,47.852,31.250,70.801
1532385678.518,30.273,53.711,54.688,40.039,-28.320
1532385678.521,36.621,49.316,55.664,43.945,-9.766
1532385678.525,34.668,33.203,45.410,39.551,69.336
1532385678.529,27.344,30.762,38.086,29.297,43.945
1532385678.533,31.250,16.113,37.598,22.949,-21.484
1532385678.537,31.250,15.137,44.434,31.738,-8.301
1532385678.541,31.250,33.691,44.434,31.738,76.172
1532385678.545,29.297,34.668,41.504,29.297,103.516
1532385678.549,32.227,26.855,46.387,29.297,13.184
1532385678.553,29.785,33.203,50.781,31.738,-22.461
1532385678.557,32.715,40.039,48.828,36.621,57.129
1532385678.561,39.062,41.992,42.969,26.367,115.723
1532385678.564,38.086,47.852,43.945,26.855,63.965
1532385678.568,44.922,37.109,48.828,31.250,-12.695
1532385678.572,45.898,23.438,53.223,26.855,4.395
1532385678.576,51.758,32.715,59.570,30.273,74.707
1532385678.580,62.012,36.133,58.105,24.902,45.410
1532385678.584,44.434,20.996,47.363,11.719,-33.203
1532385678.588,35.156,20.508,44.922,8.301,-14.160
1532385678.592,48.828,31.250,43.457,9.277,71.289
1532385678.596,41.016,20.508,43.945,14.160,88.867
1532385678.600,28.320,29.785,45.410,22.949,-5.859
1532385678.604,23.438,37.598,43.945,25.879,-35.156
1532385678.607,27.344,32.227,47.852,31.250,68.359
1532385678.611,29.297,37.109,51.270,35.156,101.074
1532385678.615,28.320,12.207,46.875,39.551,17.090
1532385678.619,21.484,15.625,46.875,39.551,-36.133
1532385678.623,18.066,33.203,51.270,39.062,17.090
1532385678.627,21.973,29.297,43.457,29.785,87.402
1532385678.631,8.301,34.668,41.016,16.113,30.273
1532385678.635,3.418,31.738,42.969,15.137,-41.992
1532385678.639,20.508,25.879,48.828,25.391,20.996
1532385678.643,15.625,26.367,48.340,24.414,74.707
1532385678.646,9.277,38.086,40.039,17.090,42.480
1532385678.650,23.926,29.785,43.457,27.832,-2.930
1532385678.654,22.949,15.625,45.410,32.227,-4.883
1532385678.658,6.348,25.391,40.039,21.484,71.289
1532385678.662,16.113,29.297,41.016,26.855,98.145
1532385678.666,22.949,29.297,41.992,31.250,20.996
1532385678.670,8.789,40.527,38.086,14.160,-32.227
1532385678.674,3.906,43.457,31.738,11.719,12.207
1532385678.678,5.371,39.551,28.320,20.020,80.566
1532385678.682,16.113,33.691,33.691,20.020,33.203
1532385678.686,24.414,31.250,41.504,22.461,-13.672
1532385678.689,26.855,30.273,48.340,24.414,35.156
1532385678.693,41.992,25.879,47.852,24.414,83.008
1532385678.697,48.828,20.508,42.969,29.297,58.105
1532385678.701,42.480,21.484,41.016,31.738,-3.906
1532385678.705,40.527,29.297,35.156,29.297,-0.977
1532385678.709,40.527,26.855,33.691,21.484,76.172
1532385678.713,40.527,26.855,39.062,20.508,63.477
1532385678.717,34.668,37.109,31.738,23.438,-16.602
1532385678.721,27.832,36.621,29.297,17.578,-29.785
1532385678.725,30.273,36.621,35.156,20.508,54.199
1532385678.728,26.367,40.527,40.527,26.855,83.008
1532385678.732,36.133,35.645,41.016,30.762,-8.789
1532385678.736,41.992,33.203,38.086,37.109,-49.805
1532385678.740,33.203,26.855,39.062,41.016,20.020
1532385678.744,29.297,20.020,35.156,35.645,94.727
1532385678.748,28.320,31.250,34.180,27.344,42.969
1532385678.752,32.227,46.875,38.574,25.391,-37.109
1532385678.756,39.062,45.410,47.852,32.227,-3.418
1532385678.760,39.551,40.527,47.363,34.180,70.801
1532385678.764,40.039,42.480,31.738,25.879,57.129
1532385678.768,43.945,30.273,28.320,17.578,-13.672
1532385678.771,35.645,21.973,34.180,20.508,-28.320
1532385678.775,40.527,34.180,36.133,35.156,54.199
1532385678.779,41.992,37.109,34.180,28.809,95.703
1532385678.783,31.250,35.645,36.133,15.137,17.090
1532385678.787,34.668,28.809,40.039,22.461,-59.082
1532385678.791,44.434,30.762,36.621,25.391,-2.441
1532385678.795,49.805,50.293,35.156,27.832,75.195
1532385678.799,50.781,46.387,46.387,36.133,-5.859
1532385678.803,37.598,27.344,44.434,26.855,-77.148
1532385678.807,37.598,28.809,33.203,20.020,15.625
1532385678.811,35.645,30.762,31.250,11.719,80.078
1532385678.814,22.461,36.621,33.691,4.883,24.902
1532385678.818,21.973,30.762,38.086,9.766,-29.297
1532385678.822,31.250,24.414,33.203,14.160,-7.324
1532385678.826,36.133,34.180,30.273,16.113,83.496
1532385678.830,26.367,30.273,38.574,15.625,78.125
1532385678.834,32.227,27.344,45.410,21.484,32.227
1532385678.838,32.715,37.109,47.363,25.879,36.621
1532385678.842,26.855,52.246,47.363,22.949,83.496
1532385678.846,32.227,49.805,43.945,17.578,102.539
1532385678.850,33.203,37.109,49.316,17.578,15.137
1532385678.853,33.691,38.086,50.781,26.855,-45.898
1532385678.857,27.344,27.344,41.504,20.996,30.762
1532385678.861,26.855,11.230,42.480,16.602,114.258
1532385678.865,27.344,15.137,41.504,17.090,42.969
1532385678.869,21.973,23.926,37.598,15.137,-32.227
1532385678.873,23.926,37.598,35.156,20.508,33.203
1532385678.877,23.438,41.992,34.180,19.043,93.262
1532385678.881,19.531,37.109,40.527,20.508,60.547
1532385678.885,25.391,34.180,41.016,23.438,0.000
1532385678.889,30.273,19.043,41.504,20.996,-4.395
1532385678.893,26.855,22.949,44.434,20.996,74.219
1532385678.896,21.973,41.504,44.922,20.996,65.918
1532385678.900,28.320,28.809,42.480,27.344,-22.949
1532385678.904,36.621,23.438,40.527,30.762,-23.926
1532385678.908,39.551,35.156,53.223,29.785,59.082
1532385678.912,31.250,33.203,60.059,28.320,64.453
1532385678.916,23.926,36.621,46.875,20.508,-13.184
1532385678.920,27.344,30.762,40.039,25.391,-27.832
1532385678.924,28.320,21.973,41.504,33.691,37.598
1532385678.928,35.645,36.133,46.875,29.297,89.844
1532385678.932,32.715,45.410,50.293,22.461,16.113
1532385678.936,24.902,37.109,44.434,21.973,-41.504
1532385678.939,21.973,21.973,44.434,25.879,14.160
1532385678.943,20.020,16.113,41.016,22.949,79.102
1532385678.947,14.160,31.738,33.691,18.066,45.410
1532385678.951,7.324,26.367,37.598,14.648,-47.852
1532385678.955,21.973,25.391,47.363,20.996,-56.641
1532385678.959,31.738,47.852,50.293,25.391,62.012
1532385678.963,29.297,50.293,44.434,28.809,95.215
1532385678.967,24.902,46.387,37.598,30.762,-8.301
1532385678.971,36.621,33.203,35.156,28.320,-50.781
1532385678.975,46.875,18.555,35.645,35.156,35.156
1532385678.978,33.691,17.578,34.180,35.156,96.680
1532385678.982,34.180,33.691,35.645,35.156,13.672
1532385678.986,26.855,36.621,34.180,30.762,-43.945
1532385678.990,20.020,33.203,30.273,26.855,8.789
1532385678.994,24.902,40.039,25.391,26.855,78.125
1532385678.998,20.996,33.203,27.344,28.320,67.871
1532385679.002,27.832,14.648,25.391,38.086,6.836
1532385679.006,40.039,21.484,20.020,41.016,27.832
1532385679.010,44.434,41.992,28.809,37.109,89.844
1532385679.014,33.203,36.133,26.367,32.715,63.477
1532385679.018,29.297,25.879,20.020,30.273,-9.766
1532385679.021,39.062,24.414,17.090,36.621,-10.254
1532385679.025,45.898,24.414,17.090,40.039,71.777
1532385679.029,40.527,27.832,16.602,30.762,75.195
1532385679.033,27.832,29.297,12.695,32.227,-39.062
1532385679.037,42.480,26.855,16.602,41.016,-73.730
1532385679.041,40.039,39.551,16.113,35.156,27.344
1532385679.045,30.273,35.156,11.719,32.227,131.348
1532385679.049,36.133,22.461,10.254,31.250,59.082
1532385679.053,37.598,18.555,12.695,33.203,-31.250
1532385679.057,44.922,21.973,15.137,37.598,44.434
1532385679.060,41.016,26.855,11.230,32.227,110.840
1532385679.064,41.016,30.273,13.672,40.527,51.758
1532385679.068,35.645,32.715,11.719,41.992,-32.715
1532385679.072,24.902,27.832,3.418,29.785,-39.062
1532385679.076,32.715,34.668,1.953,29.785,63.965
1532385679.080,36.133,37.109,6.836,31.250,75.195
1532385679.084,38.086,31.738,12.695,34.180,-26.367
1532385679.088,39.551,25.879,12.695,33.203,-11.230
1532385679.092,29.297,11.230,10.742,25.391,56.641
1532385679.096,25.879,7.324,11.719,21.973,62.988
1532385679.100,36.621,22.949,11.230,27.832,2.441
1532385679.103,34.180,41.504,9.277,29.297,-21.484
1532385679.107,25.879,53.711,11.230,29.785,61.035
1532385679.111,30.273,40.527,8.789,29.785,83.984
1532385679.115,32.227,24.902,5.859,24.902,21.973
1532385679.119,28.809,33.691,3.906,27.344,-46.387
1532385679.123,29.297,32.227,4.883,33.203,6.836
1532385679.127,31.250,27.832,8.301,29.785,104.980
1532385679.131,33.203,25.879,8.301,22.461,24.414
1532385679.135,29.297,24.414,2.930,19.531,-82.031
1532385679.139,27.832,29.297,-2.930,18.066,-13.184
1532385679.143,34.180,41.504,-2.441,17.578,96.680
1532385679.146,25.879,40.527,3.418,20.020,106.445
1532385679.150,19.531,46.875,4.883,21.484,-3.906
1532385679.154,27.832,47.363,7.324,23.926,-49.805
1532385679.158,29.297,35.156,6.348,26.367,50.293
1532385679.162,29.297,34.180,15.137,32.715,98.145
1532385679.166,41.992,28.320,26.855,31.738,41.504
1532385679.170,38.086,27.832,10.254,21.484,-25.879
1532385679.174,28.809,35.645,4.395,19.531,35.156
1532385679.178,35.645,11.230,6.836,24.414,116.211
1532385679.182,41.504,1.465,9.277,30.762,40.527
1532385679.185,39.551,19.531,14.648,33.203,-30.762
1532385679.189,40.527,28.809,7.324,24.414,-7.812
1532385679.193,49.805,36.133,5.371,24.902,45.898
1532385679.197,41.992,36.621,7.812,29.785,29.297
1532385679.201,36.133,39.062,10.254,23.438,-16.113
1532385679.205,29.785,39.551,7.324,23.926,14.648
1532385679.209,35.156,35.645,8.789,30.273,78.613
1532385679.213,44.922,28.320,16.113,34.180,63.965
1532385679.217,44.434,15.137,11.230,36.621,-0.977
1532385679.221,45.898,13.672,2.930,33.691,-26.367
1532385679.225,40.527,21.973,4.883,33.691,50.781
1532385679.228,38.086,27.832,17.578,36.133,80.566
1532385679.232,41.016,18.555,16.602,32.715,-12.695
1532385679.236,45.898,19.531,12.207,30.273,-64.453
1532385679.240,34.668,37.598,9.277,28.809,27.832
1532385679.244,24.902,41.992,6.348,27.344,83.984
1532385679.248,34.180,40.527,11.230,29.785,0.000
1532385679.252,35.156,31.250,14.648,28.809,-44.434
1532385679.256,32.715,26.855,12.207,26.367,-4.395
1532385679.260,44.434,30.273,14.648,35.156,93.750
1532385679.264,44.922,21.973,12.695,35.645,72.266
1532385679.268,50.781,13.672,18.555,41.016,-44.922
1532385679.271,51.758,20.508,17.578,43.945,-59.570
1532385679.275,35.645,20.996,5.859,29.785,51.270
1532385679.279,27.344,19.043,5.371,19.043,72.754
1532385679.283,24.902,28.320,4.395,19.531,-13.672
1532385679.287,29.785,29.297,4.883,20.996,-18.066
1532385679.291,38.086,32.227,9.766,15.137,27.344
1532385679.295,30.273,33.691,11.230,17.090,84.961
1532385679.299,22.461,26.855,13.672,20.996,55.176
1532385679.303,36.621,27.344,20.020,33.203,-29.785
1532385679.307,37.598,28.809,20.996,34.180,27.832
1532385679.310,29.297,21.973,19.043,28.320,104.492
1532385679.314,33.203,20.508,18.066,30.273,52.246
1532385679.318,32.715,15.625,10.254,21.973,-5.371
1532385679.322,28.809,21.484,13.184,24.902,5.859
1532385679.326,25.391,24.902,20.020,30.273,103.516
1532385679.330,24.902,24.902,10.254,24.902,102.539
1532385679.334,25.879,16.602,4.883,18.066,-8.301
1532385679.338,31.738,3.418,11.719,20.508,-7.324
1532385679.342,33.203,17.578,12.695,18.555,80.078
1532385679.346,25.391,29.785,9.766,16.113,76.172
1532385679.350,20.996,28.320,10.254,14.648,-15.137
1532385679.353,29.785,32.715,12.695,7.812,-44.434
1532385679.357,45.898,43.457,18.066,13.672,53.223
1532385679.361,43.945,35.645,13.184,10.742,104.004
1532385679.365,38.086,20.508,10.742,4.395,42.480
1532385679.369,50.293,17.578,15.137,13.184,-5.371
1532385679.373,44.922,14.160,10.742,15.137,-5.859
1532385679.377,27.344,12.695,6.836,16.113,63.477
1532385679.381,23.926,20.508,3.418,19.043,61.035
1532385679.385,19.043,34.668,4.883,13.672,-24.902
1532385679.389,19.043,40.039,16.602,20.996,-19.531
1532385679.393,19.043,30.273,21.973,30.762,76.172
1532385679.396,17.090,19.531,12.695,24.902,99.121
1532385679.400,16.602,24.902,8.301,17.090,8.301
1532385679.404,9.766,19.531,6.348,15.625,-0.977
1532385679.408,6.348,14.160,4.395,20.508,71.777
1532385679.412,17.578,20.020,10.254,26.855,83.984
1532385679.416,26.855,21.973,11.230,27.344,5.371
1532385679.420,24.414,24.902,8.789,23.926,-28.320
1532385679.424,28.320,25.879,9.277,23.438,33.203
1532385679.428,29.297,29.297,12.695,23.926,103.027
1532385679.432,21.973,31.738,15.137,17.090,35.156
1532385679.435,23.926,32.227,8.301,8.301,-50.293
1532385679.439,22.949,43.945,10.742,8.789,15.137
1532385679.443,33.691,38.574,22.949,24.414,92.285
1532385679.447,43.457,21.484,16.602,36.621,58.594
1532385679.451,21.973,22.461,9.277,10.254,-18.066
1532385679.455,18.555,21.973,13.184,1.465,-10.742
1532385679.459,25.391,25.879,14.160,11.230,74.219
1532385679.463,25.879,36.133,9.277,13.672,72.754
1532385679.467,41.016,33.203,10.254,27.344,-0.977
1532385679.471,37.109,16.602,11.719,22.461,-29.297
1532385679.475,32.227,19.531,13.184,21.973,24.902
1532385679.478,27.344,39.551,20.020,23.438,67.871
1532385679.482,26.367,43.945,22.461,19.531,28.320
1532385679.486,27.344,35.156,17.578,29.297,9.766
1532385679.490,26.367,30.762,12.695,29.785,36.621
1532385679.494,28.809,33.691,14.160,30.762,105.469
1532385679.498,32.227,19.043,16.113,32.715,82.520
1532385679.502,39.062,18.066,18.066,37.109,-25.879
1532385679.506,47.852,38.574,19.531,41.016,3.418
1532385679.510,39.062,43.457,12.207,34.180,98.633
1532385679.514,27.344,30.273,4.395,27.832,80.566
1532385679.517,29.785,15.137,8.301,22.461,14.160
1532385679.521,31.250,20.508,17.578,18.555,3.418
1532385679.525,29.785,30.762,21.484,21.973,73.730
1532385679.529,30.762,34.180,17.090,23.926,76.172
1532385679.533,33.691,32.227,16.113,23.926,13.184
1532385679.537,38.086,40.527,19.043,26.855,7.812
1532385679.541,42.480,40.039,16.113,35.156,52.734
1532385679.545,37.598,32.227,9.277,28.809,101.562
1532385679.549,27.344,30.762,14.648,17.090,47.363
1532385679.553,22.949,26.367,21.484,22.949,-21.973
1532385679.557,34.180,27.832,21.973,25.391,20.508
1532385679.560,36.621,18.066,24.902,25.879,107.422
1532385679.564,41.016,20.996,26.367,33.203,78.613
1532385679.568,46.387,32.227,27.832,31.738,-6.348
1532385679.572,27.832,32.227,24.902,13.184,-19.531
1532385679.576,30.273,21.484,18.555,8.301,57.129
1532385679.580,26.367,22.461,20.996,8.789,82.520
1532385679.584,12.695,37.109,22.461,11.230,5.371
1532385679.588,27.344,31.250,24.414,20.020,-7.324
1532385679.592,28.809,21.484,27.832,18.066,64.453
1532385679.596,39.062,30.762,31.738,23.926,107.422
1532385679.600,44.922,35.645,33.203,26.855,13.184
1532385679.603,30.273,15.625,30.762,24.902,-57.129
1532385679.607,34.668,15.137,25.391,32.227,33.203
1532385679.611,41.504,21.484,30.762,27.344,84.961
1532385679.615,40.527,30.762,41.016,23.438,23.926
1532385679.619,32.715,51.758,38.574,23.438,-11.719
1532385679.623,32.227,39.551,34.668,23.438,25.391
1532385679.627,39.551,18.555,34.668,28.320,86.426
1532385679.631,27.344,30.273,34.668,20.508,66.406
1532385679.635,20.996,37.109,34.668,16.602,1.465
1532385679.639,29.785,35.156,34.668,21.973,18.066
1532385679.642,34.668,41.992,31.738,29.297,105.469
1532385679.646,40.527,29.785,33.691,31.738,98.145
1532385679.650,45.410,20.996,38.574,25.879,-24.414
1532385679.654,42.480,20.996,46.387,25.879,-20.020
1532385679.658,24.902,26.855,48.340,34.668,90.820
1532385679.662,23.926,38.086,41.504,32.227,95.703
1532385679.666,35.645,38.574,38.574,31.250,31.738
1532385679.670,36.133,35.645,43.945,32.715,-16.113
1532385679.674,28.320,40.527,53.223,37.109,56.152
1532385679.678,27.832,45.410,50.781,37.109,113.770
1532385679.682,39.062,37.598,39.062,28.809,57.129
1532385679.685,35.156,33.203,38.574,28.809,15.137
1532385679.689,27.832,33.203,41.504,29.785,30.762
1532385679.693,33.691,28.320,42.480,29.297,86.914
1532385679.697,42.480,22.461,46.387,33.691,47.852
1532385679.701,51.270,27.344,49.316,40.527,-29.785
1532385679.705,43.457,39.551,44.434,38.086,-3.906
1532385679.709,33.203,32.715,48.828,27.832,44.434
1532385679.713,39.551,41.992,51.758,20.020,51.270
1532385679.717,39.551,55.664,43.457,25.879,8.789
1532385679.721,36.621,48.340,41.992,30.762,-25.391
1532385679.725,48.828,38.086,49.805,35.645,34.668
1532385679.728,44.434,40.039,55.176,37.598,58.105
1532385679.732,35.156,37.109,43.945,25.879,-11.230
1532385679.736,22.949,16.113,38.574,20.996,-56.152
1532385679.740,12.695,24.902,44.434,25.391,7.324
1532385679.744,22.461,33.691,48.340,24.902,80.078
1532385679.748,17.090,23.926,49.805,24.902,27.344
1532385679.752,17.578,36.621,52.246,22.461,-71.777
1532385679.756,22.949,45.898,55.664,21.484,-27.832
1532385679.760,21.484,35.645,54.199,27.344,108.887
1532385679.764,25.391,38.574,50.781,29.785,79.590
1532385679.767,37.109,38.086,50.781,33.691,-16.602
1532385679.771,52.734,30.273,56.641,37.598,-20.508
1532385679.775,55.176,27.344,60.547,44.434,54.688
1532385679.779,39.062,36.621,49.805,38.574,67.383
1532385679.783,40.039,41.504,43.457,29.785,-33.691
1532385679.787,39.062,25.391,52.246,26.855,-55.176
1532385679.791,31.250,33.203,59.570,25.879,34.180
1532385679.795,27.344,35.645,53.223,20.508,78.125
1532385679.799,25.391,23.438,45.410,15.137,22.461
1532385679.803,23.926,33.691,44.434,17.578,-43.457
1532385679.807,14.160,49.805,44.922,21.973,23.438
1532385679.810,10.742,39.551,46.875,20.996,67.383
1532385679.814,20.020,28.809,62.012,27.832,-8.789
1532385679.818,21.973,34.668,66.895,34.180,-30.762
1532385679.822,15.137,30.273,55.664,20.996,24.902
1532385679.826,17.090,23.926,48.340,19.531,83.984
1532385679.830,16.602,21.973,45.898,22.949,54.688
1532385679.834,21.973,30.762,47.852,24.902,-17.578
1532385679.838,35.156,28.809,49.805,29.785,-25.879
1532385679.842,38.574,24.902,49.805,23.926,59.082
1532385679.846,44.434,34.668,47.363,23.926,87.891
1532385679.849,28.809,45.898,41.992,18.555,9.766
1532385679.853,14.648,49.805,40.527,5.859,-28.320
1532385679.857,22.461,40.527,47.363,12.695,46.387
1532385679.861,32.227,41.016,48.340,25.391,95.703
1532385679.865,42.480,34.180,41.992,29.297,24.414
1532385679.869,39.062,22.949,39.062,23.926,-49.805
1532385679.873,35.645,20.020,42.969,18.066,1.953
1532385679.877,33.691,22.949,43.945,19.531,78.613
1532385679.881,29.785,31.738,40.527,27.344,37.598
1532385679.885,28.809,31.250,44.434,27.344,-35.645
1532385679.889,32.715,31.738,46.875,24.414,-15.137
1532385679.892,26.855,38.086,45.410,19.531,60.547
1532385679.896,21.484,29.785,43.945,16.113,72.266
1532385679.900,18.555,30.762,46.387,13.672,8.301
1532385679.904,3.906,33.691,44.434,9.277,-21.973
1532385679.908,13.184,25.879,45.410,18.555,27.344
1532385679.912,20.020,31.250,47.852,22.461,66.895
1532385679.916,17.090,32.715,42.480,13.184,11.719
1532385679.920,21.973,25.391,36.621,9.277,-36.133
1532385679.924,21.973,20.020,33.691,20.508,50.293
1532385679.928,33.203,22.949,36.133,25.879,95.215
1532385679.932,42.969,40.039,45.410,22.461,8.301
1532385679.935,30.273,37.109,48.340,23.438,-34.180
1532385679.939,29.297,33.203,43.945,29.297,46.387
1532385679.943,37.598,37.598,41.992,35.645,110.352
1532385679.947,28.320,39.551,30.273,23.926,75.195
1532385679.951,23.926,32.715,32.227,17.090,20.508
1532385679.955,35.645,19.531,47.852,22.949,-11.230
1532385679.959,40.039,31.738,49.805,22.461,50.293
1532385679.963,41.504,41.504,53.223,27.832,88.867
1532385679.967,44.434,28.320,53.711,31.738,22.461
1532385679.971,30.273,27.832,40.527,24.414,-24.902
1532385679.974,22.949,28.320,32.715,20.020,39.062
1532385679.978,31.250,36.133,40.039,18.555,68.359
1532385679.982,28.320,45.898,45.898,16.602,-10.742
1532385679.986,24.414,34.668,46.875,20.996,-19.043
1532385679.990,34.180,30.273,48.340,19.531,30.273
1532385679.994,38.574,37.109,45.898,20.996,47.363
1532385679.998,34.668,41.016,44.434,24.414,20.508
1532385680.002,37.598,31.738,49.316,25.879,-3.906
1532385680.006,28.320,30.762,55.664,23.438,21.484
1532385680.010,32.715,28.320,53.223,21.484,70.801
1532385680.014,40.039,22.461,42.480,25.879,51.270
1532385680.017,43.457,39.551,43.945,22.949,-40.039
1532385680.021,45.410,39.551,53.223,19.531,-40.039
1532385680.025,27.344,31.738,45.410,14.648,66.406
1532385680.029,30.273,35.645,38.574,9.766,64.941
1532385680.033,41.992,31.738,47.852,7.812,-38.574
1532385680.037,29.785,40.527,51.270,16.113,-41.016
1532385680.041,32.227,41.992,49.805,27.832,60.547
1532385680.045,30.762,34.180,49.805,33.203,100.098
1532385680.049,20.996,38.574,44.434,27.344,31.250
1532385680.053,27.344,33.203,40.527,31.250,-1.953
1532385680.057,32.227,29.785,39.062,38.086,51.270
1532385680.060,30.273,32.227,46.875,33.691,106.445
1532385680.064,30.762,34.180,50.781,31.738,71.289
1532385680.068,39.062,49.316,52.734,36.621,-19.531
1532385680.072,44.922,47.852,48.340,32.715,-4.883
1532385680.076,41.504,29.785,41.016,23.438,84.961
1532385680.080,30.762,27.832,47.363,23.926,78.613
1532385680.084,30.762,23.926,49.316,27.832,19.531
1532385680.088,37.109,25.879,46.387,22.949,-23.438
1532385680.092,30.273,33.203,44.922,20.020,27.832
1532385680.096,33.691,35.645,48.340,22.461,72.266
1532385680.099,41.504,35.156,41.504,20.508,11.719
1532385680.103,35.645,26.367,38.086,20.508,-16.113
1532385680.107,20.996,27.832,46.875,22.461,60.059
1532385680.111,25.391,39.551,45.410,27.344,95.703
1532385680.115,39.062,33.203,48.340,27.832,21.484
1532385680.119,36.621,35.645,52.246,26.367,-33.203
1532385680.123,37.598,46.875,58.594,35.156,26.855
1532385680.127,46.387,30.762,57.617,31.250,103.516
1532385680.131,37.598,23.438,47.363,20.508,72.266
1532385680.135,24.414,34.668,41.504,23.438,-22.461
1532385680.139,29.785,34.180,43.945,17.090,-28.809
1532385680.142,31.250,39.551,46.387,10.742,77.148
1532385680.146,33.203,43.457,46.875,16.602,91.309
1532385680.150,38.574,39.062,48.340,13.672,2.930
1532385680.154,47.852,37.109,46.875,8.789,-27.344
1532385680.158,54.688,27.832,45.898,11.230,45.410
1532385680.162,54.199,31.250,49.805,15.625,92.773
1532385680.166,61.035,43.457,55.664,22.949,28.320
1532385680.170,55.664,50.293,52.246,25.879,-19.531
1532385680.174,53.711,44.434,41.504,25.391,41.016
1532385680.178,50.293,20.508,39.062,33.691,102.539
1532385680.181,36.621,20.020,44.922,39.551,51.758
1532385680.185,28.320,36.133,44.434,37.598,-13.672
1532385680.189,25.391,38.086,45.898,32.715,-10.742
1532385680.193,23.438,40.039,46.387,24.902,74.219
1532385680.197,21.973,26.367,46.875,27.832,53.223
1532385680.201,30.273,29.785,46.875,37.598,-29.785
1532385680.205,25.391,42.969,44.922,30.762,-2.930
1532385680.209,20.020,40.527,49.805,17.578,64.941
1532385680.213,33.203,42.480,54.688,16.602,43.945
1532385680.217,37.598,38.574,46.875,20.020,-5.859
1532385680.221,26.855,11.719,42.480,20.020,-5.859
1532385680.224,21.973,1.953,43.945,20.996,48.340
1532385680.228,36.621,35.645,41.504,22.461,73.242
1532385680.232,44.434,48.340,46.875,22.949,20.996
1532385680.236,32.227,29.785,49.316,20.508,-26.367
1532385680.240,25.879,35.156,42.480,19.531,45.410
1532385680.244,20.996,34.180,40.039,15.137,113.281
1532385680.248,11.719,15.625,44.922,12.695,28.320
1532385680.252,18.555,15.137,44.434,19.043,-37.109
1532385680.256,39.062,15.137,53.711,33.691,6.348
1532385680.260,42.969,28.809,59.082,33.691,85.449
1532385680.264,26.367,41.504,48.828,22.949,67.871
1532385680.267,22.461,39.551,42.969,25.879,-13.184
1532385680.271,28.320,33.691,41.504,27.832,-38.086
1532385680.275,26.367,23.926,41.016,31.250,42.480
1532385680.279,27.832,28.809,44.922,35.156,104.004
1532385680.283,26.367,32.227,43.945,35.156,8.789
1532385680.287,38.086,15.137,43.945,37.598,-34.180
1532385680.291,47.363,5.859,52.734,38.086,60.547
1532385680.295,37.109,10.254,53.711,29.785,88.379
1532385680.299,37.109,20.020,47.852,26.855,30.762
1532385680.303,44.434,32.227,46.875,25.879,-14.648
1532385680.306,33.203,47.852,53.223,28.809,47.852
1532385680.310,26.367,41.016,52.734,23.926,108.398
1532385680.314,29.785,23.926,51.270,20.996,36.621
1532385680.318,26.855,17.578,46.875,24.414,-8.301
1532385680.322,34.668,17.578,40.527,23.438,22.949
1532385680.326,48.340,18.555,31.738,23.438,88.867
1532385680.330,31.250,9.277,33.203,27.344,74.219
1532385680.334,33.691,11.230,44.434,33.203,13.672
1532385680.338,45.410,22.949,43.945,31.250,0.000
1532385680.342,35.645,39.551,48.340,35.156,69.336
1532385680.346,32.227,51.270,51.270,25.879,97.168
1532385680.349,30.273,39.062,50.781,21.484,8.301
1532385680.353,34.180,34.668,48.340,23.926,-37.598
1532385680.357,43.945,26.855,51.758,29.785,55.664
1532385680.361,34.180,6.348,56.152,31.250,113.281
1532385680.365,21.973,12.207,49.316,23.438,46.875
1532385680.369,22.461,33.203,46.875,24.414,-19.043
1532385680.373,26.367,33.203,42.969,16.113,12.695
1532385680.377,34.668,9.766,43.457,19.043,86.426
1532385680.381,39.062,13.184,45.410,25.879,63.477
1532385680.385,33.203,42.480,40.527,20.020,-6.348
1532385680.389,27.832,44.922,37.598,17.578,-4.883
1532385680.392,34.668,36.621,38.086,17.578,62.988
1532385680.396,48.340,18.555,45.898,21.484,75.195
1532385680.400,53.711,22.461,53.223,36.133,1.953
1532385680.404,41.504,37.109,47.363,33.203,-11.719
1532385680.408,32.715,27.832,32.227,18.555,75.195
1532385680.412,32.715,26.855,34.668,13.672,94.727
1532385680.416,41.016,34.668,42.480,16.113,1.953
1532385680.420,37.109,37.109,46.875,25.879,-18.555
1532385680.424,29.297,28.809,50.781,27.832,49.316
1532385680.428,31.250,18.555,46.875,24.902,89.355
1532385680.431,34.180,23.438,43.945,25.879,41.016
1532385680.435,35.156,36.133,41.992,28.809,-17.578
1532385680.439,26.855,27.832,41.504,28.320,14.648
1532385680.443,27.832,17.090,44.434,29.297,79.590
1532385680.447,35.645,25.879,45.898,36.621,53.711
1532385680.451,31.738,33.691,41.504,28.320,-47.852
1532385680.455,32.227,37.598,32.715,18.066,-41.504
1532385680.459,34.668,41.016,30.762,22.461,71.777
1532385680.463,28.809,22.461,36.621,22.949,113.281
1532385680.467,23.926,11.230,36.621,23.438,29.297
1532385680.471,26.855,33.203,35.645,25.879,-37.109
1532385680.474,18.066,35.645,40.527,25.879,52.734
1532385680.478,16.602,16.602,41.992,27.344,104.492
1532385680.482,25.879,20.020,38.086,24.902,22.949
1532385680.486,29.297,27.832,35.645,27.344,-12.207
1532385680.490,24.902,27.832,31.250,27.344,26.367
1532385680.494,26.855,45.898,39.551,24.902,60.547
1532385680.498,38.086,48.340,49.316,31.738,36.621
1532385680.502,38.086,31.738,41.016,28.809,-7.812
1532385680.506,41.504,29.297,30.273,24.902,4.395
1532385680.510,40.039,29.297,31.738,25.391,82.520
1532385680.514,28.320,16.113,34.668,23.926,76.172
1532385680.517,27.344,14.160,36.133,31.738,-11.230
1532385680.521,39.062,34.668,38.574,38.086,-7.324
1532385680.525,47.852,35.645,37.109,43.457,76.660
1532385680.529,42.480,30.273,32.227,41.992,81.055
1532385680.533,30.762,36.621,34.668,35.645,5.371
1532385680.537,41.504,33.203,41.504,32.715,-20.996
1532385680.541,35.645,24.414,41.016,30.273,56.641
1532385680.545,25.391,24.902,39.062,28.809,100.098
1532385680.549,26.367,36.133,39.551,22.949,9.766
1532385680.553,25.391,28.809,43.945,20.508,-79.102
1532385680.556,24.414,13.672,43.457,22.949,-32.715
1532385680.560,17.578,19.043,36.133,14.160,74.707
1532385680.564,22.461,27.832,33.691,12.207,45.898
1532385680.568,24.902,35.645,34.180,16.113,-27.344
1532385680.572,23.926,32.227,31.738,15.625,-8.301
1532385680.576,37.109,32.715,32.227,25.879,75.195
1532385680.580,30.273,44.922,31.738,29.297,59.570
1532385680.584,33.691,40.527,28.320,22.949,-32.227
1532385680.588,44.434,27.832,31.738,22.461,-36.621
1532385680.592,41.016,24.414,34.180,17.578,37.109
1532385680.596,35.156,24.414,33.691,18.066,83.984
1532385680.599,30.762,33.691,33.691,22.461,2.441
1532385680.603,34.668,35.645,27.344,25.879,-50.781
1532385680.607,39.062,18.555,32.715,32.227,29.297
1532385680.611,48.828,22.461,45.410,36.621,79.102
1532385680.615,44.922,45.898,35.645,31.738,27.832
1532385680.619,22.461,45.898,25.391,21.484,-36.621
1532385680.623,19.531,36.621,26.367,16.602,17.578
1532385680.627,24.414,29.785,25.879,13.672,109.375
1532385680.631,24.902,19.043,22.949,15.137,76.660
1532385680.635,27.344,18.066,19.531,17.090,-5.859
1532385680.638,31.250,34.180,17.578,20.996,6.348
1532385680.642,36.621,48.340,19.531,25.879,105.957
1532385680.646,44.434,36.621,21.484,33.203,120.605
1532385680.650,37.109,16.602,20.996,33.203,-6.836
1532385680.654,29.297,24.902,18.066,25.391,-55.176
1532385680.658,35.156,36.133,17.090,27.832,56.641
1532385680.662,51.270,41.992,24.414,36.133,83.008
1532385680.666,56.641,42.480,32.715,42.480,35.156
1532385680.670,46.387,23.926,17.090,37.109,-16.113
1532385680.674,37.109,21.484,2.441,26.855,23.926
1532385680.678,27.344,33.203,12.207,25.391,64.453
1532385680.681,24.902,35.645,20.020,31.250,3.418
1532385680.685,26.367,26.855,21.484,34.668,-45.410
1532385680.689,32.715,28.320,18.066,36.133,-22.461
1532385680.693,35.156,39.062,18.066,38.086,58.105
1532385680.697,47.852,30.273,19.043,39.062,65.918
1532385680.701,45.898,20.996,8.789,31.250,16.602
1532385680.705,37.598,26.855,7.324,32.227,8.301
1532385680.709,41.992,40.039,11.719,30.762,48.340
1532385680.713,49.805,40.527,9.766,27.832,60.059
1532385680.717,49.316,27.832,10.742,29.297,-8.301
1532385680.721,43.457,38.086,13.184,35.156,-30.273
1532385680.724,41.992,40.527,9.277,24.414,50.293
1532385680.728,34.668,36.621,4.883,8.301,76.660
1532385680.732,30.762,41.016,7.324,7.812,-7.812
1532385680.736,36.621,44.434,7.812,13.672,-28.809
1532385680.740,50.781,42.480,11.719,21.973,45.410
1532385680.744,48.340,30.762,8.789,30.273,80.078
1532385680.748,48.828,24.902,8.301,37.109,30.273
1532385680.752,46.387,25.391,18.066,37.598,-43.945
1532385680.756,37.598,34.180,15.625,36.133,1.465
1532385680.760,31.738,37.598,16.113,33.691,88.379
1532385680.763,38.086,35.645,22.949,37.109,50.781
1532385680.767,33.691,49.805,21.484,31.738,-10.742
1532385680.771,21.484,55.176,16.602,23.926,-20.020
1532385680.775,30.762,43.945,19.043,30.762,56.641
1532385680.779,38.574,41.504,20.996,34.668,89.355
1532385680.783,45.410,38.574,23.926,28.809,16.113
1532385680.787,46.875,33.203,20.020,27.832,-15.137
1532385680.791,42.969,32.715,13.184,29.297,19.531
1532385680.795,43.945,22.949,7.812,28.809,71.289
1532385680.799,50.781,14.160,11.230,31.738,32.227
1532385680.803,34.180,23.438,18.066,29.297,-33.691
1532385680.806,40.039,41.992,17.090,29.297,25.391
1532385680.810,46.875,51.758,10.254,30.762,99.609
1532385680.814,32.227,50.293,1.953,38.574,48.828
1532385680.818,32.715,48.340,6.836,45.898,-21.973
1532385680.822,33.203,38.086,14.160,39.551,-2.441
1532385680.826,45.898,41.504,22.949,47.852,91.309
1532385680.830,51.270,44.922,25.391,44.434,92.285
1532385680.834,38.574,36.621,20.508,29.297,-23.438
1532385680.838,39.551,25.391,22.949,34.180,-22.461
1532385680.842,38.574,18.555,24.902,33.203,66.895
1532385680.846,39.062,24.414,15.137,32.715,89.355
1532385680.849,41.992,16.113,11.719,34.180,-6.836
1532385680.853,36.133,18.555,17.090,32.227,-41.016
1532385680.857,29.297,35.645,12.695,30.273,85.449
1532385680.861,30.762,50.293,15.137,33.203,127.441
1532385680.865,43.945,55.176,25.391,34.668,34.668
1532385680.869,37.598,42.480,22.949,31.738,-44.434
1532385680.873,28.320,36.133,20.508,36.133,-19.531
1532385680.877,39.062,38.574,21.973,37.598,97.168
1532385680.881,41.016,23.438,20.508,40.039,86.426
1532385680.885,38.574,11.719,20.508,41.992,-11.719
1532385680.888,39.062,16.113,13.672,35.156,7.812
1532385680.892,41.504,22.461,12.695,36.133,96.191
1532385680.896,41.504,34.180,19.043,33.691,64.453
1532385680.900,32.715,41.504,24.902,27.344,-24.902
1532385680.904,31.250,34.180,27.832,30.762,-39.062
1532385680.908,37.598,37.598,23.438,31.738,47.363
1532385680.912,43.457,51.270,19.531,30.762,90.332
1532385680.916,54.199,47.852,21.973,37.598,1.465
1532385680.920,55.176,33.691,26.367,40.527,-40.527
1532385680.924,48.340,24.902,25.879,39.062,49.805
1532385680.928,47.363,30.273,14.160,27.832,107.910
1532385680.931,47.363,33.203,5.859,10.742,49.805
1532385680.935,43.457,24.902,15.137,12.695,1.953
1532385680.939,49.805,21.484,31.250,21.484,31.738
1532385680.943,46.875,28.809,35.156,22.461,73.242
1532385680.947,42.969,41.504,29.785,27.344,46.875
1532385680.951,43.945,39.551,23.438,31.250,-38.574
1532385680.955,41.992,38.086,15.625,34.668,-25.879
1532385680.959,33.203,47.363,18.066,39.062,83.984
1532385680.963,23.926,41.016,23.438,41.504,81.543
1532385680.967,19.043,31.738,20.020,42.480,10.742
1532385680.970,14.648,39.551,19.043,38.086,-41.504
1532385680.974,27.344,34.180,21.973,36.621,12.207
1532385680.978,39.551,34.668,24.902,45.410,86.426
1532385680.982,36.133,35.156,24.414,48.340,31.250
1532385680.986,27.832,22.949,22.949,34.668,-4.883
1532385680.990,25.879,25.391,20.020,25.391,48.828
1532385680.994,28.320,23.438,16.602,28.320,90.820
1532385680.998,24.414,30.273,16.113,28.320,35.156
1532385681.002,26.855,35.645,13.672,29.785,-32.715
1532385681.006,19.531,30.273,9.766,27.344,17.578
1532385681.010,27.344,38.086,13.184,23.926,69.336
1532385681.013,34.668,39.551,18.555,29.785,17.090
1532385681.017,25.391,33.203,19.043,34.180,-34.180
1532385681.021,36.133,34.180,24.902,42.480,-1.953
1532385681.025,35.645,30.762,29.297,49.316,88.379
1532385681.029,28.320,22.949,25.391,40.527,53.711
1532385681.033,33.691,15.625,16.602,31.738,-39.062
1532385681.037,34.668,20.508,13.184,26.855,-34.180
1532385681.041,37.598,38.086,10.742,17.578,24.902
1532385681.045,33.203,37.598,6.348,22.461,78.613
1532385681.049,23.926,29.297,13.672,24.902,16.113
1532385681.053,32.227,32.227,18.555,33.203,-49.805
1532385681.056,29.297,36.621,15.625,39.062,28.320
1532385681.060,29.785,31.738,15.137,33.203,105.469
1532385681.064,32.715,27.832,8.301,30.762,48.340
1532385681.068,25.879,29.297,2.441,28.320,-32.227
1532385681.072,29.785,23.926,6.348,24.902,-37.598
1532385681.076,44.434,38.574,15.625,33.691,66.406
1532385681.080,44.922,44.922,14.160,37.109,96.191
1532385681.084,36.621,30.273,8.301,27.344,21.484
1532385681.088,42.480,28.809,12.207,23.438,-1.465
1532385681.092,32.715,37.598,11.719,20.996,65.430
1532385681.095,33.203,37.598,14.648,28.809,86.914
1532385681.099,30.273,37.109,16.602,34.180,11.719
1532385681.103,29.297,38.086,15.625,29.297,-23.926
1532385681.107,37.598,36.621,11.719,32.227,49.316
1532385681.111,31.250,19.531,9.766,26.367,92.285
1532385681.115,33.691,13.184,6.348,22.461,15.625
1532385681.119,31.738,40.527,8.789,25.391,-29.297
1532385681.123,28.809,50.293,14.648,24.902,23.926
1532385681.127,37.109,27.832,6.348,22.949,115.723
1532385681.131,39.062,17.578,3.418,22.949,76.660
1532385681.135,35.645,27.832,3.906,24.414,-16.113
1532385681.138,30.273,38.086,4.883,22.461,12.695
1532385681.142,45.898,41.992,0.977,28.320,94.727
1532385681.146,46.387,34.668,2.930,32.227,84.473
1532385681.150,35.645,30.762,7.324,31.250,-41.504
1532385681.154,35.645,41.016,3.418,26.855,-72.266
1532385681.158,34.180,33.203,4.883,22.461,52.734
1532385681.162,38.574,18.066,9.277,26.367,78.613
1532385681.166,53.711,22.461,14.648,34.668,-11.719
1532385681.170,43.457,33.691,14.160,28.809,-20.996
1532385681.174,41.504,40.527,9.277,20.020,64.453
1532385681.178,42.480,44.922,6.836,20.508,88.379
1532385681.181,20.996,38.574,-3.418,16.602,34.180
1532385681.185,24.902,27.344,-9.766,21.484,-24.414
1532385681.189,30.273,33.203,-1.953,20.020,6.348
1532385681.193,29.785,44.922,4.395,18.555,107.910
1532385681.197,36.621,34.668,2.930,22.461,70.312
1532385681.201,44.434,38.086,1.465,22.949,-36.133
1532385681.205,33.691,44.922,3.906,20.020,-34.180
1532385681.209,30.273,28.320,8.789,21.973,48.828
1532385681.213,38.086,28.809,9.277,21.484,52.246
1532385681.217,36.133,35.645,5.371,20.996,-18.066
1532385681.220,31.250,32.227,3.906,23.438,-29.785
1532385681.224,29.297,36.621,6.348,22.949,32.715
1532385681.228,33.691,48.340,11.230,30.273,96.680
1532385681.232,30.762,47.363,11.719,29.297,46.875
1532385681.236,21.484,36.621,10.742,26.855,-5.371
1532385681.240,25.391,28.809,8.789,24.902,28.320
1532385681.244,28.320,33.691,6.836,21.484,89.844
1532385681.248,27.344,40.527,13.184,25.391,53.223
1532385681.252,38.086,37.109,18.066,30.273,-29.785
1532385681.256,40.039,41.504,20.996,29.785,-16.113
1532385681.260,41.016,41.016,21.973,32.227,60.547
1532385681.263,42.969,29.297,21.484,35.645,50.781
1532385681.267,31.250,24.414,18.555,35.645,-19.531
1532385681.271,31.250,28.320,13.672,31.738,-22.949
1532385681.275,35.156,36.133,18.066,28.809,74.219
1532385681.279,41.504,42.480,21.973,31.250,97.656
1532385681.283,43.457,47.363,25.879,33.691,4.395
1532385681.287,36.133,33.203,29.785,34.668,-18.555
1532385681.291,28.320,27.832,24.414,27.832,49.805
1532385681.295,29.785,43.457,17.578,22.461,65.430
1532385681.299,28.809,37.109,19.531,23.438,20.508
1532385681.303,19.043,32.227,24.414,24.902,-29.297
1532385681.306,20.020,39.062,28.809,28.809,25.391
1532385681.310,26.855,36.621,27.344,28.809,115.234
1532385681.314,30.762,26.367,22.949,27.344,57.617
1532385681.318,24.902,17.090,25.391,29.297,-18.555
1532385681.322,23.926,30.762,30.273,35.645,-6.836
1532385681.326,24.902,41.992,30.273,36.621,74.707
1532385681.330,41.016,42.969,33.203,37.598,71.289
1532385681.334,40.527,41.504,27.344,36.621,-26.855
1532385681.338,18.555,31.250,18.066,23.438,-46.387
1532385681.342,19.531,30.762,18.555,19.531,41.992
1532385681.345,19.531,30.273,17.578,22.949,102.051
1532385681.349,16.602,24.902,24.902,20.020,31.250
1532385681.353,17.578,25.879,29.785,16.602,-45.898
1532385681.357,31.738,24.414,30.762,23.926,19.043
1532385681.361,35.156,19.531,29.785,25.879,88.379
1532385681.365,21.484,25.879,30.762,26.855,22.949
1532385681.369,29.785,31.250,34.180,32.227,-30.273
1532385681.373,39.062,22.949,24.902,29.785,37.598
1532385681.377,39.062,37.109,20.508,31.250,112.793
1532385681.381,38.574,45.898,29.785,33.203,63.477
1532385681.385,27.344,36.621,26.855,20.996,-26.367
1532385681.388,30.762,26.855,21.484,16.602,5.371
1532385681.392,36.133,14.648,26.855,20.020,75.684
1532385681.396,29.297,22.461,29.785,23.926,55.664
1532385681.400,28.320,33.691,25.879,26.367,-10.742
1532385681.404,33.203,30.273,25.879,28.809,-32.715
1532385681.408,32.715,21.484,27.832,28.320,38.574
1532385681.412,26.855,35.156,24.902,28.809,77.148
1532385681.416,34.668,47.363,25.391,38.574,14.648
1532385681.420,41.992,40.527,33.203,41.504,-38.086
1532385681.424,37.598,34.668,34.180,31.738,24.902
1532385681.427,51.758,37.109,42.480,41.016,81.543
1532385681.431,69.824,41.992,44.434,49.805,4.883
1532385681.435,52.246,39.062,29.785,37.109,-38.574
1532385681.439,35.156,39.062,26.367,37.109,-4.883
1532385681.443,36.133,41.504,25.879,37.109,62.988
1532385681.447,31.250,31.738,31.250,34.668,52.246
1532385681.451,32.715,20.508,39.551,39.062,-47.852
1532385681.455,42.480,29.785,39.551,44.922,-29.297
1532385681.459,43.945,45.898,35.645,38.574,70.312
1532385681.463,37.598,56.152,32.715,39.551,94.727
1532385681.467,45.410,55.664,34.668,43.457,21.973
1532385681.470,35.156,48.340,43.457,32.715,-25.879
1532385681.474,25.391,41.504,48.828,30.273,26.855
1532385681.478,43.457,34.180,50.781,36.621,67.871
1532385681.482,50.781,28.320,50.293,46.387,34.668
1532385681.486,33.203,29.297,46.875,42.480,-31.250
1532385681.490,31.250,40.039,43.945,30.273,7.812
1532385681.494,36.621,47.363,36.621,27.832,58.105
1532385681.498,37.109,41.992,36.621,35.156,35.645
1532385681.502,35.156,28.809,35.156,39.062,-23.926
1532385681.506,35.645,22.949,35.645,34.668,-6.836
1532385681.510,36.133,36.621,44.922,32.227,82.031
1532385681.513,36.133,46.875,49.805,34.180,50.293
1532385681.517,41.016,48.340,52.734,37.109,-14.648
1532385681.521,50.781,34.668,45.898,38.574,-0.488
1532385681.525,43.457,37.598,41.504,32.227,77.148
1532385681.529,32.715,46.875,41.504,24.902,87.402
1532385681.533,45.410,40.039,45.898,29.297,-12.695
1532385681.537,44.434,42.480,46.875,32.227,-60.547
1532385681.541,32.715,33.203,34.180,22.949,43.945
1532385681.545,38.086,31.738,29.297,23.926,127.930
1532385681.549,44.922,28.809,38.086,30.762,48.340
1532385681.552,44.434,26.367,43.945,32.227,-57.617
1532385681.556,41.504,38.574,35.645,30.762,-7.324
1532385681.560,38.574,39.062,36.621,30.762,113.770
1532385681.564,37.598,39.062,42.969,31.738,77.637
1532385681.568,43.457,36.621,38.086,32.227,-27.344
1532385681.572,35.156,33.203,36.621,22.461,-49.805
1532385681.576,35.645,46.875,40.039,28.320,39.062
1532385681.580,41.016,42.969,41.992,41.016,98.633
1532385681.584,35.156,31.738,35.156,33.203,13.184
1532385681.588,31.250,29.785,32.227,27.344,-14.160
1532385681.592,34.668,21.484,43.457,30.762,49.316
1532385681.595,42.969,27.344,45.410,43.945,78.125
1532385681.599,40.527,31.738,39.551,35.156,27.832
1532385681.603,31.738,48.340,33.691,23.438,-19.531
1532385681.607,37.109,63.477,29.785,32.227,38.574
1532385681.611,39.551,51.270,33.203,31.250,84.473
1532385681.615,31.738,42.969,35.645,33.203,6.348
1532385681.619,38.574,39.062,36.621,35.645,-63.965
1532385681.623,54.199,41.504,42.480,42.969,-16.602
1532385681.627,49.316,43.945,37.109,43.945,80.078
1532385681.631,42.480,27.344,33.203,33.691,35.156
1532385681.635,51.758,17.090,34.668,32.715,-74.219
1532385681.638,46.387,36.133,36.621,40.039,-42.480
1532385681.642,33.203,44.922,37.598,34.668,64.941
1532385681.646,36.621,36.621,31.250,29.785,68.359
1532385681.650,42.480,38.574,24.902,31.250,-5.371
1532385681.654,36.133,46.387,23.926,35.645,-8.789
1532385681.658,38.574,36.133,30.762,41.504,61.523
1532385681.662,53.711,33.691,37.109,40.039,83.008
1532385681.666,61.523,53.711,45.410,44.434,39.551
1532385681.670,55.176,45.410,42.480,46.387,-14.160
1532385681.674,47.852,30.273,33.203,35.645,-0.488
1532385681.677,47.852,38.574,34.668,33.691,73.242
1532385681.681,40.527,37.598,30.762,30.273,41.504
1532385681.685,40.527,42.480,22.949,31.250,-32.715
1532385681.689,53.711,54.199,24.414,34.668,-12.207
1532385681.693,53.711,43.457,31.738,27.832,95.215
1532385681.697,54.688,26.855,40.527,27.832,69.824
1532385681.701,67.871,29.297,41.016,37.109,-31.738
1532385681.705,69.824,51.758,36.133,45.410,-25.391
1532385681.709,63.477,56.152,39.062,50.293,64.453
1532385681.713,43.945,36.133,44.434,47.363,75.195
1532385681.717,40.039,29.297,47.852,54.199,12.695
1532385681.720,48.828,45.410,47.852,63.477,-24.902
1532385681.724,34.668,52.246,42.480,42.969,47.363
1532385681.728,20.508,51.758,39.062,27.344,107.422
1532385681.732,20.996,47.363,34.668,37.109,7.324
1532385681.736,30.762,34.180,37.598,42.480,-34.668
1532385681.740,37.109,30.762,38.574,37.598,23.438
1532385681.744,35.156,40.039,32.715,36.621,97.656
1532385681.748,39.062,51.270,33.691,41.016,80.078
1532385681.752,43.945,37.109,42.969,41.992,-9.277
1532385681.756,45.898,13.672,48.828,43.457,-25.391
1532385681.759,51.758,31.250,50.293,48.340,55.664
1532385681.763,51.758,50.781,47.363,47.852,93.262
1532385681.767,52.246,58.105,42.480,46.875,4.395
1532385681.771,47.852,55.664,46.387,39.551,-49.316
1532385681.775,34.180,46.387,47.852,35.645,47.363
1532385681.779,36.133,41.016,40.039,41.992,103.516
1532385681.783,38.574,24.902,40.039,41.992,14.648
1532385681.787,36.133,20.020,42.969,44.922,-40.039
1532385681.791,39.062,30.762,37.109,41.016,20.508
1532385681.795,44.434,40.039,41.016,35.156,87.402
1532385681.799,46.875,41.992,46.387,33.691,48.828
1532385681.802,46.875,40.039,45.410,34.668,-20.020
1532385681.806,46.875,45.898,41.504,40.039,2.441
1532385681.810,41.504,43.457,37.109,33.691,64.453
1532385681.814,47.363,41.016,46.875,38.574,59.082
1532385681.818,53.711,40.039,43.457,41.992,-14.160
1532385681.822,39.062,38.086,31.250,31.738,-2.930
1532385681.826,32.715,43.457,32.715,26.855,117.676
1532385681.830,37.109,44.434,37.109,27.832,96.680
1532385681.834,36.133,44.434,40.039,32.227,-7.324
1532385681.838,41.016,41.504,39.551,31.738,-9.766
1532385681.842,62.012,33.203,37.109,33.691,50.293
1532385681.845,43.457,35.156,36.621,35.156,107.422
1532385681.849,30.762,38.574,33.691,31.250,37.109
1532385681.853,39.062,25.879,25.879,27.832,-53.711
1532385681.857,38.086,35.645,17.090,31.738,20.508
1532385681.861,39.551,44.922,19.531,29.785,98.145
1532385681.865,49.316,33.203,31.738,31.250,56.152
1532385681.869,48.828,40.527,27.344,36.621,-12.207
1532385681.873,39.551,44.922,18.555,22.461,14.648
1532385681.877,35.156,39.551,21.973,15.625,96.680
1532385681.881,37.598,25.391,22.461,23.438,64.453
1532385681.884,45.898,23.926,20.020,29.297,-6.348
1532385681.888,44.922,33.691,15.137,29.785,-17.578
1532385681.892,36.133,37.109,12.695,30.273,42.480
1532385681.896,42.480,34.668,20.996,37.109,54.688
1532385681.900,45.410,23.926,15.137,36.621,-41.504
1532385681.904,40.039,38.086,5.371,37.598,-38.574
1532385681.908,50.293,53.223,14.648,39.062,53.223
1532385681.912,37.109,45.898,11.230,28.320,75.684
1532385681.916,26.855,33.203,5.859,22.461,21.484
1532385681.920,40.039,9.766,9.277,21.973,-3.418
1532385681.924,47.852,22.949,0.977,19.043,40.527
1532385681.927,41.016,54.688,-1.465,18.066,102.051
1532385681.931,35.645,47.363,3.906,22.461,43.457
1532385681.935,41.992,32.715,3.906,27.344,-44.434
1532385681.939,47.852,28.320,1.465,27.344,-24.414
1532385681.943,37.598,35.156,0.488,26.855,74.219
1532385681.947,30.762,39.551,6.836,29.785,84.473
1532385681.951,40.527,32.227,10.742,31.738,-20.996
1532385681.955,37.598,30.762,5.371,27.832,-27.344
1532385681.959,31.738,35.645,4.883,28.320,73.242
1532385681.963,36.621,30.273,0.488,27.344,92.773
1532385681.967,35.645,29.297,-8.301,29.785,8.789
1532385681.970,22.461,41.016,-9.277,25.879,-22.461
1532385681.974,17.090,36.621,-5.371,18.555,52.734
1532385681.978,13.672,24.902,0.977,21.484,103.516
1532385681.982,17.578,18.066,0.000,25.879,44.922
1532385681.986,18.066,19.531,-6.836,22.461,-35.156
1532385681.990,15.137,36.621,-4.883,19.043,-11.719
1532385681.994,23.438,36.621,-4.395,17.090,62.012
1532385681.998,36.621,25.391,1.465,22.461,53.223
1532385682.002,30.762,20.020,9.766,28.320,-13.184
1532385682.006,19.043,16.113,-0.977,25.391,10.742
1532385682.009,16.113,30.762,-14.648,20.020,100.586
1532385682.013,12.695,36.133,-20.996,10.742,64.453
1532385682.017,8.789,36.133,-7.324,12.207,-12.695
1532385682.021,18.555,30.273,3.418,22.949,-7.812
1532385682.025,26.367,23.438,0.977,25.879,60.059
1532385682.029,24.414,30.762,3.418,19.043,82.520
1532385682.033,23.926,35.156,6.348,22.461,14.648
1532385682.037,31.738,22.949,8.301,30.273,-48.340
1532385682.041,37.109,25.879,6.348,29.297,14.160
1532385682.045,26.855,34.180,-0.488,25.391,88.379
1532385682.049,27.832,20.996,6.836,33.203,29.785
1532385682.052,38.574,25.391,10.254,40.527,-66.895
1532385682.056,33.203,24.414,0.488,34.668,-20.508
1532385682.060,28.809,23.926,-4.395,26.855,86.426
1532385682.064,17.090,33.691,-1.953,22.949,61.035
1532385682.068,17.090,36.621,-2.930,27.344,-24.902
1532385682.072,24.414,15.625,-13.184,29.785,-35.645
1532385682.076,23.438,5.371,-7.812,33.691,79.102
1532385682.080,29.785,18.066,7.812,38.086,112.305
1532385682.084,31.738,25.879,13.184,34.668,1.953
1532385682.088,26.855,27.832,8.301,27.344,-9.277
1532385682.091,23.926,27.832,-0.488,19.531,41.504
1532385682.095,28.809,32.715,-4.395,14.160,48.828
1532385682.099,29.785,35.645,-4.883,21.973,20.020
1532385682.103,28.809,21.973,-7.324,25.391,-28.809
1532385682.107,26.367,13.184,-6.836,12.207,-1.465
1532385682.111,19.531,14.160,-1.465,14.160,69.336
1532385682.115,24.414,20.508,-2.441,18.066,38.086
1532385682.119,26.367,26.855,-1.953,18.066,-22.949
1532385682.123,19.531,28.809,1.465,24.414,26.367
1532385682.127,21.484,27.344,-1.465,24.902,94.238
1532385682.131,26.367,22.949,-1.953,27.832,62.988
1532385682.134,24.414,26.367,1.465,25.879,-9.766
1532385682.138,23.926,24.414,-6.836,17.578,-0.977
1532385682.142,25.391,28.320,-8.789,16.113,81.055
1532385682.146,15.137,22.461,-8.301,15.137,110.840
1532385682.150,20.996,16.113,-7.812,18.555,25.391
1532385682.154,27.344,22.949,-2.930,20.020,-53.223
1532385682.158,29.297,18.066,-1.953,22.461,19.531
1532385682.162,25.391,12.695,-1.953,23.438,91.797
1532385682.166,24.902,32.715,-2.930,21.484,37.109
1532385682.170,39.062,38.574,-2.441,32.715,-20.508
1532385682.174,37.109,26.855,-4.883,36.621,8.789
1532385682.177,36.133,20.996,-13.184,20.996,89.844
1532385682.181,35.156,24.414,-15.625,14.648,81.055
1532385682.185,28.809,31.250,-9.277,17.090,6.836
1532385682.189,40.527,24.414,3.906,27.344,4.395
1532385682.193,39.551,23.438,5.371,27.832,63.477
1532385682.197,33.203,29.297,-6.836,15.137,62.012
1532385682.201,33.691,33.203,-8.301,15.625,-22.461
1532385682.205,40.527,26.367,-5.371,30.273,-19.531
1532385682.209,42.969,19.043,-5.371,27.832,71.777
1532385682.213,40.039,20.996,-4.395,16.113,72.754
1532385682.216,47.852,32.227,-8.789,21.973,10.742
1532385682.220,38.574,36.133,-8.301,25.879,-2.441
1532385682.224,30.273,21.973,-1.953,35.156,39.551
1532385682.228,31.250,8.301,4.395,37.598,68.359
1532385682.232,28.320,16.113,9.766,31.738,12.207
1532385682.236,35.645,19.043,15.137,41.016,-44.922
1532385682.240,32.715,7.324,18.555,46.875,19.043
1532385682.244,18.555,6.348,10.742,40.039,110.840
1532385682.248,27.344,14.160,6.348,38.574,60.547
1532385682.252,29.785,16.602,5.859,34.668,-24.414
1532385682.256,24.414,28.320,2.930,25.391,-20.020
1532385682.259,21.973,27.832,0.488,17.090,67.871
1532385682.263,23.926,24.414,1.953,16.602,90.820
1532385682.267,33.691,24.414,8.789,14.648,-8.301
1532385682.271,32.227,9.766,11.230,5.859,-48.828
1532385682.275,26.855,20.996,2.930,4.883,27.832
1532385682.279,20.508,33.691,-1.465,5.371,95.703
1532385682.283,23.438,22.949,6.348,9.277,44.434
1532385682.287,41.504,19.043,13.184,26.855,-32.715
1532385682.291,37.109,25.879,0.977,28.809,21.973
1532385682.295,25.391,23.438,-11.230,12.695,115.234
1532385682.299,30.273,19.043,-1.465,15.625,61.035
1532385682.302,36.133,26.367,1.953,28.809,-5.859
1532385682.306,39.062,34.180,-8.301,32.227,21.484
1532385682.310,40.527,37.109,-3.906,28.320,97.656
1532385682.314,37.598,34.668,4.395,29.297,85.449
1532385682.318,38.574,35.156,5.371,31.250,-6.836
1532385682.322,44.922,27.344,5.859,34.180,-26.855
1532385682.326,47.363,20.996,1.465,34.668,58.105
1532385682.330,43.945,25.879,1.953,28.809,82.031
1532385682.334,40.039,40.039,7.324,31.738,-2.930
1532385682.338,34.668,45.898,9.766,31.738,-14.160
1532385682.341,29.297,26.855,0.977,23.438,56.641
1532385682.345,28.809,11.230,-7.324,21.484,103.027
1532385682.349,27.344,15.137,-0.977,24.414,21.484
1532385682.353,27.832,17.090,-3.418,22.949,-41.992
1532385682.357,25.879,29.297,-6.348,21.973,38.086
1532385682.361,29.297,40.039,-4.883,26.855,101.074
1532385682.365,23.926,29.297,-2.930,28.809,60.059
1532385682.369,28.320,19.043,7.324,28.320,-23.438
1532385682.373,24.902,21.484,4.395,16.602,-40.527
1532385682.377,9.277,21.973,-3.906,9.766,50.293
1532385682.381,20.996,37.109,-0.977,19.531,58.105
1532385682.384,21.973,36.621,-2.930,16.602,-19.531
1532385682.388,13.184,23.438,-9.277,5.371,-37.109
1532385682.392,16.602,17.578,-2.930,9.277,40.039
1532385682.396,23.438,16.602,5.859,14.160,96.680
1532385682.400,24.414,33.691,2.930,8.789,30.273
1532385682.404,21.484,35.156,-12.695,2.441,-11.719
1532385682.408,30.273,12.695,-11.230,5.371,55.664
1532385682.412,34.180,6.348,-2.441,9.766,100.586
1532385682.416,37.598,24.414,-4.883,15.625,51.758
1532385682.420,38.574,34.668,-3.418,20.996,-0.977
1532385682.424,28.320,33.203,-2.930,19.531,31.250
1532385682.427,26.367,30.273,-7.812,25.879,92.285
1532385682.431,13.184,24.414,-14.160,20.020,39.062
1532385682.435,13.672,24.902,-14.160,18.555,-40.039
1532385682.439,20.020,22.461,-5.371,21.484,-13.184
1532385682.443,21.973,10.742,3.418,22.949,93.750
1532385682.447,24.414,2.441,3.906,15.625,86.426
1532385682.451,25.879,16.602,6.348,6.348,10.254
1532385682.455,29.297,31.250,13.672,5.371,4.883
1532385682.459,30.762,22.949,11.230,12.695,64.941
1532385682.463,34.180,16.113,6.348,29.785,77.148
1532385682.466,28.809,31.250,6.348,37.109,13.184
1532385682.470,28.320,36.133,1.953,35.156,-27.344
1532385682.474,26.855,20.020,-0.977,40.527,39.551
1532385682.478,19.043,18.066,6.348,44.922,121.094
1532385682.482,16.602,25.391,7.812,37.598,75.684
1532385682.486,13.672,23.926,6.836,33.691,-26.855
1532385682.490,14.648,10.742,6.836,36.133,-7.324
1532385682.494,20.996,6.348,-0.488,32.715,66.406
1532385682.498,25.879,18.555,2.930,32.715,26.367
1532385682.502,20.996,23.438,3.418,33.691,-31.738
1532385682.506,18.066,13.672,1.953,30.762,-27.832
1532385682.509,18.066,15.625,7.324,30.273,56.641
1532385682.513,18.066,29.785,8.789,28.320,59.082
1532385682.517,20.020,34.668,8.789,27.832,-26.855
1532385682.521,18.066,33.691,6.836,30.273,-25.879
1532385682.525,21.484,22.461,7.812,32.227,50.293
1532385682.529,28.809,23.926,10.742,39.062,86.914
1532385682.533,32.715,38.086,6.348,44.434,22.461
1532385682.537,31.250,31.250,2.441,40.527,-35.156
1532385682.541,34.180,19.531,0.977,45.410,46.875
1532385682.545,40.039,16.602,5.371,53.711,127.441
1532385682.548,39.551,11.719,12.695,52.246,50.781
1532385682.552,42.480,16.113,12.695,48.828,-25.879
1532385682.556,35.156,30.762,10.254,43.457,0.000
1532385682.560,32.715,40.039,10.742,40.039,78.613
1532385682.564,42.969,26.855,9.766,44.434,67.871
1532385682.568,39.551,14.648,10.742,47.363,-30.762
1532385682.572,30.762,22.461,13.672,38.574,-41.992
1532385682.576,32.715,28.809,12.207,37.598,48.828
1532385682.580,30.273,23.926,7.324,38.574,72.266
1532385682.584,28.320,26.367,6.836,31.250,-9.277
1532385682.588,31.250,27.832,20.020,30.762,-40.039
1532385682.591,30.273,17.578,19.531,31.738,25.391
1532385682.595,26.367,28.320,8.301,23.926,80.078
1532385682.599,29.297,11.719,12.207,20.020,-4.395
1532385682.603,36.621,1.953,14.160,26.855,-64.453
1532385682.607,33.203,34.668,9.277,24.902,9.766
1532385682.611,33.203,48.828,11.719,20.508,67.871
1532385682.615,40.527,38.574,13.672,28.809,21.973
1532385682.619,43.457,23.438,11.719,30.273,-34.668
1532385682.623,38.086,20.996,6.836,25.391,16.602
1532385682.627,36.133,25.879,4.883,24.414,89.355
1532385682.631,37.109,32.227,10.742,25.879,64.941
1532385682.634,36.133,22.949,17.090,31.738,-14.648
1532385682.638,48.340,28.320,17.578,35.645,-4.883
1532385682.642,56.641,27.832,15.625,33.203,84.473
1532385682.646,46.875,0.977,4.883,30.273,89.844
1532385682.650,38.086,16.602,-0.488,24.414,8.301
1532385682.654,24.414,37.109,4.395,16.602,-6.836
1532385682.658,28.320,37.109,12.695,19.043,72.266
1532385682.662,34.668,29.297,16.602,21.484,113.281
1532385682.666,26.855,25.879,19.043,17.578,36.621
1532385682.670,30.762,31.250,20.508,22.461,-40.527
1532385682.673,27.832,27.344,15.625,17.090,17.090
1532385682.677,34.668,14.160,7.812,20.020,100.586
1532385682.681,37.109,15.625,8.789,22.461,57.617
1532385682.685,29.785,26.855,15.137,16.602,-21.973
1532385682.689,45.410,32.715,21.484,21.973,-14.160
1532385682.693,39.062,20.020,25.879,27.832,65.918
1532385682.697,36.133,16.113,22.461,29.297,80.566
1532385682.701,41.016,31.250,18.555,31.738,22.949
1532385682.705,41.016,30.762,12.695,31.738,4.395
1532385682.709,40.527,20.996,12.695,29.297,65.918
1532385682.713,33.203,23.438,14.648,26.855,70.801
1532385682.716,23.926,32.715,10.742,24.414,7.812
1532385682.720,29.297,36.621,3.906,30.762,-24.414
1532385682.724,35.645,40.039,7.812,33.691,52.734
1532385682.728,30.273,30.762,19.531,33.691,112.793
1532385682.732,35.156,13.672,26.855,40.039,42.480
1532385682.736,48.828,17.090,28.320,48.340,-18.555
1532385682.740,36.621,30.273,11.230,32.715,17.578
1532385682.744,15.137,36.133,1.465,23.926,72.266
1532385682.748,20.996,32.227,14.160,30.762,20.020
1532385682.752,27.344,28.320,18.555,29.297,-36.621
1532385682.756,25.391,24.902,17.578,26.367,-0.977
1532385682.759,15.625,28.809,21.484,27.344,93.750
1532385682.763,12.207,31.250,23.438,23.438,91.309
1532385682.767,29.785,20.996,25.391,26.367,1.953
1532385682.771,32.715,4.395,21.484,29.785,-23.438
1532385682.775,30.273,5.371,20.020,32.227,29.785
1532385682.779,28.809,26.367,18.066,33.691,97.656
1532385682.783,23.438,29.785,18.066,30.762,41.504
1532385682.787,34.668,16.602,23.926,33.691,-25.879
1532385682.791,42.480,31.250,15.625,35.156,22.949
1532385682.795,40.527,46.387,9.766,36.621,77.637
1532385682.798,40.039,44.434,18.066,41.504,45.898
1532385682.802,38.086,35.156,19.043,38.574,-33.203
1532385682.806,21.484,23.438,15.137,31.250,0.488
1532385682.810,5.859,26.367,12.207,19.043,86.426
1532385682.814,12.207,27.832,14.648,13.672,55.664
1532385682.818,20.020,27.344,17.090,20.508,-5.859
1532385682.822,22.949,30.762,16.113,23.438,-5.371
1532385682.826,25.391,24.902,18.066,32.227,70.312
1532385682.830,36.133,18.066,20.020,38.086,119.629
1532385682.834,38.574,23.926,27.832,38.574,30.273
1532385682.838,40.039,32.715,30.762,41.504,-33.203
1532385682.841,42.969,20.508,15.137,36.621,40.039
1532385682.845,41.504,23.438,10.742,27.832,88.867
1532385682.849,34.180,26.367,16.113,20.020,12.207
1532385682.853,35.645,24.902,6.348,21.484,-76.172
1532385682.857,39.551,45.410,-3.418,28.809,0.488
1532385682.861,36.133,44.922,0.000,31.250,93.262
1532385682.865,41.992,37.109,11.230,28.320,46.875
1532385682.869,36.621,41.504,18.066,25.879,-24.902
1532385682.873,36.621,48.340,27.832,33.691,-3.906
1532385682.877,39.551,37.109,33.203,42.969,79.102
1532385682.880,39.062,6.836,13.672,25.879,48.828
1532385682.884,32.715,16.602,2.441,3.906,-33.691
1532385682.888,20.996,34.180,10.742,8.789,-31.738
1532385682.892,18.066,26.367,11.230,17.578,43.457
1532385682.896,19.043,34.180,7.324,17.578,83.496
1532385682.900,24.902,37.109,6.348,11.719,15.137
1532385682.904,26.855,33.203,8.789,19.043,-35.156
1532385682.908,29.785,47.852,13.184,31.250,41.504
1532385682.912,39.551,36.133,10.254,25.391,88.867
1532385682.916,39.551,22.461,12.695,21.973,37.598
1532385682.920,23.926,32.715,14.160,17.578,-29.297
1532385682.923,27.344,36.133,18.066,22.461,20.020
1532385682.927,46.387,32.227,24.414,37.109,96.191
1532385682.931,53.223,41.016,21.484,34.180,24.414
1532385682.935,41.992,56.152,22.461,29.785,-52.246
1532385682.939,34.180,48.340,28.320,38.574,-1.465
1532385682.943,47.852,49.805,30.273,47.852,82.031
1532385682.947,68.848,43.945,26.367,49.316,89.844
1532385682.951,41.016,35.156,24.414,42.969,5.859
1532385682.955,20.020,32.227,28.320,43.945,-67.383
1532385682.959,34.180,19.043,30.273,45.410,17.090
1532385682.963,44.434,26.367,34.668,50.781,74.707
1532385682.966,44.922,56.641,31.738,49.316,8.301
1532385682.970,26.855,55.664,17.090,38.086,-34.668
1532385682.974,18.066,39.551,19.531,37.598,40.527
1532385682.978,31.738,39.551,25.391,39.062,116.211
1532385682.982,36.621,45.410,21.484,31.250,60.547
1532385682.986,20.996,27.344,25.879,27.832,26.367
1532385682.990,35.156,21.973,36.621,31.250,34.180
1532385682.994,46.387,34.668,30.273,23.926,71.777
1532385682.998,21.973,24.414,22.949,18.066,68.848
1532385683.002,16.113,25.391,22.461,19.043,-21.973
1532385683.005,26.367,52.734,21.484,26.855,-19.043
1532385683.009,37.598,51.270,24.414,27.344,52.734
1532385683.013,50.781,38.086,27.344,28.320,37.598
1532385683.017,47.363,38.574,19.531,30.762,-3.906
1532385683.021,40.039,24.902,11.719,24.414,5.859
1532385683.025,44.434,20.508,5.859,28.320,63.965
1532385683.029,41.504,39.062,6.836,31.738,77.637
1532385683.033,34.180,39.551,19.043,27.344,-20.020
1532385683.037,24.902,30.762,22.461,19.531,-53.711
1532385683.041,29.785,27.832,19.043,20.020,26.855
1532385683.045,23.438,12.695,14.160,27.832,79.590
1532385683.048,18.555,19.531,11.719,29.297,55.176
1532385683.052,37.598,49.805,16.113,36.133,-15.625
1532385683.056,22.949,41.992,15.137,32.715,-7.812
1532385683.060,18.066,22.949,15.137,33.203,86.426
1532385683.064,36.621,27.832,20.020,39.551,62.988
1532385683.068,35.156,29.785,17.090,30.273,-14.648
1532385683.072,26.367,21.973,13.672,22.949,-3.418
1532385683.076,28.809,28.320,11.719,24.414,93.750
