timestamps,TP9,AF7,AF8,TP10,Right AUX
1532385079.068,66.406,33.691,36.133,54.199,36.133
1532385079.072,57.617,18.555,30.273,49.316,14.648
1532385079.076,38.086,21.484,29.785,38.086,25.879
1532385079.080,34.668,38.086,25.879,36.621,39.062
1532385079.084,36.621,33.203,27.832,39.062,43.457
1532385079.087,37.109,26.855,38.574,41.016,43.945
1532385079.091,34.180,35.645,41.992,37.109,26.855
1532385079.095,32.227,32.715,41.016,41.992,11.230
1532385079.099,35.156,29.785,37.109,45.410,43.457
1532385079.103,42.480,43.457,23.926,39.551,40.039
1532385079.107,40.527,37.598,18.066,36.621,41.016
1532385079.111,34.180,33.203,36.621,39.062,40.527
1532385079.115,34.180,41.992,45.410,36.621,31.250
1532385079.119,39.062,43.457,43.457,34.668,47.852
1532385079.123,50.293,47.363,40.527,43.945,37.598
1532385079.126,41.992,32.227,26.367,37.109,50.781
1532385079.130,29.785,13.184,18.066,28.320,48.828
1532385079.134,34.668,19.043,30.273,37.598,30.273
1532385079.138,36.133,34.668,40.039,39.062,20.020
1532385079.142,39.551,45.898,34.668,34.668,26.855
1532385079.146,48.828,47.852,27.832,43.945,36.133
1532385079.150,44.434,45.898,35.645,43.945,17.090
1532385079.154,30.762,47.852,37.109,26.367,-8.301
1532385079.158,36.621,53.223,32.715,29.297,-7.324
1532385079.162,53.223,48.340,37.598,37.109,18.066
1532385079.166,29.785,34.668,36.621,27.344,38.574
1532385079.169,14.648,27.344,36.621,20.020,28.320
1532385079.173,20.996,24.414,40.527,19.531,10.254
1532385079.177,24.414,20.996,38.574,23.438,21.973
1532385079.181,30.273,25.879,24.414,30.762,51.270
1532385079.185,40.527,21.484,33.691,38.574,30.273
1532385079.189,48.340,26.367,46.875,36.133,-17.578
1532385079.193,34.180,47.852,41.016,26.367,-18.066
1532385079.197,26.855,35.645,39.551,20.996,22.461
1532385079.201,36.621,27.832,39.551,32.227,31.738
1532385079.205,39.551,33.203,27.344,35.645,22.461
1532385079.209,39.062,31.738,8.301,30.762,25.391
1532385079.212,34.180,41.016,23.926,38.574,24.902
1532385079.216,36.133,41.504,49.316,37.598,44.434
1532385079.220,39.062,41.016,54.688,36.621,34.180
1532385079.224,40.039,50.781,54.199,44.922,31.250
1532385079.228,39.062,48.828,50.293,41.016,48.340
1532385079.232,41.504,46.387,40.039,33.203,18.066
1532385079.236,44.434,41.992,35.645,34.668,-11.719
1532385079.240,39.551,28.809,36.133,38.086,2.441
1532385079.244,34.180,22.461,30.273,36.621,28.320
1532385079.248,38.574,29.785,27.344,30.762,27.832
1532385079.251,41.504,20.020,24.414,33.203,8.789
1532385079.255,40.039,13.672,30.762,41.016,2.441
1532385079.259,37.109,31.738,37.598,37.598,16.602
1532385079.263,32.715,27.344,25.391,32.715,28.809
1532385079.267,28.320,17.090,18.066,33.691,14.160
1532385079.271,30.273,24.414,19.531,30.762,-0.488
1532385079.275,37.109,34.668,18.066,30.273,13.672
1532385079.279,35.156,35.156,25.391,30.762,28.320
1532385079.283,31.738,32.715,27.344,29.785,33.691
1532385079.287,34.180,22.461,19.043,34.668,17.090
1532385079.291,38.086,20.020,30.762,32.715,-8.301
1532385079.294,30.273,26.855,41.504,26.367,17.578
1532385079.298,29.297,27.832,39.062,30.762,42.969
1532385079.302,34.180,26.367,29.297,34.180,30.762
1532385079.306,39.551,27.344,28.320,36.621,41.504
1532385079.310,33.691,19.043,27.344,34.668,64.941
1532385079.314,28.320,6.836,20.020,27.832,59.570
1532385079.318,25.391,17.578,17.578,16.602,22.949
1532385079.322,14.160,24.902,12.207,14.648,-3.906
1532385079.326,18.066,18.066,20.020,16.113,12.207
1532385079.330,21.973,31.738,26.855,17.090,32.715
1532385079.334,22.461,39.062,25.879,17.578,18.555
1532385079.337,32.227,34.668,32.715,20.508,16.113
1532385079.341,28.320,30.273,28.809,26.855,30.273
1532385079.345,20.508,26.855,17.578,21.484,41.992
1532385079.349,32.227,19.531,16.602,20.996,35.645
1532385079.353,39.551,29.785,30.273,36.621,14.160
1532385079.357,25.879,39.551,33.203,31.738,16.602
1532385079.361,17.090,23.438,29.297,17.578,40.527
1532385079.365,26.367,12.207,23.438,27.344,49.805
1532385079.369,33.691,20.996,20.020,29.785,30.273
1532385079.373,20.996,32.227,21.484,27.832,-8.789
1532385079.376,15.625,30.273,25.391,28.809,10.254
1532385079.380,17.090,28.320,32.227,21.973,26.855
1532385079.384,18.555,39.062,27.344,20.508,9.277
1532385079.388,21.973,40.527,26.367,20.020,-10.254
1532385079.392,22.949,31.250,29.297,20.508,5.371
1532385079.396,36.133,33.203,20.996,27.344,10.742
1532385079.400,47.852,33.203,20.020,36.133,18.066
1532385079.404,34.668,31.738,27.832,31.738,44.922
1532385079.408,27.344,36.133,29.297,14.160,50.781
1532385079.412,28.809,35.645,27.832,14.160,59.570
1532385079.416,33.203,27.344,25.879,24.414,8.789
1532385079.419,34.180,24.414,22.461,22.461,1.953
1532385079.423,30.762,22.949,20.996,19.043,23.926
1532385079.427,28.320,17.090,21.484,19.531,37.598
1532385079.431,27.832,23.926,10.742,16.602,25.391
1532385079.435,28.809,29.785,7.324,19.043,10.742
1532385079.439,31.738,33.203,23.926,26.367,27.832
1532385079.443,29.785,39.551,37.598,24.414,41.016
1532385079.447,29.785,39.551,38.574,25.391,44.922
1532385079.451,23.438,29.297,34.668,22.949,31.738
1532385079.455,23.926,14.160,31.250,20.020,16.113
1532385079.458,40.039,19.531,31.250,35.645,34.668
1532385079.462,33.203,37.109,25.879,31.250,60.547
1532385079.466,20.020,34.180,12.695,15.137,59.082
1532385079.470,9.277,32.715,20.020,9.277,23.926
1532385079.474,14.160,35.645,28.809,15.137,3.906
1532385079.478,26.855,24.414,26.367,26.367,15.625
1532385079.482,24.902,22.461,28.320,30.273,12.695
1532385079.486,22.949,23.926,30.762,28.809,32.227
1532385079.490,29.785,20.020,33.203,23.926,59.082
1532385079.494,27.832,28.320,26.855,21.484,59.570
1532385079.498,28.320,35.156,21.973,19.043,65.918
1532385079.501,30.762,37.598,20.996,18.555,50.293
1532385079.505,26.855,35.645,20.508,20.996,29.297
1532385079.509,31.250,22.949,25.879,30.762,28.320
1532385079.513,20.020,16.113,30.762,20.508,39.062
1532385079.517,6.348,19.043,30.762,6.348,36.621
1532385079.521,1.465,20.020,33.203,12.207,37.598
1532385079.525,13.184,16.602,36.621,24.414,58.594
1532385079.529,23.926,11.230,34.668,24.414,60.059
1532385079.533,9.766,17.578,36.621,20.020,48.828
1532385079.537,5.371,25.879,38.086,21.973,24.902
1532385079.541,12.695,26.367,29.297,20.020,53.223
1532385079.544,27.832,24.414,23.438,27.832,60.547
1532385079.548,25.879,24.902,25.391,29.785,32.715
1532385079.552,23.438,35.645,28.809,21.484,-4.395
1532385079.556,37.109,39.551,36.621,28.320,-3.906
1532385079.560,40.039,23.926,36.133,35.156,40.039
1532385079.564,31.250,6.836,28.320,29.785,40.527
1532385079.568,31.738,17.090,34.180,23.438,29.297
1532385079.572,25.391,34.180,34.180,21.484,2.441
1532385079.576,20.508,41.016,27.344,20.508,0.977
1532385079.580,31.738,40.039,41.016,26.367,48.340
1532385079.583,36.133,40.039,57.129,31.250,72.266
1532385079.587,53.223,51.270,65.918,35.156,32.227
1532385079.591,79.102,63.965,67.871,47.363,0.977
1532385079.595,83.496,57.617,63.477,59.082,56.641
1532385079.599,84.473,62.012,66.895,60.059,73.730
1532385079.603,83.984,77.637,73.730,64.941,24.414
1532385079.607,82.520,81.543,74.219,73.242,2.441
1532385079.611,82.031,75.195,76.660,80.566,26.367
1532385079.615,84.961,71.289,76.172,90.332,53.223
1532385079.619,86.914,80.566,68.848,86.914,34.180
1532385079.623,83.984,82.520,81.543,90.332,15.625
1532385079.626,81.543,83.984,96.680,95.215,37.598
1532385079.630,76.660,89.844,93.262,82.520,35.156
1532385079.634,64.941,86.914,84.961,78.613,0.977
1532385079.638,59.082,76.172,79.102,71.289,15.625
1532385079.642,60.547,64.453,68.848,57.617,10.742
1532385079.646,63.477,49.316,58.594,58.594,25.391
1532385079.650,61.035,41.504,54.688,55.664,27.832
1532385079.654,47.852,40.527,45.410,37.598,27.344
1532385079.658,36.621,37.598,39.062,27.344,40.039
1532385079.662,35.645,45.898,37.598,30.762,63.965
1532385079.666,38.574,45.410,36.621,35.645,88.379
1532385079.669,29.785,33.691,39.062,26.367,50.781
1532385079.673,34.668,34.180,26.855,25.391,32.715
1532385079.677,26.855,36.621,20.508,26.855,41.016
1532385079.681,12.207,36.133,32.715,21.973,31.250
1532385079.685,24.902,27.832,34.180,19.531,24.902
1532385079.689,20.996,23.438,31.738,11.230,6.348
1532385079.693,19.043,24.414,25.391,16.602,21.484
1532385079.697,30.273,22.461,23.926,28.809,40.039
1532385079.701,37.598,16.113,36.133,29.785,27.344
1532385079.705,30.762,21.973,34.668,19.531,22.949
1532385079.708,22.949,37.598,16.113,18.066,0.977
1532385079.712,24.414,40.039,15.137,11.230,34.180
1532385079.716,23.438,37.598,22.461,10.742,60.547
1532385079.720,14.160,30.762,24.902,14.648,24.902
1532385079.724,15.137,32.715,23.926,10.254,31.250
1532385079.728,24.414,31.738,25.879,15.625,44.434
1532385079.732,20.508,28.809,38.086,11.230,26.367
1532385079.736,21.973,30.273,34.668,9.766,22.949
1532385079.740,20.996,23.926,25.391,7.324,27.344
1532385079.744,23.438,19.043,31.738,14.648,49.805
1532385079.748,33.203,23.926,37.109,23.438,70.801
1532385079.751,27.344,22.461,25.879,8.301,20.020
1532385079.755,21.973,24.414,20.020,-1.465,-25.879
1532385079.759,16.602,30.762,22.461,0.977,22.949
1532385079.763,21.484,29.297,26.855,9.277,46.875
1532385079.767,30.273,20.508,38.086,19.043,18.555
1532385079.771,21.973,20.508,41.016,23.926,-3.906
1532385079.775,8.301,22.949,40.039,16.602,18.555
1532385079.779,4.395,12.207,38.574,10.742,57.129
1532385079.783,12.207,16.602,37.598,18.066,22.949
1532385079.787,22.461,21.973,32.227,20.996,-4.395
1532385079.791,30.762,26.367,24.902,17.578,-0.488
1532385079.794,27.344,39.062,36.133,19.531,18.555
1532385079.798,20.020,33.691,34.668,16.602,9.766
1532385079.802,12.695,25.391,26.367,8.789,-33.691
1532385079.806,19.531,17.090,34.668,15.625,-17.578
1532385079.810,31.250,9.766,37.598,22.461,-8.301
1532385079.814,34.668,14.160,34.668,22.461,12.695
1532385079.818,34.180,26.855,31.738,26.855,43.945
1532385079.822,33.691,29.785,33.203,27.344,28.320
1532385079.826,33.203,28.320,37.598,24.902,23.926
1532385079.830,30.273,31.738,37.109,19.531,33.691
1532385079.833,30.273,33.203,31.250,20.020,14.160
1532385079.837,32.227,20.996,34.668,26.855,17.578
1532385079.841,31.738,11.719,46.875,22.949,20.020
1532385079.845,26.855,21.484,40.527,17.578,25.879
1532385079.849,28.320,17.090,33.203,18.066,33.203
1532385079.853,28.320,12.695,38.574,18.555,-10.742
1532385079.857,25.879,33.691,40.527,25.391,17.090
1532385079.861,26.855,42.480,37.109,26.855,67.871
1532385079.865,28.320,30.273,35.156,25.391,49.805
1532385079.869,23.926,24.414,33.203,26.367,15.625
1532385079.873,22.949,27.344,33.203,24.902,14.160
1532385079.876,28.809,23.438,38.574,27.832,55.176
1532385079.880,29.297,23.926,46.387,32.227,46.387
1532385079.884,21.973,37.598,52.246,31.250,11.719
1532385079.888,22.461,39.551,55.664,27.832,12.207
1532385079.892,23.438,23.438,47.363,28.320,-17.578
1532385079.896,20.996,25.879,34.668,26.367,-2.930
1532385079.900,13.672,26.855,33.691,19.531,39.551
1532385079.904,7.324,17.090,38.086,17.578,45.410
1532385079.908,17.090,20.996,36.133,23.438,44.434
1532385079.912,30.762,25.879,33.691,22.461,44.922
1532385079.916,32.227,20.996,39.062,21.973,50.293
1532385079.919,25.391,14.160,39.062,20.996,25.879
1532385079.923,35.156,20.508,28.809,20.508,29.785
1532385079.927,40.039,28.320,36.133,31.250,57.617
1532385079.931,37.598,35.156,58.105,34.668,20.996
1532385079.935,25.879,40.527,55.664,22.461,18.555
1532385079.939,14.648,33.203,46.387,17.578,38.086
1532385079.943,24.902,20.020,37.109,20.508,25.391
1532385079.947,20.508,8.301,30.273,17.090,52.734
1532385079.951,19.531,15.625,37.109,17.578,44.434
1532385079.955,28.809,18.066,41.992,13.672,0.977
1532385079.958,20.508,12.207,41.016,11.230,21.484
1532385079.962,17.090,17.090,35.645,19.043,32.227
1532385079.966,21.484,21.973,35.645,18.555,19.043
1532385079.970,24.414,30.273,31.738,19.531,31.250
1532385079.974,21.484,24.902,23.926,20.996,52.246
1532385079.978,20.996,10.742,24.414,21.484,40.039
1532385079.982,32.227,7.324,27.832,29.297,30.762
1532385079.986,40.039,10.742,44.434,29.297,36.621
1532385079.990,27.344,20.020,47.363,18.555,20.996
1532385079.994,15.625,28.320,37.598,12.207,0.977
1532385079.998,19.531,22.461,35.645,9.277,31.738
1532385080.001,21.484,11.230,30.273,10.742,57.617
1532385080.005,15.625,20.020,31.738,17.090,34.180
1532385080.009,17.090,20.996,39.062,14.648,37.598
1532385080.013,19.531,14.648,42.480,21.484,43.945
1532385080.017,21.973,23.926,43.457,28.320,39.551
1532385080.021,27.832,30.762,41.016,27.344,32.715
1532385080.025,35.156,36.621,34.668,31.738,19.043
1532385080.029,31.738,22.461,39.551,29.785,43.945
1532385080.033,27.832,6.836,45.410,19.531,26.855
1532385080.037,33.691,20.508,45.898,25.391,-12.207
1532385080.041,31.738,23.438,41.992,31.250,11.230
1532385080.044,32.715,29.785,38.574,37.109,21.484
1532385080.048,48.828,38.086,45.898,41.016,4.395
1532385080.052,44.922,25.391,49.316,30.762,13.184
1532385080.056,24.902,20.996,40.039,20.020,35.645
1532385080.060,27.344,28.809,31.738,18.555,41.016
1532385080.064,27.832,26.855,34.180,14.648,41.992
1532385080.068,20.020,21.973,33.691,15.625,23.438
1532385080.072,20.020,21.484,34.668,19.043,-8.789
1532385080.076,22.461,19.531,42.480,19.043,15.625
1532385080.080,20.508,16.602,43.945,26.855,54.199
1532385080.083,32.715,22.949,39.551,45.410,41.016
1532385080.087,40.039,37.109,45.898,48.340,35.156
1532385080.091,35.156,48.340,67.383,39.062,27.832
1532385080.095,48.340,70.312,78.125,46.875,9.766
1532385080.099,51.758,73.242,74.219,52.734,32.715
1532385080.103,52.246,74.219,69.336,51.270,44.434
1532385080.107,63.965,86.426,69.336,53.223,46.387
1532385080.111,70.312,81.543,77.148,59.570,54.688
1532385080.115,68.359,77.148,86.426,67.871,69.336
1532385080.119,71.777,84.473,87.891,77.148,57.129
1532385080.123,71.777,73.730,83.496,68.848,21.973
1532385080.126,62.988,67.383,74.707,55.176,19.531
1532385080.130,52.734,67.383,73.730,49.805,4.883
1532385080.134,48.828,57.129,67.871,43.457,4.395
1532385080.138,46.875,59.082,57.129,44.922,20.020
1532385080.142,35.645,60.059,57.129,38.086,23.926
1532385080.146,44.434,61.035,62.012,45.410,40.039
1532385080.150,56.152,58.594,56.641,54.199,51.758
1532385080.154,39.551,41.504,41.504,41.016,15.137
1532385080.158,32.227,36.621,41.992,31.738,2.930
1532385080.162,25.879,34.180,45.898,24.414,36.621
1532385080.166,28.320,18.555,42.969,20.508,34.668
1532385080.169,29.785,7.324,44.434,21.973,14.648
1532385080.173,22.461,21.973,39.551,14.648,21.973
1532385080.177,22.949,33.691,31.738,12.207,35.645
1532385080.181,25.391,37.109,30.273,19.531,33.691
1532385080.185,19.043,23.926,22.949,16.602,40.039
1532385080.189,19.531,20.996,24.414,17.090,45.898
1532385080.193,30.273,46.875,36.621,17.090,33.691
1532385080.197,33.203,39.551,43.945,24.414,25.879
1532385080.201,23.926,20.508,38.574,20.996,36.133
1532385080.205,15.625,19.531,33.203,17.090,36.133
1532385080.208,18.066,18.066,33.203,17.090,51.270
1532385080.212,20.020,28.320,32.715,20.020,67.383
1532385080.216,18.066,27.832,34.668,25.879,35.156
1532385080.220,27.344,20.020,37.109,24.414,12.207
1532385080.224,35.156,24.414,38.086,24.414,12.695
1532385080.228,20.508,27.344,29.297,23.926,35.156
1532385080.232,15.625,32.227,28.809,22.461,20.508
1532385080.236,25.391,22.949,38.574,20.508,0.488
1532385080.240,28.809,18.066,42.480,22.949,17.090
1532385080.244,37.598,27.832,43.945,29.297,20.020
1532385080.248,26.367,27.344,32.227,19.531,44.922
1532385080.251,9.766,19.043,19.043,4.395,45.898
1532385080.255,6.348,21.973,21.973,6.348,-7.324
1532385080.259,16.113,20.996,24.414,12.207,-2.441
1532385080.263,22.461,15.625,24.414,12.695,42.480
1532385080.267,18.555,23.926,32.715,9.766,44.922
1532385080.271,17.090,37.109,33.203,11.230,10.742
1532385080.275,19.043,37.109,35.156,13.672,-2.441
1532385080.279,20.996,31.738,38.574,16.113,14.648
1532385080.283,17.090,32.715,38.574,19.043,32.227
1532385080.287,23.926,35.645,36.133,18.066,12.695
1532385080.290,27.344,37.598,33.203,20.508,20.020
1532385080.294,21.484,22.949,34.180,26.367,32.227
1532385080.298,26.367,20.996,42.969,29.785,32.227
1532385080.302,23.926,35.156,45.898,27.832,32.715
1532385080.306,19.531,38.086,34.668,22.461,7.812
1532385080.310,16.113,34.668,36.133,19.043,-1.953
1532385080.314,11.230,32.715,41.504,21.484,23.926
1532385080.318,20.020,38.574,41.992,27.344,42.969
1532385080.322,29.297,37.109,45.898,27.832,9.766
1532385080.326,25.391,23.926,45.410,33.203,22.949
1532385080.330,23.438,21.973,42.480,27.832,21.973
1532385080.333,21.484,38.086,41.992,19.531,-9.766
1532385080.337,21.973,40.527,40.039,24.902,7.324
1532385080.341,30.273,30.762,45.898,33.691,22.949
1532385080.345,31.250,36.621,51.270,29.785,31.250
1532385080.349,26.855,45.410,41.016,20.508,37.109
1532385080.353,28.809,37.109,33.691,27.832,42.969
1532385080.357,37.109,27.832,40.039,30.762,57.617
1532385080.361,33.203,24.414,47.363,29.297,62.988
1532385080.365,27.344,27.832,43.945,35.156,74.707
1532385080.369,31.250,41.504,43.945,32.227,74.219
1532385080.373,32.227,45.898,44.922,30.762,40.527
1532385080.376,26.367,42.969,44.434,26.855,40.039
1532385080.380,21.484,31.738,51.758,21.484,26.855
1532385080.384,24.902,25.391,48.828,23.926,7.812
1532385080.388,30.273,36.133,40.039,34.668,43.457
1532385080.392,37.598,40.039,32.715,31.738,41.992
1532385080.396,41.992,30.273,37.598,25.879,39.062
1532385080.400,46.387,30.762,46.875,27.832,29.785
1532385080.404,41.016,41.016,48.828,26.855,10.742
1532385080.408,44.922,50.293,47.363,32.227,38.574
1532385080.412,51.270,48.340,46.875,32.227,51.270
1532385080.415,51.758,41.016,42.969,31.738,32.715
1532385080.419,50.293,46.387,43.457,25.391,24.414
1532385080.423,61.035,32.227,43.945,17.578,34.180
1532385080.427,64.941,35.156,40.039,29.785,40.039
1532385080.431,43.945,42.969,39.062,34.668,15.625
1532385080.435,48.340,40.527,36.621,39.551,2.930
1532385080.439,55.664,44.922,39.062,54.199,22.949
1532385080.443,39.062,54.199,50.293,49.316,30.762
1532385080.447,33.203,60.547,59.570,40.527,48.828
1532385080.451,34.668,56.641,60.059,38.574,33.691
1532385080.455,27.344,51.758,53.711,39.062,19.531
1532385080.458,31.250,35.156,55.176,41.504,37.109
1532385080.462,29.785,28.809,57.617,38.574,43.457
1532385080.466,22.949,36.621,47.852,35.156,51.270
1532385080.470,23.926,33.203,43.457,30.762,21.484
1532385080.474,23.438,26.855,52.734,31.738,12.207
1532385080.478,31.738,40.039,54.688,32.227,39.062
1532385080.482,41.016,64.453,54.688,39.062,63.477
1532385080.486,43.945,67.383,53.711,45.898,37.598
1532385080.490,38.086,50.781,44.434,35.645,23.438
1532385080.494,33.691,45.410,36.621,29.297,23.438
1532385080.498,37.109,42.969,32.715,33.203,8.301
1532385080.501,47.363,30.762,38.086,42.969,10.254
1532385080.505,45.898,33.203,46.875,44.434,16.113
1532385080.509,41.504,44.434,54.199,41.504,49.316
1532385080.513,44.922,36.133,58.594,40.527,51.270
1532385080.517,42.969,36.621,53.711,31.250,50.781
1532385080.521,47.852,47.363,46.875,36.133,35.156
1532385080.525,54.199,37.598,46.387,45.410,26.367
1532385080.529,47.363,34.668,42.969,37.598,23.926
1532385080.533,44.434,40.527,39.551,36.621,14.160
1532385080.537,47.852,47.852,41.992,43.457,14.648
1532385080.540,48.828,53.223,46.875,39.062,4.395
1532385080.544,51.758,56.641,56.641,38.574,14.160
1532385080.548,46.387,63.477,61.035,41.504,45.410
1532385080.552,37.598,54.199,47.852,30.762,-1.953
1532385080.556,36.621,42.969,39.062,23.926,-30.762
1532385080.560,46.387,42.969,31.738,28.809,36.621
1532385080.564,42.969,33.203,29.785,37.109,65.430
1532385080.568,35.645,25.391,34.668,33.691,52.246
1532385080.572,36.621,31.738,38.086,32.227,28.320
1532385080.576,37.598,39.062,40.527,37.598,6.836
1532385080.580,40.527,46.875,41.016,39.551,8.301
1532385080.583,42.480,39.062,39.551,38.086,21.484
1532385080.587,42.969,32.227,37.598,34.180,14.160
1532385080.591,34.180,49.316,41.992,29.785,-3.906
1532385080.595,32.715,45.898,40.527,23.926,-7.812
1532385080.599,35.645,32.715,41.504,33.691,4.883
1532385080.603,36.133,39.062,47.852,38.086,28.809
1532385080.607,36.133,41.016,41.504,26.367,48.340
1532385080.611,37.109,39.062,38.574,34.180,51.758
1532385080.615,42.480,34.180,44.434,44.434,35.645
1532385080.619,41.016,24.414,36.133,31.250,16.602
1532385080.623,40.039,19.531,26.367,27.344,26.367
1532385080.626,36.133,26.855,30.273,29.297,45.898
1532385080.630,32.715,36.621,41.504,25.391,52.246
1532385080.634,32.227,41.016,45.898,21.484,31.250
1532385080.638,33.691,32.227,42.969,26.367,15.137
1532385080.642,36.621,29.297,40.039,31.250,29.785
1532385080.646,40.039,37.109,38.574,29.785,32.227
1532385080.650,36.621,34.668,42.969,29.297,8.301
1532385080.654,36.133,38.574,42.969,29.297,9.766
1532385080.658,40.527,33.691,39.062,26.367,61.035
1532385080.662,46.387,30.273,42.480,31.738,62.012
1532385080.665,38.086,31.738,45.410,36.133,59.570
1532385080.669,36.133,21.973,40.527,28.809,37.109
1532385080.673,47.363,23.438,39.551,26.367,3.906
1532385080.677,37.109,34.180,38.574,24.902,42.969
1532385080.681,31.250,29.785,37.109,31.250,42.480
1532385080.685,27.832,20.508,29.297,33.691,11.719
1532385080.689,30.762,17.090,24.414,29.785,-8.301
1532385080.693,32.715,24.902,27.832,29.297,-3.418
1532385080.697,25.879,27.344,32.227,25.391,46.875
1532385080.701,22.461,22.461,35.645,25.879,46.387
1532385080.705,22.949,24.902,25.391,29.785,35.156
1532385080.708,25.391,20.996,26.855,31.250,35.156
1532385080.712,17.090,18.066,46.875,29.785,20.508
1532385080.716,18.066,26.855,50.293,25.879,51.270
1532385080.720,29.297,39.062,53.711,35.156,56.152
1532385080.724,31.250,33.203,54.688,32.227,30.273
1532385080.728,26.855,16.113,39.551,24.414,33.691
1532385080.732,30.762,21.973,33.691,27.832,59.082
1532385080.736,24.414,27.344,40.527,20.508,38.574
1532385080.740,20.020,25.879,37.109,22.949,-8.301
1532385080.744,27.832,25.391,34.668,21.973,12.207
1532385080.748,26.367,21.484,41.504,24.902,54.199
1532385080.751,20.508,22.461,33.691,22.461,10.254
1532385080.755,19.531,23.926,28.320,10.742,-10.742
1532385080.759,23.438,31.738,31.738,11.719,42.480
1532385080.763,26.367,30.273,36.133,18.555,74.219
1532385080.767,35.156,31.738,40.527,33.691,47.363
1532385080.771,27.832,29.785,29.785,34.180,10.254
1532385080.775,11.719,33.691,23.926,25.391,12.207
1532385080.779,13.184,32.715,37.109,26.367,33.203
1532385080.783,16.113,20.020,45.898,26.855,71.289
1532385080.787,15.625,10.254,46.875,30.273,54.688
1532385080.790,18.555,13.184,42.480,29.297,16.113
1532385080.794,29.297,29.785,38.574,37.109,22.949
1532385080.798,29.785,39.062,38.086,28.809,43.945
1532385080.802,20.508,31.250,41.992,16.113,28.320
1532385080.806,16.602,21.973,42.969,18.555,25.879
1532385080.810,15.625,26.367,39.062,17.090,36.133
1532385080.814,19.043,24.414,35.645,12.695,53.223
1532385080.818,17.090,17.578,33.203,15.625,54.199
1532385080.822,20.020,18.066,41.504,23.438,25.391
1532385080.826,29.297,23.438,45.898,32.227,24.902
1532385080.830,16.113,24.902,33.203,32.227,26.855
1532385080.833,13.184,24.414,28.809,18.066,7.324
1532385080.837,23.438,22.949,33.203,16.602,9.277
1532385080.841,26.855,22.461,33.203,21.484,22.949
1532385080.845,29.297,24.414,41.016,22.949,38.086
1532385080.849,30.273,22.949,44.922,29.785,57.617
1532385080.853,21.484,18.066,32.227,24.902,69.824
1532385080.857,15.625,22.461,30.273,22.461,65.918
1532385080.861,15.137,29.785,39.062,21.484,70.801
1532385080.865,16.602,24.414,41.992,20.020,71.289
1532385080.869,19.531,20.508,42.480,19.043,37.109
1532385080.873,17.578,13.672,42.969,10.254,-10.742
1532385080.876,23.926,22.461,49.316,21.973,23.926
1532385080.880,29.297,31.738,48.340,32.227,57.617
1532385080.884,17.578,20.508,38.086,23.926,32.715
1532385080.888,16.602,18.555,40.527,27.832,25.879
1532385080.892,24.902,16.602,41.504,23.438,33.691
1532385080.896,25.879,17.090,34.668,15.625,37.109
1532385080.900,19.043,26.855,28.809,30.273,54.199
1532385080.904,12.695,27.344,22.461,25.391,32.715
1532385080.908,17.090,16.602,27.344,12.207,20.508
1532385080.912,20.508,18.555,31.738,8.789,59.570
1532385080.915,19.531,23.926,28.809,7.324,62.012
1532385080.919,24.414,22.461,33.691,18.066,26.855
1532385080.923,31.250,18.555,35.156,25.391,27.344
1532385080.927,32.715,26.855,27.344,29.297,35.645
1532385080.931,25.391,40.039,28.809,23.438,13.672
1532385080.935,23.926,22.949,41.504,11.719,3.906
1532385080.939,19.531,11.719,42.480,10.254,14.648
1532385080.943,11.230,18.555,38.574,7.812,34.668
1532385080.947,13.184,13.672,38.086,13.672,34.668
1532385080.951,17.090,19.043,36.133,18.066,27.832
1532385080.955,20.508,31.738,37.109,16.602,28.809
1532385080.958,17.578,31.250,37.109,17.578,23.926
1532385080.962,17.090,23.926,37.598,28.809,11.230
1532385080.966,25.391,22.949,41.016,34.668,7.812
1532385080.970,34.180,30.273,43.945,37.109,-31.250
1532385080.974,29.297,24.414,36.621,22.949,-45.410
1532385080.978,25.879,21.484,25.879,14.648,3.418
1532385080.982,23.438,20.508,25.391,21.484,36.621
1532385080.986,12.207,17.090,30.762,16.602,35.156
1532385080.990,16.113,28.320,33.203,17.090,21.973
1532385080.994,22.461,30.273,28.320,18.555,22.949
1532385080.997,22.461,29.785,24.902,22.949,41.504
1532385081.001,24.414,31.738,33.203,27.344,42.969
1532385081.005,29.785,29.785,41.504,26.855,18.555
1532385081.009,27.832,20.020,41.504,26.367,-5.859
1532385081.013,25.879,14.160,36.621,21.973,9.766
1532385081.017,28.809,26.855,31.738,16.602,37.598
1532385081.021,32.715,37.109,40.039,29.297,14.648
1532385081.025,27.344,30.273,42.480,34.180,7.812
1532385081.029,22.461,29.785,36.133,26.855,39.551
1532385081.033,30.762,35.645,33.691,28.320,37.598
1532385081.037,30.273,23.438,33.203,28.809,25.391
1532385081.040,23.926,22.949,33.691,22.461,42.969
1532385081.044,25.391,30.273,35.156,18.066,41.992
1532385081.048,21.484,27.344,34.668,22.949,32.715
1532385081.052,18.066,24.414,28.809,23.438,20.996
1532385081.056,22.461,18.066,31.738,16.602,-15.625
1532385081.060,25.879,20.996,32.227,13.672,-4.883
1532385081.064,34.180,30.762,36.133,27.344,71.289
1532385081.068,41.016,39.062,44.434,34.180,84.473
1532385081.072,30.762,41.504,41.016,21.973,24.902
1532385081.076,20.996,29.785,34.180,13.672,45.410
1532385081.080,19.531,17.578,38.086,20.020,77.637
1532385081.083,25.391,19.043,41.992,23.926,43.945
1532385081.087,28.320,28.809,39.062,23.438,12.695
1532385081.091,26.367,26.855,38.574,27.344,23.926
1532385081.095,23.438,23.438,41.016,26.367,64.453
1532385081.099,25.879,30.762,43.457,21.484,56.641
1532385081.103,28.809,35.645,43.457,21.973,1.465
1532385081.107,31.738,33.691,40.527,26.367,-11.719
1532385081.111,32.227,33.691,36.621,22.461,-5.859
1532385081.115,26.367,23.438,38.086,19.043,17.578
1532385081.119,18.066,10.742,37.109,14.160,46.387
1532385081.122,18.555,24.414,31.250,12.695,6.348
1532385081.126,19.531,25.879,30.273,21.484,4.395
1532385081.130,17.578,18.066,40.527,24.414,29.297
1532385081.134,18.555,30.762,47.852,27.832,33.691
1532385081.138,19.043,34.668,37.109,27.344,52.246
1532385081.142,19.043,28.809,29.785,19.043,66.406
1532385081.146,26.367,33.203,41.016,23.926,57.129
1532385081.150,36.621,25.879,44.922,27.832,14.648
1532385081.154,22.949,11.719,43.945,15.137,-5.371
1532385081.158,17.578,24.414,51.270,19.043,26.855
1532385081.162,20.996,26.367,54.688,27.344,30.273
1532385081.165,20.508,21.973,51.270,25.879,52.734
1532385081.169,25.879,25.391,48.828,30.762,47.363
1532385081.173,33.691,28.809,46.387,28.809,13.672
1532385081.177,32.227,29.297,40.039,25.879,20.508
1532385081.181,32.715,30.762,40.039,32.715,32.227
1532385081.185,34.180,21.484,41.992,34.668,41.016
1532385081.189,26.367,8.789,47.852,32.227,26.367
1532385081.193,20.020,23.438,57.129,24.902,14.160
1532385081.197,19.531,38.086,55.664,25.879,17.090
1532385081.201,23.438,34.180,52.246,26.855,15.137
1532385081.205,29.785,30.273,55.176,30.273,8.789
1532385081.208,33.203,26.367,55.664,33.203,30.762
1532385081.212,31.250,27.832,44.922,17.090,38.574
1532385081.216,25.879,26.367,38.574,8.789,33.691
1532385081.220,30.273,12.695,41.504,14.648,17.578
1532385081.224,43.945,20.020,41.992,15.625,10.742
1532385081.228,48.828,38.086,45.410,11.719,47.363
1532385081.232,47.363,37.109,52.734,13.184,13.672
1532385081.236,28.320,28.809,51.758,12.695,5.371
1532385081.240,24.414,26.855,48.828,17.578,36.133
1532385081.244,22.949,23.926,50.781,27.832,21.973
1532385081.247,23.438,19.043,50.293,40.039,27.832
1532385081.251,25.879,31.250,47.852,46.387,17.578
1532385081.255,22.949,21.484,46.387,34.180,24.902
1532385081.259,19.531,11.719,51.270,34.180,55.176
1532385081.263,8.789,27.832,60.547,32.715,38.086
1532385081.267,18.066,29.785,56.641,32.227,27.344
1532385081.271,26.855,24.902,50.293,33.691,20.996
1532385081.275,18.555,25.391,52.734,28.320,16.113
1532385081.279,22.461,26.855,54.199,28.809,34.668
1532385081.283,28.320,29.297,49.805,27.832,29.785
1532385081.287,33.203,28.320,45.410,31.250,30.762
1532385081.290,39.062,33.203,52.734,38.574,12.207
1532385081.294,36.621,32.715,56.152,36.133,23.438
1532385081.298,29.785,20.996,48.340,29.297,50.293
1532385081.302,25.879,20.020,51.758,26.855,19.531
1532385081.306,24.414,20.020,58.105,23.438,-3.906
1532385081.310,21.484,25.879,56.641,24.902,2.441
1532385081.314,18.555,34.668,53.223,27.344,30.273
1532385081.318,19.531,34.180,49.805,24.902,67.871
1532385081.322,21.973,28.809,45.410,21.484,35.156
1532385081.326,20.020,27.344,44.922,24.902,9.277
1532385081.330,24.414,23.438,51.270,26.855,35.645
1532385081.333,35.156,18.555,57.617,24.902,30.273
1532385081.337,36.621,32.715,56.152,30.762,11.719
1532385081.341,31.738,34.668,55.664,28.320,20.996
1532385081.345,28.809,28.320,56.641,23.438,23.438
1532385081.349,30.762,40.039,60.059,24.414,36.621
1532385081.353,29.297,37.109,58.105,17.578,-6.836
1532385081.357,23.926,25.391,53.223,22.949,-9.766
1532385081.361,24.902,30.762,50.781,31.250,14.648
1532385081.365,30.762,32.715,41.016,36.621,3.418
1532385081.369,36.133,21.973,39.062,34.668,34.668
1532385081.372,44.434,22.949,57.617,37.109,22.949
1532385081.376,44.922,34.180,58.105,39.062,36.621
1532385081.380,43.945,46.387,44.922,31.738,33.691
1532385081.384,39.551,54.688,49.805,34.180,38.574
1532385081.388,28.320,45.410,55.664,30.762,19.531
1532385081.392,33.691,28.809,50.293,20.996,-24.414
1532385081.396,37.109,30.273,51.270,25.879,8.789
1532385081.400,33.691,35.156,59.082,30.762,33.203
1532385081.404,35.156,22.949,58.594,28.320,42.969
1532385081.408,33.203,28.809,50.293,28.320,40.527
1532385081.412,27.344,37.598,47.852,24.414,7.812
1532385081.415,23.926,34.668,48.828,20.996,26.367
1532385081.419,30.762,32.715,54.688,25.879,50.781
1532385081.423,43.457,34.668,56.641,33.691,42.480
1532385081.427,34.180,33.691,42.480,35.156,51.270
1532385081.431,20.996,26.367,39.062,30.273,52.246
1532385081.435,25.391,16.113,41.016,23.438,56.152
1532385081.439,27.344,11.719,38.574,22.949,54.688
1532385081.443,20.996,23.926,43.457,17.578,40.527
1532385081.447,20.020,29.297,41.504,16.602,57.617
1532385081.451,20.508,22.949,32.227,19.531,59.570
1532385081.455,22.949,18.555,37.109,23.438,-1.953
1532385081.458,35.156,20.508,45.410,36.621,28.320
1532385081.462,31.738,28.809,40.039,25.879,64.453
1532385081.466,18.555,31.250,33.691,11.719,58.105
1532385081.470,18.555,35.156,35.156,12.695,20.508
1532385081.474,20.996,35.156,33.691,11.719,-12.695
1532385081.478,21.973,24.902,32.715,9.277,32.227
1532385081.482,20.508,27.344,23.438,12.207,45.898
1532385081.486,24.414,30.762,21.484,17.090,34.668
1532385081.490,22.949,20.508,30.762,15.625,31.250
1532385081.494,21.484,21.973,31.738,10.254,33.203
1532385081.497,20.996,17.090,33.691,12.207,30.762
1532385081.501,20.508,28.809,32.715,20.020,25.391
1532385081.505,21.484,47.363,31.250,26.855,24.414
1532385081.509,21.973,34.180,29.785,23.438,26.855
1532385081.513,19.043,27.832,23.926,15.137,38.574
1532385081.517,11.719,34.668,18.066,11.230,31.738
1532385081.521,8.301,30.273,13.672,8.301,15.625
1532385081.525,9.277,23.926,20.020,11.719,15.137
1532385081.529,12.695,23.438,25.879,20.996,3.906
1532385081.533,19.043,19.043,27.344,17.090,-5.371
1532385081.537,21.484,15.137,32.715,14.160,3.906
1532385081.540,18.555,26.367,29.297,23.438,29.297
1532385081.544,25.391,24.414,22.461,25.391,54.199
1532385081.548,25.879,24.902,31.250,26.367,65.430
1532385081.552,28.320,40.527,35.645,32.715,55.176
1532385081.556,28.809,35.645,29.785,29.297,44.922
1532385081.560,20.508,26.855,27.832,21.484,49.805
1532385081.564,22.461,25.391,27.344,22.461,50.781
1532385081.568,26.855,15.137,30.273,32.227,58.105
1532385081.572,34.668,10.254,32.715,32.715,42.969
1532385081.576,30.273,12.207,31.250,28.809,31.250
1532385081.580,19.531,20.020,31.738,27.344,41.016
1532385081.583,23.438,34.668,29.297,26.367,52.734
1532385081.587,20.996,39.062,33.203,27.832,58.594
1532385081.591,35.156,39.062,35.156,34.668,20.996
1532385081.595,46.387,37.109,30.273,34.180,37.109
1532385081.599,18.066,21.973,32.227,24.414,80.078
1532385081.603,12.207,23.926,35.645,23.926,39.062
1532385081.607,27.344,27.344,40.039,26.855,28.809
1532385081.611,32.227,15.625,45.410,27.832,33.203
1532385081.615,37.109,6.836,39.551,27.832,6.836
1532385081.619,33.691,15.137,34.180,28.809,10.742
1532385081.622,28.320,38.574,38.574,26.367,4.395
1532385081.626,36.133,45.898,34.668,28.809,9.766
1532385081.630,32.227,40.039,33.203,22.949,20.508
1532385081.634,26.855,40.527,45.898,25.879,-0.977
1532385081.638,30.273,38.086,48.828,37.109,10.742
1532385081.642,27.344,30.762,40.039,29.785,0.000
1532385081.646,25.879,20.508,36.621,27.344,14.648
1532385081.650,16.602,16.602,34.180,23.438,23.438
1532385081.654,24.902,25.391,32.715,25.879,18.555
1532385081.658,34.668,25.879,37.598,34.180,31.250
1532385081.662,24.902,21.973,36.621,29.785,31.250
1532385081.665,23.926,29.785,33.203,20.020,54.688
1532385081.669,25.879,48.340,30.273,20.508,50.781
1532385081.673,29.297,44.922,33.203,17.090,8.789
1532385081.677,32.227,30.762,46.875,18.555,19.531
1532385081.681,36.621,26.855,45.410,26.855,40.527
1532385081.685,44.434,40.039,43.945,32.227,11.719
1532385081.689,41.992,35.645,41.504,27.832,6.348
1532385081.693,33.691,20.508,35.645,24.414,10.742
1532385081.697,33.691,22.461,41.016,29.785,36.621
1532385081.701,34.180,20.020,40.527,27.344,42.969
1532385081.705,37.109,32.227,36.133,27.344,23.926
1532385081.708,40.527,42.480,33.691,26.855,41.016
1532385081.712,30.762,41.992,35.156,25.879,50.293
1532385081.716,31.250,41.504,48.340,26.855,52.246
1532385081.720,35.156,35.645,52.734,25.391,33.691
1532385081.724,34.668,29.297,48.828,28.320,17.090
1532385081.728,37.598,24.902,43.457,26.367,39.062
1532385081.732,50.293,36.621,47.363,39.551,41.504
1532385081.736,53.223,37.109,54.688,51.270,20.508
1532385081.740,40.039,24.902,48.340,37.109,-10.742
1532385081.744,38.086,33.203,41.504,33.691,-3.418
1532385081.747,40.039,48.340,42.969,38.574,39.551
1532385081.751,35.156,49.316,41.504,36.133,40.039
1532385081.755,33.691,42.480,33.203,38.086,10.742
1532385081.759,36.133,38.574,39.062,30.273,3.906
1532385081.763,37.109,37.598,50.781,28.320,39.551
1532385081.767,46.387,36.621,52.246,40.527,62.012
1532385081.771,44.922,36.621,54.199,36.621,21.484
1532385081.775,43.945,32.715,54.688,35.645,-11.719
1532385081.779,56.641,37.598,54.199,44.434,11.719
1532385081.783,56.152,45.410,53.223,46.387,29.297
1532385081.787,51.270,36.133,41.504,40.039,25.879
1532385081.790,44.434,22.949,28.809,33.203,34.668
1532385081.794,39.062,33.691,30.762,35.156,54.688
1532385081.798,41.016,41.992,38.574,37.109,72.266
1532385081.802,39.551,29.785,47.852,40.039,45.898
1532385081.806,41.016,38.574,54.199,45.410,20.508
1532385081.810,41.016,52.734,50.781,42.969,28.320
1532385081.814,48.340,44.922,44.434,36.133,25.879
1532385081.818,50.293,41.504,47.363,38.086,23.438
1532385081.822,48.828,43.945,53.223,49.316,24.902
1532385081.826,43.457,31.738,44.922,43.945,53.223
1532385081.829,41.016,26.855,43.945,34.180,71.777
1532385081.833,46.875,25.391,49.805,37.109,50.293
1532385081.837,53.711,31.738,48.340,41.992,30.762
1532385081.841,47.852,31.250,36.621,37.109,33.203
1532385081.845,47.852,40.039,38.574,41.016,59.082
1532385081.849,52.734,44.434,49.805,41.504,63.477
1532385081.853,51.758,27.344,45.898,41.504,5.371
1532385081.857,48.828,28.809,41.016,46.387,10.742
1532385081.861,37.109,24.414,48.828,37.598,49.805
1532385081.865,34.668,30.273,53.711,33.691,79.590
1532385081.869,39.062,53.711,51.758,35.645,49.805
1532385081.872,41.504,43.945,46.387,31.738,-13.184
1532385081.876,37.109,33.691,41.504,29.785,-7.812
1532385081.880,32.227,30.273,42.480,33.691,13.672
1532385081.884,31.738,26.367,44.434,27.832,24.902
1532385081.888,33.691,26.855,44.922,26.367,29.785
1532385081.892,43.945,28.809,45.898,32.227,41.992
1532385081.896,43.945,20.020,40.039,26.855,42.480
1532385081.900,33.203,14.160,40.527,27.832,17.090
1532385081.904,39.062,31.738,41.504,38.574,-0.488
1532385081.908,31.250,41.504,43.945,33.203,8.301
1532385081.912,27.832,33.691,50.781,33.203,-0.488
1532385081.915,25.879,20.508,41.992,28.320,10.742
1532385081.919,16.113,27.832,33.691,23.438,32.715
1532385081.923,23.438,32.227,40.039,26.367,27.832
1532385081.927,27.832,12.695,49.316,24.902,38.574
1532385081.931,27.344,16.113,43.945,25.391,55.664
1532385081.935,26.855,30.273,39.551,26.367,54.688
1532385081.939,25.879,23.438,36.621,28.320,12.207
1532385081.943,20.508,29.297,36.621,24.902,19.531
1532385081.947,23.438,36.133,51.270,24.414,51.270
1532385081.951,29.297,28.320,53.223,29.297,44.922
1532385081.954,31.250,22.949,51.758,32.227,8.301
1532385081.958,38.086,36.133,59.570,40.527,19.043
1532385081.962,38.574,45.410,56.152,44.434,52.734
1532385081.966,35.156,29.297,46.875,44.922,55.176
1532385081.970,41.992,20.996,47.363,41.504,21.973
1532385081.974,42.480,23.438,50.781,35.645,-12.207
1532385081.978,35.645,23.438,42.480,38.086,28.320
1532385081.982,33.691,27.832,31.738,39.551,36.621
1532385081.986,35.156,31.250,44.434,43.457,38.086
1532385081.990,33.203,27.832,51.758,36.621,48.340
1532385081.994,30.762,23.926,51.758,28.320,17.090
1532385081.997,33.203,26.855,45.898,32.715,6.348
1532385082.001,38.086,28.320,39.551,39.551,5.859
1532385082.005,39.551,33.691,43.457,41.992,41.992
1532385082.009,38.574,33.691,54.199,49.316,43.457
1532385082.013,40.527,35.645,58.105,47.363,32.227
1532385082.017,34.180,36.133,51.758,35.645,30.762
1532385082.021,28.809,24.902,42.969,35.156,19.043
1532385082.025,35.156,20.508,34.668,32.227,42.480
1532385082.029,36.621,26.855,41.016,25.879,52.246
1532385082.033,37.109,27.344,49.805,24.414,42.480
1532385082.037,41.992,28.320,48.828,25.879,30.762
1532385082.040,60.059,33.691,46.875,25.879,20.996
1532385082.044,67.383,39.551,40.039,20.996,39.551
1532385082.048,58.105,44.434,39.551,27.344,74.219
1532385082.052,63.477,42.480,46.387,38.086,19.043
1532385082.056,51.758,27.344,41.992,35.645,-30.762
1532385082.060,33.691,24.414,37.109,30.273,33.691
1532385082.064,35.156,36.621,36.621,34.180,51.758
1532385082.068,34.180,21.973,37.109,32.227,19.043
1532385082.072,27.832,5.859,37.109,39.551,1.953
1532385082.076,23.926,18.066,34.668,36.621,37.109
1532385082.079,25.879,41.016,40.527,35.645,52.734
1532385082.083,23.926,47.852,37.598,34.180,40.527
1532385082.087,22.949,36.133,41.504,30.273,18.066
1532385082.091,25.391,26.855,39.062,33.203,0.977
1532385082.095,29.297,30.273,31.250,33.691,26.367
1532385082.099,32.715,28.320,44.434,37.109,42.969
1532385082.103,26.855,15.625,41.992,31.738,44.434
1532385082.107,20.508,18.066,31.250,28.320,22.461
1532385082.111,22.949,29.785,38.086,30.762,10.254
1532385082.115,22.949,37.109,45.410,25.879,26.367
1532385082.119,19.531,39.062,36.621,23.926,11.230
1532385082.122,26.367,37.109,32.227,30.273,7.324
1532385082.126,37.598,32.227,39.062,37.109,26.855
1532385082.130,45.898,23.438,34.668,29.297,32.227
1532385082.134,42.480,8.301,27.832,22.949,28.809
1532385082.138,36.621,13.184,34.180,30.273,9.766
1532385082.142,39.551,32.715,39.551,35.645,-2.930
1532385082.146,36.621,24.902,36.133,38.574,23.926
1532385082.150,26.855,23.438,26.855,27.832,41.504
1532385082.154,26.367,36.621,19.531,12.695,12.207
1532385082.158,29.297,36.621,20.020,14.160,27.832
1532385082.162,25.391,23.438,21.484,17.578,65.430
1532385082.165,24.902,15.137,21.973,17.090,66.895
1532385082.169,29.785,24.902,20.020,17.090,21.973
1532385082.173,32.227,28.320,23.438,22.949,-10.254
1532385082.177,33.691,13.184,31.250,32.227,5.859
1532385082.181,32.715,15.625,24.414,28.809,24.414
1532385082.185,28.320,36.133,20.996,25.391,53.711
1532385082.189,29.785,39.551,29.297,31.738,35.156
1532385082.193,26.855,32.715,22.949,20.020,3.418
1532385082.197,22.461,32.227,18.555,16.602,3.418
1532385082.201,22.461,32.715,20.996,20.996,33.691
1532385082.204,30.273,21.973,16.602,24.902,42.969
1532385082.208,36.621,-3.906,15.625,32.227,20.508
1532385082.212,35.645,12.695,28.809,36.133,24.414
1532385082.216,41.504,40.527,31.738,42.480,53.711
1532385082.220,36.133,32.227,20.020,31.250,36.133
1532385082.224,24.902,30.273,18.066,18.066,41.504
1532385082.228,27.344,34.668,26.367,28.320,24.902
1532385082.232,36.133,30.762,29.785,28.320,1.953
1532385082.236,27.344,27.832,22.461,16.113,22.461
1532385082.240,21.973,25.391,17.090,19.531,7.324
1532385082.244,29.785,3.906,13.184,26.855,13.184
1532385082.247,33.691,6.836,20.996,25.391,54.199
1532385082.251,28.809,25.391,27.832,19.043,59.570
1532385082.255,28.320,26.367,19.531,22.461,21.484
1532385082.259,26.367,29.297,4.883,19.531,1.465
1532385082.263,20.020,34.668,1.465,19.531,41.016
1532385082.267,23.926,37.598,3.906,18.066,59.082
1532385082.271,27.832,29.297,10.742,11.230,30.762
1532385082.275,23.438,12.207,17.578,11.719,33.691
1532385082.279,35.156,18.066,20.996,21.484,48.340
1532385082.283,51.758,29.785,20.996,31.738,42.480
1532385082.287,39.551,24.902,19.043,26.367,9.766
1532385082.290,24.414,35.156,23.926,20.508,-23.926
1532385082.294,20.996,35.156,20.508,16.113,24.902
1532385082.298,31.250,20.996,16.602,13.672,67.383
1532385082.302,31.738,23.926,17.090,21.484,45.410
1532385082.306,23.438,24.414,15.625,27.832,29.785
1532385082.310,28.320,22.461,9.277,22.949,5.371
1532385082.314,31.250,36.133,1.953,25.879,17.578
1532385082.318,37.109,52.246,20.508,39.551,24.414
1532385082.322,42.969,51.270,34.180,36.133,-5.859
1532385082.326,31.250,32.227,24.414,27.832,-1.953
1532385082.329,22.949,26.855,22.949,33.203,5.371
1532385082.333,26.367,27.832,23.438,28.809,-6.836
1532385082.337,29.785,16.113,21.973,25.391,0.977
1532385082.341,38.086,11.719,21.484,32.715,41.504
1532385082.345,36.133,23.926,22.949,41.016,51.758
1532385082.349,28.320,35.645,24.902,34.668,21.484
1532385082.353,22.461,29.785,23.438,25.879,9.766
1532385082.357,19.043,34.180,23.926,29.785,19.043
1532385082.361,23.926,41.992,23.926,27.344,38.574
1532385082.365,38.574,38.574,24.902,25.391,58.594
1532385082.369,36.621,32.715,21.484,25.391,22.461
1532385082.372,26.855,36.621,22.461,26.367,-23.438
1532385082.376,23.926,36.133,27.344,24.414,9.277
1532385082.380,23.438,18.066,24.414,19.531,49.316
1532385082.384,27.832,26.855,17.578,22.949,43.457
1532385082.388,21.973,30.273,17.090,25.879,37.598
1532385082.392,20.996,20.508,24.414,32.715,14.648
1532385082.396,25.879,21.484,29.297,38.574,14.648
1532385082.400,23.926,34.180,26.855,27.344,37.598
1532385082.404,28.809,40.527,20.508,28.809,14.160
1532385082.408,27.832,22.949,18.066,34.668,22.461
1532385082.412,23.438,17.090,12.207,21.973,23.926
1532385082.415,36.133,37.109,13.672,22.949,23.438
1532385082.419,37.109,47.852,19.043,21.484,41.504
1532385082.423,30.273,31.250,22.949,20.508,31.250
1532385082.427,27.832,25.879,22.949,27.344,41.504
1532385082.431,33.691,27.344,21.484,32.227,41.504
1532385082.435,36.621,21.484,18.555,35.156,4.395
1532385082.439,27.832,17.578,15.137,29.297,-2.441
1532385082.443,30.762,15.137,15.625,33.203,34.180
1532385082.447,34.668,17.090,15.625,39.551,51.758
1532385082.451,28.809,33.203,10.742,36.621,51.758
1532385082.454,27.832,42.480,7.812,31.250,54.199
1532385082.458,42.480,46.387,20.508,38.574,31.738
1532385082.462,40.039,41.504,23.438,40.039,56.641
1532385082.466,31.250,18.066,18.555,33.691,60.547
1532385082.470,35.645,18.066,15.137,33.203,8.789
1532385082.474,26.855,22.949,14.160,26.855,-22.461
1532385082.478,25.391,15.625,16.113,28.320,-18.555
1532385082.482,30.273,17.090,13.184,32.715,26.855
1532385082.486,32.715,20.020,21.484,35.645,36.133
1532385082.490,29.785,26.367,27.344,37.109,8.301
1532385082.494,23.926,25.391,20.508,28.809,39.062
1532385082.497,32.227,20.508,15.625,30.762,41.504
1532385082.501,34.180,21.973,15.137,30.273,15.137
1532385082.505,23.926,20.996,18.066,26.367,37.598
1532385082.509,31.250,27.832,24.902,34.668,27.832
1532385082.513,37.598,35.156,18.066,33.691,-9.277
1532385082.517,31.738,30.762,15.625,29.785,15.137
1532385082.521,32.715,23.438,20.996,27.344,33.691
1532385082.525,32.227,19.043,21.484,29.297,29.297
1532385082.529,25.879,16.113,24.902,30.762,43.457
1532385082.533,20.508,23.438,29.297,24.902,52.246
1532385082.536,23.438,27.344,32.227,25.391,44.434
1532385082.540,29.297,30.273,30.762,32.227,23.438
1532385082.544,34.668,28.320,28.809,34.668,35.645
1532385082.548,39.062,21.973,24.902,32.715,62.988
1532385082.552,31.738,19.531,17.090,24.902,35.645
1532385082.556,26.855,32.227,15.137,29.785,14.648
1532385082.560,35.156,36.133,21.973,35.156,44.434
1532385082.564,28.320,10.742,24.414,19.531,60.547
1532385082.568,22.949,13.184,20.020,18.066,25.391
1532385082.572,28.320,23.438,17.090,22.461,-14.160
1532385082.576,22.949,19.043,11.719,12.207,18.066
1532385082.579,30.273,19.531,11.230,15.137,73.730
1532385082.583,33.203,15.137,24.414,25.391,73.242
1532385082.587,25.391,19.043,26.367,29.297,28.809
1532385082.591,28.320,33.203,15.137,27.344,11.719
1532385082.595,30.762,27.344,16.113,23.926,26.855
1532385082.599,24.902,15.137,19.043,24.414,28.809
1532385082.603,20.508,24.902,12.207,28.320,29.785
1532385082.607,31.738,38.574,18.066,35.645,16.113
1532385082.611,46.875,27.344,32.715,38.574,14.648
1532385082.615,38.574,14.648,28.320,31.250,15.137
1532385082.619,32.227,16.602,20.020,29.297,13.672
1532385082.622,37.598,24.902,22.461,29.297,14.160
1532385082.626,42.969,27.344,17.578,28.320,25.391
1532385082.630,44.922,18.555,5.371,32.715,5.859
1532385082.634,37.598,13.184,10.254,34.668,23.438
1532385082.638,34.180,22.949,25.391,25.879,39.062
1532385082.642,38.086,31.738,33.203,25.391,7.812
1532385082.646,39.062,15.137,33.203,32.227,30.762
1532385082.650,35.156,15.137,29.785,26.855,19.531
1532385082.654,38.574,35.645,30.273,26.367,-10.742
1532385082.658,36.621,35.156,24.902,32.715,1.953
1532385082.661,25.391,23.438,14.648,24.902,23.926
1532385082.665,23.926,13.672,16.602,19.043,53.223
1532385082.669,25.879,11.719,18.555,25.879,33.691
1532385082.673,24.902,19.043,18.555,29.785,18.555
1532385082.677,25.391,22.949,13.184,26.855,47.852
1532385082.681,23.926,22.461,9.277,28.320,52.246
1532385082.685,24.902,6.348,15.625,28.809,20.996
1532385082.689,30.762,7.324,28.809,27.344,0.488
1532385082.693,27.344,19.531,26.855,32.227,4.883
1532385082.697,27.344,23.926,18.066,35.645,33.203
1532385082.701,38.086,27.344,20.020,37.109,43.457
1532385082.704,32.715,28.320,23.926,32.715,20.508
1532385082.708,30.762,33.203,28.809,40.527,18.066
1532385082.712,39.062,22.461,33.203,44.434,20.020
1532385082.716,39.551,14.160,20.508,31.738,27.344
1532385082.720,35.156,23.438,13.184,29.297,52.734
1532385082.724,32.715,22.949,19.531,34.668,44.434
1532385082.728,30.762,20.020,20.508,34.668,50.781
1532385082.732,23.926,20.508,20.996,32.715,58.594
1532385082.736,25.879,19.043,19.531,35.156,61.523
1532385082.740,27.832,20.020,13.184,34.180,56.152
1532385082.744,21.973,30.273,18.066,29.297,8.789
1532385082.747,24.414,35.645,27.344,32.715,20.996
1532385082.751,20.020,19.043,23.926,29.297,14.648
1532385082.755,22.461,19.531,18.066,21.484,8.301
1532385082.759,29.297,21.484,15.625,26.367,32.715
1532385082.763,30.762,24.902,16.113,30.762,27.832
1532385082.767,29.297,29.785,15.625,28.320,23.926
1532385082.771,28.809,21.484,20.508,31.250,8.789
1532385082.775,31.250,23.926,26.855,29.297,13.672
1532385082.779,32.227,26.855,17.090,26.855,44.922
1532385082.783,26.367,26.367,10.742,28.320,60.547
1532385082.786,24.414,20.996,15.137,22.949,40.039
1532385082.790,26.855,30.273,16.602,20.508,14.648
1532385082.794,30.762,40.527,14.160,31.738,12.207
1532385082.798,41.992,39.062,27.344,43.945,20.996
1532385082.802,39.062,32.715,33.691,38.574,43.945
1532385082.806,31.250,18.555,19.043,27.832,26.367
1532385082.810,31.250,10.254,16.602,23.438,-7.812
1532385082.814,36.133,10.254,20.020,20.020,9.277
1532385082.818,36.133,21.484,19.531,27.344,30.762
1532385082.822,28.809,26.855,19.531,31.250,10.254
1532385082.826,29.297,21.484,20.508,29.785,22.461
1532385082.829,34.180,17.090,21.484,31.738,20.020
1532385082.833,35.645,20.020,20.996,33.203,36.621
1532385082.837,30.762,26.855,22.949,34.180,50.781
1532385082.841,29.297,16.602,19.043,38.086,17.578
1532385082.845,39.551,7.812,15.137,42.480,32.227
1532385082.849,37.598,24.414,21.484,33.691,39.551
1532385082.853,28.809,25.879,27.832,23.926,31.738
1532385082.857,29.785,19.531,24.414,19.043,16.113
1532385082.861,41.016,18.555,18.555,18.066,27.832
1532385082.865,49.316,25.879,20.508,22.461,48.340
1532385082.869,59.082,32.227,17.090,19.531,32.227
1532385082.872,54.688,29.785,11.719,17.578,23.926
1532385082.876,48.340,20.508,18.555,27.832,19.043
1532385082.880,43.945,19.043,28.320,38.574,31.738
1532385082.884,29.785,21.484,27.344,31.738,51.270
1532385082.888,28.320,23.438,22.949,38.086,62.012
1532385082.892,28.809,37.598,22.461,42.480,33.691
1532385082.896,20.508,18.066,20.020,26.855,17.090
1532385082.900,19.531,6.348,21.973,28.809,48.828
1532385082.904,15.625,24.414,25.879,34.668,58.105
1532385082.908,14.160,26.855,26.855,31.250,55.176
1532385082.911,20.508,28.809,25.879,31.738,48.340
1532385082.915,21.484,35.156,26.855,32.715,40.527
1532385082.919,29.297,25.391,20.020,30.762,18.555
1532385082.923,36.621,17.578,22.461,31.250,10.742
1532385082.927,30.273,18.555,30.273,29.785,23.926
1532385082.931,27.344,18.066,23.926,33.203,20.508
1532385082.935,25.391,23.438,19.531,32.715,31.738
1532385082.939,22.949,29.297,12.207,22.949,37.598
1532385082.943,26.855,32.227,10.254,34.180,16.602
1532385082.947,36.621,42.969,27.832,48.340,26.855
1532385082.951,35.156,39.062,29.297,34.180,18.555
1532385082.954,24.414,28.809,15.137,19.043,26.855
1532385082.958,21.484,16.602,15.137,27.344,51.270
1532385082.962,23.438,17.578,24.414,33.691,41.992
1532385082.966,23.926,30.762,26.367,24.902,20.020
1532385082.970,30.273,19.531,29.785,25.879,3.418
1532385082.974,35.645,19.043,33.203,32.715,6.348
1532385082.978,36.133,32.715,26.367,37.598,26.367
1532385082.982,33.691,39.551,21.484,29.785,29.297
1532385082.986,27.832,38.086,23.438,30.273,25.391
1532385082.990,26.367,29.297,21.484,33.203,0.977
1532385082.994,25.391,31.738,20.996,25.391,1.953
1532385082.997,27.344,36.133,22.949,29.785,35.156
1532385083.001,31.250,33.203,25.879,39.062,40.039
1532385083.005,36.133,33.203,27.832,36.621,22.949
1532385083.009,29.785,28.320,24.902,26.367,1.953
1532385083.013,23.926,25.879,19.531,20.996,-12.207
1532385083.017,24.414,30.762,20.020,20.020,12.207
1532385083.021,35.645,31.738,24.902,26.855,19.043
1532385083.025,37.109,32.227,24.414,25.391,-17.090
1532385083.029,29.785,35.156,23.438,27.344,0.000
1532385083.033,33.203,30.762,24.902,34.668,34.180
1532385083.036,32.227,32.715,26.367,34.668,23.926
1532385083.040,41.504,45.410,32.715,43.457,20.508
1532385083.044,44.922,48.828,35.156,42.969,35.645
1532385083.048,30.762,44.434,28.320,29.785,63.965
1532385083.052,26.855,36.133,27.344,19.043,50.293
1532385083.056,27.344,35.156,28.320,18.555,14.648
1532385083.060,30.273,43.457,32.715,26.855,0.488
1532385083.064,35.156,29.785,33.203,30.273,4.395
1532385083.068,32.227,32.715,32.227,30.273,42.480
1532385083.072,25.391,40.527,33.203,25.879,32.227
1532385083.076,24.414,37.109,29.297,22.949,2.930
1532385083.079,24.902,34.180,26.855,27.832,37.109
1532385083.083,26.855,19.043,24.902,27.344,45.898
1532385083.087,31.250,30.273,27.832,27.832,41.992
1532385083.091,30.762,41.016,27.832,26.367,21.484
1532385083.095,23.438,21.973,17.578,17.578,3.906
1532385083.099,20.508,13.184,17.578,15.137,27.344
1532385083.103,22.461,17.090,20.020,15.137,28.809
1532385083.107,24.414,23.438,7.812,18.066,20.508
1532385083.111,24.414,31.250,1.953,22.461,32.715
1532385083.115,30.273,37.598,15.625,29.297,46.875
1532385083.119,40.527,36.133,25.391,29.785,19.043
1532385083.122,36.621,33.203,29.297,33.203,0.000
1532385083.126,29.297,32.715,19.531,33.691,41.504
1532385083.130,30.273,36.133,23.438,27.832,38.574
1532385083.134,26.855,35.156,27.832,28.320,1.953
1532385083.138,19.531,23.926,17.578,24.902,33.203
1532385083.142,12.207,9.766,21.484,20.508,42.480
1532385083.146,9.277,18.066,22.949,28.809,42.969
1532385083.150,20.020,23.438,25.879,23.926,50.781
1532385083.154,14.648,20.020,32.715,21.484,12.695
1532385083.158,10.742,23.438,27.832,27.344,9.277
1532385083.161,26.855,23.926,21.973,27.832,27.344
1532385083.165,25.879,26.367,20.996,30.762,32.227
1532385083.169,19.531,27.832,15.137,28.320,25.391
1532385083.173,22.949,25.391,18.555,22.949,27.344
1532385083.177,22.949,26.367,29.297,23.926,46.387
1532385083.181,27.344,24.902,36.133,33.203,43.457
1532385083.185,32.715,20.508,31.250,34.668,39.551
1532385083.189,26.855,30.762,21.484,23.438,6.348
1532385083.193,24.414,30.762,18.066,17.578,1.953
1532385083.197,30.273,24.414,18.066,21.484,42.480
1532385083.201,25.879,27.832,19.531,24.902,45.898
1532385083.204,21.973,22.461,23.438,29.785,24.902
1532385083.208,22.461,29.297,21.484,27.832,36.133
1532385083.212,21.973,41.992,16.602,21.484,34.668
1532385083.216,17.578,34.180,16.602,21.973,4.395
1532385083.220,14.648,26.855,13.672,27.832,4.395
1532385083.224,24.902,24.414,15.137,27.344,6.836
1532385083.228,28.809,31.738,23.926,28.809,36.133
1532385083.232,27.832,33.691,21.973,30.273,15.137
1532385083.236,17.578,33.691,16.113,24.902,-8.301
1532385083.240,19.531,26.855,13.184,26.855,29.297
1532385083.244,41.504,20.508,16.113,28.320,38.574
1532385083.247,37.598,24.414,16.113,29.785,53.223
1532385083.251,22.461,22.949,11.230,34.180,45.898
1532385083.255,24.414,27.832,8.789,35.156,36.133
1532385083.259,23.438,34.668,11.719,25.879,30.273
1532385083.263,20.996,30.273,23.926,20.996,29.297
1532385083.267,27.344,21.484,24.902,30.273,52.246
1532385083.271,36.133,32.227,22.949,33.691,-5.371
1532385083.275,46.875,44.922,28.320,39.551,-20.020
1532385083.279,34.180,43.945,20.996,41.016,43.945
1532385083.283,22.461,25.391,10.742,34.180,47.363
1532385083.286,30.762,10.254,10.742,30.273,18.555
1532385083.290,27.832,15.137,12.207,26.367,19.043
1532385083.294,19.531,27.344,10.742,19.043,23.926
1532385083.298,25.879,27.344,14.160,22.949,18.555
1532385083.302,30.273,13.184,16.602,27.832,25.391
1532385083.306,28.320,21.484,10.254,26.855,23.926
1532385083.310,30.273,41.016,11.719,29.297,-11.230
1532385083.314,35.645,40.527,26.367,37.109,21.973
1532385083.318,38.086,39.062,28.320,39.062,49.805
1532385083.322,33.691,27.832,18.066,28.809,14.160
1532385083.326,33.691,19.043,17.578,26.367,29.785
1532385083.329,21.484,24.902,19.043,23.926,54.688
1532385083.333,21.484,30.762,18.555,26.367,50.781
1532385083.337,30.762,30.273,26.367,29.297,22.949
1532385083.341,21.973,29.785,25.879,21.484,14.648
1532385083.345,22.461,32.715,18.066,17.578,44.922
1532385083.349,32.227,27.344,20.020,29.785,68.359
1532385083.353,40.039,26.367,26.855,38.574,54.688
1532385083.357,39.062,42.969,26.855,36.133,22.949
1532385083.361,26.855,43.945,20.996,25.391,32.227
1532385083.365,26.855,30.762,13.672,20.020,36.133
1532385083.368,31.738,16.602,11.230,25.391,43.457
1532385083.372,26.855,26.367,15.137,16.113,3.906
1532385083.376,21.973,41.016,15.625,10.742,-26.855
1532385083.380,21.973,37.598,15.625,18.555,45.410
1532385083.384,18.555,28.809,22.949,18.555,65.918
1532385083.388,12.695,23.438,25.879,19.043,47.363
1532385083.392,11.719,13.184,26.367,20.508,22.949
1532385083.396,17.578,15.137,27.832,23.438,10.254
1532385083.400,24.902,32.227,25.879,23.926,21.484
1532385083.404,27.832,27.344,27.344,20.020,27.344
1532385083.408,31.250,26.855,37.109,31.250,28.320
1532385083.411,35.156,25.879,37.109,35.645,17.578
1532385083.415,23.438,31.250,20.508,25.391,45.410
1532385083.419,25.879,24.414,15.137,26.855,64.453
1532385083.423,30.273,14.160,16.602,27.832,23.438
1532385083.427,25.879,28.809,13.184,20.508,22.461
1532385083.431,31.738,37.109,9.277,15.625,23.926
1532385083.435,33.203,38.086,10.742,20.508,2.441
1532385083.439,29.297,26.367,17.578,24.414,14.160
1532385083.443,23.438,22.461,24.902,22.461,20.020
1532385083.447,29.297,32.227,34.668,30.273,36.621
1532385083.451,28.809,33.203,29.297,28.320,30.273
1532385083.454,22.949,23.926,20.020,19.531,13.672
1532385083.458,28.809,14.648,20.996,25.879,26.855
1532385083.462,21.484,15.625,20.996,23.438,40.039
1532385083.466,20.020,24.414,19.043,21.973,50.293
1532385083.470,25.879,28.320,14.160,23.926,26.367
1532385083.474,24.902,25.879,15.625,24.414,12.207
1532385083.478,21.484,27.344,20.996,20.996,12.207
1532385083.482,17.578,26.367,19.043,17.090,38.086
1532385083.486,13.184,22.461,18.066,23.438,43.945
1532385083.490,8.301,21.973,20.508,21.973,14.648
1532385083.493,18.066,19.531,18.066,25.391,4.395
1532385083.497,34.180,30.762,30.273,35.645,40.039
1532385083.501,31.250,42.480,38.086,39.551,53.223
1532385083.505,25.391,25.391,32.227,27.344,27.832
1532385083.509,25.391,21.484,30.762,16.602,32.227
1532385083.513,28.320,29.297,26.855,19.043,17.090
1532385083.517,31.738,29.785,27.832,22.949,39.062
1532385083.521,25.879,25.391,29.785,25.879,36.133
1532385083.525,23.438,23.926,27.344,20.996,16.113
1532385083.529,36.621,31.250,28.809,21.973,19.531
1532385083.533,41.504,29.297,25.391,25.879,36.133
1532385083.536,37.109,22.461,31.738,22.949,34.180
1532385083.540,39.551,37.598,45.410,27.832,6.836
1532385083.544,38.574,39.551,41.016,27.832,25.879
1532385083.548,34.180,24.414,29.785,21.484,55.176
1532385083.552,30.762,28.809,28.320,17.578,42.480
1532385083.556,27.832,24.902,38.086,21.484,25.391
1532385083.560,28.320,19.531,44.434,35.156,28.320
1532385083.564,33.203,26.367,37.109,37.598,29.297
1532385083.568,35.645,25.391,40.527,36.133,44.434
1532385083.572,30.273,30.762,45.410,40.039,50.293
1532385083.576,31.738,25.391,42.480,41.016,37.598
1532385083.579,49.805,23.438,51.270,47.363,42.480
1532385083.583,48.340,39.551,51.758,45.898,58.594
1532385083.587,34.180,32.715,37.598,32.715,68.848
1532385083.591,25.391,37.598,27.832,19.531,57.617
1532385083.595,28.320,50.781,20.508,21.973,48.340
1532385083.599,34.180,47.852,19.531,31.738,45.898
1532385083.603,37.109,39.062,31.738,29.785,24.414
1532385083.607,38.574,33.691,37.598,32.227,-1.953
1532385083.611,41.504,13.184,39.551,39.551,19.531
1532385083.615,43.457,18.066,40.527,41.016,50.781
1532385083.618,39.062,55.176,35.645,35.645,49.805
1532385083.622,40.039,50.293,31.738,35.645,25.391
1532385083.626,32.715,39.551,33.203,37.109,15.137
1532385083.630,27.832,43.945,34.668,29.785,15.625
1532385083.634,26.367,40.527,31.250,30.273,18.066
1532385083.638,27.344,41.992,24.414,32.715,6.348
1532385083.642,35.156,31.738,26.855,31.738,-14.160
1532385083.646,33.691,10.742,33.691,39.062,-15.137
1532385083.650,31.250,29.297,38.574,41.992,6.836
1532385083.654,34.180,46.387,40.527,34.668,-2.441
1532385083.658,34.668,33.691,32.227,34.668,-1.953
1532385083.661,42.969,28.320,31.250,43.457,9.766
1532385083.665,41.016,32.715,26.367,41.992,32.715
1532385083.669,23.438,32.227,19.043,35.156,31.738
1532385083.673,27.832,32.715,23.438,30.762,6.348
1532385083.677,39.062,30.762,24.414,34.180,19.043
1532385083.681,36.621,22.949,24.902,30.762,25.879
1532385083.685,35.645,23.438,34.180,22.461,29.297
1532385083.689,31.250,35.645,38.086,17.090,1.953
1532385083.693,44.434,34.668,39.551,18.066,-12.207
1532385083.697,50.293,27.344,39.062,20.996,8.301
1532385083.701,48.340,30.762,33.203,25.879,20.020
1532385083.704,47.363,28.809,30.762,28.320,7.812
1532385083.708,50.293,35.156,37.109,35.156,-3.418
1532385083.712,39.551,38.086,39.551,33.691,11.230
1532385083.716,15.625,31.738,27.344,20.508,21.484
1532385083.720,16.602,23.438,26.367,18.555,31.250
1532385083.724,26.855,10.254,36.621,30.273,25.879
1532385083.728,22.461,15.137,37.109,34.668,42.480
1532385083.732,17.090,30.273,36.621,27.832,42.969
1532385083.736,24.902,27.832,37.598,32.715,15.137
1532385083.740,36.621,21.484,35.645,41.504,-7.324
1532385083.743,39.551,30.273,37.598,48.340,5.859
1532385083.747,35.156,32.227,35.645,44.922,27.832
1532385083.751,36.621,31.738,41.504,40.039,-11.719
1532385083.755,36.133,35.156,41.992,35.645,-41.992
1532385083.759,28.809,32.227,39.551,40.039,-0.977
1532385083.763,29.785,33.691,40.039,37.598,57.129
1532385083.767,29.785,38.574,31.250,29.785,42.969
1532385083.771,34.668,29.297,33.203,36.621,13.184
1532385083.775,42.969,15.625,41.504,38.574,11.719
1532385083.779,36.133,30.762,43.945,40.039,22.949
1532385083.783,20.020,45.410,39.062,29.297,41.992
1532385083.786,19.531,39.062,35.645,22.949,45.410
1532385083.790,26.855,41.016,31.250,26.367,35.156
1532385083.794,26.855,35.645,23.438,20.996,38.086
1532385083.798,33.691,28.320,31.738,35.645,57.617
1532385083.802,47.363,38.574,33.691,48.828,62.500
1532385083.806,47.852,30.273,25.391,41.504,33.691
1532385083.810,44.922,26.855,36.621,36.133,34.668
1532385083.814,33.691,33.203,42.969,29.297,36.133
1532385083.818,28.320,22.461,40.527,24.414,35.645
1532385083.822,29.785,34.180,36.621,15.625,37.109
1532385083.826,34.668,44.922,28.809,19.043,33.691
1532385083.829,41.016,40.527,28.320,34.668,20.020
1532385083.833,31.738,41.992,31.738,29.297,1.465
1532385083.837,29.297,39.062,38.086,23.438,8.301
1532385083.841,23.926,34.180,37.598,14.160,22.461
1532385083.845,18.555,34.668,32.227,5.371,51.758
1532385083.849,24.902,28.809,31.250,18.555,44.434
1532385083.853,26.855,20.508,31.738,26.367,35.645
1532385083.857,25.879,25.391,44.434,20.020,39.551
1532385083.861,24.414,25.879,50.293,22.461,57.617
1532385083.865,28.809,26.855,43.945,25.391,50.781
1532385083.868,22.461,29.297,42.969,23.438,46.875
1532385083.872,13.672,31.738,42.480,15.625,-0.488
1532385083.876,16.602,31.738,40.039,17.090,-8.789
1532385083.880,17.090,27.344,36.621,20.996,55.176
1532385083.884,28.320,35.645,47.363,26.855,67.383
1532385083.888,40.527,46.875,62.012,29.785,58.594
1532385083.892,36.133,32.715,57.617,29.297,41.992
1532385083.896,33.691,30.273,58.594,30.762,38.086
1532385083.900,33.203,45.410,67.383,25.391,57.617
1532385083.904,31.738,35.645,62.988,22.461,49.805
1532385083.908,33.203,27.832,67.383,24.414,17.578
1532385083.911,33.691,38.086,78.613,28.809,48.828
1532385083.915,37.598,32.715,88.379,32.227,75.684
1532385083.919,32.715,20.996,94.238,26.367,80.078
1532385083.923,27.344,32.227,89.355,24.902,56.641
1532385083.927,33.691,41.504,92.773,34.668,20.020
1532385083.931,41.016,37.109,93.262,36.133,18.066
1532385083.935,44.434,42.480,95.703,31.250,-0.488
1532385083.939,37.109,28.809,94.727,28.320,-2.930
1532385083.943,31.738,20.020,79.590,29.785,21.973
1532385083.947,31.738,26.367,82.031,28.809,41.992
1532385083.951,32.715,24.902,94.727,25.391,17.578
1532385083.954,34.668,25.391,93.262,27.344,4.395
1532385083.958,35.645,39.551,90.820,33.203,24.414
1532385083.962,26.855,35.645,93.750,27.344,14.648
1532385083.966,27.832,30.762,103.027,21.973,17.090
1532385083.970,41.504,42.969,113.281,28.320,6.836
1532385083.974,36.621,32.227,105.469,23.926,-36.133
1532385083.978,23.438,20.020,96.191,20.508,9.766
1532385083.982,30.273,24.414,99.121,32.715,42.480
1532385083.986,36.133,35.156,98.145,39.062,34.180
1532385083.990,31.250,31.738,98.633,32.715,13.184
1532385083.993,34.180,30.762,99.609,33.203,10.742
1532385083.997,44.434,37.109,94.238,31.250,57.129
1532385084.001,44.434,41.504,91.797,29.785,56.641
1532385084.005,40.039,48.340,93.262,30.273,23.438
1532385084.009,41.016,39.551,97.168,25.879,3.418
1532385084.013,31.738,35.645,92.773,19.531,-12.207
1532385084.017,28.320,41.992,89.844,29.297,26.855
1532385084.021,36.133,36.621,92.773,42.480,49.316
1532385084.025,30.273,22.461,93.750,34.180,27.832
1532385084.029,26.367,20.020,97.168,24.414,22.949
1532385084.033,28.809,37.109,96.191,24.414,9.277
1532385084.036,22.949,39.551,93.262,24.414,36.133
1532385084.040,28.809,39.551,85.449,29.297,41.504
1532385084.044,37.598,31.738,84.473,34.180,26.367
1532385084.048,38.574,24.902,88.867,37.598,49.316
1532385084.052,32.227,32.227,84.961,35.156,37.109
1532385084.056,29.785,38.086,90.332,32.715,12.207
1532385084.060,24.902,40.039,88.867,29.785,13.672
1532385084.064,24.902,29.785,93.262,32.715,43.945
1532385084.068,35.156,25.391,103.027,39.551,42.969
1532385084.072,31.250,24.414,92.285,23.438,-16.602
1532385084.075,26.855,28.809,83.496,19.043,-31.250
1532385084.079,28.320,28.320,89.355,22.949,13.184
1532385084.083,26.855,30.762,90.820,19.531,46.875
1532385084.087,25.879,38.574,87.402,23.926,20.508
1532385084.091,23.438,39.062,90.820,27.344,-2.930
1532385084.095,26.855,33.691,87.891,33.691,34.180
1532385084.099,32.227,19.531,77.637,37.109,53.223
1532385084.103,44.434,17.578,74.707,41.992,32.715
1532385084.107,42.480,37.109,82.031,45.898,14.160
1532385084.111,27.344,41.992,89.355,33.691,22.461
1532385084.115,27.344,35.645,88.867,30.273,36.621
1532385084.118,25.879,33.203,86.426,33.203,23.438
1532385084.122,27.832,26.367,83.496,32.227,1.465
1532385084.126,27.832,29.785,83.496,29.297,32.227
1532385084.130,27.832,45.898,85.938,28.320,41.504
1532385084.134,36.621,32.227,87.891,31.250,17.090
1532385084.138,39.062,22.949,82.031,32.715,8.301
1532385084.142,35.156,41.992,74.707,26.367,28.809
1532385084.146,37.598,36.621,82.520,30.762,51.758
1532385084.150,36.621,26.367,84.473,38.086,48.828
1532385084.154,35.156,44.922,88.867,33.691,33.203
1532385084.158,43.457,51.270,90.820,35.645,35.645
1532385084.161,35.156,36.621,74.707,36.133,41.016
1532385084.165,32.227,26.367,67.871,33.203,73.242
1532385084.169,31.250,18.066,69.336,26.855,62.012
1532385084.173,22.461,23.438,69.336,19.531,11.719
1532385084.177,32.715,25.879,81.055,22.949,11.719
1532385084.181,28.809,31.738,84.961,27.344,25.391
1532385084.185,24.414,40.039,80.566,23.926,46.875
1532385084.189,36.621,38.574,92.773,28.809,30.762
1532385084.193,36.133,40.039,90.332,33.203,28.320
1532385084.197,30.762,29.785,69.824,31.250,71.777
1532385084.200,35.156,29.297,69.824,28.320,70.801
1532385084.204,40.039,33.691,78.125,31.250,18.066
1532385084.208,35.156,25.391,79.590,35.156,25.391
1532385084.212,34.180,36.621,80.566,24.902,33.203
1532385084.216,38.086,45.898,77.148,21.973,19.043
1532385084.220,39.062,40.039,73.730,29.297,69.336
1532385084.224,43.457,38.086,66.406,31.738,51.758
1532385084.228,42.969,38.574,75.195,38.086,19.043
1532385084.232,44.922,31.250,90.820,38.574,27.832
1532385084.236,33.691,29.785,85.449,30.762,23.438
1532385084.240,24.414,28.320,74.219,26.855,25.879
1532385084.243,34.668,21.484,72.754,25.879,32.715
1532385084.247,31.738,30.273,79.102,30.273,15.137
1532385084.251,25.879,33.203,75.195,25.391,12.207
1532385084.255,21.484,34.668,72.754,21.484,0.977
1532385084.259,23.926,40.527,78.125,30.762,17.578
1532385084.263,28.809,33.691,76.172,32.227,63.477
1532385084.267,35.645,23.438,80.078,38.086,46.387
1532385084.271,43.457,34.668,83.008,42.969,29.785
1532385084.275,40.527,34.668,71.777,34.180,48.828
1532385084.279,32.227,25.391,62.988,28.320,47.852
1532385084.283,28.809,31.738,72.266,28.320,38.086
1532385084.286,37.598,43.945,71.777,28.320,36.621
1532385084.290,34.180,45.410,62.988,22.949,20.508
1532385084.294,32.227,32.227,64.453,22.949,29.785
1532385084.298,38.574,28.809,71.289,25.879,64.453
1532385084.302,37.109,35.645,78.613,20.508,47.852
1532385084.306,36.133,27.832,77.637,23.438,31.738
1532385084.310,38.086,19.531,85.449,28.320,27.344
1532385084.314,25.391,11.230,83.496,18.066,25.879
1532385084.318,15.625,20.508,63.477,14.160,63.477
1532385084.322,21.973,29.785,58.105,15.625,52.246
1532385084.325,27.344,30.273,63.965,14.648,31.250
1532385084.329,19.043,33.203,65.430,11.230,29.785
1532385084.333,22.461,32.715,70.312,19.043,31.250
1532385084.337,38.574,29.785,68.848,32.227,20.996
1532385084.341,42.480,27.832,63.477,30.273,16.602
1532385084.345,31.738,32.227,68.359,24.414,22.461
1532385084.349,32.227,37.109,80.078,28.809,40.527
1532385084.353,41.016,30.273,82.031,26.855,35.156
1532385084.357,29.785,25.391,68.848,15.625,22.461
1532385084.361,20.020,12.695,63.477,19.043,28.809
1532385084.365,28.320,8.301,65.430,25.879,53.711
1532385084.368,25.879,23.926,60.547,28.809,65.430
1532385084.372,24.414,30.762,65.918,24.902,23.438
1532385084.376,29.297,36.621,75.684,23.438,22.949
1532385084.380,30.762,32.227,82.031,35.156,42.480
1532385084.384,37.109,29.297,85.449,32.227,49.316
1532385084.388,23.438,30.762,75.195,20.996,24.902
1532385084.392,14.648,33.691,71.289,18.555,-14.160
1532385084.396,25.391,33.691,69.824,24.902,13.672
1532385084.400,28.320,27.832,69.824,24.414,56.641
1532385084.404,31.738,30.762,67.383,21.973,50.293
1532385084.408,29.297,27.832,64.453,29.297,17.578
1532385084.411,27.344,19.531,72.266,31.250,32.715
1532385084.415,35.156,29.297,77.637,31.250,61.035
1532385084.419,38.086,41.504,80.566,33.203,61.035
1532385084.423,41.992,44.434,78.125,34.180,31.250
1532385084.427,41.992,40.039,71.777,38.086,35.156
1532385084.431,37.598,37.109,71.777,33.691,46.875
1532385084.435,33.203,35.156,76.660,28.809,29.297
1532385084.439,25.391,22.949,74.707,29.785,20.996
1532385084.443,27.344,28.320,69.336,29.785,25.391
1532385084.447,21.973,38.086,67.383,33.203,44.922
1532385084.450,15.625,37.598,69.824,30.273,31.738
1532385084.454,20.020,37.109,74.219,23.438,16.113
1532385084.458,29.785,35.645,77.148,35.156,28.809
1532385084.462,30.762,25.391,72.266,38.086,47.852
1532385084.466,25.391,18.555,72.754,40.039,45.410
1532385084.470,28.809,20.996,83.984,43.457,23.438
1532385084.474,25.879,27.344,75.195,29.785,14.160
1532385084.478,23.926,40.527,71.777,30.273,28.320
1532385084.482,25.391,41.016,77.637,31.250,19.043
1532385084.486,24.414,33.691,80.078,25.391,16.113
1532385084.490,26.855,30.762,82.031,25.879,18.555
1532385084.493,28.809,29.785,78.125,23.438,2.441
1532385084.497,30.273,35.645,76.660,28.809,20.020
1532385084.501,29.785,35.645,83.984,32.227,45.410
1532385084.505,35.645,32.715,86.426,28.320,30.762
1532385084.509,36.621,30.762,79.102,20.020,21.484
1532385084.513,45.898,39.551,79.590,22.461,50.293
1532385084.517,59.082,50.293,80.566,25.391,50.293
1532385084.521,54.688,39.062,75.684,18.555,25.391
1532385084.525,43.457,31.250,71.289,17.090,16.602
1532385084.529,39.551,28.320,70.801,25.879,34.180
1532385084.533,38.086,25.391,74.219,31.738,19.043
1532385084.536,36.133,34.180,75.684,35.645,7.812
1532385084.540,32.227,31.738,79.102,38.086,17.090
1532385084.544,26.855,24.414,80.078,37.598,33.691
1532385084.548,26.855,30.273,82.031,38.086,63.965
1532385084.552,24.902,38.086,76.660,27.344,13.184
1532385084.556,29.297,47.852,72.754,27.344,-22.949
1532385084.560,31.738,43.945,80.078,41.016,23.926
1532385084.564,31.250,20.996,75.195,35.156,40.527
1532385084.568,32.715,20.996,68.359,24.414,29.785
1532385084.572,35.645,35.645,71.777,28.320,15.625
1532385084.575,28.809,39.062,73.242,27.832,33.691
1532385084.579,24.414,41.992,69.824,27.832,50.781
1532385084.583,32.715,42.480,64.453,30.273,47.363
1532385084.587,39.062,26.367,72.754,27.832,28.809
1532385084.591,41.992,8.789,83.008,26.855,-3.906
1532385084.595,40.039,23.438,76.660,31.250,-7.812
1532385084.599,38.086,34.180,72.266,38.574,35.645
1532385084.603,29.785,37.598,70.801,27.344,37.598
1532385084.607,34.180,45.898,68.359,24.414,17.090
1532385084.611,33.691,39.062,74.707,29.785,10.254
1532385084.615,27.344,34.180,81.543,26.855,11.719
1532385084.618,25.879,38.574,72.266,25.391,21.973
1532385084.622,30.273,29.297,62.500,28.809,20.508
1532385084.626,31.250,9.277,60.059,27.832,17.578
1532385084.630,33.691,29.785,69.336,32.715,31.738
1532385084.634,39.062,50.293,80.566,32.227,74.707
1532385084.638,33.203,32.715,70.801,19.043,63.477
1532385084.642,32.715,24.902,60.059,15.137,37.598
1532385084.646,32.227,26.855,61.035,18.066,59.570
1532385084.650,26.855,31.738,61.035,21.973,67.383
1532385084.654,28.809,28.809,66.406,26.855,57.617
1532385084.658,27.832,24.902,68.848,23.926,20.508
1532385084.661,26.367,24.902,65.918,20.996,23.438
1532385084.665,40.039,17.090,66.406,32.715,57.617
1532385084.669,32.715,25.879,64.453,33.203,48.828
1532385084.673,28.809,48.828,64.453,32.227,0.977
1532385084.677,41.504,51.270,72.754,32.715,0.000
1532385084.681,30.273,26.367,67.871,23.926,52.734
1532385084.685,18.066,16.602,61.523,24.414,72.266
1532385084.689,25.879,34.180,57.129,28.320,34.668
1532385084.693,32.227,29.785,54.688,28.320,8.301
1532385084.697,36.133,17.090,61.523,26.367,31.738
1532385084.700,40.527,21.973,67.871,24.902,55.664
1532385084.704,35.645,34.180,69.824,23.438,55.664
1532385084.708,32.715,36.621,59.570,20.996,26.855
1532385084.712,33.691,28.320,61.035,28.809,24.902
1532385084.716,32.715,28.320,69.824,32.715,30.273
1532385084.720,23.926,28.320,61.523,20.996,11.230
1532385084.724,24.414,20.020,61.035,19.531,-2.930
1532385084.728,33.691,20.020,63.965,20.020,20.508
1532385084.732,33.203,19.043,59.570,16.602,21.484
1532385084.736,34.180,17.578,52.734,19.043,22.461
1532385084.740,27.832,31.738,48.828,18.555,20.508
1532385084.743,22.461,25.879,51.758,19.043,21.973
1532385084.747,24.414,18.555,54.688,17.578,36.133
1532385084.751,22.461,23.438,53.711,9.277,24.902
1532385084.755,27.344,24.902,62.012,12.207,30.762
1532385084.759,38.086,21.973,66.406,25.879,42.969
1532385084.763,28.320,19.531,52.246,21.973,36.133
1532385084.767,20.996,11.719,48.340,15.137,49.805
1532385084.771,28.320,1.465,48.828,14.648,22.461
1532385084.775,28.320,26.367,42.480,10.254,-35.156
1532385084.779,25.879,34.180,43.945,16.602,21.484
1532385084.783,22.461,25.879,47.852,21.484,62.012
1532385084.786,25.879,36.133,49.316,21.484,46.875
1532385084.790,26.367,37.109,53.711,16.113,33.203
1532385084.794,29.785,22.461,55.176,22.949,34.668
1532385084.798,24.414,24.414,53.711,21.973,46.387
1532385084.802,27.832,30.762,56.152,22.949,37.109
1532385084.806,31.738,26.855,54.688,25.391,22.949
1532385084.810,29.297,20.020,51.270,14.648,11.719
1532385084.814,29.297,14.160,48.340,19.531,26.367
1532385084.818,20.508,16.113,53.223,28.320,50.293
1532385084.822,16.113,18.066,50.781,32.227,29.785
1532385084.825,18.555,31.738,45.898,28.320,20.508
1532385084.829,22.461,50.293,46.387,29.297,38.574
1532385084.833,34.668,48.828,52.246,38.086,28.809
1532385084.837,33.691,31.738,53.223,32.715,19.531
1532385084.841,16.602,21.973,44.434,23.926,12.695
1532385084.845,21.484,14.160,42.480,25.391,41.992
1532385084.849,30.762,11.719,48.340,24.414,70.312
1532385084.853,22.949,25.879,52.734,19.531,52.246
1532385084.857,28.320,31.250,57.129,23.926,41.992
1532385084.861,30.273,21.484,53.711,22.949,24.414
1532385084.865,21.973,15.625,53.711,26.367,31.250
1532385084.868,21.973,23.438,54.199,28.809,47.363
1532385084.872,19.043,32.227,46.875,22.949,7.324
1532385084.876,22.461,18.555,49.805,20.508,11.230
1532385084.880,20.996,17.578,49.316,19.531,33.691
1532385084.884,23.926,12.207,43.945,18.066,47.363
1532385084.888,32.715,16.602,50.293,28.320,26.855
1532385084.892,22.949,41.992,44.922,24.902,-0.977
1532385084.896,13.672,31.250,32.715,11.719,37.109
1532385084.900,14.160,21.484,33.691,16.113,50.781
1532385084.904,13.184,13.672,39.062,13.184,32.227
1532385084.907,6.836,5.371,44.922,10.742,12.207
1532385084.911,6.836,15.137,48.828,9.766,-0.977
1532385084.915,21.973,18.555,53.711,15.625,11.230
1532385084.919,20.020,19.531,54.688,22.949,30.762
1532385084.923,16.113,17.090,47.363,21.973,15.137
1532385084.927,22.949,7.324,45.898,21.973,33.691
1532385084.931,23.926,9.766,48.828,24.902,47.852
1532385084.935,24.414,12.207,42.969,21.973,40.527
1532385084.939,28.320,13.184,39.062,20.996,9.277
1532385084.943,32.715,19.531,49.805,24.902,-2.441
1532385084.947,27.832,23.438,45.898,20.996,36.133
1532385084.950,16.113,14.160,32.227,16.602,9.277
1532385084.954,16.113,8.789,39.062,14.160,-23.926
1532385084.958,17.090,12.207,51.758,14.648,-5.859
1532385084.962,18.555,17.090,53.711,19.043,28.320
1532385084.966,24.902,27.344,49.316,23.438,51.758
1532385084.970,19.531,19.531,36.133,21.484,23.926
1532385084.974,21.484,8.789,26.367,11.230,9.277
1532385084.978,25.879,18.066,42.969,11.719,-8.301
1532385084.982,23.926,24.414,58.105,19.043,-11.719
1532385084.986,23.438,27.832,58.594,19.043,45.410
1532385084.990,20.508,17.578,44.434,12.207,20.020
1532385084.993,15.137,1.465,35.156,6.836,-11.719
1532385084.997,17.578,13.184,52.246,15.137,31.250
1532385085.001,20.508,25.391,50.781,14.648,38.574
1532385085.005,8.789,31.250,33.203,6.348,9.277
1532385085.009,6.348,22.461,34.180,8.789,12.695
1532385085.013,11.230,7.812,44.922,9.766,17.578
1532385085.017,9.277,19.043,46.387,11.230,45.410
1532385085.021,15.137,21.973,40.039,11.230,45.410
1532385085.025,21.484,16.113,39.062,14.648,41.992
1532385085.029,18.066,20.996,45.410,20.020,44.434
1532385085.032,17.090,18.555,53.223,23.926,54.199
1532385085.036,20.996,9.277,45.410,20.996,64.941
1532385085.040,18.555,11.230,39.551,11.230,29.297
1532385085.044,22.461,31.738,60.059,18.066,26.855
1532385085.048,24.414,26.855,68.359,28.809,56.152
1532385085.052,17.578,16.602,59.082,15.625,33.203
1532385085.056,13.672,40.527,56.641,9.766,2.441
1532385085.060,17.090,37.598,52.734,15.625,29.785
1532385085.064,25.879,27.832,58.594,29.297,67.871
1532385085.068,22.461,35.645,62.500,34.180,69.824
1532385085.072,21.484,38.574,61.035,28.809,30.273
1532385085.075,38.574,25.879,61.523,35.645,14.160
1532385085.079,38.574,16.113,60.059,39.551,47.852
1532385085.083,30.273,34.180,51.758,36.133,54.688
1532385085.087,32.227,40.527,46.387,31.250,39.551
1532385085.091,34.180,51.270,64.941,30.273,-4.883
1532385085.095,31.250,58.105,75.195,35.156,6.348
1532385085.099,28.809,34.180,69.336,34.180,55.664
1532385085.103,27.344,29.785,66.895,29.785,37.598
1532385085.107,27.832,36.133,65.430,29.297,24.414
1532385085.111,32.227,25.391,66.406,30.273,27.832
1532385085.115,36.621,30.762,53.711,32.227,24.902
1532385085.118,39.551,35.645,48.828,34.180,10.742
1532385085.122,40.039,23.926,61.523,36.133,4.395
1532385085.126,28.809,27.832,65.430,37.598,35.645
1532385085.130,27.344,34.668,67.383,40.527,26.855
1532385085.134,35.156,27.344,67.871,42.969,14.648
1532385085.138,38.086,31.250,64.941,39.551,20.508
1532385085.142,46.387,40.039,63.965,39.551,40.039
1532385085.146,46.875,36.621,56.152,40.527,54.199
1532385085.150,37.598,31.250,58.594,35.156,35.156
1532385085.154,38.574,24.902,63.477,29.297,-0.977
1532385085.157,41.504,18.555,64.453,29.785,5.859
1532385085.161,34.180,20.508,59.570,31.250,46.387
1532385085.165,36.133,27.344,54.688,33.691,76.172
1532385085.169,40.039,33.691,60.059,36.621,58.594
1532385085.173,38.086,41.016,60.059,31.250,19.043
1532385085.177,39.062,36.133,58.594,34.180,19.043
1532385085.181,34.668,32.227,54.688,38.574,22.461
1532385085.185,36.621,37.598,53.711,31.738,43.945
1532385085.189,42.480,43.945,60.059,28.809,29.785
1532385085.193,39.551,42.480,63.477,37.598,20.020
1532385085.197,38.574,29.785,53.223,29.785,46.875
1532385085.200,29.785,16.602,46.875,15.625,52.734
1532385085.204,20.020,10.254,50.781,10.254,55.176
1532385085.208,22.461,22.461,55.176,18.066,37.109
1532385085.212,24.414,28.809,53.223,19.043,24.902
1532385085.216,27.832,19.531,47.852,17.090,14.648
1532385085.220,24.902,29.785,46.875,25.879,30.273
1532385085.224,23.438,50.781,49.316,29.785,17.578
1532385085.228,27.344,46.387,56.152,27.832,12.207
1532385085.232,29.297,27.832,54.199,25.879,34.668
1532385085.236,34.668,29.785,56.152,31.250,11.719
1532385085.240,42.969,31.738,68.848,39.551,16.602
1532385085.243,41.504,21.973,60.059,34.668,13.672
1532385085.247,29.785,4.883,53.711,31.250,10.742
1532385085.251,22.461,11.230,54.199,34.180,13.672
1532385085.255,20.508,42.480,48.828,27.344,-11.230
1532385085.259,23.438,36.621,48.340,26.855,17.578
1532385085.263,30.762,30.762,46.387,29.297,34.668
1532385085.267,38.086,46.875,42.969,32.227,22.461
1532385085.271,42.969,40.527,49.316,35.156,10.254
1532385085.275,43.457,22.461,58.594,37.598,-7.324
1532385085.279,44.434,37.109,58.594,41.504,5.859
1532385085.282,36.133,42.480,53.711,33.691,50.293
1532385085.286,25.879,31.250,50.293,25.391,49.316
1532385085.290,26.367,28.320,51.270,25.879,4.883
1532385085.294,26.367,19.531,49.805,26.855,9.766
1532385085.298,22.949,34.668,46.387,24.414,20.996
1532385085.302,27.344,47.852,47.363,26.855,10.742
1532385085.306,33.203,31.738,42.480,33.691,10.254
1532385085.310,36.621,22.461,37.109,35.156,-3.418
1532385085.314,42.969,26.367,40.527,43.945,39.062
1532385085.318,42.480,30.273,50.293,49.316,57.617
1532385085.322,36.621,31.250,39.062,38.086,8.789
1532385085.325,26.855,38.574,19.043,25.879,8.301
1532385085.329,17.090,29.297,25.879,15.625,15.137
1532385085.333,15.625,24.414,37.109,9.766,2.441
1532385085.337,24.414,32.227,43.457,13.672,16.113
1532385085.341,24.902,20.508,40.039,15.625,31.738
1532385085.345,15.625,20.996,33.691,6.348,31.250
1532385085.349,16.602,31.738,40.039,1.465,34.180
1532385085.353,20.020,25.879,39.551,1.465,26.367
1532385085.357,32.715,19.531,36.133,3.418,24.414
1532385085.361,39.062,22.949,34.668,-4.395,29.297
1532385085.365,33.691,23.926,36.621,-7.324,32.715
1532385085.368,31.738,20.020,37.109,7.812,58.594
1532385085.372,21.973,21.484,30.273,3.418,21.484
1532385085.376,9.277,20.508,30.273,-0.977,-5.859
1532385085.380,4.883,8.789,24.902,6.836,46.387
1532385085.384,7.812,15.137,14.648,11.230,47.852
1532385085.388,7.324,17.578,22.949,14.160,35.645
1532385085.392,3.418,15.625,41.504,18.066,24.902
1532385085.396,-0.488,30.273,50.781,23.926,23.438
1532385085.400,-1.953,33.203,48.340,24.902,49.316
1532385085.404,7.812,28.320,41.016,25.879,44.434
1532385085.407,12.207,26.367,41.992,16.113,5.371
1532385085.411,6.836,25.391,41.992,11.719,0.977
1532385085.415,15.137,21.484,42.969,22.461,18.555
1532385085.419,31.738,18.555,50.293,31.738,9.766
1532385085.423,33.691,13.184,43.945,29.297,1.465
1532385085.427,17.578,21.484,34.180,15.625,23.438
1532385085.431,15.137,22.461,40.039,10.742,11.230
1532385085.435,18.066,5.859,38.086,16.113,6.348
1532385085.439,10.254,25.391,32.715,17.578,53.711
1532385085.443,17.578,39.551,27.832,15.137,40.527
1532385085.447,17.578,27.832,25.391,14.160,33.691
1532385085.450,15.137,29.297,36.133,12.695,51.758
1532385085.454,15.137,22.949,35.156,14.648,43.945
1532385085.458,11.719,4.395,29.297,11.719,42.480
1532385085.462,19.043,8.301,37.598,13.184,33.691
1532385085.466,26.855,16.602,52.734,24.902,50.781
1532385085.470,30.762,22.461,53.223,22.461,23.438
1532385085.474,34.180,28.809,40.039,15.137,-19.531
1532385085.478,28.809,33.203,31.738,19.531,-2.441
1532385085.482,17.090,36.621,32.227,21.973,17.090
1532385085.486,26.367,34.180,47.363,28.809,29.297
1532385085.490,31.738,31.250,52.734,26.367,-6.836
1532385085.493,29.297,37.109,48.828,21.484,-8.301
1532385085.497,40.527,20.996,44.434,33.691,39.551
1532385085.501,46.387,14.648,52.246,40.527,62.012
1532385085.505,40.039,41.992,63.965,41.016,51.758
1532385085.509,42.480,44.434,58.105,41.992,41.992
1532385085.513,45.410,44.922,55.176,45.898,31.738
1532385085.517,42.969,53.223,58.594,37.109,40.039
1532385085.521,33.691,49.316,53.711,31.738,39.551
1532385085.525,28.809,30.762,54.688,34.668,40.527
1532385085.529,34.668,28.809,57.129,35.156,68.359
1532385085.532,33.691,33.691,60.547,30.273,26.855
1532385085.536,34.180,37.109,62.012,31.250,11.719
1532385085.540,45.410,40.039,59.570,40.039,20.508
1532385085.544,47.852,30.273,58.105,35.645,15.625
1532385085.548,38.574,50.781,55.176,28.320,24.902
1532385085.552,37.109,57.129,49.805,29.297,13.672
1532385085.556,37.598,52.246,47.852,30.762,5.371
1532385085.560,42.480,47.852,47.363,30.762,0.488
1532385085.564,49.316,38.086,49.316,34.668,-1.465
1532385085.568,31.738,29.785,53.223,26.855,6.836
1532385085.572,26.367,29.297,54.688,18.555,5.859
1532385085.575,28.809,25.391,52.734,18.066,17.090
1532385085.579,35.645,33.203,51.270,26.855,23.438
1532385085.583,39.062,47.852,54.688,27.832,41.016
1532385085.587,34.180,47.363,58.594,19.531,56.641
1532385085.591,33.203,45.898,57.617,20.996,24.902
1532385085.595,36.621,41.992,53.711,26.855,22.949
1532385085.599,40.527,42.969,52.734,28.320,50.293
1532385085.603,37.598,43.945,56.641,27.344,31.250
1532385085.607,38.086,35.645,61.523,30.273,22.949
1532385085.611,42.969,36.621,64.941,30.762,38.086
1532385085.614,39.551,44.434,56.152,27.344,10.742
1532385085.618,33.691,32.715,50.293,31.250,11.230
1532385085.622,34.180,13.184,58.594,34.668,22.949
1532385085.626,27.344,35.156,49.316,32.227,12.695
1532385085.630,25.879,58.105,42.480,31.250,8.789
1532385085.634,40.527,47.363,56.641,33.691,41.504
1532385085.638,41.992,39.551,66.895,34.180,82.520
1532385085.642,34.668,41.016,63.965,32.715,56.152
1532385085.646,37.598,41.016,54.199,36.621,47.852
1532385085.650,35.645,36.133,52.734,31.738,36.621
1532385085.654,34.668,37.109,59.082,30.273,19.531
1532385085.657,36.133,24.414,62.012,36.133,16.602
1532385085.661,43.457,33.691,61.035,35.645,0.488
1532385085.665,42.969,50.293,63.965,43.945,35.156
1532385085.669,36.621,38.086,52.246,38.574,31.738
1532385085.673,29.785,24.902,45.410,29.785,10.254
1532385085.677,25.879,27.832,49.316,31.738,34.180
1532385085.681,28.809,41.016,47.363,31.250,56.152
1532385085.685,29.297,40.039,47.363,28.809,65.430
1532385085.689,29.785,38.574,53.711,34.180,37.109
1532385085.693,34.180,33.203,56.152,39.062,13.672
1532385085.697,31.738,30.762,56.641,37.598,18.066
1532385085.700,22.949,26.367,57.129,37.598,16.113
1532385085.704,27.832,37.598,56.152,38.086,30.762
1532385085.708,38.086,49.316,58.594,38.574,14.648
1532385085.712,30.762,29.297,55.664,36.621,0.488
1532385085.716,20.508,33.691,51.270,27.344,38.574
1532385085.720,24.414,44.434,51.758,23.926,29.785
1532385085.724,32.227,30.762,53.223,28.320,-6.348
1532385085.728,33.691,22.949,48.828,29.297,24.414
1532385085.732,36.621,33.691,46.387,30.273,32.227
1532385085.736,43.457,38.086,53.223,30.273,30.762
1532385085.739,41.016,31.250,61.035,33.691,6.348
1532385085.743,38.086,38.574,61.523,33.203,7.812
1532385085.747,38.574,41.016,61.523,34.180,44.434
1532385085.751,40.039,34.668,60.059,34.668,41.504
1532385085.755,37.598,40.527,56.152,32.227,21.973
1532385085.759,41.992,48.828,57.617,28.320,-1.953
1532385085.763,44.434,43.457,61.523,33.691,39.062
1532385085.767,45.410,40.039,63.965,43.457,38.574
1532385085.771,43.457,41.992,64.941,39.062,6.348
1532385085.775,42.969,41.016,70.801,45.898,15.625
1532385085.779,45.898,41.016,72.754,49.316,26.855
1532385085.782,34.180,30.762,63.477,36.133,50.781
1532385085.786,31.250,26.367,59.082,35.645,33.691
1532385085.790,36.621,27.344,62.988,37.109,-9.277
1532385085.794,33.691,28.320,60.059,33.203,20.996
1532385085.798,34.668,24.902,55.176,30.273,62.988
1532385085.802,29.785,31.738,57.129,31.250,54.199
1532385085.806,31.738,39.062,58.105,31.738,17.578
1532385085.810,40.527,34.668,59.082,35.156,10.742
1532385085.814,37.109,38.086,54.199,26.855,14.648
1532385085.818,39.551,41.016,48.340,27.832,21.484
1532385085.822,55.664,40.527,62.500,48.340,29.785
1532385085.825,57.617,28.809,62.012,45.898,18.555
1532385085.829,35.645,33.203,51.758,32.715,26.367
1532385085.833,22.461,42.480,59.570,31.250,63.965
1532385085.837,26.855,30.762,64.453,32.715,58.594
1532385085.841,37.109,25.879,62.500,36.621,16.113
1532385085.845,50.293,30.273,59.082,41.992,35.645
1532385085.849,46.875,23.926,54.199,48.340,41.504
1532385085.853,44.922,33.203,62.500,56.152,-1.465
1532385085.857,51.758,47.852,80.566,55.176,11.230
1532385085.861,55.176,52.246,88.867,54.688,27.832
1532385085.864,64.941,53.711,85.938,67.871,42.969
1532385085.868,76.660,49.805,93.750,83.008,53.711
1532385085.872,69.336,67.383,96.680,76.172,20.508
1532385085.876,55.664,79.102,91.797,62.500,11.719
1532385085.880,52.246,68.359,94.238,57.617,30.762
1532385085.884,55.176,61.035,82.520,54.199,22.949
1532385085.888,56.641,48.828,72.754,52.246,21.973
1532385085.892,54.199,44.434,73.242,51.270,-6.348
1532385085.896,46.387,49.805,62.500,48.340,-7.812
1532385085.900,51.758,36.133,60.059,49.316,73.242
1532385085.904,53.711,36.133,70.801,51.758,45.898
1532385085.907,46.387,50.293,83.984,55.176,-7.812
1532385085.911,50.781,66.895,91.797,55.664,11.719
1532385085.915,43.945,64.453,84.473,53.223,53.223
1532385085.919,46.387,59.082,74.219,51.758,63.477
1532385085.923,58.105,57.129,75.195,58.105,26.367
1532385085.927,59.570,41.504,78.125,62.988,16.113
1532385085.931,49.805,34.668,66.406,53.711,31.250
1532385085.935,50.781,24.902,54.199,46.875,47.852
1532385085.939,55.176,35.645,49.316,47.363,21.484
1532385085.943,46.387,56.152,51.758,43.945,11.230
1532385085.947,39.551,51.270,57.617,39.551,58.594
1532385085.950,37.109,50.781,63.477,38.574,32.715
1532385085.954,37.598,47.852,66.895,36.621,-14.160
1532385085.958,43.945,32.227,59.082,39.062,9.277
1532385085.962,37.109,25.879,53.223,39.551,28.320
1532385085.966,33.691,26.855,52.734,38.086,54.688
1532385085.970,41.992,37.109,57.129,36.621,32.227
1532385085.974,45.898,49.805,57.129,34.668,4.395
1532385085.978,51.758,41.992,44.922,36.133,8.301
1532385085.982,47.852,28.809,37.109,36.621,21.484
1532385085.986,31.738,23.438,36.133,35.156,37.109
1532385085.989,27.344,36.133,42.969,24.414,10.742
1532385085.993,25.879,39.062,47.363,15.625,-18.555
1532385085.997,31.738,32.715,46.875,20.996,24.414
1532385086.001,31.738,43.457,46.387,21.484,62.988
1532385086.005,30.762,35.645,45.410,23.926,41.016
1532385086.009,42.969,20.020,47.363,29.297,25.879
1532385086.013,43.945,37.598,49.316,20.508,41.016
1532385086.017,32.227,47.363,45.898,16.113,32.715
1532385086.021,32.227,39.062,44.922,21.484,0.977
1532385086.025,31.250,36.133,49.805,20.020,6.836
1532385086.029,40.527,33.203,47.852,27.344,20.508
1532385086.032,41.016,36.133,45.410,28.809,13.184
1532385086.036,21.484,40.527,41.992,19.043,11.719
1532385086.040,17.090,28.809,47.852,15.625,35.645
1532385086.044,15.625,21.484,57.129,16.113,53.711
1532385086.048,11.230,28.809,56.152,18.555,53.223
1532385086.052,20.996,34.668,54.199,21.484,26.855
1532385086.056,25.879,29.297,50.293,20.020,-5.371
1532385086.060,21.484,25.391,48.828,17.090,23.438
1532385086.064,21.484,31.250,49.805,20.020,49.316
1532385086.068,19.531,29.297,50.781,18.555,47.363
1532385086.072,25.391,23.926,53.711,18.066,47.363
1532385086.075,19.531,32.227,46.875,17.578,14.648
1532385086.079,19.043,43.457,44.922,22.461,20.508
1532385086.083,21.973,39.062,48.340,21.484,42.480
1532385086.087,16.602,26.367,51.758,21.484,47.363
1532385086.091,18.066,22.949,49.805,21.484,28.809
1532385086.095,23.438,28.809,48.828,17.578,-2.930
1532385086.099,19.043,19.043,44.434,13.184,35.645
1532385086.103,11.719,10.254,39.551,17.578,40.039
1532385086.107,12.695,25.879,41.992,19.043,18.555
1532385086.111,23.438,36.133,47.852,21.484,32.227
1532385086.114,31.738,35.156,46.387,33.203,41.504
1532385086.118,30.762,35.156,40.527,31.250,37.109
1532385086.122,32.715,28.320,46.387,33.203,18.555
1532385086.126,39.551,14.160,48.828,44.434,15.625
1532385086.130,40.039,8.789,41.992,40.527,36.133
1532385086.134,31.738,23.926,49.805,27.344,38.086
1532385086.138,28.809,25.879,55.176,32.227,47.852
1532385086.142,34.668,39.062,53.711,41.504,47.363
1532385086.146,39.062,47.852,48.828,33.691,39.551
1532385086.150,33.203,41.504,42.969,23.926,34.180
1532385086.154,22.949,38.086,41.016,20.508,10.742
1532385086.157,26.367,19.043,34.180,21.484,27.832
1532385086.161,34.180,17.090,27.832,21.973,49.316
1532385086.165,39.551,26.855,38.574,24.902,57.129
1532385086.169,43.945,30.762,44.922,21.484,30.273
1532385086.173,40.039,37.109,43.945,16.113,-24.414
1532385086.177,41.016,38.086,41.992,14.160,5.371
1532385086.181,46.387,32.227,36.133,8.301,47.852
1532385086.185,49.805,24.902,33.691,13.672,56.152
1532385086.189,50.781,27.832,36.133,27.344,50.293
1532385086.193,32.715,44.434,41.992,17.578,9.277
1532385086.197,16.113,45.898,41.992,14.648,3.418
1532385086.200,24.414,46.387,45.410,37.598,40.039
1532385086.204,41.016,56.152,63.965,55.176,36.621
1532385086.208,51.758,53.711,79.102,63.965,38.086
1532385086.212,59.082,60.059,91.309,73.242,57.617
1532385086.216,59.082,71.289,92.285,78.613,49.805
1532385086.220,54.199,67.383,75.195,65.430,25.391
1532385086.224,60.547,68.359,67.871,55.664,23.926
1532385086.228,52.734,63.965,70.312,53.223,27.344
1532385086.232,51.270,51.758,74.219,51.758,6.348
1532385086.236,54.199,43.457,70.801,51.758,14.160
1532385086.239,33.203,45.898,51.270,38.574,32.715
1532385086.243,32.227,51.758,53.223,40.039,29.297
1532385086.247,49.316,45.898,71.777,58.594,42.480
1532385086.251,67.871,62.012,86.426,64.941,32.227
1532385086.255,78.613,86.914,88.379,65.430,-23.926
1532385086.259,75.195,76.172,77.637,59.570,5.859
1532385086.263,61.523,47.852,71.777,55.664,52.734
1532385086.267,59.082,46.875,69.824,57.129,68.848
1532385086.271,56.641,54.688,67.871,47.363,33.691
1532385086.275,48.828,42.480,62.988,44.434,11.719
1532385086.279,49.805,47.363,55.664,50.293,47.363
1532385086.282,42.480,50.781,53.711,44.922,64.453
1532385086.286,43.457,47.363,66.406,42.969,47.852
1532385086.290,43.457,42.969,71.777,38.086,20.996
1532385086.294,32.715,33.691,61.035,31.250,45.410
1532385086.298,33.203,34.180,47.852,33.203,42.480
1532385086.302,36.621,35.156,45.410,34.668,39.551
1532385086.306,39.551,20.996,50.781,34.180,35.156
1532385086.310,35.156,9.277,50.293,30.273,20.508
1532385086.314,28.320,17.090,47.852,29.297,9.277
1532385086.318,27.344,34.180,42.969,26.367,24.414
1532385086.322,28.809,23.926,44.922,26.855,46.387
1532385086.325,33.691,17.090,50.293,30.273,32.715
1532385086.329,38.086,39.551,48.828,32.227,40.527
1532385086.333,33.203,37.598,42.480,28.809,43.457
1532385086.337,34.668,23.926,39.062,24.902,15.625
1532385086.341,36.133,18.066,52.734,30.762,2.930
1532385086.345,45.410,28.320,63.477,37.109,41.992
1532385086.349,40.039,33.203,50.293,24.902,66.406
1532385086.353,31.738,34.180,44.922,18.555,29.297
1532385086.357,31.738,33.691,42.480,21.973,8.789
1532385086.361,26.855,27.344,41.504,20.508,35.156
1532385086.364,29.297,25.391,46.387,21.484,51.758
1532385086.368,29.297,28.320,38.574,20.996,23.438
1532385086.372,32.715,20.020,36.621,22.461,-27.344
1532385086.376,38.574,-2.441,40.039,24.902,-21.484
1532385086.380,32.715,16.602,34.668,22.461,40.527
1532385086.384,32.715,41.016,35.156,29.297,57.617
1532385086.388,30.762,25.879,41.016,31.250,40.039
1532385086.392,20.996,27.832,49.316,21.484,-6.836
1532385086.396,21.484,42.480,51.758,21.484,-20.508
1532385086.400,17.090,34.668,42.480,20.996,6.836
1532385086.404,20.996,17.090,41.992,20.020,9.766
1532385086.407,28.320,7.812,41.016,20.508,19.531
1532385086.411,27.832,5.371,31.738,18.066,4.883
1532385086.415,28.320,16.602,39.062,20.508,37.598
1532385086.419,30.273,29.297,42.480,24.414,62.012
1532385086.423,35.645,33.203,39.551,26.855,51.758
1532385086.427,28.809,41.992,41.504,26.367,41.992
1532385086.431,21.973,47.852,37.109,19.531,24.414
1532385086.435,26.855,41.016,38.086,16.602,15.625
1532385086.439,35.645,30.273,40.039,27.344,0.977
1532385086.443,32.715,20.996,43.457,28.809,11.230
1532385086.446,27.832,21.484,40.039,21.973,24.414
1532385086.450,23.438,21.484,33.691,19.531,14.648
1532385086.454,21.484,24.414,39.062,17.090,5.371
1532385086.458,24.414,33.203,45.898,21.973,21.484
1532385086.462,26.855,37.598,47.363,23.438,48.828
1532385086.466,27.344,29.785,44.434,25.391,61.523
1532385086.470,25.391,24.414,44.922,23.926,43.457
1532385086.474,28.320,34.180,42.480,25.391,27.344
1532385086.478,30.762,32.227,36.133,29.785,36.133
1532385086.482,34.668,18.066,40.527,30.273,45.410
1532385086.486,34.180,23.438,47.363,38.574,25.391
1532385086.489,27.832,38.574,43.945,39.062,2.930
1532385086.493,20.996,30.273,37.598,29.297,-9.277
1532385086.497,18.066,30.762,32.715,27.344,25.879
1532385086.501,22.461,34.668,29.297,25.879,66.406
1532385086.505,21.484,27.344,35.156,22.949,51.270
1532385086.509,17.578,17.090,39.551,14.160,45.898
1532385086.513,18.066,19.531,32.715,2.930,17.090
1532385086.517,17.578,29.785,26.855,6.836,18.066
1532385086.521,21.484,35.645,34.180,18.555,37.109
1532385086.525,24.902,38.574,40.527,20.508,23.926
1532385086.529,29.297,35.156,44.434,24.414,19.531
1532385086.532,30.762,23.926,57.129,34.180,26.855
1532385086.536,24.902,18.066,50.293,31.250,26.855
1532385086.540,24.414,28.320,35.156,21.484,-11.230
1532385086.544,25.879,36.133,32.715,15.625,-18.066
1532385086.548,22.949,35.156,35.645,16.113,2.930
1532385086.552,25.879,29.785,41.016,18.555,-4.395
1532385086.556,27.344,32.715,40.527,17.578,-16.602
1532385086.560,21.484,43.457,42.480,14.160,13.184
1532385086.564,23.438,37.598,44.922,20.508,40.039
1532385086.568,32.227,29.297,41.016,26.855,43.457
1532385086.571,34.668,27.832,40.039,33.203,37.109
1532385086.575,32.227,21.484,45.898,36.621,25.391
1532385086.579,35.645,26.367,46.387,38.086,29.297
1532385086.583,33.203,39.062,41.992,38.086,45.410
1532385086.587,40.527,38.574,51.270,40.039,28.809
1532385086.591,42.969,31.738,60.059,37.109,-4.395
1532385086.595,25.879,32.715,47.852,25.391,17.090
1532385086.599,20.996,34.180,32.715,21.973,69.336
1532385086.603,22.461,38.086,39.551,24.414,72.266
1532385086.607,25.391,20.020,52.246,27.832,44.434
1532385086.611,27.344,12.695,55.176,28.809,19.531
1532385086.614,28.320,36.621,49.805,24.902,16.113
1532385086.618,26.855,40.527,48.828,21.484,43.945
1532385086.622,31.250,35.645,49.316,30.273,40.527
1532385086.626,39.062,42.480,59.570,37.109,38.086
1532385086.630,37.598,38.574,60.547,27.344,29.297
1532385086.634,32.227,31.250,47.363,23.438,38.086
1532385086.638,26.367,28.809,38.086,23.438,38.086
1532385086.642,34.668,27.344,40.527,25.879,47.363
1532385086.646,34.180,21.973,50.781,25.879,57.129
1532385086.650,24.414,25.391,50.781,18.555,50.293
1532385086.654,30.273,37.598,42.969,21.973,48.340
1532385086.657,27.832,28.809,45.410,25.391,39.062
1532385086.661,29.297,25.391,50.781,23.926,48.828
1532385086.665,36.133,41.504,42.480,24.414,37.598
1532385086.669,29.297,39.062,44.434,22.461,37.598
1532385086.673,25.879,32.715,50.781,15.137,-2.930
1532385086.677,29.785,38.574,54.199,21.973,-12.695
1532385086.681,26.855,27.344,58.594,28.809,35.645
1532385086.685,27.832,14.648,42.969,21.973,58.594
1532385086.689,32.715,18.555,29.297,26.367,41.016
1532385086.693,22.461,25.391,41.992,26.855,-2.441
1532385086.696,26.855,44.434,45.898,22.949,10.742
1532385086.700,24.902,48.828,41.992,23.438,62.012
1532385086.704,21.973,44.434,49.805,24.902,41.016
1532385086.708,26.855,33.691,58.105,24.902,20.020
1532385086.712,31.250,30.273,60.059,28.809,18.555
1532385086.716,25.391,32.715,54.199,22.949,16.113
1532385086.720,27.344,28.809,53.223,23.926,30.762
1532385086.724,41.504,27.832,55.664,37.109,29.297
1532385086.728,37.109,40.039,45.898,35.645,41.504
1532385086.732,28.320,45.410,40.039,25.391,38.574
1532385086.736,28.320,29.785,31.738,22.461,10.254
1532385086.739,23.926,21.484,33.203,24.902,12.207
1532385086.743,18.066,29.785,50.781,20.508,36.133
1532385086.747,21.484,35.156,56.152,19.043,64.941
1532385086.751,25.391,34.180,51.270,21.484,54.688
1532385086.755,22.949,25.391,49.316,21.484,34.668
1532385086.759,21.973,20.996,47.852,22.949,34.668
1532385086.763,29.785,39.062,47.852,29.297,19.531
1532385086.767,30.762,45.410,54.688,31.738,43.945
1532385086.771,24.902,35.156,52.734,26.367,29.785
1532385086.775,30.762,28.320,47.852,23.926,-2.441
1532385086.779,28.320,33.691,47.852,22.461,24.902
1532385086.782,31.250,35.156,49.316,27.344,35.645
1532385086.786,40.039,37.598,46.387,31.250,40.039
1532385086.790,33.203,30.762,45.898,26.367,12.695
1532385086.794,30.273,19.531,47.852,25.879,22.461
1532385086.798,29.297,21.484,48.340,23.438,57.617
1532385086.802,35.645,40.039,57.129,33.203,42.480
1532385086.806,38.086,41.504,60.547,35.156,4.395
1532385086.810,31.738,26.855,52.246,25.391,25.391
1532385086.814,34.180,28.809,49.316,26.367,50.293
1532385086.818,26.855,40.039,50.293,23.926,62.988
1532385086.821,29.297,41.992,49.805,32.227,44.434
1532385086.825,38.086,31.250,44.434,32.715,25.391
1532385086.829,31.250,20.996,43.945,20.020,21.484
1532385086.833,25.391,20.996,45.898,26.367,23.438
1532385086.837,33.691,27.832,38.086,36.621,26.367
1532385086.841,48.340,44.434,46.387,42.480,7.812
1532385086.845,46.875,52.734,54.199,36.621,20.996
1532385086.849,31.250,39.551,41.992,24.414,37.598
1532385086.853,34.668,36.133,41.504,25.391,3.418
1532385086.857,32.715,37.109,30.762,25.391,5.371
1532385086.861,34.180,29.297,30.273,26.855,31.738
1532385086.864,31.738,24.902,46.387,27.832,44.434
1532385086.868,26.367,28.320,51.758,29.785,42.480
1532385086.872,37.109,21.973,51.270,32.227,14.648
1532385086.876,36.133,22.461,45.410,31.738,22.461
1532385086.880,29.297,38.086,40.039,22.461,29.785
1532385086.884,31.250,50.781,40.527,19.043,37.598
1532385086.888,38.086,52.246,40.039,27.832,34.668
1532385086.892,46.387,48.828,42.969,32.715,13.672
1532385086.896,38.086,34.668,42.480,28.809,56.641
1532385086.900,26.855,22.949,37.109,22.949,73.730
1532385086.904,32.715,25.391,39.062,26.367,30.273
1532385086.907,28.320,26.367,46.387,27.832,7.324
1532385086.911,22.461,34.668,54.199,26.855,7.324
1532385086.915,24.902,31.250,54.199,37.109,27.344
1532385086.919,30.762,21.973,45.410,33.203,43.457
1532385086.923,27.344,32.227,40.527,25.879,38.086
1532385086.927,17.578,33.691,41.992,25.879,33.203
1532385086.931,28.809,22.949,51.270,32.227,16.113
1532385086.935,36.621,33.691,52.246,31.738,28.809
1532385086.939,25.391,37.598,40.039,21.973,48.828
1532385086.943,21.973,24.902,38.086,19.531,46.387
1532385086.946,25.391,21.973,39.551,18.066,55.664
1532385086.950,27.344,31.250,40.039,20.996,34.180
1532385086.954,35.156,25.879,41.992,21.973,18.066
1532385086.958,41.016,15.137,40.527,18.066,9.277
1532385086.962,40.527,38.574,31.250,20.508,11.719
1532385086.966,43.945,41.504,22.949,20.020,34.668
1532385086.970,51.270,22.949,34.668,15.625,20.020
1532385086.974,45.410,35.156,46.875,13.184,0.488
1532385086.978,27.832,36.133,48.340,5.859,17.090
1532385086.982,15.137,28.320,43.945,12.207,60.547
1532385086.986,14.648,32.715,41.504,22.949,57.617
1532385086.989,17.090,32.715,39.551,26.855,25.879
1532385086.993,13.184,20.020,41.016,26.855,17.578
1532385086.997,19.531,12.207,46.875,32.227,55.176
1532385087.001,18.555,20.996,45.898,30.762,58.105
1532385087.005,7.812,24.414,43.457,23.438,30.273
1532385087.009,17.578,32.227,42.969,31.738,21.484
1532385087.013,28.320,37.109,36.621,31.738,16.602
1532385087.017,25.879,22.461,26.367,26.855,29.297
1532385087.021,24.414,32.227,12.695,24.414,10.254
1532385087.025,35.645,44.922,11.719,24.414,-8.789
1532385087.029,31.250,37.598,18.555,24.414,22.461
1532385087.032,18.555,27.344,11.719,22.949,48.828
1532385087.036,20.508,14.648,7.812,28.809,70.312
1532385087.040,20.020,19.043,0.000,27.344,22.949
1532385087.044,18.066,34.180,-0.977,26.855,21.973
1532385087.048,24.902,37.598,5.859,29.297,36.621
1532385087.052,34.668,40.527,7.812,30.273,18.066
1532385087.056,35.156,46.875,5.371,34.668,20.508
1532385087.060,35.645,44.434,-2.441,31.250,17.578
1532385087.064,35.645,39.062,-6.348,32.227,17.578
1532385087.068,41.016,33.691,-8.301,35.156,10.254
1532385087.071,43.457,41.992,-8.789,36.621,3.418
1532385087.075,39.062,48.340,-5.859,41.504,26.367
1532385087.079,43.457,36.621,-7.812,46.387,45.410
1532385087.083,44.922,13.672,-15.625,46.875,41.992
1532385087.087,48.828,22.461,-24.902,41.992,57.129
1532385087.091,45.898,57.617,-26.367,38.574,31.250
1532385087.095,41.016,70.312,-20.020,38.574,0.000
1532385087.099,51.758,71.777,-20.508,46.875,23.926
1532385087.103,51.270,59.082,-23.438,43.457,24.414
1532385087.107,37.598,40.039,-18.066,33.691,18.066
1532385087.111,37.598,34.668,-22.461,30.273,11.719
1532385087.114,40.039,47.363,-28.320,30.273,25.391
1532385087.118,41.504,47.363,-34.180,27.344,39.551
1532385087.122,43.457,30.762,-47.852,31.250,20.508
1532385087.126,43.945,34.668,-54.199,36.621,40.039
1532385087.130,46.387,49.805,-61.035,35.645,41.016
1532385087.134,41.992,52.734,-70.801,30.762,17.578
1532385087.138,41.992,61.523,-76.172,36.133,21.484
1532385087.142,40.039,66.406,-82.031,44.434,13.672
1532385087.146,38.086,48.828,-104.004,37.109,35.156
1532385087.150,42.969,40.527,-121.094,30.273,38.574
1532385087.153,49.316,36.133,-117.188,29.297,12.695
1532385087.157,42.969,27.832,-118.164,26.855,29.297
1532385087.161,40.039,28.809,-127.441,26.367,24.414
1532385087.165,42.969,30.762,-136.230,32.227,39.551
1532385087.169,41.992,39.062,-145.020,39.551,55.664
1532385087.173,41.992,40.039,-157.715,31.738,22.949
1532385087.177,42.969,34.180,-167.969,20.020,39.551
1532385087.181,41.016,41.992,-164.062,23.926,45.410
1532385087.185,41.016,55.176,-156.738,30.273,48.340
1532385087.189,43.945,50.781,-162.109,33.203,31.738
1532385087.193,39.551,38.574,-173.828,30.273,23.926
1532385087.196,38.574,32.227,-183.105,25.391,45.410
1532385087.200,41.016,31.250,-190.918,34.668,49.805
1532385087.204,52.246,29.297,-197.266,40.039,39.062
1532385087.208,54.199,33.203,-194.824,34.668,30.762
1532385087.212,44.434,35.645,-189.453,35.156,50.781
1532385087.216,42.969,44.434,-190.430,41.016,79.102
1532385087.220,40.039,44.922,-194.336,38.086,57.617
1532385087.224,46.387,39.062,-193.848,37.598,31.250
1532385087.228,47.363,41.992,-193.359,37.109,38.086
1532385087.232,45.410,49.316,-190.918,37.109,30.273
1532385087.236,51.270,32.227,-188.965,42.969,24.414
1532385087.239,48.340,21.484,-203.125,40.527,29.785
1532385087.243,36.621,36.621,-205.078,36.133,25.879
1532385087.247,36.621,45.410,-199.707,32.227,52.734
1532385087.251,40.527,43.457,-194.824,34.180,47.363
1532385087.255,39.062,42.969,-190.430,39.062,34.668
1532385087.259,43.945,42.969,-188.965,44.434,49.316
1532385087.263,43.457,41.016,-185.547,45.410,41.992
1532385087.267,46.387,34.668,-183.105,47.852,74.707
1532385087.271,41.504,27.344,-187.988,41.016,52.734
1532385087.275,29.785,40.527,-191.895,29.297,12.207
1532385087.278,24.902,48.340,-187.988,28.320,42.969
1532385087.282,20.020,41.016,-187.012,26.367,40.039
1532385087.286,25.879,39.062,-180.664,35.156,42.969
1532385087.290,28.809,32.715,-179.199,31.738,31.738
1532385087.294,30.273,35.645,-179.199,20.996,1.465
1532385087.298,37.598,43.457,-177.246,25.879,15.625
1532385087.302,38.086,41.504,-184.082,29.297,65.918
1532385087.306,34.668,41.992,-177.246,32.715,41.504
1532385087.310,28.320,31.250,-166.016,30.762,15.625
1532385087.314,27.832,23.438,-166.992,29.785,31.250
1532385087.318,38.574,42.480,-172.363,32.715,23.926
1532385087.321,41.016,57.617,-166.992,35.156,4.883
1532385087.325,39.551,55.176,-157.715,36.621,8.789
1532385087.329,40.039,43.457,-170.898,34.180,47.852
1532385087.333,31.738,37.109,-176.270,31.738,52.246
1532385087.337,25.391,39.062,-162.598,24.414,21.484
1532385087.341,24.902,33.691,-164.062,26.855,1.465
1532385087.345,23.438,25.391,-163.086,32.227,32.227
1532385087.349,26.367,37.598,-154.297,30.273,68.359
1532385087.353,29.297,38.086,-155.762,27.344,31.250
1532385087.357,28.320,27.344,-152.832,25.879,20.996
1532385087.361,25.879,45.410,-147.461,28.809,70.801
1532385087.364,40.527,50.781,-139.160,39.551,78.613
1532385087.368,49.805,34.668,-137.207,42.480,71.777
1532385087.372,35.645,31.250,-146.973,33.691,50.293
1532385087.376,24.414,35.645,-151.855,29.785,33.691
1532385087.380,29.785,37.109,-143.555,36.621,27.344
1532385087.384,37.598,30.762,-136.719,41.016,24.414
1532385087.388,32.227,26.367,-148.438,36.133,14.648
1532385087.392,31.738,39.551,-144.043,31.738,-5.371
1532385087.396,30.762,32.715,-123.535,29.297,-16.602
1532385087.400,36.133,25.879,-116.699,36.133,21.484
1532385087.403,48.828,41.504,-113.770,46.387,35.645
1532385087.407,45.410,43.945,-120.117,46.387,4.395
1532385087.411,39.062,30.273,-126.953,35.156,28.320
1532385087.415,27.832,29.785,-123.535,19.531,39.062
1532385087.419,21.484,34.668,-119.629,14.160,3.418
1532385087.423,31.250,31.738,-122.559,20.996,18.555
1532385087.427,28.320,35.645,-126.953,22.949,33.203
1532385087.431,31.250,33.203,-116.211,23.926,36.621
1532385087.435,31.738,31.738,-106.934,25.879,33.691
1532385087.439,29.785,28.320,-108.887,25.391,12.207
1532385087.443,39.062,21.973,-109.863,32.715,2.441
1532385087.446,38.574,25.391,-100.098,42.480,28.809
1532385087.450,31.738,26.367,-91.797,37.109,14.160
1532385087.454,21.973,32.715,-95.215,25.879,-32.227
1532385087.458,20.020,32.227,-91.797,21.484,1.465
1532385087.462,20.508,32.715,-89.355,20.020,11.230
1532385087.466,25.391,34.668,-83.496,23.926,7.324
1532385087.470,24.902,24.902,-77.148,26.367,12.695
1532385087.474,26.855,24.902,-77.637,26.367,-15.625
1532385087.478,30.273,24.414,-67.871,27.832,3.418
1532385087.482,35.156,26.367,-59.082,35.645,26.367
1532385087.486,40.039,31.738,-67.383,41.016,40.039
1532385087.489,37.598,30.762,-69.824,39.062,19.531
1532385087.493,41.016,39.062,-59.082,47.852,-18.066
1532385087.497,48.340,31.738,-54.688,51.758,7.812
1532385087.501,39.062,14.648,-57.617,36.133,14.160
1532385087.505,27.344,26.367,-59.570,22.949,11.230
1532385087.509,30.273,26.855,-57.617,21.484,12.207
1532385087.513,38.086,16.113,-57.617,24.902,33.203
1532385087.517,39.551,22.949,-56.152,21.484,72.754
1532385087.521,26.855,30.273,-51.758,23.438,31.250
1532385087.525,24.414,36.621,-47.852,26.367,-9.766
1532385087.528,33.691,41.016,-36.621,29.785,25.391
1532385087.532,37.598,37.109,-31.738,35.645,19.043
1532385087.536,38.574,33.691,-33.203,36.133,15.625
1532385087.540,45.410,38.574,-23.438,42.969,17.578
1532385087.544,46.875,42.480,-23.926,45.410,28.809
1532385087.548,37.598,37.109,-27.832,39.062,39.062
1532385087.552,37.598,46.387,-25.879,36.621,18.066
1532385087.556,35.645,51.270,-30.762,32.715,36.621
1532385087.560,32.715,42.969,-32.715,29.297,38.574
1532385087.564,28.809,32.715,-36.621,27.344,32.227
1532385087.568,29.297,22.461,-34.668,24.414,48.340
1532385087.571,31.738,16.113,-36.621,17.578,7.812
1532385087.575,28.320,13.184,-38.574,19.043,-8.301
1532385087.579,24.902,23.438,-33.691,27.344,24.414
1532385087.583,20.020,33.203,-39.551,20.020,7.324
1532385087.587,20.508,36.621,-39.551,16.602,5.371
1532385087.591,25.391,32.715,-34.668,20.996,13.672
1532385087.595,15.625,27.832,-41.504,10.742,16.602
1532385087.599,14.160,33.691,-44.922,6.348,36.133
1532385087.603,20.508,30.273,-50.293,16.602,45.410
1532385087.607,24.414,27.344,-50.781,20.508,1.465
1532385087.611,20.020,25.879,-36.621,17.578,5.859
1532385087.614,20.020,31.738,-27.344,13.184,47.852
1532385087.618,27.344,30.762,-30.273,13.672,20.996
1532385087.622,23.438,33.203,-37.109,12.695,24.414
1532385087.626,23.926,39.551,-28.809,18.066,39.551
1532385087.630,38.574,30.273,-17.090,31.738,22.949
1532385087.634,31.250,26.367,-26.367,24.414,-2.930
1532385087.638,18.555,37.109,-34.668,17.578,-14.648
1532385087.642,17.090,43.457,-32.715,17.090,7.812
1532385087.646,15.625,30.273,-31.738,16.113,26.855
1532385087.650,14.160,26.367,-27.832,17.090,42.969
1532385087.653,11.230,36.133,-20.996,15.625,60.059
1532385087.657,18.066,37.598,-21.973,20.996,43.457
1532385087.661,31.250,35.645,-25.879,23.438,34.180
1532385087.665,26.367,29.785,-24.902,18.555,48.340
1532385087.669,23.438,29.785,-17.578,25.879,58.105
1532385087.673,35.156,39.062,-18.066,31.738,25.879
1532385087.677,32.227,37.598,-26.367,23.926,-1.953
1532385087.681,19.531,31.250,-25.391,18.555,37.109
1532385087.685,21.484,15.625,-25.391,17.090,52.246
1532385087.689,24.414,5.859,-24.902,21.484,31.250
1532385087.693,19.531,28.320,-26.855,26.855,11.719
1532385087.696,18.066,37.109,-32.715,25.879,5.371
1532385087.700,20.996,36.621,-37.598,22.461,40.039
1532385087.704,19.043,32.227,-37.598,18.555,43.945
1532385087.708,20.020,26.367,-31.738,25.391,2.441
1532385087.712,23.438,37.109,-26.855,26.367,26.855
1532385087.716,25.879,39.062,-30.273,22.949,54.199
1532385087.720,31.250,43.457,-25.879,27.344,44.922
1532385087.724,19.531,26.855,-23.926,19.531,41.504
1532385087.728,10.254,9.277,-31.738,17.578,16.113
1532385087.732,9.766,22.949,-29.297,15.625,20.020
1532385087.736,10.254,30.762,-28.320,12.695,37.109
1532385087.739,16.602,39.062,-33.203,17.090,8.789
1532385087.743,16.113,35.156,-30.273,23.926,34.180
1532385087.747,19.043,25.391,-20.508,24.902,61.523
1532385087.751,25.879,24.902,-17.090,20.996,32.227
1532385087.755,25.879,30.762,-18.555,29.297,4.395
1532385087.759,20.020,27.344,-22.949,27.344,-10.742
1532385087.763,24.414,22.461,-25.879,26.367,9.277
1532385087.767,25.879,20.508,-28.320,28.320,45.898
1532385087.771,22.461,23.438,-24.414,16.602,32.227
1532385087.775,23.926,40.527,-20.508,8.789,-10.254
1532385087.778,22.949,41.992,-23.438,9.766,-13.672
1532385087.782,23.926,37.598,-23.926,7.324,15.137
1532385087.786,36.621,30.762,-21.484,8.301,43.945
1532385087.790,51.270,31.738,-22.949,8.789,5.859
1532385087.794,43.945,39.062,-30.273,7.812,-10.254
1532385087.798,45.898,27.832,-32.715,21.973,39.062
1532385087.802,45.410,20.020,-32.715,30.273,64.941
1532385087.806,36.621,37.598,-22.949,37.598,40.527
1532385087.810,32.227,46.387,-16.113,33.203,17.090
1532385087.814,22.461,30.273,-24.902,18.066,14.160
1532385087.818,20.996,17.090,-22.949,19.043,28.320
1532385087.821,16.113,28.320,-20.996,23.438,49.316
1532385087.825,12.207,33.691,-24.902,28.320,46.387
1532385087.829,22.461,25.391,-28.320,32.715,32.227
1532385087.833,25.879,21.973,-29.297,29.785,29.297
1532385087.837,17.090,13.184,-20.508,24.902,24.414
1532385087.841,17.578,14.160,-14.160,21.484,3.418
1532385087.845,25.879,30.273,-16.113,20.996,15.625
1532385087.849,37.109,37.598,-11.719,29.297,24.902
1532385087.853,41.992,41.992,-6.348,33.691,18.555
1532385087.857,28.809,35.156,-19.531,21.973,22.461
1532385087.861,20.508,24.902,-33.203,16.113,24.414
1532385087.864,24.902,32.715,-26.367,14.648,62.012
1532385087.868,31.250,36.621,-17.578,19.531,69.336
1532385087.872,24.902,30.762,-12.695,21.973,5.371
1532385087.876,20.020,22.949,-14.160,17.578,-6.836
1532385087.880,24.414,9.277,-20.996,21.484,34.668
1532385087.884,26.855,20.508,-19.531,26.367,53.223
1532385087.888,31.250,43.945,-14.648,24.414,34.180
1532385087.892,32.227,42.480,-22.949,21.484,-9.766
1532385087.896,28.809,37.598,-17.090,28.809,0.977
1532385087.900,25.879,39.551,0.977,26.855,19.531
1532385087.903,24.902,38.574,-1.953,20.508,20.020
1532385087.907,32.715,30.273,-6.348,23.926,-2.441
1532385087.911,36.621,19.531,-3.906,22.949,-25.391
1532385087.915,34.180,32.715,-2.930,25.391,2.441
1532385087.919,41.504,36.621,-11.230,34.180,24.902
1532385087.923,50.781,25.391,-18.555,40.039,43.457
1532385087.927,47.363,25.879,-13.672,38.086,60.059
1532385087.931,40.039,36.621,-10.742,33.691,35.156
1532385087.935,41.992,55.176,-7.812,38.086,32.715
1532385087.939,44.922,55.176,-1.465,45.410,25.391
1532385087.943,41.016,45.898,3.418,44.434,15.625
1532385087.946,34.668,37.598,1.465,28.320,40.039
1532385087.950,37.109,32.227,-0.977,28.320,23.438
1532385087.954,39.062,38.086,1.465,31.250,-0.977
1532385087.958,38.574,39.062,0.488,29.297,0.488
1532385087.962,39.551,20.020,-6.836,33.691,1.465
1532385087.966,40.527,12.695,-5.859,37.598,36.133
1532385087.970,37.598,39.551,-5.859,34.668,13.184
1532385087.974,32.227,50.781,-9.766,29.785,-17.578
1532385087.978,38.574,42.480,2.930,38.086,17.578
1532385087.982,52.734,46.875,13.672,51.270,41.016
1532385087.985,48.340,40.039,4.395,36.133,67.871
1532385087.989,37.109,40.039,-3.418,25.879,42.480
1532385087.993,37.109,45.410,-7.324,33.203,9.766
1532385087.997,40.039,41.992,-9.277,39.062,28.320
1532385088.001,42.969,34.180,-9.277,41.016,41.016
1532385088.005,43.457,32.227,-8.789,36.621,20.020
1532385088.009,41.504,38.086,-9.277,35.156,0.488
1532385088.013,35.156,28.809,-6.836,31.738,3.906
1532385088.017,36.621,26.855,-1.465,35.156,8.789
1532385088.021,37.109,41.016,2.930,36.621,5.859
1532385088.025,32.227,50.781,-2.441,26.855,6.348
1532385088.028,30.273,46.875,-15.625,23.438,11.719
1532385088.032,27.832,39.551,-15.137,24.414,17.578
1532385088.036,33.691,39.062,-7.324,29.297,24.414
1532385088.040,41.992,33.203,-4.395,36.621,3.906
1532385088.044,41.016,32.227,-9.766,46.875,13.672
1532385088.048,42.480,40.527,-13.672,50.781,42.969
1532385088.052,47.852,33.203,-6.836,43.457,32.227
1532385088.056,46.875,28.320,-0.488,42.969,47.363
1532385088.060,44.434,48.340,0.488,49.805,64.941
1532385088.064,44.922,44.922,-6.836,44.434,61.523
1532385088.068,42.969,30.273,-11.719,38.574,67.383
1532385088.071,40.039,29.297,-9.277,40.527,31.738
1532385088.075,29.297,26.367,-3.906,35.156,25.879
1532385088.079,25.879,38.086,-3.906,26.367,62.500
1532385088.083,34.668,44.922,-1.465,29.785,33.203
1532385088.087,36.133,39.062,-1.953,33.203,21.973
1532385088.091,31.250,34.668,-7.324,27.832,40.527
1532385088.095,33.203,29.785,-9.277,29.785,8.301
1532385088.099,38.574,36.133,-9.277,37.109,5.859
1532385088.103,38.574,36.621,-6.348,37.109,20.996
1532385088.107,37.598,40.039,-4.395,40.527,31.738
1532385088.110,42.480,45.410,-0.488,52.246,30.273
1532385088.114,29.785,24.414,-4.883,43.945,35.156
1532385088.118,21.973,8.789,-11.719,33.691,60.547
1532385088.122,31.738,26.855,-17.090,34.668,26.367
1532385088.126,31.738,36.133,-11.719,28.320,10.254
1532385088.130,29.785,31.738,-2.930,33.203,33.691
1532385088.134,34.668,37.598,-6.836,37.598,25.879
1532385088.138,38.574,25.879,-3.418,35.645,22.949
1532385088.142,31.250,26.367,-1.465,26.367,17.578
1532385088.146,24.414,39.551,-5.371,13.672,4.883
1532385088.150,24.414,35.645,-7.324,15.625,14.648
1532385088.153,32.715,47.363,1.465,19.531,0.977
1532385088.157,36.621,48.340,1.953,20.508,3.418
1532385088.161,21.973,34.668,-7.812,20.020,41.504
1532385088.165,17.578,33.203,-8.789,20.996,50.781
1532385088.169,25.879,20.996,-2.930,29.785,42.969
1532385088.173,24.902,28.320,-6.836,24.414,20.996
1532385088.177,29.297,43.457,-11.230,19.531,11.230
1532385088.181,35.645,36.133,-2.441,32.227,0.977
1532385088.185,35.645,27.344,0.488,35.156,9.277
1532385088.189,38.574,22.949,-3.418,32.227,11.719
1532385088.193,38.574,41.992,-5.371,33.691,5.859
1532385088.196,30.273,52.246,-14.648,28.320,31.250
1532385088.200,37.109,50.781,-5.859,30.273,48.828
1532385088.204,41.016,45.898,9.277,32.227,3.418
1532385088.208,24.414,35.156,-11.230,22.949,-2.441
1532385088.212,29.785,21.973,-18.066,24.414,20.508
1532385088.216,32.715,9.277,-4.883,26.855,31.250
1532385088.220,28.320,24.414,-6.836,21.484,40.527
1532385088.224,23.438,54.199,-6.348,20.020,21.973
1532385088.228,20.996,57.617,-7.324,20.996,22.461
1532385088.232,23.926,42.969,-11.719,16.602,15.137
1532385088.235,24.902,32.715,-14.160,19.531,0.488
1532385088.239,27.832,26.367,-7.324,27.344,21.973
1532385088.243,27.832,26.367,0.977,34.180,21.973
1532385088.247,32.227,28.320,-2.441,40.527,9.277
1532385088.251,34.668,18.066,-1.953,37.109,17.578
