timestamps,TP9,AF7,AF8,TP10,Right AUX
1532511533.988,5.859,29.297,20.020,-0.977,-362.793
1532511533.992,12.207,28.809,22.461,20.508,-408.203
1532511533.996,6.348,26.855,24.414,-18.555,-222.656
1532511534.000,3.418,29.785,20.020,-33.691,670.410
1532511534.004,-7.324,27.344,21.973,6.348,224.609
1532511534.008,2.930,23.438,23.926,19.043,-83.496
1532511534.011,17.578,28.320,20.020,3.906,10.742
1532511534.015,27.344,26.855,25.391,24.902,-404.297
1532511534.019,20.020,23.438,29.785,-10.742,537.109
1532511534.023,9.277,25.391,26.855,-26.367,504.395
1532511534.027,26.855,26.855,23.926,21.484,-497.559
1532511534.031,19.531,33.691,23.926,43.945,-522.949
1532511534.035,-4.395,37.598,23.926,-10.254,-506.836
1532511534.039,-7.324,31.250,23.438,-16.113,-137.695
1532511534.043,8.789,26.855,25.879,4.883,-189.453
1532511534.047,28.809,29.785,27.832,-27.832,-459.961
1532511534.050,24.414,32.715,23.926,-15.625,-359.375
1532511534.054,1.465,31.738,24.414,8.789,-238.281
1532511534.058,1.953,30.762,20.996,2.930,506.348
1532511534.062,19.531,30.273,18.555,-10.254,653.809
1532511534.066,2.441,31.738,22.461,36.621,-312.500
1532511534.070,2.930,34.180,22.461,59.570,-555.664
1532511534.074,14.160,33.691,20.996,-19.043,-601.562
1532511534.078,17.090,30.762,23.926,-37.598,-179.688
1532511534.082,32.227,27.344,27.832,-8.301,-62.500
1532511534.086,0.977,27.832,24.902,16.113,-461.914
1532511534.090,8.301,31.250,22.461,0.977,-442.871
1532511534.093,36.621,33.203,20.508,-24.414,-508.301
1532511534.097,3.418,24.902,22.461,1.953,-23.438
1532511534.101,-11.230,20.020,22.949,15.625,452.637
1532511534.105,-3.906,22.461,22.949,-3.418,0.977
1532511534.109,5.859,21.973,20.996,-20.508,-286.133
1532511534.113,33.691,20.020,18.555,-24.902,-465.332
1532511534.117,23.438,19.531,22.949,-16.113,104.980
1532511534.121,-7.812,19.531,23.926,-12.695,877.930
1532511534.125,14.648,20.020,21.973,-9.277,21.973
1532511534.129,22.949,18.066,25.391,10.742,-479.492
1532511534.132,23.438,16.602,28.809,26.855,-542.480
1532511534.136,22.949,16.602,27.832,18.066,-140.137
1532511534.140,20.020,19.531,25.879,-14.160,176.758
1532511534.144,29.297,17.578,28.809,-23.438,-401.855
1532511534.148,2.930,13.184,30.762,6.836,-19.531
1532511534.152,-1.465,13.184,29.785,29.785,-45.410
1532511534.156,22.949,15.625,28.320,-4.395,-164.551
1532511534.160,25.391,13.184,26.855,-3.906,374.512
1532511534.164,14.160,13.672,27.344,20.996,-135.254
1532511534.168,15.137,12.207,33.203,-8.789,-398.926
1532511534.172,30.273,9.766,31.738,-35.156,-396.973
1532511534.175,12.695,15.625,25.879,-12.695,-378.418
1532511534.179,8.789,16.602,25.391,31.250,548.828
1532511534.183,12.695,14.160,28.320,27.832,348.633
1532511534.187,4.395,14.160,26.855,-21.973,-474.121
1532511534.191,14.648,17.090,27.344,-1.465,-466.797
1532511534.195,37.598,18.555,30.762,10.254,-65.430
1532511534.199,36.621,20.508,27.344,5.859,432.617
1532511534.203,-4.395,17.578,35.156,20.996,-62.500
1532511534.207,-9.277,18.555,37.109,-13.672,-486.816
1532511534.211,6.348,21.484,28.320,-1.465,-365.234
1532511534.215,9.277,16.113,34.180,32.227,-498.047
1532511534.218,27.344,17.578,35.156,-12.695,314.941
1532511534.222,19.043,17.578,33.203,-4.883,538.574
1532511534.226,1.465,17.578,38.574,17.578,-415.039
1532511534.230,28.809,16.602,36.621,5.859,-438.965
1532511534.234,26.367,14.160,34.668,-0.488,-470.215
1532511534.238,0.977,15.625,35.156,-11.719,-128.906
1532511534.242,-1.953,13.184,35.156,6.348,299.805
1532511534.246,16.602,15.137,30.762,16.113,7.812
1532511534.250,28.809,20.996,27.832,5.371,-269.531
1532511534.254,15.625,21.484,27.832,-0.488,-534.180
1532511534.257,11.230,18.066,29.297,31.738,176.758
1532511534.261,3.418,21.484,27.344,18.066,796.875
1532511534.265,6.836,20.508,29.785,-16.602,-135.742
1532511534.269,-9.766,14.648,34.180,-13.672,-488.770
1532511534.273,-1.465,17.578,31.250,2.930,-562.012
1532511534.277,11.230,19.043,31.250,36.621,-74.707
1532511534.281,16.602,20.020,31.738,-14.648,140.137
1532511534.285,25.391,23.926,27.832,-32.715,-411.621
1532511534.289,11.719,20.020,29.785,0.000,-31.250
1532511534.293,1.465,17.578,32.715,-5.371,83.984
1532511534.297,11.230,19.043,34.668,25.391,266.113
1532511534.300,37.598,22.461,33.203,28.320,457.031
1532511534.304,6.348,21.973,30.762,-6.348,-318.359
1532511534.308,14.648,20.996,29.297,-18.066,-422.363
1532511534.312,29.297,24.414,23.926,-7.812,-453.613
1532511534.316,10.254,23.926,24.414,4.883,-157.227
1532511534.320,7.812,23.926,29.785,-20.996,710.449
1532511534.324,4.395,26.855,25.879,4.883,118.652
1532511534.328,26.367,30.273,21.973,5.859,-520.020
1532511534.332,34.180,25.391,29.785,14.648,-272.461
1532511534.336,4.883,19.043,33.691,28.320,97.656
1532511534.340,22.949,17.090,36.621,-15.625,806.641
1532511534.343,22.949,21.973,35.156,-5.859,364.746
1532511534.347,14.648,30.762,29.297,-10.742,-524.902
1532511534.351,46.387,35.645,26.367,-20.996,-568.848
1532511534.355,56.641,36.133,26.855,-7.324,-538.574
1532511534.359,41.504,31.738,30.273,-11.230,-145.020
1532511534.363,34.180,25.391,33.691,5.371,-256.348
1532511534.367,37.598,23.438,36.133,21.973,-485.352
1532511534.371,13.672,23.438,37.109,2.930,-461.426
1532511534.375,7.812,19.043,39.551,6.836,-498.047
1532511534.379,10.742,17.578,41.504,6.836,-115.234
1532511534.382,14.648,23.438,40.039,20.508,226.074
1532511534.386,5.371,25.391,36.621,43.457,100.586
1532511534.390,14.648,26.855,32.227,18.555,-200.684
1532511534.394,33.203,24.902,36.133,18.555,-541.016
1532511534.398,8.789,18.555,42.480,38.574,272.461
1532511534.402,4.395,16.602,44.434,0.488,710.938
1532511534.406,10.742,17.090,44.434,-10.742,-295.898
1532511534.410,13.672,14.648,44.434,7.324,-526.855
1532511534.414,19.043,13.672,47.363,33.691,-524.414
1532511534.418,27.832,13.672,44.922,33.691,-90.332
1532511534.422,46.387,15.137,38.086,-3.418,-39.062
1532511534.425,3.418,14.648,40.527,-4.395,-477.051
1532511534.429,-4.883,8.301,42.969,10.254,5.859
1532511534.433,-0.977,11.230,39.062,14.648,41.016
1532511534.437,0.488,13.672,41.016,15.137,278.809
1532511534.441,12.695,16.602,40.527,9.766,797.363
1532511534.445,-2.441,21.484,39.551,-14.160,-89.844
1532511534.449,27.832,21.484,37.598,-8.301,-495.605
1532511534.453,27.344,18.555,41.504,-2.441,-602.051
1532511534.457,6.836,20.996,41.016,5.371,-150.391
1532511534.461,27.832,23.438,36.621,48.340,165.527
1532511534.465,19.043,23.438,36.621,22.949,-417.969
1532511534.468,16.113,22.949,36.133,-33.691,-423.340
1532511534.472,31.250,20.020,41.504,5.859,-492.188
1532511534.476,38.574,18.066,41.504,24.902,20.996
1532511534.480,19.043,19.531,34.668,2.441,912.109
1532511534.484,16.113,24.414,32.715,3.906,212.402
1532511534.488,40.527,19.531,37.109,4.883,-534.668
1532511534.492,45.410,19.043,39.551,8.301,-585.938
1532511534.496,21.973,22.461,36.621,37.598,-357.910
1532511534.500,9.766,22.949,37.109,30.273,62.500
1532511534.504,16.602,26.855,37.598,-29.785,-318.848
1532511534.507,34.668,29.297,35.156,-12.207,-482.910
1532511534.511,25.391,24.414,40.039,11.230,-431.152
1532511534.515,11.719,21.484,37.598,8.301,-345.703
1532511534.519,9.766,23.438,33.203,-4.395,37.109
1532511534.523,16.113,21.484,36.621,-1.465,164.062
1532511534.527,30.762,20.508,38.574,39.551,249.023
1532511534.531,46.387,23.926,40.039,50.293,18.066
1532511534.535,35.645,27.344,32.715,-7.812,-469.238
1532511534.539,19.531,25.391,32.715,-12.207,355.957
1532511534.543,25.391,22.949,35.156,0.000,785.645
1532511534.547,20.508,26.367,26.855,3.906,-181.152
1532511534.550,34.180,25.391,31.250,14.648,-487.793
1532511534.554,40.527,22.949,38.086,31.738,-533.691
1532511534.558,41.016,23.438,36.133,20.508,-187.988
1532511534.562,5.371,19.531,34.668,-6.348,-129.395
1532511534.566,-7.324,18.555,34.668,-14.648,-423.340
1532511534.570,26.367,23.438,32.227,-22.461,-53.223
1532511534.574,45.410,20.996,34.668,42.480,-115.723
1532511534.578,33.691,18.066,38.086,52.734,333.008
1532511534.582,39.062,23.438,32.715,-29.297,739.258
1532511534.586,31.250,29.297,29.785,-19.043,-223.633
1532511534.589,12.207,25.391,32.715,1.953,-549.805
1532511534.593,31.250,16.602,37.598,18.066,-590.332
1532511534.597,31.738,17.090,38.574,39.062,-122.559
1532511534.601,15.625,27.832,26.855,-0.488,9.277
1532511534.605,4.395,30.762,25.391,0.000,-483.398
1532511534.609,24.414,29.785,30.273,-0.977,-439.453
1532511534.613,51.270,32.715,25.879,0.488,-493.164
1532511534.617,15.137,26.855,30.762,0.977,247.559
1532511534.621,-18.555,24.414,32.715,-10.254,535.156
1532511534.625,1.465,23.438,28.320,0.000,-313.477
1532511534.629,16.113,23.438,31.250,5.859,-333.984
1532511534.632,9.277,24.414,35.645,-3.418,-441.895
1532511534.636,5.859,23.438,36.133,9.277,-41.016
1532511534.640,40.039,27.344,34.180,17.090,748.535
1532511534.644,31.738,26.367,36.621,2.930,27.832
1532511534.648,-8.301,24.414,35.645,15.625,-420.410
1532511534.652,19.531,26.367,35.156,-10.742,-450.195
1532511534.656,20.508,20.508,41.016,-13.184,-239.746
1532511534.660,-7.812,19.043,41.504,32.227,154.785
1532511534.664,2.441,25.879,38.086,20.020,157.715
1532511534.668,10.742,27.344,36.133,-13.184,92.285
1532511534.672,16.602,27.344,33.691,-11.230,-338.867
1532511534.675,46.875,25.879,33.691,-8.301,-425.293
1532511534.679,37.109,23.438,34.180,7.812,586.426
1532511534.683,-7.812,22.949,33.691,20.020,506.348
1532511534.687,-7.812,23.926,28.809,26.855,-465.332
1532511534.691,17.090,26.855,29.297,5.371,-520.508
1532511534.695,3.418,21.484,39.551,-1.465,-459.473
1532511534.699,29.297,20.020,41.016,3.418,-52.734
1532511534.703,26.367,26.367,34.180,3.418,-190.430
1532511534.707,14.160,26.367,30.273,6.348,-492.188
1532511534.711,27.832,25.391,33.203,4.395,-8.789
1532511534.714,32.227,29.785,38.574,16.602,13.672
1532511534.718,21.973,28.320,41.504,7.812,160.645
1532511534.722,3.906,31.738,35.156,-1.465,104.492
1532511534.726,22.949,38.086,30.762,17.578,-433.105
1532511534.730,37.109,35.156,35.156,15.137,-348.633
1532511534.734,22.461,34.668,36.621,-30.273,-508.789
1532511534.738,-0.488,36.621,33.691,-30.762,245.117
1532511534.742,19.531,38.574,37.109,-7.324,734.863
1532511534.746,44.434,39.062,41.504,16.113,-225.586
1532511534.750,36.133,42.480,35.645,24.414,-481.445
1532511534.754,18.066,38.086,33.691,-0.977,-453.613
1532511534.757,29.297,30.762,39.062,-17.090,360.352
1532511534.761,32.715,35.645,41.504,24.414,785.645
1532511534.765,-11.230,33.203,41.992,13.672,-200.684
1532511534.769,-2.441,32.715,40.527,8.301,-536.621
1532511534.773,24.414,43.457,38.086,45.898,-629.395
1532511534.777,60.059,44.922,36.133,-17.578,-186.523
1532511534.781,45.410,43.457,36.133,-45.410,72.754
1532511534.785,6.348,40.527,40.039,2.441,-461.426
1532511534.789,12.207,34.668,40.527,9.277,-478.027
1532511534.793,18.066,41.016,37.598,3.418,-564.453
1532511534.797,20.508,40.527,41.016,12.695,-105.469
1532511534.800,51.270,39.551,43.945,19.043,210.449
1532511534.804,53.223,40.527,40.039,2.930,38.574
1532511534.808,7.812,40.039,41.016,9.766,71.289
1532511534.812,16.602,41.992,43.945,18.066,-395.996
1532511534.816,29.785,41.992,43.457,-0.488,-208.984
1532511534.820,45.410,39.551,39.551,8.789,803.223
1532511534.824,45.410,42.969,39.551,3.906,281.738
1532511534.828,12.207,39.551,42.480,9.766,-516.602
1532511534.832,-0.488,31.738,40.039,48.340,-502.930
1532511534.836,11.719,33.203,41.992,19.531,-367.188
1532511534.839,48.340,38.086,43.945,3.418,21.484
1532511534.843,43.945,41.016,38.086,9.277,-282.715
1532511534.847,44.922,39.062,37.598,-4.883,-446.777
1532511534.851,42.969,40.039,38.086,-0.488,-53.711
1532511534.855,14.648,39.551,36.133,-10.254,160.156
1532511534.859,12.695,31.250,41.504,0.977,729.980
1532511534.863,10.742,28.320,47.852,8.301,520.508
1532511534.867,24.902,33.203,45.898,21.973,-428.223
1532511534.871,39.062,36.133,41.016,33.203,-558.105
1532511534.875,61.035,39.062,40.039,22.949,-571.777
1532511534.879,44.922,42.480,40.527,34.180,-208.984
1532511534.882,0.488,40.039,46.387,12.207,-202.637
1532511534.886,-4.395,36.133,45.898,-32.227,-479.004
1532511534.890,22.461,35.156,42.969,-14.160,-426.758
1532511534.894,35.645,34.668,46.875,18.555,-535.156
1532511534.898,37.109,36.133,43.457,4.395,334.473
1532511534.902,29.297,37.598,42.480,-2.930,627.441
1532511534.906,14.648,38.086,45.410,9.766,-379.883
1532511534.910,43.457,43.457,41.016,6.348,-494.141
1532511534.914,41.504,45.898,42.969,12.695,-536.133
1532511534.918,2.441,39.551,45.898,11.719,73.730
1532511534.922,16.113,40.527,40.527,-9.277,200.684
1532511534.925,30.273,41.504,41.504,14.160,-441.895
1532511534.929,16.602,36.621,43.457,36.133,-381.348
1532511534.933,27.344,40.039,44.434,24.414,-441.406
1532511534.937,36.621,42.969,43.945,4.395,6.348
1532511534.941,25.879,40.039,41.992,-23.438,151.367
1532511534.945,13.184,41.504,40.039,-2.930,63.477
1532511534.949,3.418,38.086,41.504,9.277,247.070
1532511534.953,17.578,35.156,43.945,11.230,-362.305
1532511534.957,27.344,38.574,41.992,15.625,-3.906
1532511534.961,36.621,39.551,40.527,13.184,872.070
1532511534.964,26.367,41.992,41.992,-8.301,285.156
1532511534.968,21.973,45.410,41.504,7.324,-247.070
1532511534.972,22.949,42.480,45.410,62.500,-534.668
1532511534.976,12.695,38.574,44.434,23.926,-209.473
1532511534.980,17.090,39.062,41.504,-19.043,207.031
1532511534.984,29.297,42.969,44.434,6.836,-297.852
1532511534.988,21.973,46.387,40.527,8.301,-421.387
1532511534.992,45.410,43.457,41.016,-4.883,-102.539
1532511534.996,70.312,41.016,42.480,13.184,53.223
1532511535.000,25.879,43.457,38.574,13.672,707.520
1532511535.004,-0.977,42.480,39.551,12.695,381.348
1532511535.007,12.207,40.039,43.457,20.996,-522.461
1532511535.011,20.020,39.551,42.969,-10.254,-536.621
1532511535.015,25.391,39.062,43.945,-1.465,-432.617
1532511535.019,34.668,41.016,40.039,28.320,-59.570
1532511535.023,30.762,44.434,34.668,-1.465,-266.602
1532511535.027,26.367,46.387,40.039,-16.113,-473.145
1532511535.031,23.438,44.434,45.410,21.973,-381.836
1532511535.035,34.668,41.504,44.434,26.367,-438.965
1532511535.039,43.945,40.527,42.480,2.930,169.922
1532511535.043,57.129,41.992,38.086,-1.953,326.660
1532511535.046,68.848,39.062,39.551,2.441,-268.066
1532511535.050,28.320,37.109,44.434,16.602,-314.453
1532511535.054,12.695,45.898,36.133,12.695,-493.652
1532511535.058,26.855,44.434,34.180,-40.039,266.113
1532511535.062,38.086,37.598,41.016,3.906,615.723
1532511535.066,35.156,36.621,44.434,39.062,-304.199
1532511535.070,10.742,38.086,41.992,-3.418,-432.617
1532511535.074,9.277,38.086,41.504,10.254,-471.680
1532511535.078,22.949,39.062,38.086,9.277,-85.938
1532511535.082,29.297,42.969,38.086,16.113,-5.371
1532511535.086,13.672,40.527,42.480,31.250,-47.852
1532511535.089,0.977,34.180,43.457,29.785,53.223
1532511535.093,20.020,36.621,40.527,14.160,-465.820
1532511535.097,29.297,36.133,41.992,-3.418,159.668
1532511535.101,23.926,32.227,47.363,10.254,832.031
1532511535.105,29.785,41.504,38.574,29.785,-114.258
1532511535.109,11.230,50.781,34.668,23.926,-503.906
1532511535.113,26.367,51.758,32.227,31.738,-531.738
1532511535.117,31.250,47.852,29.297,-37.109,-61.035
1532511535.121,5.859,43.945,33.691,-61.035,188.965
1532511535.125,6.836,46.875,32.715,1.465,-400.391
1532511535.129,7.812,45.898,32.715,5.371,-372.070
1532511535.132,18.555,41.992,35.645,-1.953,-137.695
1532511535.136,16.113,43.945,31.738,0.977,267.578
1532511535.140,9.277,44.922,30.273,7.812,873.047
1532511535.144,55.664,47.852,30.273,27.832,201.660
1532511535.148,43.945,43.457,34.180,4.883,-476.074
1532511535.152,-7.324,39.062,36.621,-9.766,-528.809
1532511535.156,3.418,42.480,30.762,-3.906,-309.570
1532511535.160,40.527,38.574,32.227,0.488,99.609
1532511535.164,47.363,41.992,36.133,8.301,-292.969
1532511535.168,30.273,41.504,40.039,12.695,-415.039
1532511535.171,15.625,40.039,38.574,-1.953,-459.961
1532511535.175,17.578,38.574,36.621,-24.414,-235.840
1532511535.179,20.020,37.598,33.691,-11.719,504.883
1532511535.183,23.438,40.527,32.715,3.418,141.113
1532511535.187,30.273,38.574,36.133,4.395,-419.434
1532511535.191,26.855,37.598,34.180,-4.883,-386.230
1532511535.195,40.527,35.645,36.621,41.016,-460.449
1532511535.199,29.297,36.621,36.133,25.879,398.438
1532511535.203,21.484,40.039,31.250,-30.273,463.379
1532511535.207,28.320,37.109,35.156,-16.602,-431.152
1532511535.211,29.297,37.109,35.645,4.883,-431.152
1532511535.214,12.695,39.551,34.180,6.836,-421.387
1532511535.218,32.227,38.574,34.668,20.996,-100.098
1532511535.222,65.918,36.621,35.156,24.902,-125.488
1532511535.226,28.320,37.598,35.645,17.090,-12.695
1532511535.230,-5.859,33.691,36.133,18.066,149.902
1532511535.234,38.086,32.715,36.133,11.230,-424.805
1532511535.238,35.156,32.715,32.715,-4.395,249.512
1532511535.242,36.133,31.738,30.762,-2.930,748.535
1532511535.246,44.922,33.203,35.645,20.996,-228.516
1532511535.250,30.273,29.297,41.016,28.809,-480.957
1532511535.254,32.227,32.227,39.551,16.113,-543.457
1532511535.257,17.578,37.598,33.203,-3.418,-130.859
1532511535.261,37.109,34.180,35.156,6.836,26.367
1532511535.265,52.734,29.785,41.992,19.531,-425.293
1532511535.269,21.973,27.832,43.945,25.391,-387.207
1532511535.273,13.672,26.367,39.062,6.836,-181.152
1532511535.277,23.926,23.438,36.621,-7.812,426.270
1532511535.281,17.578,23.926,35.156,-12.695,847.656
1532511535.285,20.020,26.855,34.668,6.836,-5.371
1532511535.289,22.461,27.344,36.133,3.906,-536.621
1532511535.293,6.836,21.484,38.086,-4.883,-604.492
1532511535.296,16.113,16.602,41.016,11.230,-155.273
1532511535.300,9.766,20.020,37.598,3.906,171.875
1532511535.304,42.969,21.484,32.227,8.301,-413.574
1532511535.308,47.363,19.531,33.203,-8.789,-455.078
1532511535.312,18.555,20.996,36.621,-10.254,-473.633
1532511535.316,21.973,20.020,33.203,4.395,-193.359
1532511535.320,2.930,16.113,29.785,37.598,460.449
1532511535.324,4.883,16.602,30.273,21.484,115.234
1532511535.328,8.789,19.531,28.320,-44.434,-305.664
1532511535.332,27.344,17.578,27.832,0.000,-345.703
1532511535.336,24.902,15.137,29.297,10.742,-340.820
1532511535.339,11.230,14.648,25.879,-11.719,615.723
1532511535.343,21.484,16.113,28.809,2.930,486.328
1532511535.347,0.488,15.625,35.645,8.789,-422.363
1532511535.351,4.395,13.184,32.715,39.062,-449.219
1532511535.355,28.809,20.508,23.438,20.020,-439.941
1532511535.359,5.859,27.832,21.973,-20.508,-74.707
1532511535.363,9.277,24.902,25.879,-18.066,-167.969
1532511535.367,16.602,27.344,19.531,-37.109,-44.922
1532511535.371,-11.719,31.250,19.531,-32.715,119.141
1532511535.375,-13.672,31.738,26.367,-25.879,-309.082
1532511535.379,-25.391,27.344,31.250,-45.898,146.973
1532511535.382,-32.715,29.297,35.645,-36.621,152.832
1532511535.386,-9.277,35.645,36.133,-26.367,-260.254
1532511535.390,-19.531,32.227,34.180,-39.062,-186.035
1532511535.394,-38.574,29.785,31.738,-17.578,-487.793
1532511535.398,-22.949,31.738,26.367,-5.859,290.527
1532511535.402,-30.273,34.668,21.973,-65.430,646.484
1532511535.406,-4.883,33.691,24.414,-47.852,-326.172
1532511535.410,6.348,30.762,27.344,-19.043,-435.547
1532511535.414,-23.438,26.367,27.344,-33.203,-195.312
1532511535.418,-35.156,29.297,23.926,-46.875,539.551
1532511535.421,-25.391,26.855,24.902,-52.734,746.094
1532511535.425,-10.254,24.414,26.855,-47.852,-229.004
1532511535.429,-10.742,31.738,29.297,-3.906,-523.926
1532511535.433,0.000,42.969,34.668,-11.230,-587.402
1532511535.437,-11.719,39.551,36.133,-64.941,-135.742
1532511535.441,-8.301,34.180,34.668,-26.855,64.941
1532511535.445,2.441,39.062,33.691,11.230,-482.910
1532511535.449,35.156,37.598,36.133,-38.574,-426.758
1532511535.453,-7.324,42.480,36.133,-56.641,-541.504
1532511535.457,-64.453,50.293,37.109,-56.152,-85.938
1532511535.461,-10.254,55.664,46.387,-40.039,561.035
1532511535.464,-27.344,54.688,49.805,-6.836,39.062
1532511535.468,-62.500,55.664,41.016,-64.941,-289.062
1532511535.472,-40.039,54.688,44.922,-95.703,-462.891
1532511535.476,-57.617,52.734,52.734,-83.008,-167.969
1532511535.480,-67.871,63.965,46.875,-112.305,841.797
1532511535.484,-66.895,67.871,53.223,-94.727,291.992
1532511535.488,-78.613,64.941,59.570,-102.051,-493.652
1532511535.492,-72.266,63.477,57.617,-106.934,-542.969
1532511535.496,-64.941,53.223,56.641,-57.129,-313.477
1532511535.500,-84.473,50.781,49.316,-87.402,119.141
1532511535.503,-80.078,60.547,39.551,-100.098,-274.414
1532511535.507,-32.227,62.012,36.621,-77.637,-163.086
1532511535.511,-51.270,59.082,39.062,-97.656,64.941
1532511535.515,-56.641,46.387,42.969,-65.430,-300.781
1532511535.519,-37.109,37.109,44.922,-44.434,511.719
1532511535.523,-36.133,39.062,41.016,-37.109,549.805
1532511535.527,-17.090,48.340,32.715,-20.508,-461.426
1532511535.531,-25.391,45.410,28.320,-45.410,-502.441
1532511535.535,-9.766,27.832,28.320,-26.855,-487.793
1532511535.539,26.367,17.578,27.344,-1.465,-179.688
1532511535.543,9.766,18.066,20.020,-33.203,-228.027
1532511535.546,8.789,13.184,20.508,-4.395,-479.492
1532511535.550,15.137,-0.977,31.738,20.996,-412.598
1532511535.554,-2.930,1.953,40.039,-2.441,-162.109
1532511535.558,11.719,8.301,36.133,-1.465,521.973
1532511535.562,36.621,4.883,34.180,5.859,300.781
1532511535.566,62.012,12.207,29.297,26.367,-434.570
1532511535.570,43.457,20.508,25.879,41.992,-415.039
1532511535.574,20.996,18.555,34.180,36.621,-591.797
1532511535.578,33.203,14.648,28.320,20.996,167.969
1532511535.582,60.059,16.602,19.531,20.996,580.078
1532511535.586,71.777,20.508,22.949,40.039,-191.406
1532511535.589,81.055,20.996,23.438,66.406,-394.531
1532511535.593,79.590,19.043,25.391,59.082,-553.223
1532511535.597,53.223,16.602,28.809,60.547,-86.914
1532511535.601,64.453,10.742,30.762,55.664,387.207
1532511535.605,58.594,8.301,31.738,37.109,-60.547
1532511535.609,86.426,15.625,18.066,54.199,-343.750
1532511535.613,76.660,13.184,7.812,49.805,-517.090
1532511535.617,48.828,1.953,29.785,58.105,31.250
1532511535.621,65.918,10.254,37.598,54.688,873.535
1532511535.625,79.102,18.555,30.762,24.902,29.785
1532511535.628,69.824,17.090,34.180,36.133,-509.277
1532511535.632,69.336,23.438,35.156,53.223,-538.086
1532511535.636,88.379,24.414,40.527,109.863,-167.969
1532511535.640,50.293,22.461,40.527,72.266,153.320
1532511535.644,35.645,19.043,37.109,12.207,-399.414
1532511535.648,60.547,20.996,35.645,33.691,-104.004
1532511535.652,70.312,24.414,36.133,46.387,-45.898
1532511535.656,59.570,13.184,34.180,45.898,-246.094
1532511535.660,77.637,15.625,27.832,33.691,660.645
1532511535.664,74.707,19.043,28.320,81.055,306.641
1532511535.668,64.453,11.719,24.902,74.707,-491.699
1532511535.671,83.008,22.949,29.297,31.738,-530.762
1532511535.675,80.566,23.926,41.016,44.922,-469.727
1532511535.679,63.477,16.602,35.645,37.109,104.004
1532511535.683,48.340,16.602,32.227,68.359,-96.191
1532511535.687,36.133,23.438,29.785,55.176,-477.051
1532511535.691,44.922,26.367,28.809,0.000,-421.387
1532511535.695,68.848,28.320,29.297,37.109,-77.637
1532511535.699,82.520,30.273,25.879,47.852,755.371
1532511535.703,67.383,27.344,28.809,48.340,544.434
1532511535.707,44.922,28.320,26.855,48.828,-425.293
1532511535.711,35.645,27.832,22.461,35.645,-535.156
1532511535.714,41.504,20.996,25.879,27.832,-510.742
1532511535.718,52.246,18.066,27.832,40.527,-170.410
1532511535.722,40.527,14.160,21.484,49.316,-178.711
1532511535.726,68.848,8.789,16.113,6.348,-490.234
1532511535.730,76.660,17.090,18.066,6.348,-408.203
1532511535.734,54.199,27.344,19.531,16.113,-450.195
1532511535.738,43.945,31.738,21.973,-0.488,-80.078
1532511535.742,41.504,32.227,18.555,-6.836,334.961
1532511535.746,60.059,38.086,13.184,20.996,45.898
1532511535.750,90.332,42.480,12.207,14.648,-214.844
1532511535.753,91.797,27.344,23.438,22.461,-493.164
1532511535.757,37.598,12.207,31.250,53.223,160.645
1532511535.761,15.625,20.020,23.926,62.988,814.453
1532511535.765,45.410,35.156,23.438,90.332,-87.402
1532511535.769,29.785,38.086,23.438,34.668,-472.656
1532511535.773,34.668,27.344,21.973,5.859,-555.176
1532511535.777,49.316,19.531,28.320,42.969,-67.871
1532511535.781,36.133,31.250,25.879,45.898,174.805
1532511535.785,80.078,22.461,26.367,51.270,-398.926
1532511535.789,79.102,2.930,29.785,54.199,-94.727
1532511535.793,26.855,22.461,24.902,48.340,-74.707
1532511535.796,14.648,44.434,22.949,35.645,59.082
1532511535.800,20.020,42.969,30.273,44.434,875.000
1532511535.804,41.504,40.527,28.320,1.465,129.395
1532511535.808,16.602,30.762,25.391,-10.254,-428.711
1532511535.812,29.297,28.320,26.367,44.434,-419.922
1532511535.816,42.480,24.414,27.832,35.645,-259.766
1532511535.820,40.527,19.531,32.227,19.531,101.562
1532511535.824,37.109,29.297,31.250,15.137,-366.211
1532511535.828,17.090,36.621,26.855,7.812,-469.727
1532511535.832,15.137,39.062,20.996,36.621,-400.391
1532511535.836,33.691,32.227,20.020,59.082,-113.281
1532511535.839,21.973,32.227,11.230,-26.367,770.508
1532511535.843,28.809,33.691,9.277,-37.109,431.152
1532511535.847,39.551,23.926,20.508,22.461,-454.590
1532511535.851,8.789,24.902,20.508,66.406,-504.395
1532511535.855,9.766,37.109,14.648,17.578,-515.137
1532511535.859,51.270,47.852,12.695,6.348,-134.766
1532511535.863,65.918,38.086,15.625,39.551,-203.613
1532511535.867,10.254,25.879,24.902,16.113,-444.824
1532511535.871,-2.930,28.809,23.926,17.090,-413.574
1532511535.875,23.926,36.133,20.020,38.574,-466.797
1532511535.878,37.598,33.203,18.555,24.902,-92.773
1532511535.882,32.227,34.180,15.625,-1.953,255.371
1532511535.886,4.883,39.062,19.531,-3.418,124.512
1532511535.890,36.621,32.227,11.230,6.348,-170.410
1532511535.894,55.176,28.809,6.348,17.090,-519.043
1532511535.898,25.879,29.297,16.602,13.184,273.926
1532511535.902,16.602,29.785,22.461,30.762,724.121
1532511535.906,39.062,37.109,28.320,27.344,-281.250
1532511535.910,50.293,44.434,24.414,18.066,-523.438
1532511535.914,32.227,39.551,20.020,56.152,-519.531
1532511535.918,18.555,28.320,21.484,29.785,-87.891
1532511535.921,29.297,30.273,24.414,11.230,-11.719
1532511535.925,51.758,45.410,24.414,33.203,-465.332
1532511535.929,59.570,42.480,20.508,9.766,-72.754
1532511535.933,46.875,45.898,30.762,17.090,-82.031
1532511535.937,11.719,49.316,30.273,9.766,207.031
1532511535.941,30.273,33.691,18.066,28.809,825.684
1532511535.945,43.457,32.715,20.508,58.105,-45.410
1532511535.949,19.043,29.297,21.973,17.090,-498.535
1532511535.953,39.062,8.301,24.414,-3.906,-569.824
1532511535.957,46.875,23.438,28.320,32.715,-159.668
1532511535.960,58.105,51.758,30.273,29.297,160.645
1532511535.964,48.340,43.945,28.809,54.199,-385.254
1532511535.968,19.531,33.203,22.949,62.500,-412.598
1532511535.972,10.742,37.109,31.250,7.324,-473.633
1532511535.976,29.297,38.574,30.273,16.113,-11.719
1532511535.980,50.781,35.645,24.902,20.020,889.648
1532511535.984,40.527,34.668,25.391,16.113,267.578
1532511535.988,49.805,37.109,19.043,23.438,-512.207
1532511535.992,48.340,37.598,26.855,33.203,-567.383
1532511535.996,38.574,38.086,38.574,26.855,-375.977
1532511536.000,27.344,41.504,39.551,50.293,46.875
1532511536.003,18.066,36.133,34.180,50.293,-280.273
1532511536.007,29.785,40.527,27.832,-0.977,-471.680
1532511536.011,32.715,45.410,26.855,12.207,-410.156
1532511536.015,21.973,44.434,30.273,27.832,-340.332
1532511536.019,30.762,42.480,33.203,32.227,63.477
1532511536.023,39.062,41.016,30.273,35.645,270.996
1532511536.027,7.812,37.109,27.344,16.113,165.527
1532511536.031,0.488,26.855,33.691,34.668,-125.000
1532511536.035,27.832,30.273,37.598,38.086,-448.242
1532511536.039,30.762,43.945,35.156,21.973,365.234
1532511536.043,27.344,47.852,36.621,20.508,651.855
1532511536.046,47.363,46.387,37.109,33.203,-322.266
1532511536.050,76.660,47.363,30.762,59.082,-453.125
1532511536.054,33.691,42.480,26.855,37.109,-497.559
1532511536.058,-0.488,42.969,26.855,1.953,-165.527
1532511536.062,14.160,50.293,36.133,29.785,-97.656
1532511536.066,35.645,53.223,42.480,38.574,-407.227
1532511536.070,45.410,49.805,35.156,36.621,-35.645
1532511536.074,43.457,46.387,35.156,47.363,38.574
1532511536.078,34.180,50.781,27.344,-10.742,452.637
1532511536.082,41.016,46.387,24.414,11.230,608.398
1532511536.085,39.551,40.527,35.645,41.016,-309.570
1532511536.089,6.836,39.062,35.156,50.293,-463.867
1532511536.093,21.484,41.504,31.250,50.781,-573.730
1532511536.097,29.785,47.852,24.414,-10.254,119.629
1532511536.101,21.484,46.387,30.762,-9.766,496.582
1532511536.105,40.527,36.133,33.691,29.297,-369.141
1532511536.109,41.016,31.738,36.133,43.945,-432.617
1532511536.113,18.066,42.969,33.203,36.133,-474.121
1532511536.117,11.230,45.410,21.973,43.457,171.387
1532511536.121,34.668,41.016,24.414,24.414,913.574
1532511536.125,47.363,47.363,22.461,35.645,40.527
1532511536.128,37.598,52.246,25.391,33.691,-489.258
1532511536.132,3.906,44.922,32.227,-13.672,-531.738
1532511536.136,5.371,45.410,33.203,-10.254,-169.922
1532511536.140,22.461,53.223,29.785,31.738,164.062
1532511536.144,24.414,47.852,28.320,34.180,-375.977
1532511536.148,20.996,43.945,30.273,44.434,-408.691
1532511536.152,38.086,43.945,29.297,61.523,-431.152
1532511536.156,71.777,41.016,32.227,12.207,-250.977
1532511536.160,41.016,35.645,31.738,16.113,139.160
1532511536.164,1.953,34.668,29.785,64.941,126.465
1532511536.168,21.484,35.156,29.297,20.508,39.551
1532511536.171,54.199,32.715,27.832,-11.719,-289.062
1532511536.175,45.898,30.762,30.762,61.523,-396.973
1532511536.179,26.367,28.320,27.832,51.758,558.105
1532511536.183,16.113,23.438,22.949,-23.438,559.082
1532511536.187,13.672,20.020,27.832,-3.418,-405.273
1532511536.191,29.297,17.578,27.832,46.875,-479.004
1532511536.195,33.691,14.648,30.273,38.086,-442.383
1532511536.199,52.734,18.555,27.832,12.695,-67.383
1532511536.203,45.898,26.855,18.555,47.852,-155.762
1532511536.207,20.020,24.414,20.020,43.945,-437.988
1532511536.210,59.082,14.648,25.879,34.668,-76.172
1532511536.214,53.223,9.766,25.879,70.801,171.387
1532511536.218,15.625,11.719,23.438,0.000,673.340
1532511536.222,32.227,7.812,28.809,-7.812,710.449
1532511536.226,43.945,7.324,35.156,57.617,-281.738
1532511536.230,22.461,14.648,29.297,25.391,-367.676
1532511536.234,12.207,22.461,22.461,28.320,-342.773
1532511536.238,43.457,18.066,21.973,7.324,-194.336
1532511536.242,57.129,10.742,27.344,-12.695,-125.977
1532511536.246,32.715,16.113,29.785,13.184,-470.215
1532511536.250,12.207,12.207,30.762,24.902,-399.414
1532511536.253,13.184,11.719,32.227,23.438,-548.828
1532511536.257,24.902,13.672,25.391,34.668,222.168
1532511536.261,39.062,3.906,20.020,24.414,825.195
1532511536.265,31.250,5.371,24.414,-2.441,-127.930
1532511536.269,32.227,17.578,29.785,4.395,-511.230
1532511536.273,64.453,21.484,30.762,10.254,-604.492
1532511536.277,33.691,16.113,32.715,12.695,-135.742
1532511536.281,11.719,15.137,28.809,26.855,131.836
1532511536.285,30.762,13.184,23.926,39.551,-429.688
1532511536.289,48.340,9.766,27.832,33.203,-455.078
1532511536.292,28.809,16.602,25.391,4.395,-535.645
1532511536.296,10.742,17.090,22.461,-6.836,-79.590
1532511536.300,13.184,13.672,25.391,6.836,254.883
1532511536.304,14.160,8.301,30.762,29.297,58.594
1532511536.308,16.113,5.859,33.691,40.039,71.777
1532511536.312,50.781,14.160,27.832,9.277,-361.328
1532511536.316,40.527,11.719,29.297,11.719,-206.543
1532511536.320,-14.648,14.160,27.344,19.043,782.227
1532511536.324,7.324,20.996,22.461,0.000,338.867
1532511536.328,31.250,18.555,26.855,29.785,-471.680
1532511536.332,19.043,17.578,33.203,7.812,-476.562
1532511536.335,18.066,13.184,37.598,-11.719,-366.699
1532511536.339,31.738,13.672,31.250,2.441,7.324
1532511536.343,33.203,16.113,30.762,23.926,-258.301
1532511536.347,40.039,6.348,35.156,30.273,-441.406
1532511536.351,20.020,3.418,34.180,19.531,-45.410
1532511536.355,5.859,7.812,35.156,13.672,149.902
1532511536.359,28.809,10.254,32.715,18.555,693.848
1532511536.363,35.156,9.766,27.344,5.371,553.223
1532511536.367,34.668,10.254,30.762,18.555,-388.672
1532511536.371,40.039,17.578,33.691,44.434,-531.250
1532511536.375,36.621,25.391,30.273,40.527,-556.152
1532511536.378,20.996,25.391,21.973,24.414,-207.031
1532511536.382,24.414,18.066,26.367,9.766,-170.898
1532511536.386,20.996,17.090,41.016,17.578,-471.191
1532511536.390,-13.184,20.508,39.551,1.953,-432.129
1532511536.394,31.738,24.902,31.738,-3.418,-517.090
1532511536.398,38.086,24.414,27.832,17.578,344.238
1532511536.402,20.996,15.625,32.715,34.180,638.672
1532511536.406,9.277,12.695,42.969,-0.488,-367.676
1532511536.410,11.719,17.090,38.086,53.711,-487.793
1532511536.414,39.062,22.949,32.715,42.480,-539.062
1532511536.417,28.320,23.438,33.203,-39.551,81.543
1532511536.421,22.461,19.043,32.227,-10.742,252.441
1532511536.425,18.066,24.902,34.180,2.441,-431.641
1532511536.429,24.902,29.297,32.227,1.953,-380.859
1532511536.433,41.016,28.809,33.203,-6.348,-432.129
1532511536.437,54.199,28.809,36.133,1.953,-2.930
1532511536.441,41.016,22.461,32.715,17.090,275.879
1532511536.445,28.809,24.414,24.902,39.551,73.730
1532511536.449,37.109,21.484,28.809,29.297,166.504
1532511536.453,41.016,22.461,34.180,-11.230,-307.129
1532511536.457,38.574,30.762,36.133,-3.906,-28.809
1532511536.460,15.137,32.227,35.645,23.438,893.066
1532511536.464,20.020,36.133,35.156,31.250,160.645
1532511536.468,33.203,37.109,34.668,21.484,-467.285
1532511536.472,36.621,36.133,33.203,35.156,-542.969
1532511536.476,18.066,17.090,40.039,54.688,-244.141
1532511536.480,13.184,14.160,37.109,23.926,171.387
1532511536.484,26.367,39.062,29.297,16.602,-297.363
1532511536.488,22.949,42.969,33.691,47.363,-433.594
1532511536.492,1.953,38.086,31.250,22.949,-116.699
1532511536.496,-3.418,23.926,29.785,1.953,85.938
1532511536.500,37.109,23.926,29.785,-22.949,418.457
1532511536.503,26.367,35.645,34.180,-1.465,22.461
1532511536.507,-13.184,39.551,35.645,23.438,-448.242
1532511536.511,9.277,41.992,27.344,12.695,-372.559
1532511536.515,33.203,38.086,26.855,21.973,-431.152
1532511536.519,26.367,32.715,32.715,18.066,435.547
1532511536.523,15.137,32.227,30.273,17.578,391.602
1532511536.527,15.137,34.180,26.855,13.184,-475.586
1532511536.531,26.855,32.227,30.762,8.301,-410.156
1532511536.535,37.598,27.832,31.250,20.020,-520.996
1532511536.539,56.152,28.320,25.391,-0.977,331.543
1532511536.542,10.254,35.156,24.902,22.949,561.523
1532511536.546,-27.344,33.691,27.344,3.906,-395.996
1532511536.550,9.277,22.949,23.926,-34.668,-450.195
1532511536.554,19.531,24.414,24.414,-2.441,-535.156
1532511536.558,14.648,23.438,25.879,-4.395,-23.438
1532511536.562,55.176,29.297,23.926,25.879,78.613
1532511536.566,44.922,37.598,21.484,39.062,-429.688
1532511536.570,0.977,24.902,19.531,-20.996,-403.809
1532511536.574,20.508,27.832,19.043,-20.508,-461.914
1532511536.578,33.691,39.551,26.367,39.551,-43.945
1532511536.582,27.344,39.551,32.715,40.039,48.340
1532511536.585,40.527,36.133,28.809,4.395,-76.660
1532511536.589,51.758,33.203,28.809,-12.207,56.641
1532511536.593,20.508,34.668,30.762,-4.883,-394.531
1532511536.597,9.277,31.738,35.156,9.277,145.508
1532511536.601,17.090,33.203,31.738,21.484,849.609
1532511536.605,12.207,35.645,26.855,35.645,-64.453
1532511536.609,33.203,33.691,28.809,-13.184,-495.605
1532511536.613,28.809,33.203,36.133,-14.160,-514.160
1532511536.617,1.465,29.785,40.527,16.113,-56.152
1532511536.621,-4.395,28.809,34.668,-7.324,203.125
1532511536.625,57.129,35.645,35.156,-22.949,-385.742
1532511536.628,51.270,31.738,39.551,32.227,-369.141
1532511536.632,-11.719,30.762,34.180,32.227,-118.652
1532511536.636,10.254,31.738,28.809,-6.348,248.047
1532511536.640,17.090,30.762,26.855,-15.625,858.398
1532511536.644,34.668,36.133,30.762,6.836,250.488
1532511536.648,40.527,34.668,36.621,54.199,-480.957
1532511536.652,39.551,35.645,28.809,27.344,-430.176
1532511536.656,41.504,32.227,33.203,7.812,-241.211
1532511536.660,42.969,34.180,39.551,32.227,49.805
1532511536.664,30.762,44.434,37.598,11.719,-289.551
1532511536.667,27.832,42.480,37.109,3.418,-438.965
1532511536.671,22.949,38.086,31.738,19.531,-430.664
1532511536.675,27.832,33.691,27.344,10.254,-428.223
1532511536.679,49.316,27.832,31.738,20.020,117.188
1532511536.683,19.043,25.879,36.621,1.953,305.664
1532511536.687,18.555,19.043,43.945,0.977,-136.230
1532511536.691,21.973,19.043,48.340,19.531,-356.445
1532511536.695,21.484,27.344,38.574,-18.066,-456.055
1532511536.699,40.527,25.391,34.180,9.766,400.879
1532511536.703,24.902,17.578,40.039,27.832,628.418
1532511536.707,17.578,16.602,36.621,11.719,-374.512
1532511536.710,23.926,13.672,34.180,33.691,-490.234
1532511536.714,33.691,15.625,42.480,48.828,-445.312
1532511536.718,35.645,17.578,39.062,12.695,-122.559
1532511536.722,8.301,14.648,36.133,-1.465,-146.484
1532511536.726,5.859,18.066,41.992,21.973,-43.457
1532511536.730,12.695,22.949,37.109,14.160,119.629
1532511536.734,3.418,20.020,31.738,14.160,-450.195
1532511536.738,28.809,20.020,30.273,22.949,231.445
1532511536.742,46.875,22.461,33.203,-3.418,760.254
1532511536.746,39.062,17.090,42.480,4.883,-214.355
1532511536.749,20.996,11.719,46.875,73.730,-481.445
1532511536.753,9.766,17.578,38.086,41.992,-550.293
1532511536.757,6.348,15.625,37.598,-20.020,-125.488
1532511536.761,10.254,5.371,44.922,10.254,58.594
1532511536.765,22.461,13.184,41.992,20.508,-416.016
1532511536.769,29.297,27.832,31.250,24.414,-386.719
1532511536.773,41.016,25.391,29.785,35.645,-180.664
1532511536.777,26.367,13.672,41.504,25.391,414.551
1532511536.781,34.668,10.742,43.945,34.180,863.770
1532511536.785,76.172,12.695,41.504,60.059,14.648
1532511536.789,25.879,24.414,28.809,50.781,-541.992
1532511536.792,-7.812,32.715,26.855,-4.883,-606.445
1532511536.796,17.578,30.762,40.039,-26.855,-185.547
1532511536.800,24.902,25.879,43.945,5.859,172.363
1532511536.804,14.160,22.461,43.945,17.578,-407.227
1532511536.808,10.742,22.949,38.086,38.574,-462.402
1532511536.812,30.273,20.020,39.551,32.227,-472.168
1532511536.816,31.738,11.230,42.480,4.883,-222.656
1532511536.820,38.574,10.254,39.551,40.527,362.305
1532511536.824,10.254,13.184,42.480,43.945,228.516
1532511536.828,31.250,14.160,41.504,29.297,-140.625
1532511536.832,49.805,15.625,36.621,49.805,-364.746
1532511536.835,45.898,8.789,42.480,35.645,-392.578
1532511536.839,30.273,6.836,37.109,-6.348,562.012
1532511536.843,20.020,15.137,33.691,14.160,518.555
1532511536.847,43.945,18.066,40.039,70.312,-418.945
1532511536.851,29.297,18.555,34.180,50.293,-457.520
1532511536.855,29.785,20.996,28.809,-1.953,-451.660
1532511536.859,41.504,21.973,28.320,-14.160,-126.465
1532511536.863,28.809,20.996,32.227,20.020,-44.922
1532511536.867,28.320,20.020,27.832,37.109,81.055
1532511536.871,29.785,19.043,27.832,44.434,65.918
1532511536.874,45.410,14.648,33.691,53.223,-488.770
1532511536.878,55.664,21.973,30.762,27.832,273.438
1532511536.882,38.086,32.227,26.367,1.953,690.430
1532511536.886,41.504,33.203,34.180,16.113,-336.426
1532511536.890,25.879,23.438,35.156,33.203,-539.062
1532511536.894,16.113,21.973,24.414,51.758,-534.180
1532511536.898,25.391,21.973,26.367,17.578,-145.508
1532511536.902,40.039,20.020,28.320,-4.883,-69.336
1532511536.906,38.574,22.461,26.855,3.906,-475.098
1532511536.910,20.508,21.973,24.902,7.324,-405.762
1532511536.914,12.207,22.461,26.367,57.617,-218.262
1532511536.917,16.113,17.090,33.691,49.805,479.492
1532511536.921,9.766,20.508,34.180,-4.395,765.625
1532511536.925,36.621,31.250,23.926,26.855,-178.711
1532511536.929,60.547,28.809,21.484,14.160,-513.672
1532511536.933,18.066,20.508,24.902,7.324,-562.500
1532511536.937,15.625,24.902,16.113,26.855,-125.977
1532511536.941,33.203,30.273,20.508,41.504,78.125
1532511536.945,25.879,23.438,24.414,61.035,-456.543
1532511536.949,45.898,24.414,19.043,28.809,-398.926
1532511536.953,64.941,27.832,25.391,-12.695,-500.977
1532511536.957,56.152,26.367,28.809,23.926,-105.469
1532511536.960,24.414,29.785,22.949,24.414,520.020
1532511536.964,10.742,30.273,22.949,5.371,51.758
1532511536.968,38.574,33.691,20.020,3.906,-273.438
1532511536.972,42.969,36.621,21.484,0.000,-422.363
1532511536.976,28.320,36.133,21.973,4.395,-208.496
1532511536.980,1.953,32.227,20.508,-3.906,791.016
1532511536.984,5.859,30.273,22.461,15.625,351.074
1532511536.988,6.836,26.367,21.973,2.441,-467.773
1532511536.992,4.395,21.484,28.320,45.898,-501.465
1532511536.996,18.066,32.227,24.414,22.949,-337.891
1532511536.999,27.832,37.598,15.625,-36.133,62.012
1532511537.003,31.250,26.367,24.902,5.371,-235.840
1532511537.007,19.531,22.461,35.156,23.438,-156.738
1532511537.011,23.438,33.691,34.180,45.898,53.711
1532511537.015,58.105,35.156,32.715,63.477,-314.941
1532511537.019,67.383,27.344,28.809,51.758,470.703
1532511537.023,28.809,24.902,25.391,20.020,570.801
1532511537.027,20.508,27.832,22.461,-0.488,-432.617
1532511537.031,21.973,26.367,25.879,27.344,-482.910
1532511537.035,15.625,28.320,23.926,13.672,-486.816
1532511537.039,48.340,30.273,20.020,3.906,-182.617
1532511537.042,32.715,26.367,28.320,-0.488,-186.035
1532511537.046,-21.973,28.320,30.762,14.160,-434.570
1532511537.050,7.324,32.715,28.809,24.414,-330.078
1532511537.054,19.531,22.949,37.598,38.574,-176.270
1532511537.058,11.719,14.160,41.016,42.969,540.039
1532511537.062,27.344,22.949,34.180,7.812,687.500
1532511537.066,20.020,26.855,28.320,-0.488,-249.512
1532511537.070,12.207,32.227,25.879,-15.137,-533.203
1532511537.074,28.320,30.273,27.832,17.578,-462.402
1532511537.078,47.363,23.438,27.344,34.668,-38.086
1532511537.082,26.855,28.809,34.668,62.500,-45.410
1532511537.085,12.695,28.809,37.598,35.645,-452.148
1532511537.089,21.484,22.461,33.203,-14.648,-418.457
1532511537.093,25.391,32.227,35.156,14.160,-503.906
1532511537.097,36.621,39.551,36.133,25.879,-34.180
1532511537.101,42.480,32.715,32.227,21.484,472.168
1532511537.105,41.504,35.156,29.785,30.762,-19.043
1532511537.109,26.855,36.133,32.715,35.645,-311.523
1532511537.113,20.020,35.645,30.762,28.809,-475.586
1532511537.117,50.293,37.598,26.367,6.348,28.809
1532511537.121,32.715,30.273,25.391,-30.273,886.719
1532511537.124,-1.953,20.996,35.156,-2.930,109.375
1532511537.128,25.391,24.902,38.086,47.852,-461.914
1532511537.132,33.203,30.273,29.785,30.273,-502.441
1532511537.136,17.090,22.949,31.738,26.855,-176.270
1532511537.140,28.320,23.926,31.738,23.438,154.297
1532511537.144,22.949,33.203,30.762,12.695,-351.562
1532511537.148,37.109,33.203,33.203,16.602,-32.715
1532511537.152,43.457,29.785,38.574,45.898,1.953
1532511537.156,23.926,22.461,48.828,65.430,-316.895
1532511537.160,38.086,23.926,41.504,-2.930,657.715
1532511537.164,47.363,29.297,34.668,-26.855,441.406
1532511537.167,43.945,25.879,37.598,-10.254,-453.613
1532511537.171,51.270,27.832,33.203,-6.348,-504.395
1532511537.175,53.711,32.715,31.250,18.066,-462.891
1532511537.179,51.270,22.949,31.738,39.062,-65.430
1532511537.183,30.273,17.090,35.645,34.180,-194.336
1532511537.187,-2.930,25.879,36.621,7.324,-450.195
1532511537.191,0.977,27.832,31.738,25.879,-399.902
1532511537.195,32.715,27.344,31.738,27.344,-93.262
1532511537.199,31.250,24.414,34.180,9.766,708.984
1532511537.203,-5.371,23.438,38.086,57.129,572.266
1532511537.206,-3.418,25.879,39.062,43.945,-383.301
1532511537.210,25.391,23.438,33.203,-4.395,-515.137
1532511537.214,28.320,19.531,30.762,7.812,-523.438
1532511537.218,30.762,26.367,36.133,27.344,-18.555
1532511537.222,28.809,30.762,41.016,22.949,3.906
1532511537.226,16.113,21.484,29.785,28.809,-485.840
1532511537.230,29.785,17.578,30.273,19.531,-404.297
1532511537.234,49.805,28.809,42.969,35.156,-448.242
1532511537.238,28.320,31.250,36.133,41.016,-67.871
1532511537.242,11.719,30.273,28.809,-6.348,303.223
1532511537.246,39.551,33.203,31.250,17.578,178.223
1532511537.249,38.086,31.738,37.109,32.715,-50.781
1532511537.253,17.090,25.879,37.598,19.043,-514.648
1532511537.257,8.301,20.020,35.645,23.926,124.023
1532511537.261,16.113,19.531,34.180,4.883,831.055
1532511537.265,23.926,30.762,30.273,24.414,-57.617
1532511537.269,27.832,35.645,30.762,48.340,-466.309
1532511537.273,28.809,23.926,34.668,21.484,-556.641
1532511537.277,13.184,16.113,35.645,-16.602,-88.867
1532511537.281,1.953,17.090,33.691,8.789,172.852
1532511537.285,14.648,25.391,32.227,9.766,-239.746
1532511537.289,34.180,32.715,28.809,25.391,116.699
1532511537.292,30.762,23.926,33.691,58.594,-25.391
1532511537.296,34.180,26.855,28.320,1.953,-9.766
1532511537.300,33.203,38.086,30.762,-17.578,854.492
1532511537.304,36.133,27.832,41.992,30.273,204.102
1532511537.308,46.387,26.855,41.504,11.230,-555.176
1532511537.312,27.344,36.133,36.621,-16.602,-556.641
1532511537.316,21.973,31.250,36.133,9.766,-287.109
1532511537.320,4.883,18.066,34.180,14.160,84.473
1532511537.324,25.879,18.555,27.832,12.207,-346.191
1532511537.328,27.832,27.832,25.391,34.668,-478.516
1532511537.331,-1.953,27.832,22.949,8.789,-401.367
1532511537.335,10.742,20.020,26.367,8.789,-104.004
1532511537.339,14.648,19.531,27.832,-12.695,765.137
1532511537.343,34.180,28.809,24.414,-27.832,456.543
1532511537.347,39.062,31.738,25.879,0.977,-443.848
1532511537.351,18.066,20.508,31.738,18.066,-508.789
1532511537.355,20.020,13.672,29.785,21.973,-537.109
1532511537.359,16.602,20.508,14.648,3.418,-191.895
1532511537.363,20.996,27.344,16.113,-14.648,-222.168
1532511537.367,32.715,39.551,23.926,-3.418,-439.941
1532511537.371,38.086,28.809,22.949,37.598,-414.062
1532511537.374,24.414,18.555,26.367,18.555,-479.004
1532511537.378,43.457,32.227,21.484,-36.621,-104.004
1532511537.382,29.297,40.039,15.137,-21.973,263.184
1532511537.386,12.207,32.227,22.461,30.762,198.242
1532511537.390,21.484,28.320,23.438,61.035,-101.562
1532511537.394,49.805,20.020,24.414,-5.859,-520.508
1532511537.398,47.363,13.184,28.809,-23.926,264.648
1532511537.402,10.742,25.879,19.043,-12.207,747.559
1532511537.406,9.277,35.156,12.207,-1.465,-241.211
1532511537.410,19.043,33.203,18.066,25.879,-514.160
1532511537.414,34.668,31.738,20.020,17.090,-520.508
1532511537.417,27.832,37.598,20.508,7.812,-75.195
1532511537.421,37.598,34.668,20.508,30.273,0.000
1532511537.425,33.691,27.344,19.531,24.414,-479.004
1532511537.429,9.277,30.762,22.949,16.602,-15.625
1532511537.433,22.461,33.691,27.832,-6.348,-77.148
1532511537.437,34.180,27.832,28.320,3.906,125.977
1532511537.441,24.414,24.902,22.461,20.508,849.609
1532511537.445,41.504,28.320,22.949,4.883,-1.953
1532511537.449,56.152,26.367,25.879,12.207,-490.234
1532511537.453,15.625,24.902,21.484,1.953,-562.988
1532511537.456,22.949,20.996,24.902,2.441,-175.781
1532511537.460,44.922,23.926,31.250,20.996,156.738
1532511537.464,47.852,22.461,25.391,-8.301,-382.324
1532511537.468,35.645,30.762,22.949,-4.883,-409.180
1532511537.472,21.484,44.434,34.180,74.219,-465.332
1532511537.476,38.086,49.805,35.156,82.031,-71.777
1532511537.480,37.598,48.340,24.902,-19.531,846.191
1532511537.484,9.766,41.504,23.438,-32.227,308.105
1532511537.488,21.484,38.086,27.832,0.488,-490.234
1532511537.492,35.645,41.504,27.344,27.344,-578.125
1532511537.496,24.414,41.992,26.367,37.598,-263.672
1532511537.499,51.270,34.180,33.203,38.574,127.930
1532511537.503,64.453,30.762,29.785,28.320,-317.383
1532511537.507,26.367,32.227,20.020,20.020,-496.094
1532511537.511,14.648,24.902,23.438,36.133,-439.941
1532511537.515,43.457,23.926,39.551,35.645,-389.160
1532511537.519,42.480,35.645,43.457,36.133,-38.574
1532511537.523,24.902,35.645,32.715,-2.441,187.012
1532511537.527,50.293,27.344,28.320,-3.418,192.383
1532511537.531,55.664,33.691,30.273,14.160,-72.754
1532511537.535,42.969,36.621,31.250,10.254,-486.328
1532511537.539,41.504,25.391,38.086,29.785,320.801
1532511537.542,24.902,25.879,40.039,29.785,664.551
1532511537.546,31.738,34.180,32.715,16.113,-327.148
1532511537.550,28.809,27.832,37.598,49.805,-479.004
1532511537.554,21.484,29.297,36.621,37.109,-509.277
1532511537.558,61.035,32.227,31.250,10.742,-160.156
1532511537.562,33.203,18.066,34.180,28.320,-98.145
1532511537.566,-7.812,14.160,38.086,20.508,-432.617
1532511537.570,12.207,24.414,37.109,7.812,46.875
1532511537.574,41.504,20.996,34.668,36.621,-89.844
1532511537.578,44.922,14.160,36.133,45.898,220.703
1532511537.581,28.809,30.762,33.691,18.555,787.109
1532511537.585,37.598,42.969,31.250,0.000,-168.457
1532511537.589,30.273,36.133,31.250,23.438,-541.016
1532511537.593,26.855,35.645,37.109,45.410,-581.055
1532511537.597,30.762,37.109,38.086,1.465,-98.145
1532511537.601,26.367,26.855,32.715,-7.324,107.910
1532511537.605,21.484,19.043,37.109,21.484,-448.242
1532511537.609,33.203,14.160,38.574,20.996,-432.617
1532511537.613,31.738,7.324,33.691,10.254,-488.281
1532511537.617,26.855,19.531,30.762,12.207,136.719
1532511537.621,37.109,34.180,24.414,22.461,916.504
1532511537.624,31.250,33.203,25.879,32.715,66.895
1532511537.628,17.578,23.926,32.715,23.438,-507.324
1532511537.632,14.648,20.996,35.645,9.277,-540.039
1532511537.636,30.273,27.832,35.645,21.973,-229.980
1532511537.640,64.941,25.879,37.109,85.449,119.141
1532511537.644,56.641,20.508,35.645,29.297,-370.117
1532511537.648,1.465,25.391,32.227,-42.969,-414.551
1532511537.652,-0.488,20.508,31.738,15.137,-410.156
1532511537.656,33.691,7.812,30.762,30.762,-283.691
1532511537.660,48.828,14.160,37.109,36.621,92.285
1532511537.663,30.762,20.020,32.227,39.551,197.754
1532511537.667,30.762,21.484,26.855,6.836,97.168
1532511537.671,37.598,24.414,31.250,34.180,-292.969
1532511537.675,25.879,21.484,34.180,27.832,-449.219
1532511537.679,4.883,12.207,33.203,-8.789,514.160
1532511537.683,26.367,14.648,31.738,13.184,640.137
1532511537.687,38.574,28.320,30.273,57.129,-378.906
1532511537.691,42.969,33.203,24.902,49.316,-508.301
1532511537.695,53.223,20.020,26.855,-23.926,-525.391
1532511537.699,42.969,12.695,26.855,-19.043,169.922
1532511537.703,3.418,26.367,24.414,27.832,131.348
1532511537.706,8.301,37.598,28.320,34.180,-406.250
1532511537.710,16.113,34.180,34.668,44.434,58.594
1532511537.714,35.645,28.320,38.574,40.039,-152.344
1532511537.718,20.508,31.738,32.715,-18.555,307.129
1532511537.722,7.812,24.902,35.156,-20.020,679.688
1532511537.726,58.594,20.020,35.156,49.316,-350.098
1532511537.730,53.223,25.879,28.320,56.641,-569.824
1532511537.734,31.738,33.203,26.367,-11.719,-563.965
1532511537.738,39.062,24.902,28.320,0.000,-174.805
1532511537.742,24.414,15.625,36.133,28.809,-112.793
1532511537.746,34.180,26.855,37.598,26.855,-507.812
1532511537.749,38.086,25.879,30.762,7.324,-413.086
1532511537.753,49.316,25.391,39.062,55.664,-543.457
1532511537.757,34.180,41.016,45.898,24.902,204.590
1532511537.761,-0.977,46.387,45.410,-7.324,845.703
1532511537.765,8.301,40.039,50.781,50.293,-86.426
1532511537.769,23.926,31.250,53.223,11.230,-508.301
1532511537.773,29.297,28.809,52.734,-30.273,-617.188
1532511537.777,41.504,23.926,47.363,2.441,-138.672
1532511537.781,49.805,21.973,51.758,30.762,168.457
1532511537.785,34.668,25.879,51.270,5.859,-414.062
1532511537.788,20.508,28.320,45.410,-2.930,-444.824
1532511537.792,29.785,34.668,45.898,5.371,-512.695
1532511537.796,27.344,41.016,39.551,0.488,-126.465
1532511537.800,12.695,38.086,42.480,27.344,215.332
1532511537.804,-3.418,27.344,51.758,35.156,68.848
1532511537.808,6.348,24.414,56.152,2.930,70.801
1532511537.812,36.621,32.227,59.082,28.320,-345.215
1532511537.816,34.180,38.574,51.270,23.926,-280.762
1532511537.820,26.367,39.062,48.828,36.621,720.215
1532511537.824,30.273,39.551,54.688,21.973,363.770
1532511537.828,5.371,34.668,56.152,-33.203,-495.117
1532511537.831,1.465,20.020,55.664,7.812,-467.285
1532511537.835,24.414,22.949,53.711,41.504,-404.785
1532511537.839,19.531,37.109,59.082,11.230,-53.223
1532511537.843,6.348,28.320,55.664,-1.465,-244.141
1532511537.847,38.086,26.855,49.316,22.949,-427.246
1532511537.851,39.062,35.645,54.688,43.457,-80.566
1532511537.855,-11.719,31.738,51.270,39.062,-36.621
1532511537.859,22.949,31.738,49.805,-0.488,354.492
1532511537.863,25.879,29.785,57.129,17.578,214.355
1532511537.867,-9.277,23.926,51.758,15.625,-405.273
1532511537.871,36.621,32.227,47.363,9.766,-390.137
1532511537.874,32.715,39.062,49.805,36.621,-541.992
1532511537.878,11.230,35.645,51.758,4.395,203.613
1532511537.882,23.926,33.203,51.270,-0.488,368.652
1532511537.886,33.691,32.715,49.805,66.406,-393.555
1532511537.890,50.781,33.691,54.199,20.020,-397.949
1532511537.894,15.137,32.227,53.223,-7.812,-487.305
1532511537.898,6.348,28.809,44.434,52.734,322.754
1532511537.902,49.805,22.461,50.293,40.527,874.512
1532511537.906,42.480,12.695,59.082,14.648,-122.559
1532511537.910,20.996,23.926,52.734,16.602,-540.527
1532511537.913,29.297,36.621,51.270,18.066,-544.922
1532511537.917,48.828,29.297,57.129,7.324,-116.699
1532511537.921,38.086,23.438,63.965,11.230,-38.574
1532511537.925,33.691,31.738,57.129,25.879,-500.000
1532511537.929,43.457,39.062,44.434,-3.418,-417.480
1532511537.933,34.180,42.480,40.039,-18.066,-472.656
1532511537.937,37.598,48.828,44.922,17.578,-17.578
1532511537.941,28.809,51.270,46.387,19.531,187.012
1532511537.945,36.621,47.852,43.945,-7.812,-21.973
1532511537.949,29.297,44.434,46.387,-29.785,211.914
1532511537.953,31.250,38.574,37.598,42.480,-274.414
1532511537.956,38.086,36.621,32.715,39.551,-97.656
1532511537.960,27.832,36.621,50.293,1.953,881.836
1532511537.964,37.109,35.156,60.059,23.926,203.125
1532511537.968,26.367,31.738,58.105,22.949,-483.398
1532511537.972,3.418,27.344,55.664,38.574,-566.895
1532511537.976,-3.418,26.855,53.223,29.297,-292.969
1532511537.980,-0.488,31.250,50.293,26.367,157.227
1532511537.984,6.836,33.691,48.828,33.203,-284.668
1532511537.988,36.621,41.992,44.922,24.414,-461.426
1532511537.992,42.969,41.504,41.504,9.277,-75.195
1532511537.995,3.906,40.527,35.645,-0.488,151.367
1532511537.999,-6.348,37.109,41.016,32.715,296.387
1532511538.003,12.207,29.785,51.270,65.430,-87.402
1532511538.007,40.039,30.762,45.898,4.395,-446.777
1532511538.011,37.598,33.691,45.410,-15.137,-366.699
1532511538.015,15.137,31.250,57.129,25.391,-439.941
1532511538.019,6.348,29.297,57.617,32.715,415.039
1532511538.023,35.156,38.086,48.340,16.113,427.734
1532511538.027,36.133,39.551,37.109,28.809,-446.777
1532511538.031,1.953,31.738,38.574,41.992,-416.016
1532511538.035,21.484,32.715,52.734,20.996,-448.242
1532511538.038,25.391,37.109,52.734,0.977,145.508
1532511538.042,31.738,29.785,54.688,3.906,261.719
1532511538.046,35.156,18.066,59.082,25.391,-326.172
1532511538.050,29.785,24.414,49.805,35.645,-333.008
1532511538.054,55.176,40.527,47.852,66.895,-518.555
1532511538.058,62.012,42.969,46.875,16.113,238.281
1532511538.062,46.387,36.133,42.969,-12.695,653.320
1532511538.066,15.137,29.785,46.387,23.926,-283.203
1532511538.070,8.301,30.273,49.805,23.438,-440.430
1532511538.074,42.969,33.691,51.758,34.668,-496.094
1532511538.078,26.855,29.297,50.293,41.016,-89.355
1532511538.081,25.391,32.227,45.898,34.668,33.691
1532511538.085,43.945,35.645,40.527,30.273,-56.152
1532511538.089,37.598,29.785,46.387,41.992,41.016
1532511538.093,54.688,37.598,51.758,58.105,-468.750
1532511538.097,58.594,40.039,46.387,40.039,96.680
1532511538.101,29.297,42.480,46.875,31.738,861.816
1532511538.105,16.602,42.969,48.828,3.906,-53.223
1532511538.109,31.738,39.551,45.898,5.371,-515.625
1532511538.113,29.785,42.480,43.457,41.504,-538.574
1532511538.117,41.992,41.992,45.410,36.621,-102.051
1532511538.120,61.523,32.227,48.340,39.551,202.637
1532511538.124,38.086,31.738,39.062,2.930,-428.223
1532511538.128,19.531,44.922,40.527,-16.602,-245.117
1532511538.132,22.461,50.781,51.270,10.742,87.402
1532511538.136,17.090,41.016,53.223,12.207,156.738
1532511538.140,26.367,26.855,46.875,27.344,800.781
1532511538.144,27.344,29.785,34.180,42.480,279.785
1532511538.148,57.617,33.691,35.645,5.859,-501.953
1532511538.152,57.617,37.598,48.340,-13.672,-528.809
1532511538.156,17.578,47.852,49.805,34.668,-401.367
1532511538.160,29.785,51.758,50.293,69.336,-9.277
1532511538.163,33.691,49.316,46.875,12.695,-282.715
1532511538.167,28.320,45.898,41.504,-26.367,-439.453
1532511538.171,25.391,41.504,48.340,22.461,-413.574
1532511538.175,43.457,38.086,50.781,28.320,-453.613
1532511538.179,38.574,32.715,49.805,13.184,204.590
1532511538.183,37.598,29.785,50.293,45.410,226.562
1532511538.187,36.133,32.715,47.852,41.992,-361.816
1532511538.191,20.508,28.809,47.363,10.254,-375.000
1532511538.195,35.156,24.902,44.922,3.906,-470.215
1532511538.199,75.684,27.344,48.828,27.344,356.934
1532511538.203,69.824,30.762,53.711,54.688,524.414
1532511538.206,31.250,38.574,51.270,34.180,-406.738
1532511538.210,14.648,39.551,44.434,-1.465,-450.195
1532511538.214,14.648,36.133,45.410,14.648,-417.969
1532511538.218,33.691,33.203,48.340,63.965,-67.871
1532511538.222,36.621,32.715,42.969,26.855,-84.961
1532511538.226,36.621,35.156,46.387,4.395,-65.918
1532511538.230,39.551,37.598,51.758,34.668,123.535
1532511538.234,38.574,40.039,46.387,24.902,-404.297
1532511538.238,45.898,38.574,37.109,11.230,220.215
1532511538.242,33.691,34.180,41.504,49.805,783.203
1532511538.245,15.625,32.227,46.875,50.781,-175.293
1532511538.249,23.438,32.227,42.480,20.020,-473.633
1532511538.253,29.785,33.203,41.504,30.273,-542.969
1532511538.257,28.320,30.762,38.574,25.879,-115.234
1532511538.261,33.691,27.832,41.992,31.250,90.820
1532511538.265,31.250,27.832,52.734,64.941,-403.320
1532511538.269,45.410,45.410,42.969,21.484,-363.770
1532511538.273,53.223,54.199,31.738,-4.395,-192.871
1532511538.277,6.836,40.039,40.527,24.414,345.215
1532511538.281,9.766,38.086,43.457,12.207,886.230
1532511538.285,25.391,34.668,45.898,15.625,87.402
1532511538.288,18.555,34.668,45.898,17.090,-510.254
1532511538.292,35.156,39.062,42.480,58.594,-574.219
1532511538.296,45.898,31.250,43.457,37.598,-208.984
1532511538.300,15.137,35.156,44.434,2.441,159.668
1532511538.304,17.090,40.527,42.480,15.625,-360.352
1532511538.308,21.973,34.180,43.457,-0.977,-437.988
1532511538.312,8.789,37.598,47.363,31.250,-436.035
1532511538.316,38.574,45.898,43.945,41.992,-243.652
1532511538.320,53.711,45.410,41.504,27.344,335.938
1532511538.324,35.156,41.992,46.875,79.590,211.426
1532511538.328,18.066,41.992,46.387,45.898,-171.387
1532511538.331,8.301,41.992,39.551,-26.855,-314.453
1532511538.335,28.320,38.574,42.969,16.602,-379.395
1532511538.339,46.387,27.832,45.410,16.602,529.785
1532511538.343,44.922,33.203,40.527,10.254,555.664
1532511538.347,38.574,36.133,49.805,45.898,-394.043
1532511538.351,20.020,32.227,54.199,27.832,-449.707
1532511538.355,20.996,36.621,43.945,32.715,-453.613
1532511538.359,29.297,42.969,40.527,49.805,-120.605
1532511538.363,47.852,46.387,39.551,8.789,-158.691
1532511538.367,41.504,38.574,46.875,41.504,-120.605
1532511538.370,33.691,42.969,56.152,55.664,82.031
1532511538.374,40.039,47.852,51.270,-2.930,-398.438
1532511538.378,18.066,33.203,41.016,5.859,267.090
1532511538.382,30.273,38.086,40.527,49.805,711.914
1532511538.386,36.621,45.410,41.504,19.531,-309.082
1532511538.390,21.973,42.969,37.598,3.906,-552.246
1532511538.394,15.137,43.945,36.621,17.090,-545.410
1532511538.398,44.434,38.574,35.156,28.809,-128.906
1532511538.402,45.898,36.133,34.668,21.973,-56.641
1532511538.406,4.395,38.574,36.621,41.992,-482.910
1532511538.410,14.648,40.527,37.109,45.410,-408.691
1532511538.413,37.109,40.039,32.715,-6.348,-147.949
1532511538.417,46.875,34.668,32.715,26.367,506.348
1532511538.421,42.969,33.691,41.016,24.414,923.340
1532511538.425,27.832,36.621,40.039,7.812,27.832
1532511538.429,31.738,39.551,34.180,22.461,-515.625
1532511538.433,19.531,46.387,31.738,9.766,-628.418
1532511538.437,27.832,48.828,31.738,8.301,-52.246
1532511538.441,56.641,42.969,30.762,34.180,310.059
1532511538.445,39.062,42.480,28.809,22.461,-445.801
1532511538.449,20.020,43.457,36.621,6.836,-438.965
1532511538.452,13.672,36.621,43.945,15.625,-530.762
1532511538.456,19.043,33.203,41.016,19.043,-190.918
1532511538.460,36.621,40.527,40.527,38.574,459.473
1532511538.464,47.363,43.945,40.527,36.133,62.012
1532511538.468,19.531,39.062,40.039,44.434,-295.898
1532511538.472,9.766,38.086,38.086,38.574,-465.332
1532511538.476,19.531,34.180,38.086,-8.789,-277.344
1532511538.480,18.555,37.109,41.504,5.371,746.582
1532511538.484,36.621,34.180,44.434,33.203,355.957
1532511538.488,50.781,31.250,37.109,24.902,-510.742
1532511538.492,45.410,40.039,36.133,33.691,-539.062
1532511538.495,24.902,37.598,43.457,10.742,-395.508
1532511538.499,26.855,40.039,44.922,-4.883,13.184
1532511538.503,26.855,44.922,39.551,43.945,-243.652
1532511538.507,33.203,42.969,36.133,46.387,-122.070
1532511538.511,54.688,41.992,41.016,10.742,142.090
1532511538.515,60.059,35.645,45.410,36.621,-315.918
1532511538.519,12.207,22.949,47.852,31.738,414.551
1532511538.523,29.785,24.902,40.039,-12.207,598.633
1532511538.527,38.086,27.832,36.133,13.672,-434.082
1532511538.531,7.812,25.879,42.480,33.203,-513.672
1532511538.535,16.602,27.344,45.410,21.484,-510.254
1532511538.538,19.531,23.926,41.504,-2.441,-209.473
1532511538.542,31.250,23.438,39.062,7.324,-182.617
1532511538.546,35.645,25.391,36.133,32.227,-484.863
1532511538.550,38.086,16.113,35.645,63.965,-271.484
1532511538.554,34.668,14.160,27.832,30.273,-82.031
1532511538.558,26.855,22.949,21.484,-32.227,513.184
1532511538.562,20.996,19.043,29.785,4.395,701.660
1532511538.566,46.387,16.602,35.156,52.246,-251.465
1532511538.570,48.828,25.879,29.785,9.766,-546.875
1532511538.574,37.109,24.414,19.531,-8.301,-595.215
1532511538.577,38.574,19.043,24.414,37.598,-167.480
1532511538.581,25.391,19.043,31.738,56.641,-35.645
1532511538.585,19.043,20.508,30.762,20.996,-479.004
1532511538.589,18.555,28.320,33.203,0.000,-447.266
1532511538.593,35.156,21.973,35.645,21.973,-534.668
1532511538.597,14.160,7.324,35.645,-9.277,-50.781
1532511538.601,5.371,3.418,43.457,12.695,518.066
1532511538.605,5.859,10.254,42.480,41.504,-4.883
1532511538.609,7.812,19.531,32.715,12.207,-324.707
1532511538.613,31.250,22.461,37.598,49.805,-470.215
1532511538.617,20.996,12.695,38.574,28.320,-25.391
1532511538.620,36.621,7.324,32.715,-35.645,884.766
1532511538.624,38.086,13.672,35.645,-18.066,156.738
1532511538.628,13.672,18.555,37.109,15.137,-478.027
1532511538.632,45.898,26.367,32.715,16.602,-512.695
1532511538.636,44.434,26.855,40.039,25.879,-223.633
1532511538.640,21.973,26.367,44.434,46.387,128.418
1532511538.644,11.719,26.855,38.086,28.809,-343.262
1532511538.648,18.066,27.344,37.109,2.441,-55.176
1532511538.652,30.762,29.297,40.527,6.348,2.441
1532511538.656,35.156,29.297,47.363,30.273,-369.141
1532511538.660,49.805,27.344,45.898,23.926,603.516
1532511538.663,41.992,25.879,39.062,19.043,477.051
1532511538.667,33.203,26.855,35.645,36.133,-465.332
1532511538.671,36.133,27.832,37.109,30.273,-519.531
1532511538.675,33.691,30.273,38.086,-2.441,-482.910
1532511538.679,29.785,35.156,41.016,39.551,-84.961
1532511538.683,45.410,35.645,41.016,34.180,-192.871
1532511538.687,74.219,38.086,35.156,-23.926,-467.773
1532511538.691,77.148,38.086,35.645,-9.766,-417.969
1532511538.695,40.039,30.762,35.156,8.301,-145.020
1532511538.699,37.109,30.762,36.133,40.527,671.875
1532511538.702,48.828,35.156,32.715,33.691,597.656
1532511538.706,39.551,34.180,28.809,6.836,-386.230
1532511538.710,20.020,19.043,33.691,75.195,-544.922
1532511538.714,36.621,14.160,32.227,42.480,-524.414
1532511538.718,46.387,30.273,27.832,-27.344,-152.832
1532511538.722,6.348,33.203,31.738,16.113,-128.418
1532511538.726,-1.465,25.391,40.039,21.484,-471.680
1532511538.730,39.062,27.832,41.016,23.438,-394.043
1532511538.734,31.738,39.062,37.109,33.691,-450.195
1532511538.738,4.395,38.086,39.551,33.203,-62.500
1532511538.742,19.043,28.809,40.039,15.137,348.145
1532511538.745,44.434,29.297,43.945,10.254,2.441
1532511538.749,33.203,34.180,45.410,46.387,-242.188
1532511538.753,30.762,33.203,45.410,37.598,-474.609
1532511538.757,48.340,29.785,44.434,28.809,116.699
1532511538.761,51.270,28.809,42.969,33.691,849.121
1532511538.765,22.949,32.715,36.133,1.465,-9.766
1532511538.769,11.719,34.668,32.227,-11.230,-444.824
1532511538.773,48.340,26.855,41.504,21.973,-537.598
1532511538.777,35.645,15.625,47.852,30.762,-86.426
1532511538.781,14.648,21.973,44.434,5.859,217.773
1532511538.785,27.344,32.227,43.945,-5.371,-375.488
1532511538.788,30.273,32.227,41.016,9.277,27.832
1532511538.792,43.945,33.691,36.621,13.184,-14.160
1532511538.796,39.062,36.621,37.598,20.508,-115.234
1532511538.800,22.949,29.297,43.457,18.555,836.914
1532511538.804,53.711,33.203,44.922,32.227,243.164
1532511538.808,49.316,48.340,41.016,50.293,-532.227
1532511538.812,11.719,37.598,42.969,51.270,-533.203
1532511538.816,20.508,28.809,43.457,22.949,-330.078
1532511538.820,29.785,30.762,33.691,-27.344,63.965
1532511538.824,33.691,26.855,34.668,-3.418,-285.645
1532511538.827,39.062,28.809,40.039,32.715,-453.125
1532511538.831,41.504,34.668,40.039,43.457,-385.742
1532511538.835,26.367,33.203,39.062,42.969,-86.914
1532511538.839,26.855,24.902,32.715,34.668,770.508
1532511538.843,35.156,28.320,30.762,-0.488,486.816
1532511538.847,39.551,36.621,30.762,-10.742,-426.270
1532511538.851,32.227,34.668,34.180,16.602,-491.211
1532511538.855,9.277,36.621,31.738,20.508,-526.855
1532511538.859,33.203,41.016,24.414,57.617,-194.824
1532511538.863,37.598,42.969,17.578,21.973,-198.242
1532511538.867,23.438,41.016,19.043,-48.828,-437.988
1532511538.870,39.062,38.574,25.391,21.484,-387.695
1532511538.874,58.594,35.645,25.391,52.734,-454.590
1532511538.878,59.570,35.645,20.996,-3.418,-112.305
1532511538.882,34.668,35.645,19.043,2.441,269.043
1532511538.886,33.203,33.203,25.391,27.344,203.125
1532511538.890,26.855,30.273,23.926,19.531,-93.750
1532511538.894,30.273,22.949,21.973,12.207,-515.137
1532511538.898,48.828,33.691,27.832,38.086,255.859
1532511538.902,32.227,43.457,23.438,21.973,764.648
1532511538.906,15.625,39.062,16.602,12.695,-224.609
1532511538.909,36.133,36.133,22.461,44.434,-507.812
1532511538.913,43.945,33.203,27.344,11.719,-512.207
1532511538.917,46.875,34.668,29.297,2.930,-40.039
1532511538.921,59.570,38.574,26.367,55.664,75.684
1532511538.925,46.387,37.109,23.438,15.625,-448.242
1532511538.929,20.508,29.785,28.809,-8.301,-43.945
1532511538.933,12.695,24.902,30.273,49.805,-97.168
1532511538.937,50.781,23.926,30.273,72.754,103.516
1532511538.941,73.730,24.902,32.715,-1.465,863.281
1532511538.945,28.809,37.598,28.809,-27.344,61.035
1532511538.949,14.648,40.527,27.832,14.648,-463.867
1532511538.952,36.621,36.133,26.367,45.898,-544.922
1532511538.956,36.133,33.203,27.832,33.691,-201.660
1532511538.960,51.758,33.203,27.832,-3.418,158.691
1532511538.964,41.992,31.738,27.344,17.090,-339.355
1532511538.968,42.480,28.320,31.250,46.875,-440.430
1532511538.972,52.734,24.414,33.203,32.227,-298.340
1532511538.976,18.066,20.508,35.645,14.160,139.648
1532511538.980,13.672,23.438,33.691,23.926,844.727
1532511538.984,41.016,28.809,33.203,24.902,315.918
1532511538.988,42.480,27.344,38.086,39.551,-521.973
1532511538.992,45.410,22.949,37.598,25.879,-573.242
1532511538.995,51.758,30.273,32.227,9.766,-445.801
1532511538.999,13.672,37.598,30.762,36.133,-30.762
1532511539.003,8.301,32.715,38.086,22.949,-262.207
1532511539.007,24.902,26.367,38.574,-5.859,-488.770
1532511539.011,26.855,30.762,34.668,33.203,-415.527
1532511539.015,28.320,35.156,33.691,8.789,-388.184
1532511539.019,40.039,36.621,33.691,6.348,-20.020
1532511539.023,37.109,31.250,32.227,41.016,207.031
1532511539.027,25.391,26.855,25.391,12.695,14.648
1532511539.031,15.625,26.855,29.297,16.113,-225.586
1532511539.034,33.691,27.832,31.738,13.672,-458.496
1532511539.038,29.297,27.344,33.691,24.902,298.340
1532511539.042,3.418,34.668,36.133,38.086,491.211
1532511539.046,32.227,35.645,36.621,29.297,-366.699
1532511539.050,44.922,34.668,38.574,9.277,-376.465
1532511539.054,36.621,42.480,30.762,4.395,-500.977
1532511539.058,38.086,41.992,30.762,2.441,143.066
1532511539.062,17.090,40.039,36.133,11.230,303.711
1532511539.066,16.602,39.551,34.668,19.531,-377.930
1532511539.070,20.020,36.621,31.738,16.113,65.430
1532511539.074,26.855,35.156,31.738,32.227,-57.129
1532511539.077,65.918,41.016,30.762,34.180,192.383
1532511539.081,29.297,33.203,27.344,-1.953,938.965
1532511539.085,-5.859,24.414,34.180,-20.508,56.641
1532511539.089,3.906,25.391,37.598,5.371,-515.137
1532511539.093,3.418,24.902,32.715,3.418,-583.008
1532511539.097,32.715,29.297,29.297,3.906,-92.285
1532511539.101,38.086,35.645,29.785,18.555,132.324
1532511539.105,8.789,39.062,34.180,16.602,-455.078
1532511539.109,2.441,41.016,33.691,5.859,-442.871
1532511539.113,7.812,39.062,35.645,4.395,-487.305
1532511539.117,21.484,38.086,34.668,31.250,101.074
1532511539.120,28.809,38.574,30.762,16.602,913.574
1532511539.124,22.949,39.551,31.250,-10.254,109.863
1532511539.128,14.648,35.156,37.598,-9.277,-509.277
1532511539.132,7.812,40.039,32.715,-5.859,-539.062
1532511539.136,25.391,43.457,28.809,40.039,-280.762
1532511539.140,29.297,33.203,36.133,17.090,66.406
1532511539.144,23.926,28.320,40.039,35.156,-365.234
1532511539.148,41.992,22.949,38.086,74.707,-433.594
1532511539.152,16.602,22.461,33.203,-3.906,-422.363
1532511539.156,6.348,32.227,30.273,-19.043,-316.895
1532511539.159,25.879,22.949,35.645,25.879,66.895
1532511539.163,35.645,19.043,41.504,27.832,205.566
1532511539.167,41.504,31.250,41.016,53.711,176.758
1532511539.171,27.344,32.227,38.574,44.922,-207.031
1532511539.175,27.832,27.344,38.086,-3.418,-483.887
1532511539.179,31.738,27.344,39.062,8.301,446.777
1532511539.183,32.715,30.273,35.156,22.949,679.199
1532511539.187,42.969,27.344,32.227,45.898,-311.523
1532511539.191,31.250,22.461,29.785,23.438,-519.531
1532511539.195,-1.465,19.043,29.297,9.766,-496.094
1532511539.199,-10.254,17.578,34.668,8.789,-109.375
1532511539.202,23.926,20.020,37.109,36.621,-129.883
1532511539.206,30.273,20.996,36.133,45.898,-458.008
1532511539.210,17.090,22.949,33.691,-5.859,-68.359
1532511539.214,21.973,26.367,33.691,8.301,-126.953
1532511539.218,29.785,33.203,31.738,29.297,336.914
1532511539.222,36.133,30.762,23.438,2.930,689.941
1532511539.226,29.785,25.879,28.320,-1.465,-281.250
1532511539.230,19.043,27.832,37.109,26.367,-496.094
1532511539.234,24.902,31.738,36.133,43.457,-517.090
1532511539.238,35.156,30.273,37.598,41.504,-136.719
1532511539.242,23.926,26.855,37.598,0.977,-60.059
1532511539.245,20.508,26.855,34.180,-0.488,-443.848
1532511539.249,26.367,29.785,35.156,10.254,-362.305
1532511539.253,37.109,31.250,35.645,22.461,-500.488
1532511539.257,61.035,32.715,27.344,34.668,208.496
1532511539.261,58.594,32.715,29.297,35.645,863.281
1532511539.265,32.715,31.250,40.039,57.617,-42.480
1532511539.269,28.320,33.203,40.527,38.086,-478.027
1532511539.273,37.598,34.668,40.039,20.020,-585.449
1532511539.277,43.945,27.832,43.945,46.875,-145.020
1532511539.281,67.383,27.832,41.016,32.227,179.688
1532511539.284,49.805,33.691,38.574,8.301,-379.883
1532511539.288,19.531,40.527,42.480,23.926,-416.504
1532511539.292,38.086,41.016,41.016,54.688,-487.305
1532511539.296,45.410,33.203,41.504,22.949,-129.883
1532511539.300,27.344,33.691,41.504,-1.465,244.629
1532511539.304,25.391,35.156,41.016,25.391,118.164
1532511539.308,38.086,36.621,43.945,5.859,77.637
1532511539.312,39.062,34.180,43.457,49.805,-312.500
1532511539.316,46.875,35.156,38.574,38.086,-286.133
1532511539.320,64.941,38.086,37.109,-15.137,694.824
1532511539.324,43.945,35.156,40.039,16.113,425.293
1532511539.327,12.695,35.156,43.457,14.160,-450.684
1532511539.331,33.203,34.668,51.758,33.691,-449.707
1532511539.335,45.410,30.273,47.363,46.387,-404.785
1532511539.339,29.297,29.297,38.086,8.301,-53.711
1532511539.343,37.109,28.320,39.551,17.090,-222.168
1532511539.347,39.551,38.086,39.062,32.227,-431.641
1532511539.351,39.551,47.363,36.621,14.648,-42.480
1532511539.355,41.504,45.410,40.527,43.945,-146.973
1532511539.359,19.043,43.945,35.645,7.324,384.766
1532511539.363,31.250,39.551,32.227,-28.320,643.555
1532511539.366,35.645,36.621,44.434,12.695,-312.012
1532511539.370,9.766,39.551,43.457,21.973,-501.465
1532511539.374,12.207,38.086,38.574,41.016,-539.551
1532511539.378,33.691,33.691,41.992,49.805,-173.340
1532511539.382,35.645,37.598,40.039,11.230,-102.051
1532511539.386,34.180,39.062,38.574,11.230,-425.293
1532511539.390,27.832,33.203,41.016,5.859,-426.758
1532511539.394,20.996,26.367,43.945,17.090,-352.539
1532511539.398,29.297,29.297,40.039,15.137,485.352
1532511539.402,26.855,31.738,46.387,14.648,750.488
1532511539.406,33.691,29.297,49.805,22.461,-236.816
1532511539.409,37.109,24.902,44.434,26.367,-523.926
1532511539.413,21.484,21.973,46.875,22.949,-537.109
1532511539.417,6.836,31.250,45.410,37.109,-95.703
1532511539.421,20.508,35.645,42.480,56.641,28.320
1532511539.425,25.391,29.785,44.922,26.367,-458.008
1532511539.429,40.039,31.250,53.223,26.367,-392.578
1532511539.433,49.805,39.062,46.875,1.953,-454.590
1532511539.437,32.227,39.551,42.969,-0.488,-11.230
1532511539.441,41.992,37.109,49.316,28.320,218.262
1532511539.445,15.137,32.715,47.852,66.406,-7.812
1532511539.449,24.902,30.273,47.363,54.688,101.562
1532511539.452,64.453,34.180,42.480,-4.395,-346.680
1532511539.456,27.832,32.715,36.621,0.977,-114.258
1532511539.460,50.293,37.109,29.297,20.996,862.793
1532511539.464,77.637,37.598,25.391,30.273,261.230
1532511539.468,83.008,35.645,24.414,27.344,-444.336
1532511539.472,43.945,36.621,24.414,10.742,-503.906
1532511539.476,15.625,37.109,29.785,13.184,-298.828
1532511539.480,34.668,32.227,28.809,8.789,121.582
1532511539.484,29.785,28.320,24.414,18.555,-256.348
1532511539.488,51.758,35.645,27.832,32.715,-445.801
1532511539.491,34.180,34.180,31.738,36.133,-62.500
1532511539.495,1.953,34.180,28.809,69.824,0.977
1532511539.499,24.902,40.527,20.996,19.531,597.168
1532511539.503,27.832,36.621,24.414,13.672,503.418
1532511539.507,14.160,38.574,24.902,61.523,-461.914
1532511539.511,31.250,42.969,18.555,28.809,-507.324
1532511539.515,10.742,40.527,19.531,-10.742,-457.520
1532511539.519,-11.230,35.645,27.344,-0.488,-94.238
1532511539.523,9.277,31.738,30.273,29.297,-184.082
1532511539.527,22.461,35.156,27.344,36.133,-451.172
1532511539.531,28.320,39.551,24.902,14.648,-379.395
1532511539.534,40.527,37.109,27.344,28.320,-426.270
1532511539.538,34.668,32.227,32.227,69.336,185.059
1532511539.542,18.555,36.621,23.438,11.719,312.988
1532511539.546,-1.953,37.109,20.996,-28.320,-277.832
1532511539.550,1.465,39.062,20.508,-4.883,-266.113
1532511539.554,18.066,41.504,20.508,11.230,-448.730
1532511539.558,33.691,41.992,24.902,29.297,262.695
1532511539.562,58.105,40.039,27.344,14.160,670.410
1532511539.566,12.207,38.086,31.738,21.484,-252.930
1532511539.570,-0.488,41.504,29.297,36.621,-420.898
1532511539.574,23.438,42.480,27.832,36.133,-477.539
1532511539.577,26.367,41.992,27.832,32.227,-48.828
1532511539.581,47.363,39.551,27.344,20.996,98.633
1532511539.585,30.273,35.645,27.832,23.438,-76.172
1532511539.589,16.113,38.574,25.391,6.836,28.320
1532511539.593,31.738,43.457,22.949,18.555,-427.734
1532511539.597,39.062,36.621,22.461,46.387,80.078
1532511539.601,28.809,31.250,25.391,32.715,854.492
1532511539.605,31.250,35.156,28.320,-3.906,163.574
1532511539.609,35.156,40.039,24.414,-6.836,-300.293
1532511539.613,20.020,43.457,22.949,15.137,-525.391
1532511539.616,22.949,44.434,24.902,31.738,-120.117
1532511539.620,37.598,45.410,27.832,32.715,184.570
1532511539.624,28.320,42.480,31.250,46.387,-408.691
1532511539.628,15.137,37.598,25.879,22.949,-423.340
1532511539.632,37.598,37.598,21.484,-17.578,-76.172
1532511539.636,49.805,36.621,27.344,22.949,225.098
1532511539.640,50.293,38.574,30.762,48.340,804.688
1532511539.644,12.207,42.480,29.785,6.348,289.062
1532511539.648,13.184,45.898,26.367,-5.859,-479.004
1532511539.652,51.270,52.734,17.578,15.137,-512.207
1532511539.656,38.574,51.270,20.020,20.508,-448.242
1532511539.659,26.367,37.598,28.320,14.648,-53.223
1532511539.663,36.621,33.203,29.785,47.852,-261.230
1532511539.667,33.691,38.086,30.273,49.316,-438.477
1532511539.671,67.383,42.480,23.926,-0.977,-423.828
1532511539.675,63.477,43.945,23.926,28.809,-475.586
1532511539.679,16.602,41.504,29.785,53.711,219.238
1532511539.683,15.625,37.598,27.344,17.090,296.875
1532511539.687,22.461,44.434,24.414,2.441,-340.332
1532511539.691,26.367,48.340,25.391,4.395,-367.188
1532511539.695,59.570,46.875,24.414,14.160,-477.051
1532511539.698,60.059,48.340,22.949,11.230,327.148
1532511539.702,34.668,45.410,26.855,14.648,546.875
1532511539.706,23.926,39.551,33.203,57.617,-391.113
1532511539.710,26.855,38.086,28.809,32.715,-452.637
1532511539.714,30.762,37.109,30.273,-17.090,-423.340
1532511539.718,18.555,35.645,35.156,5.371,-56.641
1532511539.722,34.180,39.062,27.832,21.973,-62.500
1532511539.726,39.551,39.551,31.250,33.691,-120.605
1532511539.730,41.992,34.668,37.109,53.223,67.871
1532511539.734,47.363,38.086,34.180,42.969,-392.578
1532511539.738,36.133,47.852,31.250,12.695,207.520
1532511539.741,43.945,52.734,29.785,32.227,798.340
1532511539.745,53.711,45.898,36.133,61.523,-141.602
1532511539.749,11.719,37.598,41.016,3.418,-460.449
1532511539.753,3.418,41.504,34.180,-5.371,-523.926
1532511539.757,44.922,34.668,31.250,36.621,-97.168
1532511539.761,41.992,34.180,33.691,34.180,126.465
1532511539.765,33.203,44.434,39.062,33.691,-387.695
1532511539.769,14.160,45.410,41.992,29.297,-369.141
1532511539.773,15.625,46.875,37.109,27.832,-123.047
1532511539.777,39.551,45.410,35.156,38.086,375.488
1532511539.781,41.992,43.945,32.227,-3.418,872.559
1532511539.784,25.391,40.527,32.715,-5.371,125.000
1532511539.788,19.531,38.574,37.109,47.363,-502.441
1532511539.792,44.434,41.016,37.598,57.617,-577.637
1532511539.796,62.988,44.922,30.273,22.461,-244.141
1532511539.800,60.547,44.922,33.691,2.930,149.414
1532511539.804,19.043,38.086,41.504,11.719,-355.469
1532511539.808,3.906,29.297,40.039,18.555,-466.797
1532511539.812,31.250,24.902,41.504,34.180,-470.703
1532511539.816,30.762,31.738,41.504,44.434,-171.875
1532511539.820,28.809,39.551,34.180,23.926,521.973
1532511539.823,28.809,40.527,29.297,36.621,132.812
1532511539.827,16.113,41.016,26.855,35.645,-361.816
1532511539.831,41.016,35.645,29.785,9.766,-348.145
1532511539.835,38.086,32.227,36.621,14.160,-412.109
1532511539.839,18.555,35.645,35.156,11.230,438.965
1532511539.843,14.160,38.574,34.668,0.977,410.156
1532511539.847,30.762,37.109,38.086,27.832,-426.270
1532511539.851,36.133,32.715,43.945,84.473,-418.945
1532511539.855,-11.719,33.691,41.992,32.227,-457.031
1532511539.859,10.254,35.645,34.668,-19.043,-100.098
1532511539.863,26.367,34.668,35.156,19.531,-105.469
1532511539.866,9.277,35.645,36.621,25.879,-101.074
1532511539.870,59.570,37.109,38.086,45.410,87.891
1532511539.874,44.434,39.551,38.086,30.273,-392.578
1532511539.878,-15.625,41.504,34.180,38.086,263.672
1532511539.882,8.789,36.621,36.133,43.945,730.957
1532511539.886,21.973,33.203,33.203,-9.766,-268.066
1532511539.890,18.555,35.645,33.203,8.789,-518.555
1532511539.894,14.160,39.551,36.621,25.391,-537.109
1532511539.898,24.414,38.086,32.715,2.930,-113.770
1532511539.902,46.875,36.621,32.227,3.906,-12.207
1532511539.906,40.527,38.086,31.250,86.426,-474.609
1532511539.909,23.926,37.598,34.180,55.176,-399.414
1532511539.913,8.789,35.645,30.762,-51.270,-142.578
1532511539.917,8.301,32.227,26.367,-9.766,515.137
1532511539.921,25.391,34.180,30.762,30.273,628.418
1532511539.925,24.414,33.203,30.273,35.645,-294.922
1532511539.929,31.738,33.691,24.902,59.082,-448.730
1532511539.933,30.273,36.621,24.902,32.227,-563.477
1532511539.937,31.250,31.738,27.832,-0.977,11.230
1532511539.941,26.855,32.715,23.438,10.742,527.832
1532511539.945,20.020,37.109,23.438,14.160,-309.082
1532511539.948,20.996,35.156,29.297,48.340,-423.340
1532511539.952,22.461,39.551,26.367,17.090,-477.539
1532511539.956,53.711,38.574,21.484,-21.484,-174.805
1532511539.960,37.598,27.344,24.414,33.691,494.141
1532511539.964,20.508,32.715,27.832,48.340,111.816
1532511539.968,27.832,36.133,29.297,30.273,-277.344
1532511539.972,24.902,32.227,32.227,39.062,-418.457
1532511539.976,22.949,32.715,31.250,35.156,-304.688
1532511539.980,20.020,23.926,27.344,12.695,705.078
1532511539.984,28.809,24.414,23.438,-20.020,426.758
1532511539.988,30.762,28.809,26.367,15.137,-457.520
1532511539.991,44.922,24.902,29.297,29.785,-503.906
1532511539.995,39.062,24.414,28.809,24.414,-399.414
1532511539.999,-0.977,25.391,33.203,42.480,-8.789
1532511540.003,0.000,25.391,34.668,43.457,-204.590
1532511540.007,9.766,29.297,34.180,29.297,-140.625
1532511540.011,19.531,33.203,33.691,35.156,15.137
1532511540.015,37.598,30.273,27.344,13.672,-412.109
1532511540.019,46.387,24.414,27.344,15.625,394.531
1532511540.023,20.996,18.555,37.598,28.320,590.332
1532511540.027,11.719,18.555,35.156,1.465,-229.980
1532511540.031,7.324,21.973,32.227,19.531,-281.250
1532511540.034,7.812,24.414,36.133,52.246,-486.328
1532511540.038,30.273,27.344,34.180,17.090,-171.875
1532511540.042,26.855,21.973,35.645,-8.301,-146.973
1532511540.046,12.695,19.531,36.133,39.551,-460.449
1532511540.050,14.160,24.414,30.762,43.457,-366.699
1532511540.054,34.668,26.367,25.879,-3.418,-225.586
1532511540.058,34.180,26.855,25.391,15.625,494.629
1532511540.062,50.293,28.809,24.902,11.719,728.027
1532511540.066,24.414,20.020,26.855,20.020,-206.543
1532511540.070,-10.742,15.625,27.832,46.387,-497.070
1532511540.073,27.832,23.438,22.949,-5.859,-558.594
1532511540.077,21.484,20.508,23.926,-11.230,-108.398
1532511540.081,1.953,19.531,23.926,3.906,61.035
1532511540.085,13.672,22.949,20.996,0.488,-422.363
1532511540.089,13.672,22.461,25.391,4.883,-409.668
1532511540.093,31.250,22.461,24.902,0.977,-514.160
1532511540.097,21.484,19.043,25.879,43.945,-13.184
1532511540.101,20.508,20.508,26.855,39.551,555.664
1532511540.105,46.875,30.273,23.438,-14.648,-1.465
1532511540.109,14.160,31.250,25.879,-11.230,-297.852
1532511540.113,-2.930,27.832,24.902,4.395,-418.945
1532511540.116,16.113,23.926,25.391,25.391,-13.672
1532511540.120,24.414,20.996,24.902,8.789,884.766
1532511540.124,33.691,27.832,22.461,11.230,199.707
1532511540.128,27.344,23.438,24.902,20.020,-449.219
1532511540.132,5.371,20.996,23.438,42.480,-467.773
1532511540.136,5.371,22.949,23.438,0.488,-221.680
1532511540.140,-3.906,19.043,27.344,-41.504,150.879
1532511540.144,16.113,19.531,28.320,14.160,-270.020
1532511540.148,30.762,22.949,27.832,34.668,-71.289
1532511540.152,-3.418,26.367,25.879,15.625,19.043
1532511540.155,5.859,25.391,22.949,7.324,-331.055
1532511540.159,18.555,25.391,22.461,13.672,579.590
1532511540.163,7.812,25.391,26.367,20.020,517.090
1532511540.167,11.230,22.461,24.902,37.109,-438.477
1532511540.171,-10.742,20.508,19.043,14.648,-515.137
1532511540.175,-8.789,19.531,20.020,-6.836,-479.980
1532511540.179,2.441,21.484,20.020,12.695,-90.820
1532511540.183,0.488,24.414,20.996,20.996,-167.480
1532511540.187,3.418,29.785,18.555,2.930,-445.312
1532511540.191,-2.930,28.809,19.043,26.855,-410.156
1532511540.195,7.812,23.438,20.996,65.430,-110.840
1532511540.198,5.371,25.879,16.113,-4.395,677.734
1532511540.202,22.949,25.879,21.484,-17.578,619.629
1532511540.206,17.578,23.438,25.391,33.691,-351.562
1532511540.210,0.488,25.391,20.996,16.602,-538.574
1532511540.214,-8.301,25.391,21.973,-1.465,-506.348
1532511540.218,-0.977,28.809,18.066,44.922,-130.371
1532511540.222,8.789,27.832,17.578,51.270,-104.004
1532511540.226,11.719,20.996,22.949,-19.043,-475.098
1532511540.230,10.254,22.949,24.414,-14.160,-398.438
1532511540.234,17.090,28.809,22.461,-2.441,-434.082
1532511540.238,15.137,28.809,20.996,-11.719,-63.477
1532511540.241,-4.883,23.926,18.555,7.812,442.383
1532511540.245,3.418,24.902,22.461,19.531,158.691
1532511540.249,-1.465,28.320,24.902,13.672,-204.102
1532511540.253,-7.324,29.785,18.066,11.719,-487.793
1532511540.257,-0.488,22.949,18.555,11.719,89.355
1532511540.261,0.977,17.090,24.414,41.992,860.840
1532511540.265,52.734,22.461,19.531,4.883,12.207
1532511540.269,52.734,30.273,17.090,-34.180,-458.008
1532511540.273,13.184,32.227,22.461,-11.719,-537.109
1532511540.277,37.109,26.855,24.414,6.348,-100.098
1532511540.280,46.387,26.855,23.926,27.832,223.145
1532511540.284,35.156,27.344,21.484,29.297,-366.211
1532511540.288,27.344,23.438,19.043,46.875,-93.262
1532511540.292,61.523,27.832,18.555,44.434,-88.867
1532511540.296,59.570,29.297,21.484,-12.207,-153.809
1532511540.300,-3.418,30.762,26.855,-10.742,794.434
1532511540.304,0.000,31.738,25.879,29.297,292.480
1532511540.308,10.742,25.391,24.902,38.086,-540.039
1532511540.312,2.930,26.367,30.762,31.250,-540.527
1532511540.316,30.762,26.855,31.250,51.758,-365.723
1532511540.320,26.855,23.926,26.367,56.641,18.555
1532511540.323,9.766,26.855,24.902,16.602,-296.875
1532511540.327,21.973,27.832,29.297,-0.977,-478.027
1532511540.331,25.391,28.809,29.785,2.441,-415.039
1532511540.335,42.969,26.367,31.738,22.949,-55.664
1532511540.339,47.852,25.879,32.227,40.527,546.875
1532511540.343,25.391,26.855,28.809,41.992,84.961
1532511540.347,19.531,25.391,32.227,17.578,-439.941
1532511540.351,45.410,26.367,34.180,16.602,-366.699
1532511540.355,49.805,21.973,32.715,12.207,-516.113
1532511540.359,18.555,25.391,31.738,6.348,239.746
1532511540.363,21.973,32.715,32.715,20.508,361.816
1532511540.366,38.574,24.902,33.203,13.184,-416.016
1532511540.370,21.484,22.949,32.227,9.277,-425.781
1532511540.374,32.227,26.855,33.203,12.207,-490.723
1532511540.378,39.551,20.020,35.645,21.973,-118.652
1532511540.382,33.691,15.625,36.133,31.250,283.203
1532511540.386,29.297,19.043,30.273,-7.812,114.258
1532511540.390,14.160,19.043,26.367,0.000,-174.316
1532511540.394,20.996,19.043,27.344,9.766,-526.855
1532511540.398,24.414,15.137,29.297,15.625,219.727
1532511540.402,32.227,12.695,28.320,57.129,776.855
1532511540.405,44.922,20.508,20.996,8.301,-204.590
1532511540.409,60.547,22.949,18.066,-26.367,-506.836
1532511540.413,69.336,19.043,17.090,12.695,-517.578
1532511540.417,32.715,20.508,16.113,24.414,-51.270
1532511540.421,10.254,23.438,14.160,15.625,82.031
1532511540.425,21.973,21.484,8.301,31.738,-470.703
1532511540.429,28.320,18.555,9.766,35.156,13.184
1532511540.433,51.270,21.973,14.648,13.672,-50.293
1532511540.437,54.688,20.508,12.695,-15.137,49.805
1532511540.441,9.766,19.531,13.184,21.973,890.137
1532511540.445,16.602,28.320,10.254,38.574,48.828
1532511540.448,37.109,30.273,7.324,-13.672,-346.191
1532511540.452,35.645,26.367,13.184,7.812,-362.305
1532511540.456,19.043,25.391,12.695,19.531,-251.465
1532511540.460,8.301,26.367,14.648,33.691,122.070
1532511540.464,25.879,31.250,11.719,6.348,-361.328
1532511540.468,25.879,29.785,10.742,-6.836,-441.895
1532511540.472,24.414,28.320,15.625,17.090,-454.590
1532511540.476,24.902,35.156,14.648,1.953,-133.301
1532511540.480,34.180,37.109,15.137,0.000,795.410
1532511540.484,30.273,37.109,13.672,4.883,373.047
1532511540.488,33.691,30.273,21.973,24.902,-510.254
1532511540.491,52.734,25.879,29.297,39.551,-564.941
1532511540.495,18.066,34.668,20.508,24.414,-475.586
1532511540.499,-3.418,36.133,19.531,10.742,-72.266
1532511540.503,27.344,35.156,22.461,14.648,-251.953
1532511540.507,47.363,37.598,20.508,13.672,-502.441
1532511540.511,37.598,36.133,27.832,41.016,-436.035
1532511540.515,37.109,34.668,27.832,6.348,-413.574
1532511540.519,41.016,36.133,21.484,-18.066,-65.430
1532511540.523,21.973,34.668,26.367,47.363,196.289
1532511540.527,23.438,36.133,24.414,21.484,64.941
1532511540.530,39.551,34.668,21.973,-0.977,-162.598
1532511540.534,32.227,32.227,25.879,19.531,-472.656
1532511540.538,9.277,31.738,24.902,0.488,290.039
1532511540.542,13.184,30.762,29.785,0.488,698.730
1532511540.546,44.922,36.133,30.762,33.203,-275.879
1532511540.550,28.320,31.250,31.250,25.879,-465.332
1532511540.554,3.906,25.879,32.227,48.340,-513.184
1532511540.558,11.719,34.668,27.344,33.691,-145.508
1532511540.562,25.879,43.457,20.020,-39.551,-41.504
1532511540.566,39.551,39.062,24.414,11.719,-407.715
1532511540.570,40.527,34.668,27.344,7.812,1.953
1532511540.573,14.648,32.227,26.367,19.531,6.348
1532511540.577,-14.648,28.320,30.762,81.055,300.293
1532511540.581,20.020,29.785,26.855,26.855,801.758
1532511540.585,34.180,29.785,27.344,-27.344,-97.168
1532511540.589,23.438,28.320,27.832,6.348,-520.508
1532511540.593,28.320,32.715,23.438,31.738,-586.914
1532511540.597,22.461,30.273,30.762,7.812,-117.676
1532511540.601,8.789,29.297,30.273,6.348,142.578
1532511540.605,18.066,33.203,21.973,15.137,-441.406
1532511540.609,20.996,34.180,24.414,27.344,-452.148
1532511540.612,6.836,31.738,25.391,5.859,-514.160
1532511540.616,-9.277,27.832,19.531,-6.348,142.578
1532511540.620,12.207,33.203,21.973,34.668,543.457
1532511540.624,28.809,37.598,24.902,36.133,-283.691
1532511540.628,14.648,37.598,23.926,-6.836,-415.039
1532511540.632,23.438,31.250,25.879,38.086,-433.594
1532511540.636,31.738,31.738,27.832,78.613,-246.582
1532511540.640,30.273,36.133,20.020,1.465,648.438
1532511540.644,28.320,34.180,25.391,-14.648,200.684
1532511540.648,25.391,31.250,34.180,16.113,-446.289
1532511540.652,27.344,29.785,29.297,22.461,-431.152
1532511540.655,26.855,31.250,23.926,32.227,-416.504
1532511540.659,22.949,28.320,20.996,32.715,72.266
1532511540.663,33.691,25.879,26.367,17.578,215.820
1532511540.667,42.969,27.832,26.855,16.602,40.527
1532511540.671,37.598,25.879,28.809,70.312,-229.004
1532511540.675,38.086,20.020,27.832,49.316,-505.859
1532511540.679,16.602,25.391,20.020,-39.551,407.715
1532511540.683,11.719,37.109,21.973,-13.672,627.441
1532511540.687,36.621,36.621,21.484,17.578,-385.742
1532511540.691,43.457,33.203,21.484,14.648,-520.020
1532511540.695,26.855,31.738,21.973,30.762,-515.625
1532511540.698,0.000,30.273,25.879,64.941,-151.855
1532511540.702,52.246,33.203,20.996,29.297,-152.344
1532511540.706,66.895,32.715,13.672,-21.484,-474.609
1532511540.710,14.160,28.320,19.531,-0.488,-41.016
1532511540.714,27.344,27.832,22.949,32.715,-105.469
1532511540.718,32.715,28.320,18.555,14.648,268.066
1532511540.722,21.973,27.344,12.695,31.250,404.297
1532511540.726,47.363,24.414,13.672,20.508,-421.875
1532511540.730,51.270,26.367,18.066,-5.859,-376.465
1532511540.734,7.812,23.926,20.020,25.879,-512.207
1532511540.737,-10.254,19.043,17.578,9.766,187.012
1532511540.741,18.555,26.367,13.672,0.488,597.168
1532511540.745,28.809,31.738,13.184,14.160,-315.430
1532511540.749,45.898,31.250,18.066,-17.578,-408.691
1532511540.753,41.504,34.668,17.090,46.387,-490.723
1532511540.757,28.809,35.156,15.625,81.543,167.969
1532511540.761,27.832,32.715,17.578,-26.367,877.930
1532511540.765,1.953,31.250,23.438,-29.785,-15.625
1532511540.769,3.906,33.203,26.367,14.160,-489.258
1532511540.773,15.625,31.738,26.855,39.062,-592.773
1532511540.777,12.695,33.203,23.438,27.832,-196.289
1532511540.780,20.508,34.180,19.043,3.418,157.715
1532511540.784,47.363,36.133,23.926,4.883,-387.695
1532511540.788,8.789,35.645,30.762,26.855,-441.406
1532511540.792,-10.742,31.250,29.785,31.738,-491.699
1532511540.796,3.418,32.715,23.438,20.508,-187.988
1532511540.800,-2.930,30.762,23.926,-12.695,191.406
1532511540.804,16.113,27.344,29.297,-6.348,127.441
1532511540.808,30.762,31.738,28.809,35.156,63.477
1532511540.812,25.391,38.574,28.320,19.531,-328.613
1532511540.816,39.062,35.645,31.250,23.926,-355.469
1532511540.820,36.133,31.250,27.832,9.766,636.230
1532511540.823,14.648,36.621,20.508,-19.043,469.238
1532511540.827,26.855,39.062,27.344,22.461,-450.684
1532511540.831,26.855,33.203,30.762,22.461,-458.496
1532511540.835,11.719,32.227,29.785,15.137,-425.781
1532511540.839,-0.488,31.738,30.273,20.996,-78.125
1532511540.843,1.465,30.762,31.738,1.953,-208.008
1532511540.847,22.949,33.203,30.273,9.766,-436.035
1532511540.851,26.855,29.297,32.227,55.176,-33.203
1532511540.855,7.324,29.297,34.180,71.777,-135.742
1532511540.859,31.738,32.227,30.273,24.414,369.629
1532511540.862,43.945,28.320,29.297,8.789,662.109
1532511540.866,18.555,31.738,25.391,-6.348,-349.121
1532511540.870,10.742,34.668,24.902,-6.836,-345.215
1532511540.874,17.578,27.832,27.344,20.996,-330.566
1532511540.878,27.344,28.809,28.809,32.227,-178.223
1532511540.882,33.203,33.691,36.133,27.832,-112.305
1532511540.886,36.133,34.180,35.156,20.020,-456.543
1532511540.890,41.016,33.691,33.691,26.855,-429.688
1532511540.894,18.066,30.762,32.227,16.602,-534.180
1532511540.898,3.418,30.273,24.902,13.672,301.758
1532511540.902,28.809,30.273,30.273,35.645,787.109
1532511540.905,26.367,33.203,26.855,13.672,-225.098
1532511540.909,31.250,33.691,23.926,-18.555,-522.461
1532511540.913,18.555,30.273,30.273,24.902,-538.574
1532511540.917,15.137,33.691,29.297,62.012,-83.008
1532511540.921,33.203,35.645,27.832,23.926,69.336
1532511540.925,27.832,34.668,25.879,-16.602,-457.031
1532511540.929,20.996,29.297,25.879,20.508,-388.184
1532511540.933,16.602,30.273,24.414,20.508,-456.543
1532511540.937,29.297,26.367,20.020,2.930,-27.344
1532511540.941,45.898,17.578,23.926,16.602,231.934
1532511540.945,16.113,20.996,27.832,36.621,61.523
1532511540.948,-5.859,18.555,33.203,41.992,142.090
1532511540.952,-0.488,20.996,30.762,-9.277,-343.750
1532511540.956,-2.930,30.273,27.832,-18.066,-127.441
1532511540.960,28.809,31.250,28.320,-2.930,845.703
1532511540.964,40.039,25.391,25.391,0.977,292.480
1532511540.968,0.977,17.090,33.691,28.809,-452.637
1532511540.972,2.441,18.066,28.320,40.039,-513.184
1532511540.976,22.461,23.438,18.555,11.719,-342.285
1532511540.980,27.344,23.926,22.949,-13.184,98.145
1532511540.984,41.992,23.926,27.344,13.672,-230.957
1532511540.987,53.711,24.414,30.762,18.555,-439.941
1532511540.991,33.203,21.484,33.691,62.012,-74.219
1532511540.995,21.484,20.508,30.762,69.336,91.797
1532511540.999,29.297,27.344,19.531,-16.113,682.617
1532511541.003,24.902,19.043,19.531,-49.805,515.625
1532511541.007,17.578,11.719,32.715,20.996,-437.500
1532511541.011,19.531,22.949,37.598,43.457,-517.578
1532511541.015,30.762,30.273,25.879,-1.465,-486.328
1532511541.019,35.645,28.320,24.902,19.531,-139.160
1532511541.023,56.152,27.832,27.344,31.250,-205.566
1532511541.027,53.223,28.809,20.020,12.207,-464.355
1532511541.030,32.227,28.320,20.020,20.508,-389.648
1532511541.034,33.691,28.320,27.832,21.973,-449.219
1532511541.038,19.531,30.273,28.809,6.348,235.352
1532511541.042,28.320,29.297,25.879,7.812,391.602
1532511541.046,46.387,30.762,27.832,57.129,-312.012
1532511541.050,28.320,37.109,29.297,41.992,-329.102
1532511541.054,27.832,34.668,26.855,-36.621,-496.582
1532511541.058,40.039,32.227,25.391,-17.578,236.816
1532511541.062,44.922,36.621,22.461,3.418,687.500
1532511541.066,69.336,39.062,24.414,3.418,-245.117
1532511541.069,67.871,31.250,33.691,6.836,-441.895
1532511541.073,31.250,28.320,32.715,22.949,-503.418
1532511541.077,28.809,32.715,29.785,54.688,-83.984
1532511541.081,42.969,34.668,33.691,12.695,222.168
1532511541.085,34.668,36.621,36.133,15.137,81.543
1532511541.089,53.223,35.156,35.645,41.992,256.348
1532511541.093,43.457,37.598,30.762,-1.465,-255.859
1532511541.097,-6.836,33.203,31.250,4.883,10.254
1532511541.101,-1.953,29.297,37.109,18.066,896.484
1532511541.105,15.625,29.297,38.086,47.363,47.363
1532511541.109,18.066,27.344,35.156,49.316,-526.855
1532511541.112,20.508,28.809,32.227,42.969,-562.012
1532511541.116,39.062,26.855,31.738,60.547,-172.852
1532511541.120,36.133,24.902,34.180,34.668,172.852
1532511541.124,13.184,24.414,35.156,-2.930,-394.531
1532511541.128,19.043,24.414,32.715,-0.977,-431.641
1532511541.132,44.922,25.391,29.297,20.020,-124.023
1532511541.136,50.293,31.738,28.809,16.113,103.516
1532511541.140,39.062,35.645,34.180,55.176,764.648
1532511541.144,40.039,32.715,37.109,27.832,333.496
1532511541.148,34.668,32.715,34.668,-17.578,-489.258
1532511541.152,22.461,31.250,36.133,21.484,-516.113
1532511541.155,18.066,28.320,35.156,37.109,-469.238
1532511541.159,25.879,25.391,28.809,16.113,-86.914
1532511541.163,31.738,28.320,28.320,51.270,-266.113
1532511541.167,47.363,27.344,33.203,41.504,-459.473
1532511541.171,42.969,25.391,26.367,-4.395,-427.734
1532511541.175,30.762,28.809,25.391,30.273,-464.844
1532511541.179,17.578,26.855,29.785,8.789,113.281
1532511541.183,13.672,24.414,28.809,1.953,207.520
1532511541.187,20.508,22.949,29.297,32.227,-313.965
1532511541.191,41.016,22.949,31.738,31.250,-357.422
1532511541.194,55.176,27.344,33.691,53.711,-475.098
1532511541.198,15.625,32.715,32.715,33.691,300.781
1532511541.202,15.137,29.297,28.809,-9.766,502.930
1532511541.206,39.551,26.855,28.809,13.184,-375.488
1532511541.210,31.738,29.297,29.785,33.691,-394.531
1532511541.214,17.090,30.762,26.367,28.320,-465.332
1532511541.218,16.602,30.273,24.902,7.812,215.820
1532511541.222,19.531,27.832,29.297,5.371,352.539
1532511541.226,27.832,21.973,30.273,6.836,-8.789
1532511541.230,49.805,23.926,28.320,-6.348,118.164
1532511541.234,33.203,32.227,27.832,11.719,-438.965
1532511541.237,9.766,34.668,29.297,21.484,161.133
1532511541.241,27.344,34.180,31.250,13.672,808.105
1532511541.245,39.062,31.738,33.203,37.598,-140.625
1532511541.249,31.738,32.227,34.668,50.781,-490.723
1532511541.253,35.156,35.156,32.227,36.621,-564.453
1532511541.257,33.203,36.621,29.785,25.879,-143.066
1532511541.261,43.457,36.621,24.902,1.953,126.465
1532511541.265,45.898,37.598,29.297,28.809,-403.320
1532511541.269,15.625,33.203,35.645,20.508,-399.902
1532511541.273,14.648,32.715,28.809,11.230,-125.000
1532511541.277,20.020,34.180,22.461,4.395,347.168
1532511541.280,22.461,35.156,22.461,-29.297,876.465
1532511541.284,54.199,31.250,22.949,8.789,173.340
1532511541.288,53.223,23.926,21.973,31.250,-534.180
1532511541.292,36.133,28.809,20.508,33.691,-482.422
1532511541.296,34.180,32.227,17.090,28.320,-161.133
1532511541.300,27.344,28.320,19.531,26.367,108.398
1532511541.304,51.758,33.203,19.043,18.555,-353.516
1532511541.308,37.598,39.551,17.090,-14.160,-473.145
1532511541.312,2.441,37.109,20.020,14.160,-440.918
1532511541.316,26.855,36.133,24.902,19.043,-339.355
1532511541.319,38.574,30.762,32.715,44.434,264.160
1532511541.323,16.113,29.297,29.785,34.180,120.605
1532511541.327,15.625,31.738,22.461,-14.160,-334.961
1532511541.331,29.785,36.621,20.996,-4.883,-327.637
1532511541.335,29.785,38.086,24.414,8.301,-426.270
1532511541.339,13.672,27.832,29.785,-1.465,452.148
1532511541.343,26.855,27.832,27.344,-5.371,603.027
1532511541.347,38.574,32.715,29.785,51.758,-372.559
1532511541.351,15.137,29.785,35.645,62.012,-463.379
1532511541.355,9.277,28.809,29.297,-15.625,-488.770
1532511541.359,40.527,28.320,23.438,-20.996,-154.297
1532511541.362,35.645,33.203,23.926,9.766,-140.625
1532511541.366,1.953,33.203,25.391,20.508,-60.547
1532511541.370,6.836,23.926,30.762,40.527,50.293
1532511541.374,20.996,25.879,29.785,27.832,-446.289
1532511541.378,16.113,29.785,26.855,23.438,130.371
1532511541.382,31.250,27.832,29.785,30.273,270.996
1532511541.386,41.992,27.344,36.133,35.645,-398.926
1532511541.390,12.207,24.414,35.156,14.160,-360.840
1532511541.394,9.277,23.438,28.809,-6.348,-514.160
1532511541.398,18.066,23.438,25.391,6.836,205.078
1532511541.401,34.668,20.508,26.855,13.672,798.340
1532511541.405,42.480,21.973,34.180,18.555,-176.270
1532511541.409,29.785,32.227,26.855,16.602,-490.723
1532511541.413,15.625,32.715,21.973,39.551,-220.215
1532511541.417,8.789,25.879,30.762,41.016,409.668
1532511541.421,27.344,24.414,31.738,-17.578,806.152
1532511541.425,20.508,30.762,26.855,12.207,-106.934
1532511541.429,14.160,34.668,20.508,26.855,-562.500
1532511541.433,33.691,34.180,19.043,-5.371,-609.863
1532511541.437,29.785,34.180,25.879,17.090,-185.059
1532511541.441,17.578,35.645,25.391,10.742,93.262
1532511541.444,19.531,36.621,24.902,50.293,-466.797
1532511541.448,35.645,32.227,29.785,25.879,-441.406
1532511541.452,19.043,27.344,36.621,9.766,-501.465
1532511541.456,0.977,24.902,32.715,30.762,-233.887
1532511541.460,9.766,24.414,22.949,-25.391,441.406
1532511541.464,21.484,30.762,24.414,-10.742,116.699
1532511541.468,20.996,35.645,25.879,23.438,-295.898
1532511541.472,34.668,32.227,22.461,23.438,-437.012
1532511541.476,58.105,30.273,26.855,42.480,-375.977
1532511541.480,15.625,27.344,34.180,41.016,650.391
1532511541.484,-9.766,23.438,29.785,10.254,454.590
1532511541.487,19.043,26.367,29.297,21.973,-462.891
1532511541.491,50.293,33.691,30.273,5.859,-520.996
1532511541.495,44.434,34.668,32.227,-21.484,-434.570
1532511541.499,2.930,31.738,35.645,20.996,-58.105
1532511541.503,19.043,25.879,35.156,32.227,-72.754
1532511541.507,26.855,24.414,35.645,41.016,-9.277
1532511541.511,35.645,31.250,37.109,31.250,-3.906
1532511541.515,64.941,39.062,35.156,-4.395,-433.105
1532511541.519,38.574,30.762,36.621,39.551,349.121
1532511541.523,-2.441,24.414,33.203,32.715,561.035
1532511541.526,10.254,30.273,29.785,10.254,-432.617
1532511541.530,31.738,33.203,34.668,12.207,-486.816
1532511541.534,29.785,33.691,30.762,3.418,-519.531
1532511541.538,48.340,31.738,25.879,22.949,-18.066
1532511541.542,33.691,30.273,32.227,36.621,40.039
1532511541.546,6.348,29.785,32.227,24.902,-458.984
1532511541.550,13.184,29.785,25.391,4.883,-377.441
1532511541.554,14.648,34.180,26.367,1.465,-174.316
1532511541.558,15.625,32.715,29.297,20.508,557.129
1532511541.562,24.902,28.809,23.926,28.809,735.840
1532511541.566,11.719,33.203,20.996,40.527,-204.590
1532511541.569,15.625,32.715,22.461,17.090,-519.531
1532511541.573,36.133,33.691,21.973,-22.461,-590.332
1532511541.577,33.691,36.621,21.973,-0.977,-125.977
1532511541.581,17.090,30.273,24.414,17.578,57.129
1532511541.585,-11.230,25.391,22.949,23.926,-441.406
1532511541.589,20.508,29.297,16.602,36.133,-420.898
1532511541.593,25.879,33.203,15.625,32.227,-532.227
1532511541.597,5.371,29.785,15.625,22.461,-40.039
1532511541.601,21.484,22.949,17.090,10.254,553.223
1532511541.605,15.137,17.090,22.949,9.766,-8.789
1532511541.609,14.648,19.043,20.508,18.555,-320.801
1532511541.612,21.973,30.273,17.090,-16.113,-435.059
1532511541.616,34.668,30.762,25.879,48.340,-83.008
1532511541.620,36.133,24.414,28.809,74.219,857.422
1532511541.624,22.949,21.973,23.438,-21.484,239.258
1532511541.628,29.785,22.949,22.461,-15.625,-458.008
1532511541.632,33.203,22.949,22.461,17.578,-473.633
1532511541.636,23.438,21.973,27.832,21.973,-268.066
1532511541.640,27.344,18.555,30.762,62.500,88.867
1532511541.644,21.484,17.578,22.949,48.828,-313.965
1532511541.648,20.996,17.090,21.973,3.906,-66.406
1532511541.651,49.805,17.090,23.926,24.414,34.668
1532511541.655,25.391,18.555,19.043,-4.883,-424.805
1532511541.659,27.344,18.066,25.391,-11.719,511.719
1532511541.663,42.969,19.043,30.762,20.020,550.781
1532511541.667,27.344,16.113,27.832,24.414,-432.129
1532511541.671,20.020,24.414,23.438,0.977,-517.578
1532511541.675,18.066,29.785,25.879,-0.977,-509.277
1532511541.679,35.645,22.461,35.156,14.160,-126.465
1532511541.683,27.344,23.438,37.109,37.109,-163.086
1532511541.687,33.203,28.320,34.668,74.707,-464.355
1532511541.691,43.457,32.227,31.738,13.184,-409.180
1532511541.694,25.879,29.785,31.738,-34.180,-219.238
1532511541.698,31.738,26.367,32.227,-5.371,550.293
1532511541.702,25.391,25.879,32.227,17.578,643.066
1532511541.706,34.180,24.902,33.691,75.195,-328.613
1532511541.710,54.199,32.715,30.273,35.645,-546.387
1532511541.714,36.133,41.992,26.367,-35.156,-403.809
1532511541.718,22.461,35.645,31.738,-3.906,0.488
1532511541.722,25.879,34.668,36.621,21.484,-95.215
1532511541.726,31.250,39.062,32.715,19.043,-487.793
1532511541.730,44.434,38.574,22.949,20.020,-417.480
1532511541.734,44.922,37.109,20.020,25.879,-468.750
1532511541.737,27.344,32.715,24.414,14.160,-47.852
1532511541.741,35.156,30.273,28.809,5.371,392.090
1532511541.745,18.555,34.668,27.832,60.059,-8.789
1532511541.749,-8.301,37.109,23.438,22.461,-259.277
1532511541.753,33.203,34.668,20.020,-24.414,-469.238
1532511541.757,41.016,29.785,25.391,37.598,90.820
1532511541.761,61.035,28.320,30.762,46.875,479.980
1532511541.765,55.176,27.832,23.926,13.672,-267.578
1532511541.769,-19.531,30.273,24.902,22.949,-308.105
1532511541.773,-10.742,36.133,25.879,22.461,-444.824
1532511541.776,11.719,35.156,23.438,5.859,-16.602
1532511541.780,28.320,34.180,26.367,13.184,776.367
1532511541.784,52.734,37.598,29.297,31.738,41.504
1532511541.788,26.855,36.133,28.809,6.348,-83.496
1532511541.792,25.391,36.621,27.832,-12.207,-62.500
1532511541.796,41.992,34.180,31.250,21.973,-236.328
1532511541.800,20.020,24.902,30.273,17.090,751.465
1532511541.804,25.391,28.320,28.320,7.812,304.199
1532511541.808,19.043,37.109,28.320,7.812,-574.219
1532511541.812,18.555,41.016,28.809,44.434,-552.734
1532511541.816,34.668,43.457,27.832,53.711,-416.504
1532511541.819,48.340,44.922,24.902,-14.160,-32.715
1532511541.823,42.969,40.039,26.367,-3.418,-271.484
1532511541.827,17.578,35.156,29.785,34.180,-476.562
1532511541.831,21.484,36.133,33.691,11.719,-436.523
1532511541.835,49.805,39.062,29.785,-10.254,-61.035
1532511541.839,54.688,40.527,26.367,6.348,419.922
1532511541.843,61.523,40.527,26.855,42.480,-32.227
1532511541.847,67.383,39.551,26.855,-0.977,-420.410
1532511541.851,41.016,38.086,30.762,-10.742,-320.312
1532511541.855,21.484,30.273,29.785,37.598,-515.137
1532511541.858,31.250,30.762,30.273,8.301,275.879
1532511541.862,48.828,36.133,33.203,6.348,571.777
1532511541.866,34.668,38.086,33.203,25.391,-349.609
1532511541.870,21.484,35.645,36.621,60.059,-433.594
1532511541.874,17.578,32.227,39.062,57.617,-485.352
1532511541.878,22.949,33.691,36.133,-21.484,-117.676
1532511541.882,20.020,37.598,34.668,7.812,314.453
1532511541.886,10.254,40.039,35.156,39.551,125.000
1532511541.890,20.508,40.039,34.180,28.809,-187.012
1532511541.894,28.809,35.156,35.156,32.227,-538.574
1532511541.898,8.301,24.414,30.762,13.672,193.359
1532511541.901,18.066,31.738,26.367,6.348,796.875
1532511541.905,45.410,41.016,26.855,57.617,-163.086
1532511541.909,22.949,38.086,24.414,26.855,-520.508
1532511541.913,2.930,39.551,23.926,-24.414,-539.551
1532511541.917,22.949,35.156,26.367,30.273,-36.621
1532511541.921,37.109,33.691,22.949,20.020,92.773
1532511541.925,31.738,37.598,20.020,0.000,-294.922
1532511541.929,48.340,39.062,18.066,23.438,156.738
1532511541.933,62.500,40.039,20.020,27.832,-113.770
1532511541.937,21.484,33.691,21.484,52.734,-17.090
1532511541.941,19.531,29.785,26.367,43.457,869.629
1532511541.944,15.137,32.715,21.973,-12.207,109.375
1532511541.948,26.367,39.551,14.160,-7.812,-516.602
1532511541.952,39.551,43.945,18.066,16.602,-567.383
1532511541.956,45.898,39.062,18.066,13.672,-304.688
1532511541.960,44.922,39.062,16.602,24.902,92.773
1532511541.964,28.320,41.016,13.184,10.254,-350.586
1532511541.968,37.109,38.574,17.090,10.254,-456.543
1532511541.972,24.414,37.109,19.531,21.484,-461.426
1532511541.976,18.066,38.574,19.531,19.531,-112.793
1532511541.980,41.504,36.621,28.809,20.996,809.570
1532511541.983,31.738,32.715,27.832,22.949,395.508
1532511541.987,29.785,35.156,26.855,19.043,-500.488
1532511541.991,45.410,40.039,21.973,27.832,-559.082
1532511541.995,37.598,41.016,15.625,-8.301,-492.188
1532511541.999,20.996,38.086,20.996,-3.906,-77.637
1532511542.003,35.156,39.551,19.043,55.664,-226.562
1532511542.007,66.895,39.551,16.113,19.043,-502.441
1532511542.011,44.922,34.180,24.902,14.648,-427.246
1532511542.015,19.531,34.668,23.926,60.547,-410.645
1532511542.019,28.320,41.992,20.020,37.109,-76.172
1532511542.023,42.480,45.410,20.020,0.000,198.730
1532511542.026,29.297,42.969,15.137,11.230,-14.160
1532511542.030,52.734,41.504,21.484,51.758,-250.488
1532511542.034,67.383,36.621,21.973,25.879,-469.238
1532511542.038,13.184,36.133,18.066,-10.742,287.109
1532511542.042,18.555,34.668,24.414,23.438,713.867
1532511542.046,35.645,25.879,18.555,36.621,-251.953
1532511542.050,45.898,23.438,17.578,-4.883,-460.449
1532511542.054,38.086,28.320,23.926,-8.789,-500.488
1532511542.058,34.180,26.855,21.973,31.738,-101.074
1532511542.062,49.316,25.391,21.973,38.086,-1.465
1532511542.066,28.320,27.832,23.438,-3.418,-415.527
1532511542.069,26.367,28.320,24.414,-16.113,9.766
1532511542.073,26.855,27.832,24.902,5.859,110.352
1532511542.077,34.668,24.902,27.344,51.758,352.539
1532511542.081,40.527,25.879,23.926,13.672,805.176
1532511542.085,32.227,29.785,16.602,-13.672,-61.523
1532511542.089,6.836,22.461,20.996,4.395,-527.344
1532511542.093,33.691,19.531,29.297,5.859,-589.355
1532511542.097,41.992,23.438,31.250,21.973,-123.535
1532511542.101,8.301,18.555,25.879,9.766,161.133
1532511542.105,7.324,20.020,21.484,32.715,-422.852
1532511542.108,26.367,31.250,21.973,0.977,-450.684
1532511542.112,48.828,27.344,26.367,-8.789,-454.590
1532511542.116,29.785,22.461,32.715,46.875,53.711
1532511542.120,9.277,29.785,31.250,35.645,939.941
1532511542.124,8.301,33.691,21.973,-1.465,277.832
1532511542.128,32.227,36.133,20.996,-4.395,-486.816
1532511542.132,38.086,40.039,24.902,33.203,-539.062
1532511542.136,56.641,39.062,28.320,29.297,-256.836
1532511542.140,46.387,35.645,30.273,22.461,339.844
1532511542.144,2.441,35.645,30.273,4.883,-159.180
1532511542.148,22.949,33.691,33.203,24.902,-500.488
1532511542.151,41.992,33.203,28.809,32.715,-461.914
1532511542.155,51.758,36.133,28.320,17.578,-454.102
1532511542.159,52.734,41.992,31.738,18.066,-75.684
1532511542.163,21.484,44.434,25.391,12.207,198.730
1532511542.167,7.812,39.062,28.809,19.531,47.363
1532511542.171,20.508,38.086,35.645,24.902,-327.637
1532511542.175,36.133,39.062,36.133,41.016,-543.457
1532511542.179,30.762,36.621,28.320,9.766,364.258
1532511542.183,32.227,36.621,23.438,-13.672,639.648
1532511542.187,35.645,37.598,26.367,15.137,-386.230
1532511542.191,25.879,37.109,32.715,19.043,-550.781
1532511542.194,30.273,42.969,32.227,17.090,-537.598
1532511542.198,41.016,43.457,31.738,22.949,-147.949
1532511542.202,42.480,35.156,36.133,35.156,-124.512
1532511542.206,26.855,30.273,33.691,34.180,-476.562
1532511542.210,19.043,33.691,33.691,37.109,-93.262
1532511542.214,32.227,37.598,35.645,44.922,-90.820
1532511542.218,45.898,37.598,33.691,-1.465,361.816
1532511542.222,16.602,37.109,32.715,-22.949,726.074
1532511542.226,15.625,40.039,30.273,6.836,-247.070
1532511542.230,28.809,42.480,25.391,14.648,-525.879
1532511542.233,49.805,39.551,26.855,34.180,-543.945
1532511542.237,35.645,36.621,26.855,57.129,-115.234
1532511542.241,15.137,36.133,32.715,55.176,1.953
1532511542.245,18.555,43.945,31.738,-15.625,-461.426
1532511542.249,19.531,47.363,23.438,-28.809,-374.023
1532511542.253,24.902,38.086,29.785,17.578,-485.352
1532511542.257,8.789,31.738,31.250,12.207,161.621
1532511542.261,31.738,32.227,25.391,13.672,895.996
1532511542.265,41.016,38.574,25.879,12.207,17.090
1532511542.269,35.645,35.645,26.367,20.996,-497.070
1532511542.273,14.648,33.691,22.461,47.363,-611.816
1532511542.276,2.441,36.621,27.344,24.902,-214.355
1532511542.280,16.113,38.574,31.738,-10.254,177.246
1532511542.284,13.672,40.527,29.297,-13.184,-363.770
1532511542.288,44.922,42.969,27.832,3.906,-437.500
1532511542.292,46.875,38.574,29.297,34.668,-499.023
1532511542.296,17.578,33.691,38.574,88.379,-211.914
1532511542.300,14.648,36.133,31.250,26.367,187.500
1532511542.304,23.438,34.180,20.996,-40.527,104.492
1532511542.308,55.664,33.203,27.832,10.254,28.320
1532511542.312,35.645,35.645,31.250,29.785,-319.824
1532511542.315,1.465,29.785,26.855,26.367,-385.254
1532511542.319,35.645,33.691,26.367,16.602,600.098
1532511542.323,46.875,43.457,25.879,8.301,490.723
1532511542.327,28.809,44.434,26.855,22.461,-461.426
1532511542.331,51.758,38.086,39.062,63.477,-466.797
1532511542.335,32.715,35.645,34.180,27.344,-436.523
1532511542.339,11.719,37.109,28.320,-16.113,-76.172
1532511542.343,32.227,41.016,33.691,17.090,-210.938
1532511542.347,34.180,44.922,31.250,41.992,-291.016
1532511542.351,47.852,40.039,27.832,17.578,178.223
1532511542.355,55.664,38.574,26.855,28.320,-132.324
1532511542.358,34.180,41.992,33.203,31.738,322.266
1532511542.362,9.766,40.527,39.062,9.766,671.387
1532511542.366,22.949,38.574,35.156,14.160,-310.059
1532511542.370,37.598,35.645,38.086,39.062,-540.527
1532511542.374,28.320,33.203,38.574,34.668,-586.914
1532511542.378,36.621,36.621,30.762,4.883,-192.871
1532511542.382,57.617,41.016,28.809,25.391,-98.145
1532511542.386,55.176,39.551,31.738,24.902,-459.961
1532511542.390,28.320,38.086,36.621,25.391,-432.129
1532511542.394,13.672,39.062,36.133,34.180,-548.340
1532511542.398,32.715,39.551,30.273,20.020,275.879
1532511542.401,34.180,37.598,31.250,6.836,807.129
1532511542.405,57.617,41.504,32.227,32.715,-194.336
1532511542.409,74.219,41.504,38.086,54.688,-536.621
1532511542.413,3.906,36.133,41.504,15.625,-577.148
1532511542.417,4.395,34.668,35.645,-12.695,-82.520
1532511542.421,24.902,37.109,35.645,0.977,111.328
1532511542.425,24.414,35.156,37.598,39.062,-475.586
1532511542.429,40.527,27.832,36.621,70.801,-422.852
1532511542.433,46.875,31.738,34.180,1.953,-477.051
1532511542.437,30.273,35.156,34.668,-8.789,-56.152
1532511542.440,27.344,33.691,35.156,22.461,221.191
1532511542.444,38.574,33.203,33.203,60.059,62.988
1532511542.448,38.086,33.203,35.645,64.453,129.395
1532511542.452,26.855,35.645,36.133,7.812,-359.863
1532511542.456,34.668,40.039,35.645,7.324,-215.820
1532511542.460,79.102,40.039,32.227,8.789,798.340
1532511542.464,37.598,37.598,33.691,12.207,330.566
1532511542.468,10.254,36.133,38.574,12.207,-459.961
1532511542.472,33.203,34.180,38.574,35.645,-520.020
1532511542.476,22.461,31.250,35.645,31.738,-394.043
1532511542.480,42.480,28.320,32.715,11.719,47.363
1532511542.483,56.641,31.250,35.156,40.527,-230.469
1532511542.487,51.758,39.062,32.715,30.273,-463.379
1532511542.491,45.898,38.574,35.156,14.648,-59.570
1532511542.495,25.879,37.109,35.645,23.926,-54.688
1532511542.499,0.488,41.992,31.250,24.902,511.719
1532511542.503,38.574,43.945,33.203,15.625,556.641
1532511542.507,49.805,38.086,34.180,10.254,-446.289
1532511542.511,27.832,28.320,40.527,43.457,-531.738
1532511542.515,47.363,25.879,45.898,67.871,-494.141
1532511542.519,44.434,30.762,41.504,15.625,-151.367
1532511542.523,46.387,33.691,33.691,-2.930,-199.219
1532511542.526,62.500,24.414,34.180,16.602,-474.609
1532511542.530,35.645,25.391,38.574,28.809,-381.348
1532511542.534,18.555,30.273,41.504,40.039,-496.094
1532511542.538,23.438,24.414,43.945,28.809,340.332
1532511542.542,24.902,24.902,42.480,-2.441,621.582
1532511542.546,41.992,25.879,42.969,18.555,-340.332
1532511542.550,66.895,28.809,40.527,37.598,-427.734
1532511542.554,53.711,30.273,39.062,55.664,-532.715
1532511542.558,16.602,26.855,41.992,53.223,58.105
1532511542.562,-0.488,23.438,43.945,-3.906,241.699
1532511542.565,39.551,20.996,43.945,18.555,-384.277
1532511542.569,53.711,22.949,46.387,44.434,-374.512
1532511542.573,21.484,23.926,47.363,29.297,-483.398
1532511542.577,31.738,23.926,44.434,27.832,-4.395
1532511542.581,25.391,24.902,43.945,31.250,202.148
1532511542.585,40.039,23.438,43.945,54.688,-7.324
1532511542.589,42.969,28.809,46.387,17.090,82.031
1532511542.593,17.090,37.109,46.387,-20.020,-381.348
1532511542.597,34.668,42.480,46.875,8.789,37.109
1532511542.601,32.715,39.551,50.293,7.812,908.203
1532511542.605,8.301,35.156,44.434,21.973,108.398
1532511542.608,32.227,38.086,41.992,29.785,-474.121
1532511542.612,48.340,39.551,44.922,66.895,-507.324
1532511542.616,44.922,39.551,43.945,55.176,-154.785
1532511542.620,29.297,37.109,37.598,-21.484,208.496
1532511542.624,23.438,38.086,40.039,-13.672,-324.707
1532511542.628,33.691,42.480,46.875,28.320,-397.461
1532511542.632,34.180,37.598,48.340,54.688,-39.062
1532511542.636,44.434,36.133,45.410,22.949,263.672
1532511542.640,52.734,44.434,41.504,-9.766,819.824
1532511542.644,44.434,47.363,46.387,25.879,378.418
1532511542.648,51.758,46.875,43.945,39.062,-448.242
1532511542.651,50.293,47.852,36.133,13.184,-495.605
1532511542.655,55.176,46.875,41.992,-13.672,-463.379
1532511542.659,74.219,46.387,43.945,-21.973,-80.566
1532511542.663,62.988,44.922,45.410,23.438,-225.098
1532511542.667,46.387,41.504,47.363,43.457,-437.012
1532511542.671,20.020,39.062,46.875,28.320,-404.785
1532511542.675,14.160,40.039,47.363,17.578,-493.164
1532511542.679,30.762,41.504,44.922,34.180,250.000
1532511542.683,50.293,46.875,41.992,35.156,417.969
1532511542.687,48.340,42.480,43.457,43.945,-315.918
1532511542.690,31.738,39.062,44.922,40.527,-399.414
1532511542.694,5.371,44.922,42.480,45.898,-501.953
1532511542.698,20.020,41.992,41.016,48.340,266.113
1532511542.702,40.039,42.969,38.086,12.695,451.172
1532511542.706,44.434,45.410,38.574,4.883,-404.297
1532511542.710,41.504,39.551,46.387,21.973,-422.852
1532511542.714,22.949,40.039,47.363,57.129,-429.199
1532511542.718,35.156,48.828,39.551,45.410,-30.273
1532511542.722,49.805,48.340,38.086,-4.883,-6.836
1532511542.726,50.293,44.922,41.016,12.207,-65.918
1532511542.730,28.320,41.016,42.480,36.621,235.352
1532511542.733,28.809,36.621,44.922,29.297,-286.621
1532511542.737,29.297,39.551,42.969,9.277,152.832
1532511542.741,27.344,41.992,42.969,30.762,830.566
1532511542.745,55.664,41.504,44.434,62.012,-83.984
1532511542.749,47.852,41.016,39.551,12.695,-456.055
1532511542.753,20.020,39.551,39.062,-20.996,-525.391
1532511542.757,26.367,38.086,40.527,8.301,-92.773
1532511542.761,44.922,39.551,40.039,31.250,185.547
1532511542.765,36.621,35.156,43.945,27.832,-401.855
1532511542.769,30.273,32.715,45.898,-0.488,-267.090
1532511542.772,66.406,37.598,41.016,11.230,-3.906
1532511542.776,50.293,38.574,44.922,63.965,272.949
1532511542.780,25.879,38.574,48.828,31.250,871.094
1532511542.784,44.922,40.039,42.969,-5.859,221.680
1532511542.788,29.297,40.039,40.039,9.277,-512.695
1532511542.792,26.855,39.062,39.551,21.484,-581.543
1532511542.796,16.113,37.598,42.480,6.836,-322.754
1532511542.800,24.414,36.621,43.457,24.414,89.844
1532511542.804,33.691,36.133,41.504,55.176,-332.520
1532511542.808,24.902,34.180,45.410,-6.836,-490.234
1532511542.812,20.996,32.715,40.039,-13.184,-429.688
1532511542.815,34.668,35.645,35.156,25.879,-368.652
1532511542.819,47.363,37.109,41.504,50.781,324.219
1532511542.823,20.996,37.598,37.109,6.348,137.695
1532511542.827,17.578,36.133,39.551,-27.832,-401.367
1532511542.831,35.156,34.180,45.898,6.836,-302.734
1532511542.835,50.781,29.785,44.922,42.969,-416.504
1532511542.839,44.922,20.996,45.410,37.598,395.508
1532511542.843,28.809,23.438,42.480,23.438,477.051
1532511542.847,38.086,32.715,37.109,18.066,-393.066
1532511542.851,33.691,30.762,38.086,8.789,-404.297
1532511542.855,30.273,26.855,40.527,20.996,-445.312
1532511542.858,45.898,26.855,37.109,26.855,-123.047
1532511542.862,49.316,20.996,41.504,62.500,-100.098
1532511542.866,38.574,16.602,50.293,43.945,-40.039
1532511542.870,28.320,24.902,42.480,-19.043,80.078
1532511542.874,31.250,26.855,34.180,-9.766,-452.148
1532511542.878,34.180,20.996,35.645,0.000,250.977
1532511542.882,40.039,19.043,40.527,20.020,762.207
1532511542.886,46.875,17.578,42.480,37.109,-222.168
1532511542.890,51.270,19.043,40.039,26.855,-517.578
1532511542.894,60.059,17.578,36.133,9.277,-539.551
1532511542.897,22.461,14.648,37.598,-1.465,-76.172
1532511542.901,19.531,13.672,41.992,11.230,56.152
1532511542.905,25.879,15.625,42.480,48.828,-448.730
1532511542.909,12.207,15.625,38.574,46.387,-389.648
1532511542.913,35.645,18.555,31.250,4.883,-179.199
1532511542.917,29.785,19.531,27.344,11.719,417.969
1532511542.921,37.109,13.184,33.691,6.348,844.238
1532511542.925,50.781,16.602,36.133,-8.789,-28.320
1532511542.929,1.953,15.137,38.574,18.555,-496.094
