timestamps,TP9,AF7,AF8,TP10,Right AUX
1532510681.868,41.504,34.668,52.246,23.926,140.137
1532510681.872,41.504,36.133,54.688,24.414,96.191
1532510681.876,18.555,37.598,50.781,13.184,-39.062
1532510681.880,21.973,30.273,51.270,21.973,11.719
1532510681.884,46.875,31.738,48.340,50.781,167.969
1532510681.887,28.809,38.574,41.504,24.414,112.793
1532510681.891,2.441,36.621,42.480,-20.996,-56.152
1532510681.895,10.742,34.180,43.457,0.977,-158.691
1532510681.899,27.832,33.691,41.504,2.930,-50.781
1532510681.903,27.832,36.621,40.039,0.977,132.812
1532510681.907,17.578,37.109,39.551,19.043,53.711
1532510681.911,20.996,39.062,38.086,30.762,-18.555
1532510681.915,30.273,41.016,38.086,31.250,36.133
1532510681.919,42.969,40.039,36.621,4.395,141.113
1532510681.923,36.133,36.621,38.086,-23.438,123.047
1532510681.927,21.484,32.715,40.527,-5.371,2.441
1532510681.930,11.230,34.180,39.062,33.203,37.598
1532510681.934,22.949,36.133,40.527,25.879,101.074
1532510681.938,23.926,37.109,41.504,-10.254,41.992
1532510681.942,19.531,35.156,37.598,-2.441,-34.180
1532510681.946,30.762,34.180,39.062,22.949,-15.137
1532510681.950,33.203,35.645,41.504,21.973,163.086
1532510681.954,12.207,33.203,41.992,-5.859,131.836
1532510681.958,2.930,34.180,39.551,-10.742,-87.891
1532510681.962,17.090,30.762,40.527,16.602,-41.016
1532510681.966,34.668,32.227,40.527,14.648,116.211
1532510681.970,47.852,37.109,40.039,1.465,191.895
1532510681.973,23.926,33.691,41.992,14.160,61.523
1532510681.977,16.602,29.297,41.504,12.207,-31.250
1532510681.981,19.531,29.297,42.969,-4.395,22.461
1532510681.985,16.113,34.180,40.527,0.977,76.172
1532510681.989,37.109,37.598,37.109,10.742,75.684
1532510681.993,41.504,38.574,41.504,35.156,-34.180
1532510681.997,40.039,37.598,45.898,21.484,-105.469
1532510682.001,35.156,34.668,39.062,-5.859,44.434
1532510682.005,41.992,32.227,37.109,20.996,121.582
1532510682.009,41.992,31.250,44.922,27.832,30.762
1532510682.012,29.785,30.762,46.387,21.973,-21.973
1532510682.016,27.344,30.273,43.457,26.855,75.684
1532510682.020,29.785,26.367,43.945,22.949,169.434
1532510682.024,25.879,23.438,44.434,12.695,49.805
1532510682.028,29.297,25.391,44.922,0.977,-56.152
1532510682.032,36.621,27.832,46.387,20.020,25.879
1532510682.036,28.320,30.273,46.875,22.461,51.758
1532510682.040,23.926,31.738,42.969,-1.953,-8.789
1532510682.044,21.484,29.785,43.457,3.418,-7.324
1532510682.048,50.781,28.809,45.410,15.137,54.199
1532510682.052,56.152,28.809,44.434,23.438,165.527
1532510682.055,26.855,28.320,41.504,7.324,83.984
1532510682.059,34.180,29.297,39.062,-2.441,-20.508
1532510682.063,23.926,28.320,40.039,16.113,6.836
1532510682.067,18.066,23.438,42.969,22.461,124.023
1532510682.071,36.133,23.438,43.945,3.418,167.480
1532510682.075,31.250,27.344,39.551,2.441,0.977
1532510682.079,27.832,27.832,37.598,12.207,-76.172
1532510682.083,20.508,25.391,41.992,7.324,64.941
1532510682.087,17.090,28.809,42.969,7.324,145.020
1532510682.091,39.062,28.809,40.039,9.277,62.012
1532510682.095,43.945,29.297,40.527,11.230,-94.238
1532510682.098,19.531,30.762,41.504,-10.742,-69.336
1532510682.102,12.695,29.297,39.551,0.488,136.719
1532510682.106,32.227,30.762,37.598,21.484,85.938
1532510682.110,22.461,31.250,37.598,-14.160,-19.531
1532510682.114,15.137,31.738,40.527,-5.859,16.113
1532510682.118,27.344,32.227,37.109,-0.977,150.391
1532510682.122,15.625,30.273,37.109,29.785,102.051
1532510682.126,31.738,30.273,42.969,32.227,-70.801
1532510682.130,33.691,30.762,37.109,-25.879,-26.367
1532510682.134,25.879,31.738,35.156,-7.324,70.312
1532510682.137,50.293,33.203,40.039,22.461,8.301
1532510682.141,41.504,33.203,40.039,3.418,-56.641
1532510682.145,10.254,29.297,41.016,12.207,-19.043
1532510682.149,16.113,27.832,41.504,35.156,117.676
1532510682.153,31.738,32.715,35.645,-7.812,149.414
1532510682.157,37.109,38.574,35.156,-11.230,13.184
1532510682.161,45.410,40.527,38.574,18.555,-37.109
1532510682.165,29.297,35.645,36.621,18.066,53.711
1532510682.169,28.320,31.738,38.574,24.902,131.348
1532510682.173,43.945,32.227,39.551,12.207,50.781
1532510682.177,22.461,33.691,36.133,-4.395,-131.836
1532510682.180,18.066,28.809,37.109,21.973,-43.945
1532510682.184,27.344,25.879,39.062,20.020,180.176
1532510682.188,42.480,29.785,40.039,26.855,146.484
1532510682.192,55.664,31.738,39.551,39.551,13.672
1532510682.196,28.320,34.180,34.668,2.930,-30.762
1532510682.200,21.973,32.715,34.668,-5.371,124.512
1532510682.204,36.621,30.273,39.551,3.418,149.902
1532510682.208,42.969,30.273,39.551,15.625,21.973
1532510682.212,25.879,27.832,35.156,25.879,13.184
1532510682.216,17.090,26.855,34.180,5.371,48.828
1532510682.219,41.992,26.367,36.621,17.578,84.961
1532510682.223,24.902,24.414,41.016,36.621,22.949
1532510682.227,0.488,24.902,36.133,0.000,-27.832
1532510682.231,24.414,27.344,32.227,-12.695,66.406
1532510682.235,31.738,29.297,38.574,2.930,69.336
1532510682.239,20.996,29.785,36.133,8.301,24.414
1532510682.243,26.855,29.297,28.809,6.348,1.465
1532510682.247,28.320,30.273,26.855,12.207,24.902
1532510682.251,51.758,30.762,24.902,30.273,153.809
1532510682.255,55.176,33.203,24.902,19.043,53.223
1532510682.259,14.648,30.273,28.320,-3.418,-66.895
1532510682.262,23.926,24.902,29.785,12.207,-37.598
1532510682.266,30.762,26.855,27.344,21.484,18.555
1532510682.270,22.949,28.320,27.344,20.508,130.859
1532510682.274,41.016,34.668,23.438,13.184,-8.789
1532510682.278,26.855,36.621,21.484,-7.812,-95.215
1532510682.282,-6.348,26.855,29.785,0.000,91.309
1532510682.286,0.000,26.855,31.738,1.953,172.852
1532510682.290,12.207,30.273,29.785,15.137,91.309
1532510682.294,32.715,30.762,27.832,28.320,-59.570
1532510682.298,35.156,28.320,28.809,14.648,-55.176
1532510682.302,24.902,22.949,31.250,4.883,126.465
1532510682.305,31.250,31.250,29.297,6.836,106.934
1532510682.309,40.527,37.109,28.320,12.207,-39.062
1532510682.313,43.945,32.227,26.367,19.531,-83.984
1532510682.317,40.527,34.180,24.902,42.480,31.738
1532510682.321,15.137,33.203,26.855,4.395,117.676
1532510682.325,3.906,33.203,24.902,-26.855,19.531
1532510682.329,11.230,35.156,23.438,0.977,-4.395
1532510682.333,13.184,35.645,25.391,7.812,75.684
1532510682.337,38.086,36.621,27.344,9.277,82.520
1532510682.341,44.434,32.227,29.785,12.695,44.434
1532510682.344,31.250,29.785,31.250,48.340,-4.883
1532510682.348,19.043,30.762,31.738,38.086,79.590
1532510682.352,19.043,28.809,33.203,3.418,179.199
1532510682.356,25.879,30.762,32.227,13.672,12.207
1532510682.360,45.898,35.645,31.738,23.438,-94.727
1532510682.364,40.039,34.668,29.785,13.672,32.715
1532510682.368,19.043,33.203,26.855,15.625,154.785
1532510682.372,20.508,34.180,26.367,21.484,140.137
1532510682.376,26.367,33.691,28.809,26.855,-85.449
1532510682.380,33.691,30.273,30.273,32.715,-103.027
1532510682.384,18.066,26.855,30.273,6.836,132.812
1532510682.387,33.691,28.809,29.785,-2.441,179.199
1532510682.391,31.250,30.273,31.738,19.043,28.320
1532510682.395,8.789,29.297,30.273,7.812,-62.988
1532510682.399,19.531,31.738,26.855,24.902,66.406
1532510682.403,30.762,31.250,29.297,30.762,130.859
1532510682.407,26.855,28.809,25.391,-4.883,-0.488
1532510682.411,30.762,31.250,22.461,7.324,-9.766
1532510682.415,44.922,34.668,20.020,15.625,-5.859
1532510682.419,9.277,33.691,18.555,6.348,51.758
1532510682.423,-7.324,32.227,20.508,26.855,51.270
1532510682.427,14.160,33.203,15.625,4.883,-72.754
1532510682.430,32.227,28.809,17.090,-6.836,32.227
1532510682.434,26.855,28.320,21.973,13.672,137.207
1532510682.438,38.086,29.785,17.090,13.184,84.473
1532510682.442,54.199,31.738,16.113,26.855,-27.344
1532510682.446,26.855,35.156,19.531,20.020,-5.371
1532510682.450,22.461,32.715,15.625,3.418,93.262
1532510682.454,15.625,29.297,15.625,-5.859,25.879
1532510682.458,21.973,30.273,16.113,-0.488,-103.027
1532510682.462,44.434,32.715,9.277,-8.301,-17.090
1532510682.466,48.828,34.180,12.207,-4.883,136.230
1532510682.469,38.574,31.738,20.508,20.508,199.219
1532510682.473,26.855,31.738,18.555,19.531,81.543
1532510682.477,20.508,32.227,14.648,25.391,-57.129
1532510682.481,25.879,32.227,15.137,20.020,41.016
1532510682.485,43.945,31.738,18.555,6.836,136.230
1532510682.489,38.086,32.715,23.926,26.855,73.730
1532510682.493,40.527,37.109,24.414,22.461,-33.203
1532510682.497,27.344,38.086,21.973,3.418,-57.617
1532510682.501,13.184,34.668,24.414,13.672,34.180
1532510682.505,22.461,33.691,27.832,11.230,62.012
1532510682.509,20.996,36.621,26.367,11.230,-10.254
1532510682.512,40.039,37.598,21.973,39.551,11.719
1532510682.516,57.129,38.086,19.531,23.438,21.484
1532510682.520,38.574,36.621,18.066,-5.371,48.828
1532510682.524,22.461,34.180,20.020,21.973,34.668
1532510682.528,26.367,31.738,22.461,40.039,-15.137
1532510682.532,26.855,29.785,20.020,15.625,75.195
1532510682.536,41.016,32.227,20.020,9.766,140.137
1532510682.540,36.133,34.180,18.555,18.555,61.035
1532510682.544,22.461,32.227,19.531,25.879,-74.707
1532510682.548,34.668,30.762,21.973,24.902,-21.484
1532510682.552,31.738,28.320,24.902,13.672,154.297
1532510682.555,27.832,30.273,24.414,10.742,-29.297
1532510682.559,41.992,32.227,22.949,4.395,-193.359
1532510682.563,43.945,27.832,25.879,17.578,-7.324
1532510682.567,20.508,28.809,27.832,23.926,140.625
1532510682.571,29.785,31.250,28.809,-4.883,147.461
1532510682.575,40.039,30.762,33.203,11.230,1.465
1532510682.579,26.855,31.738,32.715,26.367,-30.273
1532510682.583,21.973,31.250,32.715,25.391,117.676
1532510682.587,30.273,31.250,34.180,13.184,153.320
1532510682.591,52.246,35.645,32.715,-4.395,28.320
1532510682.594,43.945,36.133,34.180,19.043,-142.578
1532510682.598,28.320,29.785,37.598,18.066,-72.266
1532510682.602,51.270,31.738,37.109,0.488,169.922
1532510682.606,41.992,34.668,35.156,19.043,86.914
1532510682.610,17.578,25.879,39.062,1.465,-30.273
1532510682.614,37.598,24.414,37.598,-15.625,24.902
1532510682.618,51.758,30.762,33.203,9.766,103.027
1532510682.622,47.852,31.250,32.227,21.973,88.867
1532510682.626,47.363,31.250,33.691,12.207,-11.230
1532510682.630,37.109,30.273,36.621,-2.441,13.184
1532510682.634,33.203,27.832,39.062,8.789,96.680
1532510682.637,30.762,29.297,41.016,45.410,48.340
1532510682.641,40.039,27.832,41.992,46.875,-55.176
1532510682.645,31.738,23.926,39.551,-2.930,-42.480
1532510682.649,32.715,22.949,41.992,39.551,125.977
1532510682.653,22.949,27.344,40.527,53.223,158.203
1532510682.657,-6.348,24.902,36.621,-6.348,-74.219
1532510682.661,12.207,23.438,35.645,-13.184,-102.539
1532510682.665,28.320,23.926,39.551,18.555,61.035
1532510682.669,27.832,23.926,36.621,17.578,166.016
1532510682.673,16.113,23.926,38.574,3.906,62.012
1532510682.676,16.602,21.484,41.992,8.301,-87.402
1532510682.680,38.086,24.902,37.109,17.090,33.203
1532510682.684,24.902,26.367,37.109,28.809,121.582
1532510682.688,5.371,21.484,41.016,10.254,48.828
1532510682.692,14.648,24.902,37.109,-0.977,-11.719
1532510682.696,25.391,29.297,32.227,-4.883,-120.117
1532510682.700,23.438,24.902,40.039,10.254,7.324
1532510682.704,45.410,26.855,41.016,19.043,143.555
1532510682.708,42.480,34.180,34.180,7.812,23.926
1532510682.712,13.184,33.691,34.668,6.348,2.441
1532510682.716,27.344,32.227,38.574,41.992,67.871
1532510682.719,30.762,33.203,37.109,27.832,142.578
1532510682.723,37.598,30.273,37.598,-15.137,44.922
1532510682.727,35.645,28.809,41.016,-13.672,-25.391
1532510682.731,20.020,34.180,38.574,39.062,69.824
1532510682.735,26.367,37.598,34.668,36.133,28.809
1532510682.739,33.691,36.621,33.691,-28.809,-18.555
1532510682.743,32.227,29.297,40.527,-10.254,-13.672
1532510682.747,20.020,28.320,41.504,15.625,14.160
1532510682.751,10.254,34.180,36.621,32.227,157.715
1532510682.755,48.828,37.109,37.598,27.832,134.766
1532510682.759,52.734,37.109,36.621,3.906,0.977
1532510682.762,20.020,36.621,33.691,11.719,8.301
1532510682.766,24.902,38.086,35.156,27.832,119.141
1532510682.770,47.852,40.039,32.715,33.691,152.832
1532510682.774,54.688,38.574,34.668,55.664,18.555
1532510682.778,42.969,35.645,40.527,12.207,-87.402
1532510682.782,36.621,33.691,38.574,-25.879,9.277
1532510682.786,31.738,36.621,35.645,23.926,130.859
1532510682.790,33.203,39.062,34.668,40.527,86.914
1532510682.794,25.391,38.574,37.109,2.441,-75.195
1532510682.798,32.227,41.992,34.668,5.371,-130.371
1532510682.801,51.270,38.574,33.203,32.715,92.285
1532510682.805,49.805,33.691,34.668,23.926,134.766
1532510682.809,32.227,34.180,36.133,20.020,22.949
1532510682.813,29.297,37.598,32.715,14.160,-12.207
1532510682.817,50.781,37.109,32.227,26.855,62.500
1532510682.821,58.594,32.715,36.621,27.344,127.441
1532510682.825,30.762,31.250,37.109,6.836,-47.852
1532510682.829,20.996,33.691,36.133,13.672,-69.824
1532510682.833,41.016,38.574,33.691,37.109,66.406
1532510682.837,33.691,40.527,34.180,9.766,7.324
1532510682.841,29.785,38.574,33.691,-18.066,-49.316
1532510682.844,41.016,33.691,30.762,0.000,-54.199
1532510682.848,49.316,31.738,32.715,23.438,40.039
1532510682.852,34.180,33.691,37.598,27.832,137.695
1532510682.856,36.133,30.762,35.645,16.602,33.691
1532510682.860,55.664,32.227,34.668,5.371,-19.043
1532510682.864,38.574,36.133,38.574,31.738,56.152
1532510682.868,15.625,34.180,39.062,41.992,157.227
1532510682.872,8.301,34.180,35.156,13.184,85.938
1532510682.876,35.645,35.645,32.227,-12.695,-179.199
1532510682.880,40.527,33.203,37.109,24.902,-118.652
1532510682.884,18.066,29.785,35.156,17.090,158.203
1532510682.887,23.438,32.227,30.273,11.230,162.109
1532510682.891,46.387,33.203,33.691,20.996,35.156
1532510682.895,38.574,33.691,34.668,9.766,-39.062
1532510682.899,1.953,35.645,36.621,18.555,85.938
1532510682.903,8.301,33.691,40.039,27.344,162.598
1532510682.907,36.133,36.621,35.645,20.996,50.781
1532510682.911,51.270,36.621,34.180,14.648,-14.160
1532510682.915,32.227,34.180,38.086,30.273,51.758
1532510682.919,13.672,33.691,39.551,21.484,110.840
1532510682.923,8.789,29.297,37.598,19.531,0.000
1532510682.926,15.625,29.785,34.668,23.438,-85.449
1532510682.930,33.203,32.715,36.133,23.438,23.926
1532510682.934,36.621,33.203,38.574,26.367,58.594
1532510682.938,29.297,33.691,38.086,-1.953,-11.230
1532510682.942,33.691,33.203,36.621,3.906,-4.883
1532510682.946,19.043,29.785,42.969,21.973,9.766
1532510682.950,18.555,28.320,42.969,16.602,125.977
1532510682.954,39.551,31.250,41.016,26.367,151.367
1532510682.958,37.598,33.203,42.969,26.367,7.324
1532510682.962,24.414,28.320,44.434,22.949,-42.969
1532510682.966,17.090,29.785,44.922,27.832,27.832
1532510682.969,22.461,34.668,38.574,44.922,111.328
1532510682.973,41.016,32.227,38.086,16.113,9.277
1532510682.977,46.875,29.785,44.434,0.488,-100.098
1532510682.981,31.738,30.273,45.898,31.250,37.109
1532510682.985,24.902,30.762,46.387,15.625,167.969
1532510682.989,25.391,30.762,43.457,15.625,104.004
1532510682.993,24.414,35.156,41.504,26.367,-59.570
1532510682.997,36.621,33.691,38.086,23.438,-112.793
1532510683.001,26.855,32.715,32.227,17.090,53.711
1532510683.005,24.414,35.645,36.621,13.184,110.840
1532510683.008,39.062,32.227,44.922,49.316,-3.906
1532510683.012,37.109,32.227,43.457,52.246,-39.551
1532510683.016,41.016,38.574,40.039,14.648,-24.902
1532510683.020,36.133,39.551,35.156,-10.742,64.941
1532510683.024,25.879,32.715,35.156,6.348,24.902
1532510683.028,41.016,29.785,38.574,22.461,-12.207
1532510683.032,37.598,34.668,38.574,22.949,63.477
1532510683.036,20.508,36.133,41.016,40.039,94.238
1532510683.040,28.809,35.645,38.086,19.043,47.852
1532510683.044,44.922,36.133,35.645,14.160,-14.160
1532510683.048,53.223,38.574,38.574,41.992,75.195
1532510683.051,33.691,38.574,40.527,34.180,163.086
1532510683.055,30.273,35.156,40.039,8.301,61.035
1532510683.059,49.316,34.180,40.039,17.090,-80.566
1532510683.063,37.598,33.203,41.016,39.551,-57.617
1532510683.067,35.645,33.691,34.180,14.648,111.328
1532510683.071,29.297,37.109,27.832,9.277,175.293
1532510683.075,18.066,33.691,31.738,22.949,-75.195
1532510683.079,41.504,33.203,28.809,27.832,-162.598
1532510683.083,48.828,37.598,18.066,15.625,89.355
1532510683.087,54.199,36.133,20.996,12.695,172.363
1532510683.091,39.062,34.180,25.391,25.391,72.754
1532510683.094,39.062,33.203,22.461,16.113,-39.062
1532510683.098,50.781,34.668,25.391,39.062,48.340
1532510683.102,23.438,37.598,28.809,21.973,186.035
1532510683.106,23.438,38.086,28.320,1.465,44.922
1532510683.110,17.578,34.668,29.785,-3.418,-76.660
1532510683.114,21.973,31.250,32.715,-0.488,-30.273
1532510683.118,23.926,27.344,34.180,12.695,26.367
1532510683.122,30.762,31.738,29.785,-5.371,83.496
1532510683.126,41.992,36.133,28.809,0.977,0.000
1532510683.130,28.320,34.180,31.738,18.555,12.207
1532510683.133,49.316,35.156,34.180,24.902,110.352
1532510683.137,39.551,35.156,35.156,28.809,108.398
1532510683.141,17.090,38.086,33.691,29.297,10.742
1532510683.145,52.246,39.062,35.645,32.227,-37.598
1532510683.149,59.570,32.227,32.227,21.973,96.191
1532510683.153,23.438,31.250,31.738,14.648,120.117
1532510683.157,14.160,31.738,36.621,16.602,-77.637
1532510683.161,20.508,29.297,31.250,4.395,-71.777
1532510683.165,18.066,31.250,29.297,20.996,90.332
1532510683.169,28.320,32.715,36.621,38.086,172.363
1532510683.173,31.738,35.156,30.762,-4.883,66.895
1532510683.176,37.598,37.109,29.297,-15.625,-72.266
1532510683.180,32.715,31.250,35.645,4.395,2.441
1532510683.184,29.297,32.227,32.227,24.902,146.973
1532510683.188,32.227,37.598,28.809,33.691,135.742
1532510683.192,14.160,34.180,32.715,9.766,-21.973
1532510683.196,16.113,32.227,32.715,5.371,-42.480
1532510683.200,45.898,35.645,27.832,18.555,69.336
1532510683.204,44.922,37.109,24.414,28.320,73.242
1532510683.208,27.344,36.621,23.438,53.223,-19.531
1532510683.212,28.320,35.156,25.879,31.250,-16.113
1532510683.216,38.086,33.691,30.273,-2.441,-30.762
1532510683.219,47.363,34.668,29.785,4.883,15.137
1532510683.223,36.133,34.668,29.297,18.066,35.156
1532510683.227,20.996,35.645,30.273,32.715,-24.414
1532510683.231,32.227,36.133,32.715,31.738,67.871
1532510683.235,36.133,34.668,30.762,9.277,146.973
1532510683.239,34.668,39.551,27.344,2.930,105.957
1532510683.243,56.641,41.992,31.250,22.949,10.254
1532510683.247,55.664,37.598,36.621,35.645,-2.930
1532510683.251,21.973,36.133,38.086,50.781,100.586
1532510683.255,29.785,38.086,33.691,27.832,15.137
1532510683.258,54.199,37.598,32.715,-9.277,-157.227
1532510683.262,34.180,33.203,34.180,-0.977,-47.363
1532510683.266,14.648,31.250,34.180,18.555,105.469
1532510683.270,26.367,34.180,34.180,24.414,138.672
1532510683.274,26.367,34.180,35.156,25.391,19.531
1532510683.278,37.598,35.645,34.668,21.484,-53.711
1532510683.282,27.832,39.062,31.250,22.461,85.938
1532510683.286,42.480,38.086,32.227,43.945,172.852
1532510683.290,48.828,38.574,32.715,36.133,87.402
1532510683.294,40.039,40.039,32.715,9.766,-85.449
1532510683.298,36.621,38.574,35.645,7.812,-93.750
1532510683.301,17.090,34.668,39.551,40.039,113.770
1532510683.305,18.066,34.180,37.109,16.113,95.703
1532510683.309,24.902,37.109,32.227,-9.766,0.488
1532510683.313,18.066,37.598,36.133,9.277,-33.691
1532510683.317,44.434,37.109,34.668,-0.488,15.625
1532510683.321,60.059,38.574,37.109,27.832,94.238
1532510683.325,29.297,39.062,39.551,31.738,8.301
1532510683.329,23.926,39.551,34.668,4.395,16.113
1532510683.333,31.738,43.945,31.738,24.414,117.676
1532510683.337,33.691,46.875,33.203,43.457,140.625
1532510683.340,43.945,40.039,37.598,38.574,-6.836
1532510683.344,31.738,37.598,36.133,21.484,-100.586
1532510683.348,49.805,43.945,30.762,6.348,61.523
1532510683.352,56.641,46.387,31.738,28.320,157.227
1532510683.356,11.230,42.480,32.227,24.414,-55.664
1532510683.360,11.230,40.039,32.227,11.230,-138.184
1532510683.364,26.855,40.039,30.762,7.324,36.621
1532510683.368,44.434,39.062,28.320,16.602,153.320
1532510683.372,52.246,37.598,34.668,35.645,102.051
1532510683.376,27.832,37.109,34.668,15.137,-54.688
1532510683.380,39.062,38.574,29.785,8.301,-34.180
1532510683.383,28.320,39.062,33.203,18.555,126.953
1532510683.387,29.785,42.969,30.762,37.598,97.656
1532510683.391,57.129,43.945,28.320,30.273,-18.555
1532510683.395,58.594,43.457,31.738,-8.789,-125.488
1532510683.399,38.574,40.527,31.250,-1.953,-55.664
1532510683.403,39.062,35.156,33.691,37.109,147.949
1532510683.407,62.500,41.504,31.738,6.836,54.688
1532510683.411,44.434,43.457,30.273,-21.484,-37.598
1532510683.415,35.156,35.645,37.109,5.371,47.852
1532510683.419,41.504,35.156,39.062,9.277,166.992
1532510683.423,39.062,39.062,36.621,25.391,97.656
1532510683.426,40.039,45.898,30.273,23.926,-14.160
1532510683.430,51.758,45.898,30.273,6.836,42.480
1532510683.434,38.086,39.551,39.551,29.785,95.215
1532510683.438,0.488,39.551,39.551,42.969,11.719
1532510683.442,31.250,40.527,39.551,58.594,-88.379
1532510683.446,48.340,36.621,40.527,37.109,-36.133
1532510683.450,15.625,36.621,42.480,13.672,124.512
1532510683.454,33.691,36.133,46.387,54.199,77.148
1532510683.458,50.293,38.086,40.039,32.227,-133.301
1532510683.462,25.391,40.039,37.598,9.766,-57.617
1532510683.465,3.418,39.551,38.086,41.504,95.215
1532510683.469,40.527,41.016,31.250,7.812,150.879
1532510683.473,34.668,37.598,34.668,-0.488,17.578
1532510683.477,4.883,36.133,39.062,21.973,-114.258
1532510683.481,24.902,38.574,33.691,15.137,-0.977
1532510683.485,49.805,39.551,33.691,29.785,91.797
1532510683.489,29.785,39.551,37.109,26.367,39.551
1532510683.493,-3.418,41.504,35.156,6.348,-58.105
1532510683.497,39.551,45.898,35.156,6.348,-115.234
1532510683.501,42.969,42.480,40.039,21.484,77.637
1532510683.505,11.230,38.574,39.551,17.578,143.066
1532510683.508,24.414,40.527,38.086,21.484,11.230
1532510683.512,27.832,39.062,40.039,22.949,7.324
1532510683.516,45.898,40.527,36.133,11.230,104.492
1532510683.520,52.246,41.504,37.109,49.316,161.133
1532510683.524,38.086,43.457,39.062,61.035,31.738
1532510683.528,41.016,46.875,34.180,18.066,-73.730
1532510683.532,30.762,43.457,34.668,-20.996,36.621
1532510683.536,33.691,38.574,38.086,8.301,26.367
1532510683.540,43.457,41.504,34.668,13.184,-64.453
1532510683.544,22.949,39.062,36.621,6.348,-10.254
1532510683.548,24.414,30.762,45.898,27.344,60.059
1532510683.551,47.363,37.598,45.410,25.879,149.414
1532510683.555,27.832,44.922,40.527,24.902,72.754
1532510683.559,14.160,41.992,39.551,9.766,-17.578
1532510683.563,10.254,44.922,35.156,-13.184,24.414
1532510683.567,26.367,48.828,33.691,1.953,118.652
1532510683.571,34.668,48.828,34.668,6.836,119.141
1532510683.575,24.902,52.246,31.738,-9.277,-54.199
1532510683.579,31.738,54.199,26.855,-22.461,-99.609
1532510683.583,16.602,53.711,31.250,-16.602,80.566
1532510683.587,21.973,51.270,35.645,9.766,139.648
1532510683.590,29.785,48.340,27.344,5.371,47.852
1532510683.594,25.391,50.781,20.996,-17.090,-49.316
1532510683.598,38.086,51.270,24.902,6.348,26.855
1532510683.602,52.246,50.781,23.926,8.301,172.852
1532510683.606,50.781,52.246,21.973,19.531,85.938
1532510683.610,41.992,53.223,20.508,23.438,-4.883
1532510683.614,68.848,50.293,22.461,33.691,-43.945
1532510683.618,63.477,49.805,24.414,29.785,-4.395
1532510683.622,46.387,48.340,26.855,9.766,19.531
1532510683.626,49.316,45.410,28.320,10.742,-102.539
1532510683.630,36.133,47.363,21.484,-2.441,-19.043
1532510683.633,47.363,43.945,26.367,9.766,73.730
1532510683.637,48.828,42.480,28.809,19.531,11.230
1532510683.641,34.180,44.434,25.879,31.250,-1.465
1532510683.645,36.133,41.504,24.414,18.066,8.301
1532510683.649,45.898,41.504,21.484,24.414,122.559
1532510683.653,57.617,41.016,24.902,66.406,143.066
1532510683.657,63.477,40.527,26.855,24.902,-10.254
1532510683.661,43.457,39.551,26.367,3.418,-37.598
1532510683.665,39.062,39.062,28.809,27.344,63.965
1532510683.669,55.176,36.133,31.738,49.805,128.418
1532510683.673,46.387,34.668,34.180,51.758,18.555
1532510683.676,40.039,34.180,31.250,18.066,-152.344
1532510683.680,36.133,32.715,31.738,20.996,-40.039
1532510683.684,41.504,32.715,34.668,33.691,166.016
1532510683.688,58.594,35.645,34.668,12.695,105.957
1532510683.692,50.293,37.109,34.668,40.527,-32.715
1532510683.696,35.645,39.062,36.621,51.758,-28.809
1532510683.700,52.734,42.969,32.715,3.906,115.234
1532510683.704,44.922,39.551,34.668,15.625,160.156
1532510683.708,42.969,31.250,41.992,33.691,24.902
1532510683.712,49.805,31.738,42.480,41.016,2.930
1532510683.715,54.199,35.645,40.039,53.223,68.359
1532510683.719,44.922,34.668,36.621,43.457,75.684
1532510683.723,29.297,32.715,36.133,43.945,20.020
1532510683.727,53.223,34.668,39.062,40.527,-19.043
1532510683.731,51.270,39.062,39.062,32.715,95.703
1532510683.735,28.320,39.062,40.039,26.367,89.355
1532510683.739,40.527,37.598,41.992,19.531,-42.480
1532510683.743,41.992,37.109,39.551,21.973,-54.688
1532510683.747,49.805,36.621,37.109,48.828,-15.625
1532510683.751,49.316,36.621,35.645,51.758,122.070
1532510683.755,27.344,34.668,38.086,0.488,103.516
1532510683.758,30.762,29.785,41.016,20.020,-21.484
1532510683.762,38.086,34.180,37.598,44.922,-16.113
1532510683.766,54.688,38.574,34.180,47.363,56.641
1532510683.770,62.988,38.086,35.156,36.133,140.625
1532510683.774,27.832,36.133,38.574,7.812,-24.414
1532510683.778,7.812,33.203,42.480,3.906,-185.547
1532510683.782,19.531,34.180,40.527,19.531,26.855
1532510683.786,28.320,36.133,35.156,21.484,157.715
1532510683.790,31.250,34.668,34.668,4.883,65.430
1532510683.794,16.113,36.133,32.227,3.906,-53.711
1532510683.797,24.414,35.645,31.738,16.602,11.230
1532510683.801,25.879,35.645,29.785,26.855,173.828
1532510683.805,12.207,34.180,28.809,26.855,119.141
1532510683.809,13.672,28.320,30.273,24.414,-57.617
1532510683.813,22.949,31.250,29.297,5.371,-64.453
1532510683.817,51.270,35.645,30.762,11.719,10.254
1532510683.821,54.199,35.156,33.203,30.762,82.031
1532510683.825,22.949,32.715,32.715,26.855,38.086
1532510683.829,15.625,34.180,32.715,42.480,17.090
1532510683.833,35.645,39.062,34.180,45.898,93.262
1532510683.837,44.922,39.551,36.133,21.484,102.051
1532510683.840,30.762,36.621,36.621,17.578,43.945
1532510683.844,33.203,32.715,36.133,6.836,-3.906
1532510683.848,47.363,34.180,40.527,34.668,113.770
1532510683.852,41.016,34.668,42.480,32.715,177.246
1532510683.856,41.504,33.691,40.527,9.766,6.836
1532510683.860,37.109,37.598,41.504,20.996,-90.332
1532510683.864,34.668,37.109,40.039,31.250,38.086
1532510683.868,35.156,32.227,42.480,55.664,168.457
1532510683.872,39.062,33.691,43.945,34.668,143.555
1532510683.876,50.781,38.086,38.574,-7.812,-108.887
1532510683.880,14.648,30.762,44.922,9.277,-144.043
1532510683.883,8.301,26.367,49.805,31.738,109.375
1532510683.887,26.855,33.691,44.434,26.855,150.879
1532510683.891,28.809,35.156,43.945,31.738,6.348
1532510683.895,50.293,33.203,44.434,46.387,-25.879
1532510683.899,30.273,34.668,40.039,44.922,95.215
1532510683.903,23.926,34.180,39.062,28.809,102.539
1532510683.907,27.832,31.738,45.410,10.254,-41.504
1532510683.911,10.254,30.273,41.992,2.441,-62.988
1532510683.915,23.438,32.227,38.574,17.090,-20.020
1532510683.919,43.457,35.645,40.039,16.113,14.160
1532510683.922,63.965,36.621,40.039,10.742,51.758
1532510683.926,39.551,37.109,40.039,6.348,-30.273
1532510683.930,11.719,34.668,39.062,22.949,27.832
1532510683.934,15.625,32.715,41.504,47.363,120.117
1532510683.938,19.043,36.621,39.551,49.316,84.473
1532510683.942,26.855,38.086,35.156,10.742,-2.441
1532510683.946,40.039,32.715,38.574,-3.418,32.227
1532510683.950,53.711,34.180,37.598,22.949,133.301
1532510683.954,34.180,40.039,29.297,21.484,70.312
1532510683.958,14.648,36.621,34.668,24.414,-113.770
1532510683.962,11.230,31.738,41.016,20.020,-70.312
1532510683.965,21.484,31.738,39.062,9.766,97.656
1532510683.969,31.738,32.227,40.527,10.254,173.340
1532510683.973,20.508,35.156,37.598,12.695,50.781
1532510683.977,45.410,34.668,38.086,46.875,-50.781
1532510683.981,48.340,33.203,38.086,33.691,58.105
1532510683.985,9.766,30.762,35.645,-6.836,183.594
1532510683.989,12.207,27.832,39.062,16.602,138.184
1532510683.993,27.832,28.809,38.574,13.672,-55.176
1532510683.997,29.785,33.691,37.109,34.180,-75.684
1532510684.001,34.668,37.598,35.156,52.246,82.520
1532510684.005,55.176,37.109,32.227,1.465,108.398
1532510684.008,41.504,34.668,38.086,-3.418,18.555
1532510684.012,11.719,33.203,40.039,16.602,-21.973
1532510684.016,33.691,35.645,36.621,20.508,-26.367
1532510684.020,44.922,37.598,38.086,39.062,37.109
1532510684.024,34.180,35.645,34.180,20.996,20.996
1532510684.028,29.785,31.250,33.203,10.742,-20.508
1532510684.032,22.949,26.855,35.645,14.160,69.824
1532510684.036,30.273,29.297,33.203,6.348,117.188
1532510684.040,29.785,28.809,33.691,16.602,71.777
1532510684.044,22.461,28.320,35.645,24.414,-33.203
1532510684.047,42.480,32.227,30.273,33.691,8.789
1532510684.051,34.180,32.227,23.438,36.133,177.246
1532510684.055,22.949,32.227,23.438,13.672,-4.395
1532510684.059,40.039,33.203,20.996,3.906,-154.785
1532510684.063,48.828,31.250,22.461,6.836,16.602
1532510684.067,32.715,27.344,27.832,35.156,129.395
1532510684.071,22.461,30.273,23.926,23.438,138.672
1532510684.075,32.715,35.645,17.578,2.441,2.441
1532510684.079,41.504,34.180,23.926,23.926,-20.020
1532510684.083,46.875,35.645,26.855,19.531,114.258
1532510684.087,47.363,35.156,21.973,26.855,137.695
1532510684.090,39.551,32.227,23.926,37.598,14.648
1532510684.094,35.156,28.809,30.762,16.602,-129.883
1532510684.098,16.602,31.250,31.250,3.418,-73.242
1532510684.102,20.020,35.156,28.320,22.461,131.348
1532510684.106,41.016,40.039,23.926,26.855,85.938
1532510684.110,30.273,41.016,25.879,16.602,-43.457
1532510684.114,25.879,38.574,31.250,16.602,-27.832
1532510684.118,56.152,41.016,31.250,20.996,102.539
1532510684.122,51.270,38.086,33.691,22.461,111.816
1532510684.126,50.293,36.621,34.668,52.734,0.977
1532510684.129,29.297,34.668,37.598,48.340,30.273
1532510684.133,6.836,33.691,34.180,-0.977,107.422
1532510684.137,30.273,36.133,29.785,-17.578,53.711
1532510684.141,35.645,37.598,32.227,4.395,-58.594
1532510684.145,38.574,38.086,30.273,25.879,-65.918
1532510684.149,48.828,39.551,29.297,11.230,85.938
1532510684.153,51.758,40.527,31.250,37.598,107.910
1532510684.157,32.715,41.504,28.320,35.645,-84.961
1532510684.161,29.785,40.039,23.438,-11.230,-79.102
1532510684.165,41.992,30.273,29.297,20.508,60.059
1532510684.169,53.711,28.320,35.645,41.016,160.645
1532510684.172,50.293,28.320,37.109,29.785,87.402
1532510684.176,20.508,27.832,31.250,11.230,-41.992
1532510684.180,14.160,27.832,25.879,12.695,40.039
1532510684.184,27.832,26.855,27.832,19.043,101.074
1532510684.188,29.785,25.879,29.297,37.109,55.664
1532510684.192,21.973,26.855,29.785,25.391,-11.230
1532510684.196,43.457,33.203,27.832,-12.207,-126.465
1532510684.200,58.594,36.133,24.414,-8.301,6.348
1532510684.204,30.762,32.715,29.785,12.207,159.180
1532510684.208,34.668,26.367,35.645,36.133,26.855
1532510684.212,44.434,26.367,32.227,16.113,-29.785
1532510684.215,36.133,30.273,30.762,9.766,66.895
1532510684.219,52.246,31.738,30.762,20.020,153.320
1532510684.223,41.016,34.668,28.320,4.395,53.711
1532510684.227,50.781,33.203,33.691,5.371,-9.277
1532510684.231,58.594,30.762,37.598,39.062,38.086
1532510684.235,37.109,31.250,36.621,15.625,90.332
1532510684.239,52.734,33.203,32.715,-6.836,67.383
1532510684.243,58.105,32.227,33.203,16.113,-8.301
1532510684.247,24.414,27.344,39.062,42.969,16.113
1532510684.251,40.039,25.391,40.527,66.406,142.090
1532510684.254,50.781,28.320,37.109,19.531,48.828
1532510684.258,17.578,29.297,36.133,16.113,-134.766
1532510684.262,6.348,28.809,36.133,35.645,-36.133
1532510684.266,21.973,29.785,33.691,15.625,106.934
1532510684.270,23.926,29.785,35.645,35.645,152.832
1532510684.274,53.711,30.762,36.621,52.734,28.809
1532510684.278,44.434,33.691,31.738,2.930,-76.172
1532510684.282,3.418,32.715,35.156,15.625,20.020
1532510684.286,25.391,30.762,41.016,33.691,155.762
1532510684.290,38.574,31.250,40.527,28.809,86.914
1532510684.294,70.312,36.621,33.691,22.461,-76.172
1532510684.297,58.594,38.574,29.297,12.207,-113.281
1532510684.301,12.695,36.133,33.691,17.578,62.988
1532510684.305,26.367,34.180,36.133,5.859,87.891
1532510684.309,42.969,33.691,39.062,30.273,-5.371
1532510684.313,47.852,35.156,38.574,31.250,-6.836
1532510684.317,42.480,36.133,38.574,14.160,95.215
1532510684.321,31.250,32.715,41.992,21.484,124.512
1532510684.325,29.297,32.227,40.039,26.855,-65.430
1532510684.329,31.738,37.109,33.691,16.113,-65.918
1532510684.333,31.738,34.180,37.109,0.000,99.609
1532510684.337,46.875,31.250,40.527,33.691,37.109
1532510684.340,56.641,35.156,37.598,41.016,-34.668
1532510684.344,43.945,36.621,36.133,-11.230,-9.277
1532510684.348,15.137,31.738,40.527,-0.488,57.129
1532510684.352,15.137,36.621,38.574,24.414,125.977
1532510684.356,60.059,38.574,35.645,39.062,44.922
1532510684.360,34.668,32.715,37.598,27.832,-13.672
1532510684.364,25.391,30.273,37.109,8.789,48.828
1532510684.368,40.039,33.203,32.715,29.297,138.184
1532510684.372,58.105,34.180,31.738,35.645,81.055
1532510684.376,72.754,32.715,35.156,8.301,-136.230
1532510684.379,24.414,33.691,29.785,1.465,-142.090
1532510684.383,12.695,36.621,23.926,13.184,91.309
1532510684.387,41.504,38.574,20.996,3.906,142.090
1532510684.391,51.270,38.086,24.414,-14.160,3.906
1532510684.395,39.551,37.109,29.785,12.695,-58.594
1532510684.399,29.297,37.109,29.785,26.855,74.219
1532510684.403,38.574,38.574,30.273,28.320,171.387
1532510684.407,25.391,36.133,30.762,24.414,54.688
1532510684.411,15.625,35.156,29.785,3.906,-45.410
1532510684.415,33.691,34.668,32.715,6.348,28.809
1532510684.419,53.711,33.203,36.621,30.273,76.660
1532510684.422,55.664,33.203,36.621,22.461,17.578
1532510684.426,33.203,33.691,36.133,8.789,-52.246
1532510684.430,35.645,33.691,35.645,9.766,17.090
1532510684.434,29.297,38.086,33.203,1.953,63.965
1532510684.438,48.340,39.551,33.691,8.301,-28.320
1532510684.442,52.734,36.133,38.086,30.273,-42.480
1532510684.446,17.578,34.668,36.133,17.090,3.418
1532510684.450,27.832,32.227,36.133,2.441,115.723
1532510684.454,51.270,30.762,45.898,39.062,124.512
1532510684.458,31.738,32.715,47.363,41.504,0.000
1532510684.462,35.645,35.156,41.016,-2.441,-14.160
1532510684.465,48.340,34.180,43.457,37.598,35.645
1532510684.469,35.156,34.180,42.480,49.805,98.145
1532510684.473,42.480,36.133,37.598,15.625,39.062
1532510684.477,37.598,35.156,41.992,26.367,-148.926
1532510684.481,27.344,31.738,42.480,20.996,-45.898
1532510684.485,38.574,33.691,38.086,2.930,151.367
1532510684.489,42.480,35.645,38.086,17.090,120.605
1532510684.493,35.645,33.203,41.016,32.715,-49.805
1532510684.497,14.648,31.250,44.922,32.715,-24.902
1532510684.501,10.742,28.809,44.434,17.578,155.273
1532510684.504,43.457,32.227,41.992,16.602,139.648
1532510684.508,42.969,34.180,42.969,39.062,18.555
1532510684.512,21.973,30.762,41.504,16.113,-31.738
1532510684.516,29.785,32.227,34.668,15.137,-50.781
1532510684.520,47.363,34.668,31.738,32.227,24.902
1532510684.524,41.992,36.621,36.133,25.391,41.016
1532510684.528,18.066,34.180,40.527,41.016,-13.672
1532510684.532,5.371,29.297,42.480,1.953,48.828
1532510684.536,24.414,32.715,38.574,-13.672,118.164
1532510684.540,41.016,35.645,36.133,19.043,65.430
1532510684.544,33.691,33.203,39.551,36.621,-31.250
1532510684.547,58.594,35.645,39.551,26.855,18.066
1532510684.551,39.062,37.109,35.645,35.645,138.672
1532510684.555,9.277,35.156,38.574,39.062,85.449
1532510684.559,20.996,35.645,40.039,21.973,-87.891
1532510684.563,35.645,36.621,37.598,35.645,-75.195
1532510684.567,58.594,36.133,38.574,40.039,88.867
1532510684.571,57.617,34.668,37.598,16.602,166.016
1532510684.575,41.504,33.203,38.086,18.555,-46.875
1532510684.579,30.762,32.227,38.086,42.969,-162.598
1532510684.583,30.762,34.668,33.203,11.719,73.242
1532510684.586,46.875,35.156,35.645,6.836,181.641
1532510684.590,67.383,33.203,38.574,35.156,91.309
1532510684.594,43.945,34.180,38.574,27.832,-43.945
1532510684.598,14.648,35.645,36.621,20.996,19.043
1532510684.602,31.250,38.574,33.203,27.832,161.621
1532510684.606,48.828,37.109,36.621,20.020,19.043
1532510684.610,46.387,33.203,42.969,29.297,-90.332
1532510684.614,28.320,36.133,41.016,50.781,-41.504
1532510684.618,43.457,35.645,42.969,24.902,0.977
1532510684.622,58.594,32.227,43.945,2.930,62.012
1532510684.626,30.762,33.203,39.551,21.973,-39.551
1532510684.629,16.113,34.180,40.039,37.109,-17.090
1532510684.633,23.438,32.227,43.457,51.270,119.141
1532510684.637,42.969,34.668,37.598,14.160,120.605
1532510684.641,42.480,38.574,33.691,-1.465,39.062
1532510684.645,43.457,38.574,39.062,25.391,-22.461
1532510684.649,20.996,38.574,39.551,30.273,76.660
1532510684.653,9.277,39.551,41.016,23.438,74.707
1532510684.657,25.391,37.109,42.969,-2.930,-121.582
1532510684.661,27.344,35.645,42.480,2.930,-103.027
1532510684.665,37.598,36.133,41.992,47.852,62.500
1532510684.669,34.668,36.621,37.598,39.551,172.363
1532510684.672,40.039,39.551,32.715,8.301,87.891
1532510684.676,25.391,40.039,34.668,14.648,-78.125
1532510684.680,22.949,36.133,41.992,31.250,-3.418
1532510684.684,43.945,34.668,44.434,37.598,138.184
1532510684.688,32.715,36.621,43.457,26.367,118.652
1532510684.692,26.367,41.016,43.457,28.809,-19.043
1532510684.696,32.227,42.969,42.969,22.461,-51.758
1532510684.700,33.691,43.945,42.480,14.160,55.664
1532510684.704,41.992,44.434,40.039,29.785,82.520
1532510684.708,36.621,44.922,39.551,34.180,-1.953
1532510684.711,11.230,46.875,41.016,19.043,-16.602
1532510684.715,27.832,44.922,41.992,33.691,-24.902
1532510684.719,44.434,41.992,42.480,20.508,17.578
1532510684.723,44.922,40.039,41.992,13.672,47.852
1532510684.727,41.504,38.086,42.969,27.832,-9.277
1532510684.731,22.949,35.156,46.875,16.602,59.570
1532510684.735,33.203,32.227,49.805,31.738,144.043
1532510684.739,60.547,34.668,45.410,35.645,120.117
1532510684.743,48.828,30.762,43.945,27.344,-30.762
1532510684.747,20.020,30.762,42.480,42.969,-62.500
1532510684.751,23.438,31.738,40.527,22.949,89.844
1532510684.754,22.949,28.809,41.504,7.812,27.344
1532510684.758,61.523,25.391,42.480,24.414,-108.887
1532510684.762,67.383,23.926,43.945,27.344,-27.344
1532510684.766,1.953,26.855,43.457,26.367,75.195
1532510684.770,12.207,29.785,42.480,11.230,161.621
1532510684.774,32.715,26.367,42.480,-0.488,-15.137
1532510684.778,50.293,25.879,41.016,18.555,-129.395
1532510684.782,48.828,26.855,43.945,42.969,47.852
1532510684.786,22.949,23.438,48.828,67.383,136.230
1532510684.790,38.086,27.344,43.945,48.828,81.543
1532510684.794,73.242,30.273,39.551,1.953,-85.449
1532510684.797,30.273,28.320,36.621,1.465,-92.285
1532510684.801,-7.812,27.832,38.574,0.977,123.535
1532510684.805,9.277,27.344,41.016,21.484,112.793
1532510684.809,20.508,25.879,40.039,50.781,-6.836
1532510684.813,46.875,26.855,40.039,-10.742,-25.879
1532510684.817,50.781,26.367,41.016,-10.742,47.852
1532510684.821,29.297,26.855,45.410,34.668,115.723
1532510684.825,10.742,28.320,47.363,14.160,15.137
1532510684.829,22.461,26.855,43.945,10.254,-25.391
1532510684.833,36.621,26.855,41.016,30.273,58.105
1532510684.836,52.246,28.320,39.551,29.297,108.887
1532510684.840,48.340,27.832,47.363,46.875,-9.766
1532510684.844,25.391,25.391,49.316,57.129,-101.562
1532510684.848,30.762,25.879,41.504,14.160,29.785
1532510684.852,48.828,28.320,41.504,8.789,149.902
1532510684.856,42.969,32.715,40.527,20.508,-35.156
1532510684.860,19.531,32.227,41.504,18.555,-145.508
1532510684.864,14.160,27.344,38.086,20.020,33.691
1532510684.868,17.090,23.926,38.574,12.207,166.504
1532510684.872,38.086,23.926,43.457,29.297,97.168
1532510684.876,46.875,26.367,41.016,51.270,-59.082
1532510684.879,40.527,29.785,40.039,19.531,-10.742
1532510684.883,36.133,27.832,41.016,-2.930,146.484
1532510684.887,31.250,29.297,38.574,11.230,147.949
1532510684.891,30.762,34.180,37.598,35.156,-8.789
1532510684.895,20.996,34.668,38.574,28.809,-158.203
1532510684.899,35.156,37.109,38.086,8.789,-79.102
1532510684.903,50.781,39.551,37.109,16.602,117.188
1532510684.907,40.527,37.598,39.062,18.555,54.688
1532510684.911,25.879,29.297,42.969,3.418,-20.996
1532510684.915,6.348,26.855,42.969,26.367,39.062
1532510684.918,18.555,31.250,37.109,15.625,138.184
1532510684.922,36.621,33.203,33.203,-4.395,101.074
1532510684.926,19.531,29.297,36.621,7.812,-36.621
1532510684.930,25.879,27.344,38.574,3.418,-7.812
1532510684.934,29.785,26.367,38.086,19.043,81.055
1532510684.938,11.719,26.855,41.992,21.484,65.918
1532510684.942,36.133,30.273,41.992,10.742,-11.230
1532510684.946,49.805,30.762,41.016,29.297,-28.320
1532510684.950,33.203,30.762,43.457,28.809,120.117
1532510684.954,21.973,30.273,40.527,9.766,106.934
1532510684.958,36.621,29.785,40.039,25.879,-65.918
1532510684.961,49.805,31.738,36.133,29.785,-42.480
1532510684.965,48.340,35.156,31.738,26.855,80.566
1532510684.969,41.504,34.668,33.691,37.109,161.133
1532510684.973,46.387,33.203,33.691,17.578,36.621
1532510684.977,46.875,28.320,33.691,10.742,-70.801
1532510684.981,4.395,26.855,34.180,18.066,-12.207
1532510684.985,20.996,25.879,34.668,39.062,73.730
1532510684.989,42.480,21.973,38.574,38.086,86.426
1532510684.993,42.480,23.438,39.062,0.000,-51.758
1532510684.997,41.992,28.320,33.691,-0.488,-124.512
1532510685.001,29.785,26.367,37.109,31.738,69.824
1532510685.004,15.137,22.949,41.016,40.527,164.551
1532510685.008,25.391,32.227,34.180,32.715,36.621
1532510685.012,36.621,35.156,30.273,23.926,-19.043
1532510685.016,49.805,33.691,31.738,-10.742,55.664
1532510685.020,67.871,34.668,32.715,-20.508,134.277
1532510685.024,46.875,31.738,26.367,-2.441,41.504
1532510685.028,57.617,36.133,17.090,28.320,-76.172
1532510685.032,59.082,33.691,25.879,28.809,20.508
1532510685.036,34.180,25.391,41.016,37.598,54.688
1532510685.040,27.344,28.809,40.039,30.762,-45.898
1532510685.043,1.953,34.668,38.574,-4.395,-33.203
1532510685.047,-12.695,31.250,45.898,-3.906,46.875
1532510685.051,-16.113,22.461,48.828,-2.930,149.902
1532510685.055,-2.441,20.508,52.246,14.648,102.539
1532510685.059,7.812,21.973,51.270,0.977,1.465
1532510685.063,-4.883,21.973,44.922,-2.441,22.949
1532510685.067,-39.062,20.020,45.410,27.832,138.184
1532510685.071,-34.180,23.438,45.410,-6.836,166.504
1532510685.075,0.977,23.438,41.992,-23.926,-20.508
1532510685.079,11.230,20.996,40.527,3.906,-104.492
1532510685.083,1.953,21.484,36.133,-7.812,40.527
1532510685.086,-2.441,21.973,35.645,8.301,141.113
1532510685.090,-3.418,20.996,38.574,3.906,72.266
1532510685.094,20.508,20.020,37.598,-31.250,-98.145
1532510685.098,15.137,21.973,37.109,-23.926,-103.516
1532510685.102,-5.371,22.949,34.180,-3.418,115.723
1532510685.106,7.812,23.926,30.273,7.324,88.379
1532510685.110,23.438,27.344,28.320,32.715,-25.879
1532510685.114,5.371,27.832,24.414,9.277,-6.348
1532510685.118,3.906,27.832,23.438,-17.090,110.352
1532510685.122,24.902,33.203,27.832,45.410,78.613
1532510685.126,31.738,29.785,32.227,65.430,-76.660
1532510685.129,24.902,29.785,28.320,6.348,-21.484
1532510685.133,28.320,29.297,23.926,-3.418,84.473
1532510685.137,22.461,26.855,23.438,-2.930,12.695
1532510685.141,22.949,31.250,23.926,8.301,-59.082
1532510685.145,56.152,32.227,26.855,18.066,-25.391
1532510685.149,36.621,31.250,29.297,24.414,89.355
1532510685.153,16.113,35.645,28.320,17.578,147.461
1532510685.157,47.363,33.203,31.250,4.883,20.020
1532510685.161,28.320,25.391,33.691,14.160,-32.227
1532510685.165,27.344,24.902,32.715,33.691,41.504
1532510685.168,37.109,28.320,28.809,23.438,86.426
1532510685.172,29.785,34.180,28.809,30.762,1.953
1532510685.176,63.477,38.086,32.715,60.547,-161.621
1532510685.180,71.289,34.668,33.203,20.508,-68.848
1532510685.184,28.320,30.762,30.762,8.789,118.652
1532510685.188,23.926,28.809,32.227,33.691,116.699
1532510685.192,25.391,30.762,31.250,21.484,20.020
1532510685.196,36.133,28.320,32.227,25.879,-32.715
1532510685.200,51.270,30.273,33.691,8.301,110.840
1532510685.204,58.105,32.715,32.715,57.129,191.406
1532510685.208,34.668,27.344,34.180,57.617,62.988
1532510685.211,23.438,28.320,31.250,-17.090,-0.977
1532510685.215,31.738,27.832,29.785,16.602,16.602
1532510685.219,23.438,26.367,28.809,17.090,53.223
1532510685.223,36.621,31.250,25.879,10.742,-3.906
1532510685.227,44.434,28.320,29.297,26.367,-36.621
1532510685.231,43.457,25.879,32.715,45.410,71.289
1532510685.235,36.133,31.738,29.297,39.551,60.059
1532510685.239,51.758,27.832,36.621,12.695,-21.484
1532510685.243,48.340,23.926,42.480,17.090,-36.133
1532510685.247,31.738,33.203,29.785,18.066,15.625
1532510685.250,29.785,40.039,26.367,-6.836,147.461
1532510685.254,17.578,39.062,29.297,-2.441,97.168
1532510685.258,2.441,41.504,23.438,-11.230,-48.340
1532510685.262,30.273,41.504,17.578,-26.367,-62.988
1532510685.266,46.387,42.480,18.066,-4.883,17.578
1532510685.270,4.883,45.898,18.066,-19.043,129.883
1532510685.274,14.160,41.992,19.531,-35.645,12.695
1532510685.278,21.484,37.598,22.949,-17.578,-148.438
1532510685.282,20.996,34.180,23.926,0.977,30.762
1532510685.286,22.949,39.551,16.602,-14.648,186.035
1532510685.290,28.809,41.992,14.160,-12.695,101.562
1532510685.293,38.086,36.621,19.043,-2.930,-53.711
1532510685.297,35.645,35.156,19.531,11.230,-18.066
1532510685.301,28.809,36.133,20.508,16.113,132.324
1532510685.305,14.648,36.133,25.879,-16.602,134.277
1532510685.309,29.297,36.621,25.391,-7.812,-9.766
1532510685.313,33.203,36.621,23.926,6.836,-86.914
1532510685.317,27.832,36.133,28.320,2.441,-35.156
1532510685.321,31.738,38.086,28.320,19.043,65.918
1532510685.325,35.645,39.062,22.461,17.090,19.043
1532510685.329,48.340,35.156,24.902,19.531,-21.973
1532510685.333,25.879,33.203,31.738,5.371,48.828
1532510685.336,20.020,34.180,27.832,-4.395,80.078
1532510685.340,31.738,36.133,26.855,7.324,45.898
1532510685.344,38.086,38.574,28.320,13.184,-36.621
1532510685.348,37.109,38.086,27.344,21.484,41.504
1532510685.352,27.344,36.621,28.320,7.324,168.457
1532510685.356,32.227,32.715,33.203,17.578,35.156
1532510685.360,31.738,31.250,36.133,32.715,-83.984
1532510685.364,23.438,33.203,33.203,7.324,12.695
1532510685.368,30.762,31.738,36.621,11.230,138.672
1532510685.372,28.320,33.203,39.062,19.531,139.160
1532510685.375,20.996,36.133,39.062,-0.488,-112.793
1532510685.379,27.832,37.109,41.016,9.277,-159.668
1532510685.383,46.875,37.598,43.457,59.570,101.074
1532510685.387,36.133,38.086,41.992,31.250,139.648
1532510685.391,10.742,36.133,42.480,-3.906,-11.230
1532510685.395,37.109,35.156,43.457,21.973,-69.336
1532510685.399,40.039,35.645,39.551,27.344,50.293
1532510685.403,32.715,38.574,39.551,30.273,107.422
1532510685.407,28.320,40.527,35.645,32.715,5.859
1532510685.411,18.555,35.645,36.621,31.738,-25.391
1532510685.415,22.461,35.645,39.062,29.297,-35.156
1532510685.418,33.691,36.133,38.574,23.438,-1.953
1532510685.422,41.016,33.203,36.621,14.648,73.242
1532510685.426,35.156,34.668,35.645,16.113,-6.348
1532510685.430,28.320,35.645,42.969,13.184,12.207
1532510685.434,33.691,35.156,42.969,24.414,101.562
1532510685.438,38.574,33.691,41.504,42.969,73.730
1532510685.442,58.594,39.551,38.574,33.203,9.277
1532510685.446,57.129,42.480,35.156,17.090,-4.395
1532510685.450,20.020,35.645,39.062,17.090,73.730
1532510685.454,25.391,34.668,43.457,15.137,68.359
1532510685.458,45.898,36.621,45.898,15.625,-96.680
1532510685.461,54.199,37.598,42.480,35.645,-95.703
1532510685.465,46.875,36.133,43.945,46.875,53.711
1532510685.469,41.504,32.715,50.293,46.875,156.250
1532510685.473,39.062,35.645,46.387,33.691,46.875
1532510685.477,45.410,37.109,39.062,0.000,-63.965
1532510685.481,45.898,32.715,37.598,16.602,23.926
1532510685.485,46.875,34.668,39.551,34.180,137.695
1532510685.489,43.945,36.621,40.039,16.602,123.535
1532510685.493,16.113,32.715,39.551,11.719,-19.531
1532510685.497,20.996,26.367,46.875,13.184,-79.590
1532510685.500,42.480,31.250,43.945,29.785,58.594
1532510685.504,43.457,34.180,38.086,47.852,128.418
1532510685.508,46.875,34.180,40.039,15.137,24.414
1532510685.512,55.664,37.109,41.016,17.578,-41.504
1532510685.516,46.387,35.156,42.969,39.062,13.184
1532510685.520,53.711,32.227,43.945,38.574,135.254
1532510685.524,62.012,39.062,41.016,39.551,55.664
1532510685.528,30.273,44.434,38.574,17.090,-25.391
1532510685.532,22.461,44.434,40.527,-4.883,88.379
1532510685.536,37.598,48.340,41.992,-7.812,44.434
1532510685.540,45.410,46.387,40.527,21.484,-48.828
1532510685.543,48.340,43.945,38.086,20.020,-73.730
1532510685.547,54.688,44.922,36.621,14.160,-62.988
1532510685.551,31.250,43.457,37.109,3.906,127.930
1532510685.555,16.602,40.527,38.574,11.230,75.684
1532510685.559,27.832,37.109,40.039,43.457,-80.078
1532510685.563,21.973,33.691,39.062,26.367,20.508
1532510685.567,28.809,36.133,38.086,21.973,130.859
1532510685.571,40.527,41.992,37.598,30.762,145.508
1532510685.575,59.082,43.945,35.645,18.555,-49.316
1532510685.579,40.527,40.527,38.086,20.508,-125.000
1532510685.583,28.809,39.551,39.062,27.832,85.449
1532510685.586,46.387,42.480,35.156,8.301,143.066
1532510685.590,44.922,41.992,36.133,26.855,9.766
1532510685.594,26.367,41.016,38.574,30.762,-143.555
1532510685.598,19.043,40.039,33.691,-8.301,-106.445
1532510685.602,31.250,37.598,34.180,31.250,115.723
1532510685.606,19.531,37.109,36.621,43.457,110.840
1532510685.610,49.316,37.109,33.691,-2.441,3.418
1532510685.614,66.406,39.551,32.715,4.395,19.531
1532510685.618,10.254,32.227,35.156,17.090,118.164
1532510685.622,8.789,30.762,35.156,14.160,102.051
1532510685.625,20.996,40.527,32.715,30.762,-12.695
1532510685.629,41.016,43.457,29.297,31.250,-7.324
1532510685.633,55.664,40.039,31.250,10.254,62.988
1532510685.637,31.250,36.133,37.598,16.602,88.867
1532510685.641,20.996,39.062,38.086,18.555,-52.246
1532510685.645,32.715,42.969,34.668,24.414,-98.145
1532510685.649,41.504,42.480,37.598,38.574,83.496
1532510685.653,43.945,42.480,39.551,23.438,155.762
1532510685.657,57.617,42.969,36.133,42.969,-44.434
1532510685.661,49.316,44.434,31.738,31.250,-106.934
1532510685.665,36.133,41.504,33.203,-4.883,50.293
1532510685.668,32.715,39.551,38.086,19.531,174.316
1532510685.672,22.949,43.945,35.156,16.113,121.094
1532510685.676,14.648,41.992,36.133,23.926,-45.898
1532510685.680,17.578,39.062,36.133,20.508,-4.883
1532510685.684,26.855,39.062,33.691,17.578,104.004
1532510685.688,44.434,33.203,35.156,-2.930,110.840
1532510685.692,41.016,29.785,36.621,48.828,29.297
1532510685.696,15.137,32.227,37.598,53.711,-108.398
1532510685.700,16.602,34.180,35.645,-25.879,10.742
1532510685.704,10.742,35.156,32.227,-6.348,162.109
1532510685.707,15.625,34.180,32.715,17.090,58.594
1532510685.711,22.949,34.668,31.738,20.508,-1.953
1532510685.715,27.832,35.645,34.180,41.016,50.781
1532510685.719,44.922,34.180,35.156,42.480,145.020
1532510685.723,34.668,30.762,37.109,20.508,122.559
1532510685.727,28.320,30.762,35.156,15.625,6.836
1532510685.731,25.391,36.133,27.344,16.602,2.441
1532510685.735,32.715,32.715,33.691,4.883,38.574
1532510685.739,40.527,29.785,38.574,21.484,13.184
1532510685.743,20.508,30.762,36.133,49.316,-3.906
1532510685.747,18.066,31.250,32.227,6.836,45.410
1532510685.750,35.156,31.738,32.227,6.348,178.223
1532510685.754,37.598,30.762,35.156,30.762,153.320
1532510685.758,21.484,32.227,32.715,23.926,23.926
1532510685.762,26.367,32.715,29.785,12.207,-1.953
1532510685.766,62.500,31.738,30.273,26.367,90.820
1532510685.770,56.641,28.809,34.668,43.457,176.270
1532510685.774,22.949,23.926,36.133,10.742,67.871
1532510685.778,35.156,23.926,31.250,8.301,-75.195
1532510685.782,41.504,24.414,28.809,21.973,-43.457
1532510685.786,45.898,28.320,28.809,7.324,66.406
1532510685.790,50.293,31.738,25.879,-0.977,71.777
1532510685.793,57.617,33.691,23.438,8.789,-79.590
1532510685.797,53.711,32.227,24.414,9.766,-104.980
1532510685.801,52.246,30.762,22.461,7.812,93.262
1532510685.805,50.781,30.273,26.855,25.879,130.371
1532510685.809,23.438,26.855,33.691,34.668,29.297
1532510685.813,20.508,24.902,36.133,30.273,-12.695
1532510685.817,51.758,25.391,36.621,60.547,92.285
1532510685.821,63.477,26.367,32.715,68.359,175.781
1532510685.825,28.320,30.762,30.762,34.668,3.418
1532510685.829,26.367,31.250,37.598,50.293,-87.891
1532510685.832,45.410,31.738,32.715,25.391,28.320
1532510685.836,33.691,30.273,32.227,10.742,20.020
1532510685.840,11.719,25.879,38.574,17.578,-31.738
1532510685.844,27.344,29.785,34.668,33.691,-15.137
1532510685.848,39.062,28.320,35.645,46.875,71.289
1532510685.852,31.738,25.879,34.180,15.137,175.293
1532510685.856,53.223,28.320,33.203,19.531,90.820
1532510685.860,58.594,27.344,34.668,15.625,-10.742
1532510685.864,18.555,22.949,29.785,25.391,20.996
1532510685.868,20.020,25.879,27.344,47.363,152.832
1532510685.872,54.688,31.738,26.855,38.574,107.422
1532510685.875,33.203,31.250,22.461,-3.418,-69.336
1532510685.879,5.371,29.785,25.879,8.301,-36.621
1532510685.883,38.086,25.391,35.645,34.668,90.332
1532510685.887,29.297,21.484,38.086,44.922,141.113
1532510685.891,11.230,25.391,34.180,32.715,42.969
1532510685.895,33.691,28.320,32.715,5.859,-123.047
1532510685.899,32.715,27.832,34.180,15.625,-58.594
1532510685.903,39.062,30.273,33.203,17.090,152.832
1532510685.907,35.645,30.273,29.785,29.297,92.773
1532510685.911,23.926,33.691,27.832,49.805,-20.996
1532510685.915,55.664,33.691,27.832,28.809,28.320
1532510685.918,64.941,26.855,31.738,24.414,100.586
1532510685.922,31.738,24.414,31.738,29.297,46.875
1532510685.926,23.438,26.367,31.738,9.277,-49.316
1532510685.930,12.695,27.344,30.762,22.949,12.695
1532510685.934,21.484,28.320,27.832,47.852,64.453
1532510685.938,27.832,24.902,28.809,8.789,19.043
1532510685.942,28.320,22.949,29.785,-21.484,-11.230
1532510685.946,24.902,28.809,26.855,15.137,-48.828
1532510685.950,35.156,31.250,25.879,47.852,73.730
1532510685.954,36.621,28.320,27.832,20.020,99.121
1532510685.957,36.621,29.297,27.832,9.277,-44.434
1532510685.961,44.434,31.250,29.785,20.020,-46.875
1532510685.965,24.902,28.809,31.250,13.672,7.324
1532510685.969,15.137,26.367,31.738,23.438,88.379
1532510685.973,25.879,28.320,33.203,49.316,55.176
1532510685.977,47.363,33.691,28.809,13.672,-157.715
1532510685.981,38.574,34.668,22.949,14.160,-88.867
1532510685.985,36.621,34.668,21.973,18.555,123.535
1532510685.989,48.340,35.645,17.578,13.184,100.586
1532510685.993,25.391,30.273,29.785,39.551,-42.480
1532510685.997,19.531,26.367,37.598,46.875,-32.227
1532510686.000,19.043,23.926,35.156,25.879,108.398
1532510686.004,33.691,20.508,35.156,-13.184,127.441
1532510686.008,60.059,15.137,35.645,22.461,-6.348
1532510686.012,48.340,15.137,37.598,35.645,-92.285
1532510686.016,25.391,13.184,38.574,20.020,-77.637
1532510686.020,36.133,14.160,38.086,37.109,45.410
1532510686.024,22.461,16.602,34.668,33.691,75.195
1532510686.028,17.578,10.254,37.598,27.832,-16.113
1532510686.032,27.344,8.301,37.598,47.363,36.621
1532510686.036,24.414,6.348,34.668,40.039,132.812
1532510686.039,35.645,8.301,34.668,13.672,96.680
1532510686.043,39.062,11.719,34.180,19.531,-17.090
1532510686.047,44.922,9.766,30.762,50.293,8.789
1532510686.051,33.203,9.766,28.809,37.109,118.652
1532510686.055,25.879,10.254,32.227,16.113,96.680
1532510686.059,33.203,7.324,32.227,30.762,-52.246
1532510686.063,36.133,6.836,30.762,33.691,-75.195
1532510686.067,29.785,9.277,30.273,24.902,77.637
1532510686.071,24.414,6.836,32.715,48.828,167.969
1532510686.075,26.367,7.812,36.621,42.969,-34.180
1532510686.079,31.738,12.207,34.180,9.766,-165.527
1532510686.082,19.531,11.230,32.715,24.902,52.734
1532510686.086,15.137,13.672,32.715,21.484,169.434
1532510686.090,30.762,17.090,31.738,13.672,60.059
1532510686.094,33.203,18.555,25.879,27.344,-67.871
1532510686.098,16.602,17.578,20.020,36.621,-5.859
1532510686.102,9.277,19.043,19.043,36.133,141.113
1532510686.106,20.508,23.926,19.043,22.949,60.547
1532510686.110,25.391,20.020,24.902,10.254,-72.754
1532510686.114,22.461,14.160,27.344,18.066,-80.078
1532510686.118,30.762,19.043,22.949,15.137,-17.090
1532510686.122,32.715,21.484,22.949,9.277,95.703
1532510686.125,19.043,16.113,27.344,22.461,14.160
1532510686.129,38.086,16.113,29.785,40.527,-59.082
1532510686.133,44.434,21.973,21.484,5.859,59.082
1532510686.137,20.508,24.414,15.625,3.418,144.043
1532510686.141,18.066,25.879,20.508,15.137,66.406
1532510686.145,26.367,26.367,22.461,12.695,-62.500
1532510686.149,25.879,24.902,25.879,25.879,12.207
1532510686.153,36.621,26.367,28.320,52.246,116.699
1532510686.157,33.203,26.855,24.902,19.531,-9.277
1532510686.161,13.672,19.531,21.484,-23.438,-61.523
1532510686.164,9.766,17.090,23.438,5.371,38.086
1532510686.168,24.902,23.438,21.973,31.738,154.297
1532510686.172,23.438,23.438,26.367,36.621,91.309
1532510686.176,26.367,20.996,28.320,13.184,-84.473
1532510686.180,65.918,23.438,23.926,18.066,-20.996
1532510686.184,36.133,22.949,24.902,34.180,143.066
1532510686.188,12.695,22.461,24.414,27.344,151.367
1532510686.192,41.016,22.949,20.020,23.438,13.184
1532510686.196,44.434,20.996,22.461,21.484,-46.387
1532510686.200,30.273,24.414,25.879,21.973,31.738
1532510686.204,25.391,22.461,31.250,37.598,100.098
1532510686.207,28.320,19.043,31.738,24.414,23.438
1532510686.211,39.062,19.043,29.297,22.949,-20.508
1532510686.215,34.668,20.508,30.273,29.785,-26.855
1532510686.219,8.301,23.438,24.414,24.414,1.465
1532510686.223,8.301,16.602,30.762,50.293,42.480
1532510686.227,23.438,12.695,32.715,20.996,-46.387
1532510686.231,45.898,21.973,25.879,15.137,3.418
1532510686.235,41.504,31.250,23.438,13.672,114.258
1532510686.239,15.625,28.320,20.020,-6.348,117.188
1532510686.243,-1.465,21.973,23.926,42.969,1.953
1532510686.247,12.695,26.367,20.996,33.691,-71.777
1532510686.250,55.176,32.227,10.254,-24.902,77.148
1532510686.254,37.109,33.203,10.742,-26.367,75.684
1532510686.258,7.812,32.227,13.184,-23.926,-99.609
1532510686.262,8.301,27.832,12.207,-9.766,-48.340
1532510686.266,9.277,25.391,11.719,-10.742,82.520
1532510686.270,39.551,20.996,17.578,9.277,135.254
1532510686.274,31.738,21.484,17.578,33.203,32.227
1532510686.278,18.066,28.320,10.742,9.766,-61.035
1532510686.282,45.410,27.832,10.742,-0.977,34.180
1532510686.286,34.668,25.879,11.719,6.836,148.926
1532510686.289,23.926,25.879,18.066,44.922,90.332
1532510686.293,35.645,25.879,19.531,12.207,-107.422
1532510686.297,30.273,21.484,18.066,-6.348,-127.930
1532510686.301,20.020,17.090,21.973,20.508,108.887
1532510686.305,27.344,17.090,23.926,23.926,122.559
1532510686.309,40.527,17.090,24.414,32.227,35.156
1532510686.313,30.273,20.996,22.461,25.879,10.254
1532510686.317,9.766,21.973,17.578,20.020,27.832
1532510686.321,30.762,20.508,14.160,-7.324,129.883
1532510686.325,51.270,18.555,21.484,15.137,54.688
1532510686.329,20.020,18.066,25.391,19.531,-32.715
1532510686.332,11.719,20.020,20.020,37.598,42.480
1532510686.336,26.855,22.949,21.484,62.012,137.695
1532510686.340,19.531,24.414,21.484,-8.301,49.316
1532510686.344,27.832,20.508,21.973,-4.395,-88.867
1532510686.348,20.508,19.531,22.949,28.320,2.441
1532510686.352,33.691,17.090,22.949,14.160,142.578
1532510686.356,34.668,14.160,25.879,14.160,-13.184
1532510686.360,36.133,17.090,24.902,29.297,-156.250
1532510686.364,45.898,18.555,24.902,19.043,10.254
1532510686.368,28.320,18.555,27.344,10.254,174.316
1532510686.371,8.301,17.090,28.809,32.227,132.324
1532510686.375,10.254,16.602,25.391,13.672,-42.480
1532510686.379,23.438,18.066,21.973,4.395,-34.180
1532510686.383,34.668,20.020,22.949,32.227,103.516
1532510686.387,29.785,20.020,24.414,32.715,125.488
1532510686.391,4.395,18.555,26.367,33.203,-34.180
1532510686.395,11.230,20.508,25.879,-1.953,-121.582
1532510686.399,22.949,19.043,25.879,9.766,20.996
1532510686.403,38.574,18.066,29.785,36.621,171.387
1532510686.407,48.828,19.531,27.344,-3.418,98.633
1532510686.411,22.949,17.090,25.391,9.277,7.324
1532510686.414,16.113,20.508,26.855,24.902,-36.621
1532510686.418,13.672,22.461,24.902,9.766,17.578
1532510686.422,14.160,20.020,21.484,14.648,99.609
1532510686.426,41.992,20.996,18.066,14.648,-4.883
1532510686.430,38.086,21.484,17.578,29.297,-9.766
1532510686.434,8.789,25.879,12.207,10.254,14.648
1532510686.438,9.277,28.320,7.812,-27.344,-7.324
1532510686.442,32.715,24.414,10.254,29.297,-19.531
1532510686.446,41.016,25.391,13.672,47.852,-46.875
1532510686.450,16.602,25.391,15.137,14.648,71.777
1532510686.454,17.578,24.902,19.043,9.277,97.168
1532510686.457,34.668,25.879,21.973,36.133,-11.719
1532510686.461,29.785,27.344,20.996,28.809,-31.250
1532510686.465,20.020,29.297,19.043,25.879,51.758
1532510686.469,55.664,28.809,20.996,67.383,167.969
1532510686.473,64.453,27.832,23.926,37.598,43.457
1532510686.477,7.812,28.320,20.020,-4.883,-79.590
1532510686.481,15.625,27.832,21.484,11.719,-26.367
1532510686.485,47.363,32.227,24.902,13.184,57.129
1532510686.489,43.457,30.762,24.414,28.320,93.750
1532510686.493,48.340,26.367,27.344,36.133,7.324
1532510686.496,43.457,32.227,23.438,58.105,-112.793
1532510686.500,31.250,28.809,22.949,28.809,16.113
1532510686.504,20.996,20.020,32.715,-5.859,129.883
1532510686.508,20.996,18.066,35.156,28.320,0.000
1532510686.512,40.039,17.090,35.645,40.527,-20.020
1532510686.516,45.410,18.066,37.598,54.688,55.664
1532510686.520,65.918,19.043,34.668,71.289,131.836
1532510686.524,71.777,20.996,34.180,62.988,60.547
1532510686.528,41.992,20.508,38.086,74.219,-77.148
1532510686.532,40.039,17.090,37.109,26.367,-3.906
1532510686.536,34.668,19.043,31.250,-22.949,38.574
1532510686.539,32.227,23.926,28.320,11.719,-28.320
1532510686.543,63.965,26.367,29.785,36.621,-21.484
1532510686.547,57.129,20.996,35.645,33.203,15.625
1532510686.551,36.621,20.020,36.133,30.762,122.070
1532510686.555,64.941,22.949,31.250,31.738,119.141
1532510686.559,75.684,23.438,30.273,15.625,-3.906
1532510686.563,52.734,27.344,29.785,21.484,-9.766
1532510686.567,52.734,27.344,30.762,27.832,104.980
1532510686.571,44.922,21.973,32.715,43.457,161.133
1532510686.575,16.602,20.996,33.203,32.715,4.395
1532510686.579,24.902,22.461,31.250,7.812,-93.262
1532510686.582,26.367,22.461,30.762,35.156,65.430
1532510686.586,27.832,24.902,32.227,36.621,178.711
1532510686.590,24.414,22.461,33.203,28.809,101.562
1532510686.594,5.859,21.484,32.715,47.852,-104.492
1532510686.598,9.277,22.461,31.738,28.320,-133.789
1532510686.602,7.324,20.996,32.715,5.859,100.098
1532510686.606,21.484,22.461,33.203,21.973,113.770
1532510686.610,45.410,21.973,35.156,46.387,-9.277
1532510686.614,47.363,24.902,38.574,47.363,-30.762
1532510686.618,40.039,30.273,37.598,43.457,92.773
1532510686.621,26.367,30.273,37.109,62.500,102.539
1532510686.625,20.020,31.738,30.273,14.648,-69.336
1532510686.629,38.086,31.250,28.809,5.371,-35.645
1532510686.633,54.199,27.832,37.598,41.504,79.590
1532510686.637,42.480,27.344,39.062,41.016,14.160
1532510686.641,44.922,27.832,32.715,45.410,-59.570
1532510686.645,43.945,31.250,32.227,55.176,-54.688
1532510686.649,31.738,31.738,36.133,42.480,68.848
1532510686.653,40.527,31.250,33.691,43.457,155.273
1532510686.657,31.250,30.762,38.574,66.406,56.152
1532510686.661,15.137,29.785,39.551,18.555,-29.785
1532510686.664,17.090,32.227,34.668,19.043,47.852
1532510686.668,58.594,35.156,33.203,36.133,137.695
1532510686.672,74.219,32.227,33.691,27.344,56.152
1532510686.676,20.996,25.879,36.621,50.781,-96.680
1532510686.680,13.184,24.902,37.109,62.500,-42.969
1532510686.684,33.691,24.902,37.109,19.043,131.348
1532510686.688,44.922,29.297,34.180,12.695,150.879
1532510686.692,31.250,37.109,28.809,22.949,22.461
1532510686.696,35.156,36.621,25.391,19.531,-114.746
1532510686.700,59.570,34.180,22.949,28.809,0.488
1532510686.704,61.035,35.156,25.879,54.688,162.109
1532510686.707,41.504,35.156,26.367,62.988,56.641
1532510686.711,17.578,31.738,28.320,27.832,-25.391
1532510686.715,27.344,31.738,28.809,17.578,9.766
1532510686.719,31.738,33.203,22.461,4.395,60.547
1532510686.723,32.227,31.738,21.484,28.809,21.484
1532510686.727,35.156,28.809,22.949,61.035,-44.434
1532510686.731,64.453,29.297,20.508,32.227,44.922
1532510686.735,54.199,32.715,16.602,-2.930,52.734
1532510686.739,3.418,30.273,20.508,4.395,-33.691
1532510686.743,21.484,27.832,19.531,26.367,-26.855
1532510686.746,32.227,28.809,20.020,34.180,9.277
1532510686.750,29.785,27.344,23.438,29.297,125.977
1532510686.754,46.875,29.785,21.973,20.020,136.230
1532510686.758,63.477,32.715,20.020,30.762,2.441
1532510686.762,63.477,31.250,22.949,51.758,-90.332
1532510686.766,32.715,25.879,24.414,19.043,20.508
1532510686.770,11.719,24.902,20.508,0.977,180.664
1532510686.774,22.461,22.949,21.973,32.715,37.109
1532510686.778,26.367,21.484,19.531,32.227,-182.617
1532510686.782,16.113,26.367,15.137,13.672,-21.484
1532510686.786,46.875,28.809,20.996,11.230,155.273
1532510686.789,57.129,30.762,23.438,20.020,75.195
1532510686.793,20.020,25.879,27.344,30.762,-48.340
1532510686.797,21.484,22.461,31.250,44.922,-28.809
1532510686.801,23.438,26.855,23.926,20.020,125.977
1532510686.805,22.461,29.297,21.484,46.875,127.930
1532510686.809,48.828,31.738,25.391,23.926,-44.922
1532510686.813,44.922,28.320,28.320,-1.465,-94.238
1532510686.817,43.457,27.344,26.855,25.879,-32.227
1532510686.821,46.875,33.203,26.367,30.273,58.105
1532510686.825,18.555,34.180,29.297,24.414,50.781
1532510686.828,20.508,27.832,28.809,31.738,-5.371
1532510686.832,37.109,29.785,26.367,45.410,71.289
1532510686.836,49.316,35.156,20.020,22.461,137.695
1532510686.840,45.898,29.785,21.973,10.742,80.078
1532510686.844,22.461,25.879,27.344,4.395,-16.602
1532510686.848,10.254,25.391,31.250,12.207,41.992
1532510686.852,21.484,24.902,30.273,46.875,133.789
1532510686.856,48.828,28.809,25.391,30.273,40.039
1532510686.860,41.992,30.762,26.367,15.137,-86.426
1532510686.864,8.789,24.414,31.250,24.414,-25.879
1532510686.868,15.137,21.973,30.273,23.438,121.582
1532510686.871,41.016,26.367,29.297,35.645,152.344
1532510686.875,42.480,24.902,32.227,39.062,-82.031
1532510686.879,41.504,28.809,25.879,27.344,-168.457
1532510686.883,26.855,33.691,21.973,17.090,82.031
1532510686.887,9.766,31.250,23.926,16.113,139.648
1532510686.891,26.367,31.250,22.461,16.602,26.367
1532510686.895,46.387,32.227,16.602,12.695,-45.410
1532510686.899,29.297,26.367,20.996,13.672,39.062
1532510686.903,4.395,19.531,29.297,3.906,130.371
1532510686.907,16.113,22.949,27.832,45.410,17.578
1532510686.911,54.199,29.297,26.855,70.312,-25.879
1532510686.914,49.805,31.250,20.996,-21.973,-17.578
1532510686.918,17.578,29.297,19.531,-7.812,6.836
1532510686.922,26.367,31.250,23.438,41.992,83.984
1532510686.926,59.082,32.227,23.438,26.367,8.301
1532510686.930,48.340,29.297,22.461,38.086,18.066
1532510686.934,3.418,29.785,18.555,48.340,137.695
1532510686.938,12.695,30.273,17.090,10.742,142.578
1532510686.942,26.855,27.344,20.996,24.414,11.230
1532510686.946,14.160,28.320,20.996,22.949,-12.695
1532510686.950,30.273,31.250,17.578,-6.348,92.773
1532510686.953,45.410,27.344,21.484,30.273,79.102
1532510686.957,14.648,25.879,20.020,1.465,-82.520
1532510686.961,13.184,24.902,20.508,-11.719,-66.895
1532510686.965,35.156,24.414,25.391,19.531,63.965
1532510686.969,34.180,26.855,23.926,25.879,187.500
1532510686.973,18.066,22.461,27.344,31.738,93.262
1532510686.977,43.945,23.438,28.809,45.898,-62.500
1532510686.981,60.059,29.297,24.902,35.156,16.113
1532510686.985,29.785,28.809,19.531,9.277,126.953
1532510686.989,23.438,31.250,16.113,9.277,121.582
1532510686.993,26.367,34.180,18.555,25.879,-23.926
1532510686.996,30.273,35.156,18.066,-3.418,-83.496
1532510687.000,28.320,33.691,20.996,-18.066,37.598
1532510687.004,13.672,30.762,27.832,38.086,109.375
1532510687.008,20.508,31.250,24.902,37.109,23.438
1532510687.012,23.926,31.250,22.949,17.090,-21.484
1532510687.016,27.344,29.297,21.973,4.883,-44.434
1532510687.020,30.762,30.273,21.484,17.578,46.875
1532510687.024,26.855,33.203,22.949,40.527,68.848
1532510687.028,47.852,33.691,23.926,43.457,-27.344
1532510687.032,38.574,33.203,20.996,12.695,41.504
1532510687.036,33.203,34.180,18.066,-5.859,107.910
1532510687.039,28.809,35.156,19.043,13.672,81.055
1532510687.043,49.316,36.133,20.508,37.598,-56.641
1532510687.047,49.805,29.297,26.855,58.105,-69.824
1532510687.051,17.090,24.414,21.973,22.461,128.418
1532510687.055,49.805,31.250,15.625,15.137,41.016
1532510687.059,45.410,31.738,20.508,28.320,-134.766
1532510687.063,3.418,30.273,21.973,12.207,-40.039
1532510687.067,21.484,33.203,15.625,7.812,77.148
1532510687.071,41.016,33.691,18.555,34.668,153.809
1532510687.075,56.641,34.668,23.438,27.344,36.133
1532510687.078,59.082,30.762,25.391,43.945,-64.941
1532510687.082,27.832,28.320,24.414,44.434,51.758
1532510687.086,23.926,31.738,22.949,5.859,159.180
1532510687.090,37.109,26.367,28.320,45.410,26.367
1532510687.094,56.152,20.508,35.156,92.773,-140.137
1532510687.098,70.801,29.785,27.832,41.016,-106.445
1532510687.102,47.852,39.551,21.484,-7.324,94.727
1532510687.106,7.812,42.969,25.879,0.000,121.094
1532510687.110,4.883,39.551,26.855,-11.230,-9.277
1532510687.114,6.348,42.969,23.926,-3.906,-31.738
1532510687.118,-13.184,49.805,22.949,-8.789,103.516
1532510687.121,-29.297,48.828,24.902,-34.180,133.789
1532510687.125,-45.898,46.387,27.344,-48.828,10.254
1532510687.129,-39.551,52.246,26.367,-68.359,7.324
1532510687.133,-46.875,60.547,22.949,-81.543,81.543
1532510687.137,-33.691,62.988,19.043,-82.520,54.688
1532510687.141,-30.273,62.012,18.555,-71.777,-22.461
1532510687.145,-65.918,63.477,20.508,-66.895,-29.785
1532510687.149,-61.523,67.871,21.484,-80.566,72.754
1532510687.153,-67.383,70.312,13.672,-122.559,131.348
1532510687.157,-79.102,64.453,16.602,-98.633,-70.312
1532510687.160,-60.059,59.082,23.926,-87.402,-126.465
1532510687.164,-65.430,60.547,17.090,-84.473,30.762
1532510687.168,-66.406,60.547,13.184,-59.570,144.043
1532510687.172,-62.012,58.105,12.207,-103.027,82.031
1532510687.176,-60.059,54.199,15.625,-92.285,-64.941
1532510687.180,-30.762,53.223,19.531,-46.875,-9.766
1532510687.184,-25.391,53.223,9.277,-60.547,82.031
1532510687.188,-14.648,50.293,6.836,-36.133,94.238
1532510687.192,-21.973,45.410,16.113,-14.648,36.621
1532510687.196,-32.715,43.945,14.648,-65.918,-114.258
1532510687.200,-17.090,40.527,18.066,-69.824,-27.344
1532510687.203,-17.578,36.621,15.625,-41.504,150.391
1532510687.207,3.906,39.062,-0.488,-9.277,37.598
1532510687.211,47.363,48.828,-4.883,20.508,-49.316
1532510687.215,23.438,33.203,7.324,-0.488,8.301
1532510687.219,-23.926,16.113,24.902,-28.809,141.113
1532510687.223,-16.113,23.926,27.344,-28.320,105.957
1532510687.227,8.789,25.879,20.996,10.254,-33.203
1532510687.231,20.508,25.391,23.926,20.508,-13.672
1532510687.235,12.207,25.879,22.461,3.418,5.371
1532510687.239,11.719,23.926,16.113,-11.230,-12.695
1532510687.243,19.531,21.484,13.672,-2.441,1.953
1532510687.246,26.367,19.043,15.137,25.391,10.254
1532510687.250,27.832,18.066,20.020,40.039,99.609
1532510687.254,54.199,17.090,20.996,34.180,94.238
1532510687.258,66.406,16.602,15.137,19.531,3.906
1532510687.262,45.898,12.695,20.996,42.480,-14.160
1532510687.266,40.527,12.695,29.297,56.152,77.637
1532510687.270,37.598,18.066,29.785,24.902,165.527
1532510687.274,39.062,20.020,28.320,18.066,20.508
1532510687.278,41.504,20.996,21.484,46.387,-98.145
1532510687.282,59.082,19.531,20.996,71.777,-18.066
1532510687.285,63.477,17.578,27.344,35.156,85.938
1532510687.289,41.016,16.602,29.785,22.949,83.496
1532510687.293,46.875,16.113,28.320,54.688,-62.988
1532510687.297,61.523,17.578,28.320,42.969,-132.812
1532510687.301,50.781,16.602,27.344,39.551,80.078
1532510687.305,57.617,14.160,27.344,52.734,149.414
1532510687.309,53.711,18.555,27.832,32.227,15.625
1532510687.313,39.062,19.531,23.438,19.043,-24.902
1532510687.317,43.945,20.508,26.855,37.598,77.148
1532510687.321,56.641,25.391,27.344,17.090,169.922
1532510687.325,67.383,28.809,20.508,16.602,0.000
1532510687.328,56.152,26.367,17.578,23.438,-80.078
1532510687.332,56.152,22.461,24.414,19.043,69.824
1532510687.336,74.219,24.902,32.227,42.480,19.531
1532510687.340,82.520,30.762,30.762,38.574,-39.062
1532510687.344,81.543,36.621,33.203,45.410,-6.836
1532510687.348,85.938,38.574,34.180,58.594,58.594
1532510687.352,68.359,38.574,25.879,25.391,180.664
1532510687.356,41.504,34.668,25.391,25.391,88.867
1532510687.360,40.527,37.109,26.367,43.457,-32.715
1532510687.364,23.926,42.480,23.926,34.668,25.879
1532510687.368,17.578,45.898,23.438,37.109,127.930
1532510687.371,19.043,47.363,22.461,24.902,122.559
1532510687.375,-12.695,47.852,20.508,-26.855,-98.145
1532510687.379,-25.391,54.199,18.555,-29.297,-161.133
1532510687.383,-25.391,65.430,16.113,-23.926,82.520
1532510687.387,-37.598,62.988,12.207,-39.062,175.781
1532510687.391,-52.246,51.270,10.742,-50.781,50.293
1532510687.395,-53.711,58.105,19.531,-60.059,-56.641
1532510687.399,-49.805,67.871,31.250,-14.160,48.828
1532510687.403,-67.871,65.918,34.180,-27.832,180.664
1532510687.407,-84.473,57.617,29.297,-118.652,85.938
1532510687.410,-69.824,58.105,14.648,-74.219,-56.641
1532510687.414,-47.363,67.871,9.277,-40.527,11.230
1532510687.418,-38.086,63.477,25.879,-60.547,118.652
1532510687.422,-50.781,54.199,32.715,-37.109,35.156
1532510687.426,-42.480,51.270,27.832,-22.949,-72.754
1532510687.430,-16.113,48.828,24.902,-20.996,8.789
1532510687.434,-8.789,40.527,24.414,-21.484,50.293
1532510687.438,-1.465,35.645,21.484,-8.301,10.742
1532510687.442,4.883,34.668,21.484,10.742,-2.930
1532510687.446,50.781,32.227,17.578,1.465,-20.996
1532510687.450,38.574,26.855,14.160,-1.953,89.355
1532510687.453,0.977,18.066,17.090,24.414,90.820
1532510687.457,19.043,17.090,19.043,41.016,-41.016
1532510687.461,34.668,11.230,20.020,27.344,-50.781
1532510687.465,31.250,8.789,19.531,31.250,-2.930
1532510687.469,30.762,13.184,21.973,41.016,74.707
1532510687.473,42.969,17.090,25.879,36.621,30.273
1532510687.477,32.715,15.137,26.367,65.918,-71.289
1532510687.481,45.898,2.930,25.879,63.965,10.254
1532510687.485,75.684,1.465,23.438,55.664,118.652
1532510687.489,73.730,15.625,21.484,84.473,100.098
1532510687.492,60.059,24.902,18.555,35.156,-18.555
1532510687.496,45.898,17.090,21.973,20.020,-111.328
1532510687.500,42.480,14.160,25.391,38.086,63.477
1532510687.504,44.434,16.602,24.414,48.340,161.133
1532510687.508,40.527,10.254,25.879,50.293,10.742
1532510687.512,73.242,-2.930,38.086,87.891,-69.336
1532510687.516,68.848,-4.883,41.016,59.082,-62.500
1532510687.520,39.062,7.324,25.879,-8.301,41.992
1532510687.524,50.781,9.277,28.320,38.086,78.613
1532510687.528,59.082,9.277,31.738,69.336,5.371
1532510687.532,55.176,13.672,28.809,59.082,44.922
1532510687.535,50.781,13.184,34.180,61.035,106.934
1532510687.539,75.684,14.648,33.691,74.219,97.656
1532510687.543,56.641,20.020,31.738,63.477,21.484
1532510687.547,29.297,27.832,33.203,59.570,41.992
1532510687.551,56.152,22.949,33.691,85.938,143.555
1532510687.555,43.945,8.789,32.227,43.457,114.746
1532510687.559,41.504,13.672,24.414,19.531,-10.254
1532510687.563,41.992,21.973,21.973,42.480,-70.312
1532510687.567,37.598,19.531,31.738,40.039,49.316
1532510687.571,53.223,18.066,35.156,46.387,163.574
1532510687.575,73.242,21.484,29.785,50.293,-33.203
1532510687.578,70.312,28.320,28.809,35.156,-164.551
1532510687.582,39.062,26.855,30.762,76.660,57.617
1532510687.586,41.504,25.879,31.250,73.730,174.805
1532510687.590,48.340,26.855,31.738,20.996,80.566
1532510687.594,71.777,31.250,33.691,45.410,-36.621
1532510687.598,87.891,35.645,34.668,55.176,26.367
1532510687.602,51.758,28.809,36.621,56.641,149.414
1532510687.606,29.785,19.531,42.969,71.777,69.824
1532510687.610,38.086,22.949,32.227,51.270,-57.617
1532510687.614,47.852,28.809,26.855,27.344,-75.684
1532510687.617,42.969,29.297,35.156,27.344,-6.348
1532510687.621,63.477,30.762,34.180,43.457,79.102
1532510687.625,64.941,35.156,39.551,58.105,1.953
1532510687.629,26.855,32.227,36.621,40.039,-5.371
1532510687.633,35.156,33.691,24.414,31.738,77.637
1532510687.637,49.805,41.504,34.180,48.828,120.605
1532510687.641,61.035,35.156,41.992,66.895,58.105
1532510687.645,52.246,33.203,44.434,91.797,-41.016
1532510687.649,44.922,40.527,42.969,37.598,60.059
1532510687.653,35.645,31.250,39.062,6.836,120.605
1532510687.657,45.410,28.320,41.992,45.410,-76.172
1532510687.660,69.336,41.504,39.551,47.363,-125.977
1532510687.664,31.738,43.457,36.133,28.809,23.926
1532510687.668,9.277,39.551,34.180,38.574,138.672
1532510687.672,43.457,27.832,34.668,34.180,111.328
1532510687.676,57.617,27.344,40.039,49.316,-36.133
1532510687.680,29.297,41.992,40.039,52.246,1.953
1532510687.684,24.414,35.645,33.203,25.391,135.254
1532510687.688,34.180,31.738,30.762,40.039,131.836
1532510687.692,25.391,40.039,32.715,22.461,21.973
1532510687.696,34.668,39.551,37.598,51.758,-59.570
1532510687.700,39.062,38.086,39.551,72.754,23.438
1532510687.703,28.320,40.527,31.738,17.090,98.633
1532510687.707,37.598,38.086,31.250,34.668,27.344
1532510687.711,40.527,35.645,35.156,62.988,-2.930
1532510687.715,32.227,38.574,38.086,29.785,-48.828
1532510687.719,24.414,35.645,41.016,18.555,1.953
1532510687.723,24.414,35.645,38.086,37.109,96.680
1532510687.727,44.434,37.598,39.062,41.504,-4.883
1532510687.731,62.988,32.715,42.969,47.363,39.062
1532510687.735,43.945,40.527,32.227,34.668,109.863
1532510687.739,43.945,44.434,32.715,38.086,60.547
1532510687.742,47.363,36.621,48.340,52.734,-12.207
1532510687.746,9.766,33.203,50.781,45.898,-77.637
1532510687.750,3.906,29.297,43.457,37.109,40.039
1532510687.754,26.855,30.762,41.504,37.598,69.824
1532510687.758,12.207,24.414,42.480,47.852,-92.773
1532510687.762,24.902,17.578,43.945,50.293,-41.016
1532510687.766,42.969,31.250,49.316,20.508,83.496
1532510687.770,10.742,35.645,49.805,13.184,147.949
1532510687.774,8.789,31.250,43.945,38.574,33.203
1532510687.778,36.133,31.738,42.480,53.711,-71.777
1532510687.782,66.895,29.785,37.598,49.316,39.551
1532510687.785,39.551,29.785,30.762,36.133,124.512
1532510687.789,13.184,32.715,32.227,50.293,83.008
1532510687.793,19.531,32.715,36.621,41.992,-77.148
1532510687.797,20.020,33.691,42.480,41.016,-112.305
1532510687.801,37.109,32.227,40.527,35.645,112.793
1532510687.805,39.551,38.574,33.203,39.551,144.531
1532510687.809,35.156,40.039,37.109,70.801,23.926
1532510687.813,36.133,29.785,38.574,35.156,-35.156
1532510687.817,23.438,27.344,38.086,37.109,5.371
1532510687.821,38.086,26.855,41.504,51.270,101.562
1532510687.825,43.457,30.762,36.621,46.875,26.855
1532510687.828,25.391,37.109,32.715,57.129,-18.066
1532510687.832,21.973,38.574,36.133,29.785,57.129
1532510687.836,36.133,40.527,36.621,27.344,94.238
1532510687.840,24.902,37.598,38.086,45.410,30.273
1532510687.844,28.320,39.551,35.645,38.086,-107.422
1532510687.848,41.504,40.527,31.250,34.668,-34.180
1532510687.852,54.199,37.598,33.203,45.410,156.250
1532510687.856,67.383,41.504,32.715,46.387,-16.113
1532510687.860,25.391,41.016,27.832,39.062,-153.320
1532510687.864,1.465,31.250,36.621,59.082,-0.488
1532510687.867,24.414,34.180,40.039,47.852,120.605
1532510687.871,40.039,47.363,30.762,23.926,121.094
1532510687.875,47.363,49.316,33.691,51.758,-6.348
1532510687.879,53.711,46.875,38.086,46.387,-20.508
1532510687.883,44.434,48.828,37.598,55.176,107.422
1532510687.887,41.992,44.922,38.574,71.289,121.582
1532510687.891,39.062,42.480,42.480,52.734,-7.324
1532510687.895,41.016,43.457,41.504,33.691,-117.676
1532510687.899,41.992,43.457,35.156,39.062,-56.152
1532510687.903,36.621,46.875,33.203,32.227,158.203
1532510687.907,32.715,46.875,34.180,24.414,93.262
1532510687.910,22.461,43.945,32.715,40.527,0.000
1532510687.914,29.785,42.480,34.668,35.645,32.227
1532510687.918,52.734,41.504,34.668,65.430,114.258
1532510687.922,38.086,37.598,31.250,58.594,138.184
1532510687.926,18.555,39.062,33.203,3.418,18.555
1532510687.930,33.691,46.875,37.109,20.020,23.438
1532510687.934,30.762,46.387,37.109,36.621,89.844
1532510687.938,30.273,39.062,40.039,51.270,48.828
1532510687.942,37.109,35.645,42.969,39.062,-21.973
1532510687.946,35.156,36.621,38.086,22.461,-20.508
1532510687.949,28.809,40.527,37.598,41.016,102.051
1532510687.953,25.879,46.875,37.109,21.973,79.102
1532510687.957,23.926,49.316,32.227,-1.953,-85.938
1532510687.961,32.227,47.363,30.762,14.648,-42.480
1532510687.965,46.387,41.992,32.227,40.527,49.805
1532510687.969,49.316,41.016,31.250,42.480,146.973
1532510687.973,21.973,49.316,27.344,25.879,82.031
1532510687.977,7.812,40.039,33.203,20.996,-38.086
1532510687.981,16.113,37.109,36.133,22.461,-6.348
1532510687.985,25.879,45.410,33.203,25.879,59.570
1532510687.989,32.227,40.039,31.250,16.113,113.770
1532510687.992,16.602,32.715,32.715,47.363,1.953
1532510687.996,11.230,33.691,29.785,26.855,-145.996
1532510688.000,31.250,29.297,28.809,6.836,-3.906
1532510688.004,21.973,23.926,33.203,35.156,113.281
1532510688.008,20.508,30.273,33.203,28.809,13.672
1532510688.012,29.785,37.598,33.691,10.254,-15.625
1532510688.016,33.691,40.039,27.832,22.949,34.668
1532510688.020,23.926,31.738,21.973,44.434,128.418
1532510688.024,19.043,28.809,25.879,53.223,98.633
1532510688.028,37.109,33.203,21.484,30.762,-51.758
1532510688.032,36.621,31.250,15.137,22.949,-23.926
1532510688.035,44.434,35.156,20.508,26.367,3.906
1532510688.039,51.270,35.156,24.902,11.719,-27.344
1532510688.043,44.922,30.273,19.531,47.363,-5.859
1532510688.047,31.738,24.902,19.531,61.035,23.438
1532510688.051,20.508,23.926,24.902,41.504,129.883
1532510688.055,15.625,29.785,23.438,48.828,87.891
1532510688.059,25.879,34.668,24.902,39.062,-13.672
1532510688.063,47.363,28.809,26.855,21.973,20.020
1532510688.067,41.016,24.902,24.902,29.297,125.488
1532510688.071,45.410,32.715,29.297,35.645,134.766
1532510688.074,49.805,35.156,29.297,27.832,12.695
1532510688.078,36.133,31.738,26.855,25.391,-74.219
1532510688.082,38.574,29.297,31.738,30.762,39.062
1532510688.086,57.129,33.691,31.738,10.742,161.133
1532510688.090,64.941,32.227,29.297,23.926,90.332
1532510688.094,35.645,27.344,32.227,29.297,-94.238
1532510688.098,58.594,27.344,34.668,15.137,-131.348
1532510688.102,47.363,20.996,35.645,35.156,99.609
1532510688.106,6.836,14.160,38.086,47.852,139.648
1532510688.110,22.949,27.344,30.762,22.461,6.836
1532510688.114,25.391,32.715,33.203,41.504,-21.484
1532510688.117,17.578,29.297,38.086,66.406,66.406
1532510688.121,40.039,29.297,33.691,32.227,80.078
1532510688.125,35.156,22.949,36.621,23.438,-63.477
1532510688.129,14.160,21.484,41.504,34.668,-46.875
1532510688.133,17.578,20.508,40.039,38.086,62.988
1532510688.137,21.973,23.438,35.156,37.109,0.488
1532510688.141,41.504,31.250,36.133,43.945,-27.344
1532510688.145,44.434,32.715,35.156,33.203,-2.441
1532510688.149,22.949,24.902,34.668,29.297,74.707
1532510688.153,22.949,22.461,38.574,38.086,119.629
1532510688.157,22.949,26.855,38.086,28.809,23.926
1532510688.160,24.414,27.344,39.062,34.668,-20.508
1532510688.164,31.738,22.949,39.062,57.617,60.547
1532510688.168,50.293,20.508,38.086,14.648,116.211
1532510688.172,47.852,24.414,40.527,13.184,53.223
1532510688.176,20.996,20.996,45.410,47.852,-114.746
1532510688.180,15.625,23.438,40.527,6.348,-108.887
1532510688.184,20.508,32.227,40.527,41.504,105.957
1532510688.188,19.531,31.738,43.945,66.406,120.117
1532510688.192,35.156,29.785,37.598,-10.742,-3.418
1532510688.196,43.945,24.902,38.086,1.953,-37.598
1532510688.199,7.324,18.066,38.574,16.113,104.980
1532510688.203,7.812,21.484,34.668,24.902,170.898
1532510688.207,22.949,26.367,37.598,46.387,50.293
1532510688.211,33.691,25.879,38.086,31.250,-20.508
1532510688.215,56.152,22.461,36.621,16.602,5.859
1532510688.219,43.457,29.785,32.715,20.020,64.941
1532510688.223,13.672,36.621,29.297,42.480,41.504
1532510688.227,11.719,26.367,31.738,34.180,-42.480
1532510688.231,35.645,25.391,35.645,23.438,31.250
1532510688.235,39.062,26.855,38.574,36.621,59.570
1532510688.239,17.578,23.926,41.016,9.766,5.859
1532510688.242,20.508,26.367,38.086,0.488,11.230
1532510688.246,32.227,27.832,34.180,18.066,11.719
1532510688.250,20.020,26.855,35.645,40.039,117.676
1532510688.254,24.902,21.484,40.527,21.973,118.652
1532510688.258,53.223,22.461,41.992,2.441,1.953
1532510688.262,38.574,27.832,36.133,21.973,-57.129
1532510688.266,6.836,20.996,35.156,19.043,12.695
1532510688.270,8.301,19.531,39.062,13.184,125.488
1532510688.274,16.602,29.785,40.039,10.742,16.113
1532510688.278,33.691,30.273,38.574,32.227,-139.648
1532510688.281,40.039,25.391,37.109,36.621,-4.395
1532510688.285,23.926,24.414,42.480,19.043,160.156
1532510688.289,23.438,26.367,44.434,30.762,115.234
1532510688.293,37.598,31.738,39.062,30.273,-37.598
1532510688.297,37.109,30.273,34.180,19.043,-21.973
1532510688.301,38.086,22.949,36.621,11.230,109.863
1532510688.305,35.645,25.879,35.156,11.719,113.770
1532510688.309,22.949,30.273,33.203,38.574,-1.953
1532510688.313,45.898,26.855,36.621,35.156,-58.594
1532510688.317,63.965,33.203,36.621,3.906,-36.133
1532510688.321,52.246,40.527,32.715,14.160,41.504
1532510688.324,33.203,34.180,37.598,27.832,31.738
1532510688.328,23.926,26.367,41.992,27.832,-43.945
1532510688.332,24.414,28.809,37.109,35.645,18.555
1532510688.336,57.129,37.109,31.738,41.504,99.609
1532510688.340,68.848,33.203,29.297,37.598,58.594
1532510688.344,13.672,26.855,32.715,30.273,-15.137
1532510688.348,25.879,29.297,35.156,41.016,33.203
1532510688.352,48.828,20.508,35.645,39.062,132.812
1532510688.356,29.297,16.602,33.691,10.742,51.270
1532510688.360,20.508,20.508,33.203,35.156,-46.387
1532510688.364,24.902,26.367,30.273,47.852,6.836
1532510688.367,48.340,28.809,26.367,32.227,102.539
1532510688.371,43.945,29.297,30.273,33.691,148.438
1532510688.375,26.367,32.715,35.156,2.930,-68.848
1532510688.379,28.809,36.133,34.668,0.488,-144.531
1532510688.383,36.133,34.180,33.691,35.156,87.891
1532510688.387,18.066,27.832,37.598,48.828,137.207
1532510688.391,12.207,23.926,41.016,46.875,34.668
1532510688.395,36.133,19.531,38.574,41.016,-53.711
1532510688.399,33.203,20.996,32.227,15.137,42.480
1532510688.403,23.438,28.809,37.109,25.391,106.934
1532510688.406,29.297,32.227,40.527,45.410,-15.137
1532510688.410,55.664,29.297,36.621,51.270,-19.043
1532510688.414,22.949,32.227,33.691,42.480,-58.105
1532510688.418,9.277,27.832,33.203,15.137,-53.711
1532510688.422,30.762,22.461,34.668,2.930,80.566
1532510688.426,29.785,30.273,32.227,25.879,8.301
1532510688.430,37.109,32.227,32.227,53.711,-2.930
1532510688.434,49.805,24.902,33.691,20.508,96.191
1532510688.438,46.875,15.625,38.086,12.695,112.793
1532510688.442,18.555,21.973,37.598,20.508,40.527
1532510688.446,20.996,23.438,28.809,29.297,-39.062
1532510688.449,27.832,21.484,29.297,28.809,9.766
1532510688.453,11.719,29.785,36.133,21.484,42.480
1532510688.457,25.391,32.715,37.109,36.621,-101.074
1532510688.461,47.363,33.203,28.320,26.367,-86.426
1532510688.465,35.645,29.297,29.297,28.320,78.125
1532510688.469,26.855,21.484,37.598,32.715,187.500
1532510688.473,25.879,18.555,34.668,17.090,78.613
1532510688.477,34.180,22.461,33.203,23.926,-72.266
1532510688.481,43.457,32.227,35.645,22.949,24.414
1532510688.485,20.020,31.738,31.738,20.020,153.320
1532510688.489,7.812,25.879,32.227,37.598,140.137
1532510688.492,31.738,23.438,34.668,16.113,-5.859
1532510688.496,28.809,19.043,32.715,17.090,-78.613
1532510688.500,47.852,23.438,32.227,35.645,23.438
1532510688.504,53.223,31.738,28.809,33.691,91.797
1532510688.508,17.578,22.461,32.715,40.039,18.555
1532510688.512,26.367,10.254,30.273,29.785,-29.785
1532510688.516,28.809,15.137,30.762,19.531,-36.621
1532510688.520,14.648,23.926,36.621,26.855,42.480
1532510688.524,29.297,24.902,34.180,67.871,44.434
1532510688.528,16.602,23.438,33.203,53.711,-29.297
1532510688.531,20.508,24.902,31.250,1.465,62.012
1532510688.535,43.457,25.879,34.668,26.367,140.625
1532510688.539,21.973,27.344,29.297,40.527,89.355
1532510688.543,0.977,23.926,24.902,9.277,-17.578
1532510688.547,12.207,19.043,32.715,-4.883,-9.766
1532510688.551,20.996,15.137,35.645,20.508,141.602
1532510688.555,22.949,17.578,37.109,23.438,63.965
1532510688.559,24.902,23.926,32.715,9.766,-116.699
1532510688.563,26.367,25.879,34.180,21.484,-22.949
1532510688.567,19.531,30.762,35.156,22.949,127.930
1532510688.571,12.207,29.297,32.227,14.160,183.594
1532510688.574,24.414,24.902,32.227,7.812,24.414
1532510688.578,15.137,26.855,33.203,24.902,-49.805
1532510688.582,42.969,31.250,29.785,37.109,77.637
1532510688.586,33.691,26.855,27.832,10.742,166.016
1532510688.590,13.672,21.973,33.203,5.371,64.941
1532510688.594,35.156,17.578,39.062,16.113,-119.629
1532510688.598,15.137,15.625,37.109,36.133,-111.328
1532510688.602,6.836,24.414,32.227,28.320,95.215
1532510688.606,30.273,27.832,32.227,5.859,105.469
1532510688.610,24.902,27.832,30.273,5.371,-5.859
1532510688.613,6.836,28.809,27.832,21.484,-19.531
1532510688.617,23.926,29.785,24.902,20.996,85.449
1532510688.621,12.207,30.762,23.438,-5.859,113.770
1532510688.625,7.324,25.879,30.273,8.789,5.371
1532510688.629,12.207,21.973,36.133,36.133,-20.020
1532510688.633,16.602,26.367,29.785,43.945,51.758
1532510688.637,61.523,27.832,26.367,14.160,87.891
1532510688.641,33.203,23.438,27.832,3.906,-3.418
1532510688.645,0.977,18.555,30.273,27.344,-57.129
1532510688.649,16.113,24.414,30.273,28.809,55.664
1532510688.653,31.250,29.785,28.809,-5.859,127.930
1532510688.656,48.340,24.414,34.180,29.297,20.996
1532510688.660,2.930,20.020,36.133,35.156,-67.383
1532510688.664,11.230,26.367,32.715,-0.977,12.695
1532510688.668,48.340,35.156,34.668,39.551,139.160
1532510688.672,42.969,35.156,32.715,41.016,102.539
1532510688.676,26.855,28.809,29.785,2.441,-111.816
1532510688.680,34.180,28.809,35.156,1.465,-76.660
1532510688.684,31.250,30.273,37.598,11.230,83.008
1532510688.688,20.508,31.250,36.621,48.340,77.148
1532510688.692,37.598,29.785,34.668,36.621,27.832
1532510688.696,50.781,27.344,33.691,-24.902,-122.070
1532510688.699,60.059,27.832,38.086,11.719,-49.316
1532510688.703,31.250,34.180,36.621,21.484,167.480
1532510688.707,-3.906,38.574,32.227,21.973,86.914
1532510688.711,25.391,41.504,32.227,41.504,-8.789
1532510688.715,32.715,39.062,28.809,12.207,41.504
1532510688.719,22.949,31.250,32.227,-12.207,130.859
1532510688.723,33.691,28.320,38.086,14.160,92.773
1532510688.727,32.715,33.691,34.668,39.551,-13.184
1532510688.731,31.250,34.668,35.645,51.758,-9.277
1532510688.735,35.645,31.250,38.086,33.691,-13.184
1532510688.738,34.180,31.738,38.086,16.602,-49.805
1532510688.742,34.668,36.133,35.156,21.484,-38.086
1532510688.746,41.992,32.715,35.645,35.645,12.207
1532510688.750,22.949,28.320,37.109,53.711,90.332
1532510688.754,14.648,33.203,30.762,9.277,73.730
1532510688.758,34.668,40.039,31.250,-5.371,8.789
1532510688.762,40.039,31.250,33.691,43.945,-29.785
1532510688.766,50.293,29.297,30.273,48.340,73.730
1532510688.770,44.434,38.086,26.855,34.180,159.668
1532510688.774,13.184,40.039,22.949,10.742,49.316
1532510688.778,34.180,32.715,26.367,23.926,-79.102
1532510688.781,49.316,25.391,28.320,59.082,-43.457
1532510688.785,31.250,29.297,26.367,26.855,93.262
1532510688.789,31.250,30.762,24.902,0.000,107.422
1532510688.793,24.414,27.344,22.949,16.113,-52.246
1532510688.797,5.371,31.738,23.438,14.648,-115.723
1532510688.801,21.973,36.133,27.344,26.367,79.102
1532510688.805,30.762,36.621,27.832,20.996,156.738
1532510688.809,32.227,31.250,26.367,19.531,14.648
1532510688.813,40.527,26.855,31.738,43.457,-39.551
1532510688.817,34.668,33.203,36.133,53.711,66.406
1532510688.821,35.156,40.039,35.645,24.902,148.926
1532510688.824,37.598,36.133,34.180,17.090,9.277
1532510688.828,39.062,38.086,32.227,19.043,-92.773
1532510688.832,49.316,40.527,31.738,-9.766,45.898
1532510688.836,52.734,35.156,34.668,10.742,39.062
1532510688.840,49.316,32.715,33.691,9.277,-49.316
1532510688.844,46.387,24.414,34.180,-7.812,-28.320
1532510688.848,22.461,35.156,34.668,19.043,53.711
1532510688.852,44.922,51.758,26.855,9.766,145.996
1532510688.856,61.523,47.363,25.391,29.785,76.172
1532510688.860,14.160,31.250,37.598,57.617,-7.324
1532510688.863,7.812,21.973,42.969,33.203,11.230
1532510688.867,15.625,24.414,36.621,11.719,101.562
1532510688.871,-0.977,30.273,33.691,28.320,89.844
1532510688.875,16.602,29.297,34.668,34.180,-117.188
1532510688.879,-2.441,14.648,33.691,-2.930,-141.113
1532510688.883,-7.324,13.672,31.738,18.555,71.777
1532510688.887,-0.488,22.461,34.180,47.852,145.508
1532510688.891,-6.836,22.949,32.227,14.160,69.336
1532510688.895,24.902,30.273,28.320,3.906,-39.551
1532510688.899,23.926,33.203,32.227,7.812,8.789
1532510688.903,7.812,29.785,33.203,23.438,149.414
1532510688.906,19.531,35.645,30.762,37.598,95.215
1532510688.910,25.879,30.762,30.762,27.832,-40.527
1532510688.914,3.906,22.949,36.621,10.742,-12.207
1532510688.918,-8.789,25.391,39.551,9.766,73.242
1532510688.922,27.832,26.367,38.086,30.273,25.391
1532510688.926,24.902,24.414,35.156,17.090,-39.551
1532510688.930,3.418,24.902,37.109,21.484,38.574
1532510688.934,32.227,26.367,41.504,20.508,96.680
1532510688.938,18.555,32.227,37.109,-2.441,16.602
1532510688.942,6.836,35.645,37.109,28.809,-39.551
1532510688.946,20.996,35.645,38.574,31.738,-20.020
1532510688.949,24.414,31.738,35.156,18.555,105.957
1532510688.953,32.715,28.809,34.180,24.414,127.930
1532510688.957,32.715,31.250,36.621,14.160,21.973
1532510688.961,30.273,34.180,37.598,23.438,-17.578
1532510688.965,22.461,33.691,38.574,27.344,6.348
1532510688.969,13.672,32.227,39.551,12.207,84.473
1532510688.973,21.973,32.715,40.527,4.395,37.109
1532510688.977,25.391,32.227,39.551,19.043,-144.531
1532510688.981,16.602,26.367,37.598,35.645,-49.805
1532510688.985,30.273,20.996,40.527,41.016,148.926
1532510688.988,30.273,21.973,41.016,23.438,129.883
1532510688.992,21.973,23.926,38.086,17.090,3.906
1532510688.996,29.297,30.273,38.574,29.297,-40.527
1532510689.000,30.762,31.250,42.480,54.199,95.215
1532510689.004,29.297,27.344,42.480,12.695,142.578
1532510689.008,6.348,30.273,39.551,-2.441,46.875
1532510689.012,36.621,37.109,36.133,52.246,-17.090
1532510689.016,49.805,29.297,36.133,21.973,-54.688
1532510689.020,6.348,25.879,40.527,4.395,31.738
1532510689.024,12.695,36.133,39.551,30.273,74.707
1532510689.028,31.250,33.691,40.039,36.133,-11.230
1532510689.031,35.645,28.809,40.527,33.691,46.875
1532510689.035,34.180,22.461,38.574,11.719,124.512
1532510689.039,39.062,22.461,39.062,13.184,85.449
1532510689.043,32.227,26.367,39.551,37.598,7.324
1532510689.047,14.648,26.855,37.598,24.414,23.926
1532510689.051,15.137,32.715,33.691,4.883,131.348
1532510689.055,31.250,27.344,36.133,21.973,120.117
1532510689.059,44.434,21.973,48.828,54.688,-44.434
1532510689.063,46.875,28.809,42.480,41.992,-66.406
1532510689.067,38.086,29.297,30.273,4.883,76.172
1532510689.070,33.691,33.691,31.250,0.000,133.789
1532510689.074,22.461,35.156,32.715,-0.488,-20.996
1532510689.078,30.273,29.785,34.180,35.645,-157.715
1532510689.082,24.902,33.691,33.691,29.785,24.902
1532510689.086,43.457,32.227,25.879,-23.438,172.852
1532510689.090,72.266,34.668,24.902,11.230,72.266
1532510689.094,23.926,41.016,29.297,34.668,-62.012
1532510689.098,0.488,33.691,32.715,-13.184,2.441
1532510689.102,13.184,33.203,37.109,-10.254,164.551
1532510689.106,33.203,38.574,34.180,15.137,100.098
1532510689.110,38.574,36.133,35.156,30.762,-31.738
1532510689.113,23.926,27.832,38.574,23.438,-35.156
1532510689.117,22.461,26.855,36.133,4.883,-35.156
1532510689.121,19.043,34.668,33.691,6.348,51.270
1532510689.125,21.484,30.273,36.133,32.715,31.250
1532510689.129,27.344,25.391,32.227,43.945,32.715
1532510689.133,47.363,37.598,30.273,4.395,83.496
1532510689.137,40.039,41.504,37.598,14.648,98.633
1532510689.141,12.695,34.668,35.156,24.414,62.500
1532510689.145,20.508,27.344,31.250,22.461,-30.273
1532510689.149,25.879,26.367,35.645,27.832,49.316
1532510689.153,17.090,32.227,37.109,7.812,128.418
1532510689.156,40.039,30.273,39.062,34.180,-38.574
1532510689.160,35.156,27.832,38.574,31.250,-104.004
1532510689.164,-2.441,34.668,33.203,-12.695,23.438
1532510689.168,13.184,37.598,33.691,-1.953,147.461
1532510689.172,24.414,36.133,34.668,20.508,93.750
1532510689.176,39.062,32.227,36.621,30.273,-72.754
1532510689.180,36.133,31.250,35.156,13.672,-19.531
1532510689.184,24.414,34.180,37.598,5.371,125.977
1532510689.188,20.020,31.250,38.086,19.531,132.324
1532510689.192,19.043,31.738,37.109,29.785,-1.953
1532510689.195,37.598,29.785,39.062,9.277,-81.543
1532510689.199,34.180,30.762,33.691,2.930,-2.441
1532510689.203,10.254,30.273,32.227,11.230,108.887
1532510689.207,11.230,28.320,31.738,0.488,65.918
1532510689.211,22.461,36.621,31.250,18.555,-11.230
1532510689.215,35.156,35.156,33.203,6.836,-63.965
1532510689.219,27.832,28.809,36.621,11.719,9.766
1532510689.223,29.297,34.180,33.691,42.969,95.215
1532510689.227,35.156,41.016,29.297,11.719,-9.277
1532510689.231,11.719,41.504,29.297,-15.625,-2.441
1532510689.235,20.020,32.227,30.273,5.371,102.539
1532510689.238,40.527,26.367,32.715,9.766,123.535
1532510689.242,37.598,30.762,32.715,16.602,14.648
1532510689.246,25.879,31.738,30.273,30.273,-61.035
1532510689.250,20.508,35.156,25.879,23.438,65.918
1532510689.254,38.086,37.109,30.762,-1.465,70.312
1532510689.258,29.297,35.645,34.668,-16.602,-93.750
1532510689.262,-1.465,33.203,29.785,-4.395,-38.086
1532510689.266,10.742,30.273,34.180,18.066,66.406
1532510689.270,34.668,33.203,35.645,23.926,162.598
1532510689.274,28.809,29.297,36.133,30.273,61.035
1532510689.278,39.062,23.926,35.156,51.270,-70.312
1532510689.281,47.852,32.715,34.668,17.090,14.648
1532510689.285,28.809,38.086,35.645,-10.254,125.488
1532510689.289,18.555,27.832,39.062,18.555,104.980
1532510689.293,22.949,29.785,36.621,13.184,-73.242
1532510689.297,27.832,37.109,36.621,3.906,-127.930
1532510689.301,32.227,30.273,38.086,18.066,50.293
1532510689.305,17.090,25.879,34.668,33.203,103.027
1532510689.309,10.254,30.762,35.156,32.715,16.602
1532510689.313,22.461,35.645,32.715,12.207,-61.523
1532510689.317,42.969,37.109,30.273,-9.277,1.953
1532510689.320,41.992,32.227,31.738,-0.488,102.051
1532510689.324,26.367,28.320,36.621,43.457,7.812
1532510689.328,22.461,30.762,36.133,41.504,-32.715
1532510689.332,26.855,30.273,30.762,10.742,41.992
1532510689.336,26.855,29.785,30.762,-4.395,102.051
1532510689.340,46.387,29.785,34.668,33.203,21.484
1532510689.344,54.688,33.691,29.297,49.805,-84.473
1532510689.348,20.996,34.668,25.391,2.930,-5.371
1532510689.352,1.953,24.414,34.668,2.441,144.043
1532510689.356,13.672,26.367,39.062,15.137,113.770
1532510689.360,20.508,34.180,35.645,26.855,-19.531
1532510689.363,42.969,32.715,35.645,19.531,-2.930
1532510689.367,38.574,31.250,36.133,18.555,121.094
1532510689.371,17.090,28.320,35.645,36.621,178.711
1532510689.375,30.762,26.855,35.156,-0.977,-73.242
1532510689.379,22.949,22.461,32.715,-5.371,-137.207
1532510689.383,13.672,27.832,32.715,25.391,82.520
1532510689.387,33.691,34.180,33.691,31.738,83.496
1532510689.391,47.363,29.785,31.250,35.645,20.996
1532510689.395,15.625,26.367,32.715,21.484,-101.074
1532510689.399,3.418,31.738,31.738,7.324,-87.891
1532510689.402,32.715,37.109,23.438,21.973,142.090
1532510689.406,36.621,32.227,20.020,17.578,104.980
1532510689.410,39.062,30.762,23.438,0.977,-23.926
1532510689.414,42.480,32.715,25.879,3.418,0.977
1532510689.418,11.719,30.273,26.367,26.367,121.582
1532510689.422,15.137,28.320,24.414,12.695,160.645
1532510689.426,38.086,26.367,22.461,26.855,32.227
1532510689.430,36.133,27.344,25.391,43.457,3.906
1532510689.434,33.203,30.273,28.809,4.883,59.570
1532510689.438,37.598,29.297,30.762,21.484,43.945
1532510689.442,31.738,34.180,35.156,33.691,10.254
1532510689.445,22.461,34.668,36.621,12.695,-1.953
1532510689.449,27.832,30.273,37.598,30.762,98.633
1532510689.453,45.898,35.156,38.086,40.527,134.766
1532510689.457,42.480,38.574,35.645,9.277,-7.324
1532510689.461,30.762,28.320,36.621,-0.488,-38.574
1532510689.465,34.180,20.020,37.109,25.879,18.555
1532510689.469,39.062,27.832,37.598,38.574,125.488
1532510689.473,43.457,32.715,32.227,16.113,62.988
1532510689.477,24.414,32.227,28.809,11.230,-104.980
1532510689.481,5.859,30.762,30.762,17.578,-76.660
1532510689.485,9.766,23.926,32.715,24.902,41.016
1532510689.488,11.230,17.578,37.109,25.391,117.188
1532510689.492,22.461,18.555,38.574,17.090,19.043
1532510689.496,35.645,26.855,36.133,4.395,-132.812
1532510689.500,25.879,30.762,38.086,12.695,-7.324
1532510689.504,16.602,27.344,37.109,33.691,159.668
1532510689.508,15.625,32.227,32.227,13.672,66.406
1532510689.512,29.297,28.809,34.668,10.742,-3.906
1532510689.516,45.410,25.391,37.109,29.785,39.551
1532510689.520,29.785,31.250,35.645,10.742,137.207
1532510689.524,10.254,23.926,38.574,21.484,91.309
1532510689.527,26.855,21.484,40.039,42.969,-77.148
1532510689.531,23.438,22.461,35.156,16.113,-14.160
1532510689.535,19.531,24.414,35.156,2.930,42.480
1532510689.539,32.227,24.902,32.227,17.090,-10.742
1532510689.543,23.926,20.020,32.715,25.879,-35.645
1532510689.547,13.672,22.949,33.203,10.742,-3.418
1532510689.551,37.109,25.391,37.109,19.043,134.766
1532510689.555,37.109,27.832,40.039,30.273,119.629
1532510689.559,2.930,27.344,32.227,15.625,-1.465
1532510689.563,23.926,22.949,33.203,30.273,-20.996
1532510689.567,34.668,29.297,34.180,45.410,73.730
1532510689.570,41.504,27.344,29.785,25.391,132.812
1532510689.574,40.039,16.602,31.738,14.648,-6.348
1532510689.578,6.348,22.461,34.180,16.602,-116.699
1532510689.582,16.602,29.785,37.598,14.648,8.301
1532510689.586,27.832,24.414,43.457,39.551,125.488
1532510689.590,32.227,24.902,40.039,25.879,72.754
1532510689.594,33.203,29.785,36.133,3.906,-109.863
1532510689.598,32.715,24.414,40.527,19.531,-139.160
1532510689.602,32.227,18.066,43.945,55.664,76.172
1532510689.606,11.230,20.508,42.480,31.250,114.746
1532510689.610,4.395,22.461,36.133,-23.926,0.488
1532510689.613,14.648,16.113,34.668,-0.488,-39.062
1532510689.617,20.508,11.719,36.133,34.180,87.891
1532510689.621,48.828,19.043,37.109,33.203,116.699
1532510689.625,62.500,30.273,34.180,9.766,-50.781
1532510689.629,23.926,33.203,28.809,12.207,-54.199
1532510689.633,5.859,23.926,32.715,31.250,37.598
1532510689.637,30.273,21.484,32.715,25.391,79.102
1532510689.641,38.574,29.297,29.297,0.488,37.598
1532510689.645,60.547,34.180,27.344,-15.625,-26.855
1532510689.649,75.195,33.691,29.297,1.953,44.922
1532510689.652,57.129,34.180,35.645,30.273,121.094
1532510689.656,36.133,31.738,35.645,13.672,-45.410
1532510689.660,24.414,26.367,35.645,15.625,-113.281
1532510689.664,28.809,22.949,30.273,31.738,5.371
1532510689.668,45.410,25.879,24.902,42.480,78.125
1532510689.672,61.035,31.250,35.156,40.039,61.523
1532510689.676,31.738,28.809,47.852,23.438,-127.930
1532510689.680,2.930,30.273,43.945,24.414,-108.398
1532510689.684,17.090,27.344,38.086,28.320,94.727
1532510689.688,22.461,25.391,41.016,38.086,151.855
1532510689.692,9.277,23.926,42.480,34.668,34.180
1532510689.695,1.465,20.508,40.527,20.996,-80.078
1532510689.699,11.719,16.602,46.875,23.926,61.035
1532510689.703,16.602,12.207,49.805,34.668,166.016
1532510689.707,-1.465,13.672,42.480,23.438,39.551
1532510689.711,-8.789,13.672,39.551,4.883,-37.598
1532510689.715,2.930,13.672,41.504,16.113,1.465
1532510689.719,2.930,18.066,40.039,26.367,63.965
1532510689.723,5.371,15.137,40.527,16.113,58.105
1532510689.727,10.742,12.207,38.574,13.672,-49.805
1532510689.731,7.812,13.672,35.645,15.137,13.672
1532510689.734,22.949,13.672,36.621,56.152,62.988
1532510689.738,25.391,12.695,36.621,54.688,-11.719
1532510689.742,6.836,19.043,34.668,-4.395,-0.977
1532510689.746,-0.977,27.344,36.133,6.836,-6.836
1532510689.750,12.207,26.367,34.668,27.344,104.492
1532510689.754,14.160,17.090,32.227,20.020,143.555
1532510689.758,4.395,11.230,34.668,27.344,10.742
1532510689.762,19.043,17.090,32.715,29.297,-52.734
1532510689.766,18.555,23.926,27.344,8.301,-1.465
1532510689.770,24.902,27.832,24.414,7.324,143.555
1532510689.774,9.277,27.344,26.855,13.184,48.828
1532510689.777,20.020,24.414,30.273,20.996,-155.762
1532510689.781,39.551,24.902,30.273,26.367,-13.184
1532510689.785,9.277,21.973,25.879,31.250,146.484
1532510689.789,11.230,15.625,27.344,11.719,123.535
1532510689.793,25.879,17.090,33.691,4.883,-20.020
1532510689.797,22.461,22.949,30.762,29.297,-34.668
1532510689.801,22.461,30.762,26.855,1.465,114.258
1532510689.805,12.695,32.715,29.785,-2.930,98.145
1532510689.809,20.020,26.367,31.250,30.273,-69.824
1532510689.813,55.176,24.902,29.785,14.648,-116.211
1532510689.817,50.781,24.902,30.762,-4.883,-49.316
1532510689.820,3.418,28.320,30.273,34.668,70.312
1532510689.824,-4.395,30.273,30.273,30.273,80.566
1532510689.828,24.414,23.438,33.691,-2.441,-0.977
1532510689.832,58.105,24.902,36.621,11.719,57.129
1532510689.836,44.922,32.715,28.809,-1.953,140.137
1532510689.840,16.602,30.273,22.949,-8.789,81.543
1532510689.844,9.766,32.715,24.414,0.000,-19.043
1532510689.848,30.273,41.016,22.461,11.230,18.555
1532510689.852,30.273,44.922,16.602,1.953,126.465
1532510689.856,28.320,42.480,15.137,-8.789,65.430
1532510689.859,49.316,40.527,15.137,0.977,-100.098
1532510689.863,51.758,39.551,15.137,2.441,-41.992
1532510689.867,41.016,41.992,20.508,-4.395,100.098
1532510689.871,25.391,42.480,23.438,16.113,111.816
1532510689.875,13.184,37.598,22.461,9.277,-23.926
1532510689.879,20.508,36.621,21.484,-27.832,-61.035
1532510689.883,52.246,37.598,22.461,3.418,66.406
1532510689.887,52.734,41.016,21.973,29.297,154.297
1532510689.891,28.320,37.109,19.531,9.277,88.379
1532510689.895,35.156,30.273,20.996,-9.277,-72.754
1532510689.899,58.594,33.203,21.973,-3.906,-39.062
1532510689.902,36.133,37.109,28.809,6.348,109.863
1532510689.906,13.184,36.621,30.762,16.113,41.016
1532510689.910,41.504,36.621,25.391,46.875,-3.906
1532510689.914,45.898,31.250,25.879,19.043,-26.855
1532510689.918,26.855,32.227,24.414,-2.441,-14.160
1532510689.922,33.203,37.598,24.414,11.230,98.633
1532510689.926,41.504,36.133,26.367,15.137,24.902
1532510689.930,9.766,31.738,27.832,26.367,-8.789
1532510689.934,14.648,30.273,24.414,-4.883,67.383
1532510689.938,44.922,28.809,19.043,-3.418,100.586
1532510689.942,22.949,28.809,20.996,3.906,37.109
1532510689.945,1.953,29.785,25.391,-3.906,-33.691
1532510689.949,3.418,26.855,27.344,15.137,35.156
1532510689.953,22.949,30.273,28.320,14.160,60.547
1532510689.957,27.832,37.598,28.320,32.227,-22.461
1532510689.961,44.922,35.645,31.738,48.340,-37.598
1532510689.965,42.969,35.156,35.156,15.137,29.297
1532510689.969,15.625,39.062,33.691,26.367,163.574
1532510689.973,39.062,38.086,41.992,35.645,113.770
1532510689.977,42.480,35.156,46.387,9.277,-111.816
1532510689.981,23.926,31.738,39.062,3.906,-49.316
1532510689.984,30.762,38.086,37.598,11.230,143.066
1532510689.988,34.668,37.598,41.992,22.949,135.742
1532510689.992,19.531,31.738,41.504,24.414,3.418
1532510689.996,20.020,31.738,38.086,26.367,-89.355
1532510690.000,32.715,23.438,34.180,23.926,10.254
1532510690.004,22.949,29.297,34.180,19.531,108.398
1532510690.008,14.160,41.016,31.738,12.695,38.086
1532510690.012,42.480,38.574,30.762,35.645,0.977
1532510690.016,44.922,32.715,35.645,5.371,-37.109
1532510690.020,8.789,30.273,36.621,-22.461,26.855
1532510690.024,25.391,38.086,24.902,10.254,80.566
1532510690.027,43.457,40.527,20.996,16.113,-8.301
1532510690.031,40.527,33.203,34.668,20.996,34.668
1532510690.035,51.758,23.926,42.969,36.621,107.910
1532510690.039,23.438,20.996,41.992,13.672,83.496
1532510690.043,-10.742,28.809,43.457,-4.395,-64.941
1532510690.047,4.395,33.691,44.434,20.020,-121.094
1532510690.051,10.742,26.855,46.875,14.160,91.309
1532510690.055,20.020,20.020,51.758,-1.465,62.500
1532510690.059,8.789,20.020,53.223,4.883,-106.445
1532510690.063,-22.461,11.230,52.246,8.301,-4.883
1532510690.067,-34.180,3.906,53.223,23.926,101.562
1532510690.070,-17.090,10.254,57.617,45.410,181.641
1532510690.074,-1.953,8.789,57.617,8.301,63.965
1532510690.078,-13.184,2.930,60.059,6.836,-31.738
1532510690.082,-13.184,6.348,58.105,6.836,79.102
1532510690.086,-9.766,11.719,52.246,8.301,172.363
1532510690.090,-3.906,14.160,50.781,36.133,96.191
1532510690.094,6.348,13.672,48.340,3.906,-116.699
1532510690.098,-4.883,9.277,54.688,-5.859,-116.699
1532510690.102,-3.906,9.766,59.082,33.203,118.652
1532510690.106,-2.930,9.277,53.223,3.906,141.602
1532510690.109,-8.789,1.953,57.129,4.883,23.438
1532510690.113,14.648,-0.977,59.570,24.902,-17.578
1532510690.117,14.160,-0.488,54.688,34.180,70.801
1532510690.121,11.719,6.348,55.664,45.410,143.555
1532510690.125,12.207,4.395,57.617,10.742,43.945
1532510690.129,0.000,-7.812,55.176,31.250,5.859
1532510690.133,23.438,-1.465,58.594,81.055,51.758
1532510690.137,19.043,12.207,62.012,36.133,83.496
1532510690.141,-7.324,17.090,62.012,29.297,23.926
1532510690.145,10.254,15.625,62.500,62.500,-72.754
1532510690.149,31.250,10.254,58.594,60.059,26.367
1532510690.152,20.996,10.742,56.641,34.668,146.484
1532510690.156,1.953,16.602,59.082,17.090,-28.809
1532510690.160,18.555,22.461,57.617,33.691,-98.145
1532510690.164,31.738,21.484,55.176,32.715,15.625
1532510690.168,34.668,21.973,52.734,76.660,131.348
1532510690.172,62.500,22.461,55.176,67.383,124.512
1532510690.176,39.551,23.926,51.270,-25.391,-42.480
1532510690.180,15.625,25.879,45.898,0.977,1.953
1532510690.184,28.809,21.973,48.340,23.438,82.520
1532510690.188,33.203,20.020,49.316,10.742,106.445
1532510690.191,40.527,21.973,45.898,24.414,65.430
1532510690.195,44.922,27.344,47.852,38.086,-113.281
1532510690.199,23.926,25.879,53.711,42.480,-27.344
1532510690.203,23.438,28.809,49.316,27.344,131.348
1532510690.207,25.879,30.273,43.457,10.254,52.734
1532510690.211,12.207,22.461,41.016,13.184,-6.348
1532510690.215,6.836,24.902,43.945,40.039,-13.672
1532510690.219,-12.695,25.391,48.828,40.039,67.871
1532510690.223,-19.043,20.996,48.828,41.504,107.422
1532510690.227,1.953,18.555,51.270,52.734,-25.879
1532510690.231,5.859,20.996,46.387,14.160,-74.219
1532510690.234,-13.184,25.391,40.039,-12.695,-4.883
1532510690.238,-1.953,24.414,44.922,1.465,-2.930
1532510690.242,23.926,29.785,47.363,32.227,5.859
1532510690.246,41.504,35.645,37.598,53.223,27.832
1532510690.250,25.879,33.691,35.156,7.812,107.422
1532510690.254,15.625,30.273,37.598,-14.160,138.184
1532510690.258,49.316,31.250,36.133,24.902,37.109
1532510690.262,69.824,32.227,38.086,18.555,-28.809
1532510690.266,37.598,30.762,40.039,1.953,63.965
1532510690.270,40.039,37.109,37.598,17.578,177.246
1532510690.274,40.527,39.551,35.645,18.555,70.312
1532510690.277,23.926,37.109,41.992,62.988,-67.871
1532510690.281,24.414,37.598,45.898,65.430,-20.996
1532510690.285,25.879,34.180,46.875,0.977,115.234
1532510690.289,17.090,28.809,47.852,9.766,145.508
1532510690.293,1.465,33.203,44.922,24.902,-29.297
1532510690.297,5.859,31.738,49.805,20.020,-133.301
1532510690.301,15.137,29.785,46.875,12.695,35.645
1532510690.305,10.254,34.180,37.598,24.902,112.305
1532510690.309,27.832,34.668,30.273,11.230,18.555
1532510690.313,45.898,35.156,30.762,-1.465,-55.664
1532510690.316,6.836,34.180,32.227,3.418,11.230
1532510690.320,7.324,32.227,30.273,-11.230,131.836
1532510690.324,20.020,34.668,27.344,-13.184,9.766
1532510690.328,33.203,29.785,22.949,-3.418,-87.402
1532510690.332,34.668,25.391,28.809,15.625,35.156
1532510690.336,34.180,34.668,35.156,16.113,51.758
1532510690.340,32.227,33.203,38.574,-18.066,-14.160
1532510690.344,46.875,29.297,36.621,4.395,-20.020
1532510690.348,57.129,26.367,39.551,41.504,37.598
1532510690.352,23.438,15.137,48.828,41.016,161.133
1532510690.356,19.531,11.230,46.387,30.273,118.164
1532510690.359,58.105,15.625,45.898,31.738,9.766
1532510690.363,60.547,13.672,48.340,26.855,-8.789
1532510690.367,3.418,19.531,35.645,9.766,100.098
1532510690.371,-3.418,34.180,30.273,25.879,120.605
1532510690.375,8.789,37.109,29.785,7.324,-64.453
1532510690.379,14.648,33.691,23.926,-10.742,-114.746
1532510690.383,46.387,34.180,20.996,13.672,32.715
1532510690.387,38.574,37.109,20.996,3.418,145.508
1532510690.391,4.883,32.227,25.879,-11.230,85.449
1532510690.395,26.367,24.902,29.297,-5.371,-104.004
1532510690.399,39.551,14.648,27.344,24.414,-94.727
1532510690.402,54.199,17.578,26.855,52.734,125.977
1532510690.406,65.918,33.691,30.273,25.391,113.770
1532510690.410,45.898,24.902,37.598,-0.488,-10.254
1532510690.414,31.250,18.555,37.598,11.230,-21.973
1532510690.418,46.387,19.531,35.156,25.391,48.340
1532510690.422,44.434,15.137,35.156,17.090,54.199
1532510690.426,39.062,17.090,29.297,-5.371,-17.578
1532510690.430,54.199,23.438,31.738,0.488,2.441
1532510690.434,40.527,28.320,37.598,8.301,66.895
1532510690.438,25.879,26.367,30.273,16.602,29.297
1532510690.441,45.898,20.996,22.461,24.902,-19.531
1532510690.445,24.414,18.555,25.391,18.555,-20.508
1532510690.449,12.695,24.414,23.438,10.742,58.594
1532510690.453,40.527,25.879,26.855,-27.832,108.398
1532510690.457,14.160,22.949,26.367,-31.738,36.621
1532510690.461,0.000,22.949,23.926,1.953,10.254
1532510690.465,7.812,20.996,26.855,15.137,-3.906
1532510690.469,13.184,21.973,30.273,-1.465,67.383
1532510690.473,31.250,24.902,27.832,-19.531,76.660
1532510690.477,37.109,17.090,28.320,0.488,-130.371
1532510690.481,16.113,10.742,31.738,4.883,-105.469
1532510690.484,7.812,17.090,30.273,8.301,82.520
1532510690.488,37.598,23.438,27.832,13.184,139.648
1532510690.492,37.598,25.391,33.203,18.555,32.227
1532510690.496,35.156,26.367,28.809,17.578,-57.617
1532510690.500,33.691,26.855,16.602,18.555,69.824
1532510690.504,37.109,23.926,26.367,8.301,168.457
1532510690.508,55.176,26.367,33.691,21.973,55.176
1532510690.512,36.133,27.344,22.949,19.043,-65.918
1532510690.516,39.062,20.508,23.926,12.695,-73.730
1532510690.520,53.223,18.066,24.902,19.531,42.969
1532510690.523,50.293,25.879,17.578,-22.949,76.660
1532510690.527,45.410,33.203,22.949,-17.090,-20.020
1532510690.531,58.594,30.762,30.762,6.836,45.898
1532510690.535,68.848,29.785,27.344,30.762,143.555
1532510690.539,67.871,29.297,24.414,19.531,144.043
1532510690.543,49.805,25.879,30.273,-0.977,38.574
1532510690.547,21.484,20.996,25.391,13.672,4.883
1532510690.551,0.000,18.555,20.020,8.789,121.582
1532510690.555,7.812,16.602,28.320,16.113,175.781
1532510690.559,11.230,12.207,41.016,29.297,19.043
1532510690.563,21.484,11.719,33.691,8.789,-92.773
1532510690.566,11.230,21.484,25.391,7.324,31.250
1532510690.570,5.371,20.508,27.344,46.387,177.246
1532510690.574,8.789,13.184,35.645,42.969,-3.418
1532510690.578,2.441,18.066,44.434,11.719,-175.293
1532510690.582,18.555,21.484,39.551,0.977,44.922
1532510690.586,26.855,21.973,40.039,4.883,182.617
1532510690.590,28.320,25.391,39.551,9.277,111.816
1532510690.594,50.293,27.832,30.273,30.762,7.812
1532510690.598,31.738,22.949,25.879,20.020,0.000
1532510690.602,8.789,28.809,28.320,7.324,138.672
1532510690.606,8.301,31.738,30.762,34.668,119.141
1532510690.609,18.555,25.391,33.691,15.625,-29.785
1532510690.613,14.648,22.949,31.738,-17.090,-43.945
1532510690.617,1.465,22.461,24.414,-7.812,-11.719
1532510690.621,32.715,25.879,26.855,21.973,87.402
1532510690.625,35.645,30.273,28.809,19.531,50.293
1532510690.629,27.832,32.715,21.484,8.301,0.488
1532510690.633,38.574,24.902,31.250,13.672,54.688
1532510690.637,31.250,18.066,41.504,41.504,130.371
1532510690.641,53.223,18.066,37.598,32.227,93.262
1532510690.645,48.340,20.508,35.645,2.930,1.953
1532510690.648,17.578,28.809,39.551,30.762,37.109
1532510690.652,36.133,33.203,40.527,51.270,91.309
1532510690.656,42.480,29.297,35.156,18.066,-29.785
1532510690.660,24.902,20.996,35.156,15.625,-87.402
1532510690.664,23.926,20.508,37.109,22.949,5.859
1532510690.668,32.227,20.020,36.621,8.789,147.949
1532510690.672,31.738,14.648,33.691,21.973,163.086
1532510690.676,9.766,22.949,31.250,20.996,-12.207
1532510690.680,9.766,33.203,33.203,21.484,-32.227
1532510690.684,29.297,28.320,29.785,13.672,82.520
1532510690.688,9.766,21.484,28.320,9.766,132.324
1532510690.691,22.461,31.738,31.738,24.414,29.785
1532510690.695,55.664,40.527,33.691,44.922,-47.363
1532510690.699,56.152,41.016,31.738,24.902,24.414
1532510690.703,32.715,38.086,28.320,-12.695,104.004
1532510690.707,26.855,30.273,30.273,13.184,72.754
1532510690.711,38.574,30.273,28.809,36.133,7.324
1532510690.715,23.438,33.691,28.320,6.348,-56.152
1532510690.719,8.789,35.645,29.785,1.465,-12.695
1532510690.723,13.672,35.156,29.297,38.574,93.750
1532510690.727,25.391,34.180,27.832,-8.301,6.348
1532510690.731,30.273,34.668,28.320,-26.855,5.859
1532510690.734,19.043,35.645,29.297,22.461,99.121
1532510690.738,29.297,31.250,35.645,18.555,133.301
1532510690.742,30.273,25.391,37.598,-1.465,55.176
1532510690.746,19.531,27.344,38.574,4.395,-74.219
1532510690.750,27.344,30.762,41.504,20.508,22.461
1532510690.754,11.230,29.785,37.109,23.438,68.848
1532510690.758,14.160,32.715,36.133,-18.066,-101.562
1532510690.762,29.297,40.039,33.691,-16.602,-64.453
1532510690.766,12.695,41.992,27.832,-8.301,39.551
1532510690.770,13.672,29.785,27.832,-3.418,159.180
1532510690.773,34.180,21.973,28.809,-5.371,81.543
1532510690.777,33.203,32.715,29.785,-15.625,-72.754
1532510690.781,0.000,39.551,32.715,-0.977,15.625
1532510690.785,2.441,35.156,29.785,25.391,134.766
1532510690.789,24.902,30.762,28.320,9.766,138.672
1532510690.793,36.133,34.668,33.203,14.160,-46.875
1532510690.797,41.016,38.574,35.645,40.527,-183.594
1532510690.801,29.785,33.691,33.691,5.859,36.621
1532510690.805,27.832,34.668,33.691,-17.090,189.941
1532510690.809,23.926,35.156,38.086,3.418,42.480
1532510690.813,27.344,31.250,33.691,10.254,-44.922
1532510690.816,41.992,30.762,31.250,43.945,43.457
1532510690.820,35.645,34.668,32.227,34.668,144.531
1532510690.824,27.344,30.762,33.203,-27.344,54.688
1532510690.828,50.781,32.715,38.086,-7.324,-28.320
1532510690.832,46.387,42.480,31.738,10.742,17.090
1532510690.836,13.184,29.297,29.297,8.301,108.398
1532510690.840,19.043,20.996,30.762,23.438,74.219
1532510690.844,32.227,31.250,32.227,17.578,-93.750
1532510690.848,48.340,35.645,32.715,2.930,-39.551
1532510690.852,66.406,34.180,27.832,41.504,144.531
1532510690.855,31.738,31.738,30.762,17.090,8.301
1532510690.859,20.996,38.574,25.879,-11.719,-165.039
1532510690.863,44.434,43.457,25.879,8.789,-44.922
1532510690.867,28.809,38.086,32.715,7.812,116.211
1532510690.871,33.691,31.250,34.668,25.391,150.391
1532510690.875,55.176,27.832,39.551,59.082,6.836
1532510690.879,21.484,33.691,33.691,26.367,-42.969
1532510690.883,7.324,38.574,23.926,-24.902,91.309
1532510690.887,15.137,35.645,27.344,-8.301,124.023
1532510690.891,34.668,35.645,30.762,26.855,50.293
1532510690.895,40.527,40.039,29.785,23.438,-88.867
1532510690.898,7.812,33.691,22.949,-9.277,-105.469
1532510690.902,-0.977,27.832,24.902,-10.254,111.816
1532510690.906,21.973,35.645,28.320,-5.371,128.906
1532510690.910,19.043,39.062,23.438,0.977,4.395
1532510690.914,30.273,32.227,23.438,-14.648,-35.156
1532510690.918,24.414,30.273,26.855,-17.578,88.379
1532510690.922,1.953,31.250,24.414,-12.695,130.859
1532510690.926,12.695,28.320,16.113,-8.301,0.488
1532510690.930,17.090,31.738,23.926,1.465,-15.137
1532510690.934,42.969,34.668,30.762,-8.789,12.207
1532510690.938,26.367,32.227,26.855,-1.465,42.480
1532510690.941,-12.695,31.250,34.180,0.000,33.203
1532510690.945,8.301,29.785,33.203,16.602,-38.086
1532510690.949,12.695,30.762,23.438,19.043,67.871
1532510690.953,57.129,39.551,23.926,8.789,131.836
1532510690.957,62.988,40.527,26.367,16.113,18.066
1532510690.961,-3.418,29.297,28.320,18.555,-31.250
1532510690.965,5.371,26.367,31.250,20.020,9.766
1532510690.969,34.180,24.414,26.855,-8.301,148.926
1532510690.973,36.133,23.438,23.926,-10.254,124.512
1532510690.977,49.316,26.367,25.879,46.875,-32.715
