timestamps,TP9,AF7,AF8,TP10,Right AUX
1532510004.109,22.949,27.344,28.320,-1.953,121.094
1532510004.113,28.809,24.902,32.227,12.207,-10.254
1532510004.116,18.066,21.973,34.180,16.602,-5.859
1532510004.120,26.855,21.973,31.250,22.949,112.305
1532510004.124,23.438,22.949,28.320,42.969,164.551
1532510004.128,18.555,15.137,28.809,18.066,-36.621
1532510004.132,9.766,12.695,29.785,-8.789,-198.730
1532510004.136,15.137,17.578,27.832,7.812,-1.465
1532510004.140,41.992,18.555,25.391,12.695,132.812
1532510004.144,33.691,21.484,20.020,12.695,63.965
1532510004.148,10.742,22.949,19.043,22.461,-68.359
1532510004.152,6.836,22.461,18.555,3.418,-34.180
1532510004.156,19.043,13.184,17.090,2.930,120.117
1532510004.159,23.438,5.859,19.043,6.348,109.863
1532510004.163,18.555,12.207,18.066,-2.930,16.113
1532510004.167,24.902,16.602,18.066,-4.395,-10.742
1532510004.171,24.902,19.043,14.648,-5.371,88.867
1532510004.175,15.625,17.578,17.090,-11.230,101.562
1532510004.179,17.578,16.602,16.113,-4.883,-25.879
1532510004.183,11.719,17.090,15.137,15.625,6.836
1532510004.187,21.973,17.090,17.578,5.859,112.793
1532510004.191,25.391,15.137,16.602,-8.789,24.902
1532510004.195,12.695,15.625,15.137,-14.160,-85.938
1532510004.198,10.254,17.578,14.648,-12.207,-18.555
1532510004.202,8.301,19.043,16.113,0.488,63.477
1532510004.206,18.555,14.648,16.113,-5.859,134.277
1532510004.210,14.160,16.113,14.160,-10.254,55.664
1532510004.214,8.789,19.531,17.090,5.371,-30.762
1532510004.218,16.602,18.555,17.578,15.625,10.254
1532510004.222,22.461,21.484,11.230,-21.484,70.801
1532510004.226,8.789,22.949,12.207,-28.809,85.449
1532510004.230,20.508,19.531,18.066,6.348,-97.656
1532510004.234,32.227,14.648,21.973,31.738,-166.504
1532510004.238,21.484,17.578,14.648,-7.812,78.125
1532510004.241,7.324,25.391,3.906,-51.758,167.480
1532510004.245,5.859,28.320,4.883,-30.762,80.078
1532510004.249,19.043,25.391,9.766,-6.836,-30.762
1532510004.253,16.113,20.020,12.207,-15.625,39.551
1532510004.257,2.441,13.184,14.160,-12.207,145.996
1532510004.261,12.207,11.230,17.090,-0.488,84.961
1532510004.265,28.809,16.602,17.578,-3.418,36.621
1532510004.269,20.996,19.531,19.043,-5.859,-28.320
1532510004.273,28.320,18.555,19.043,-10.254,17.578
1532510004.277,28.320,19.043,13.184,-11.230,104.492
1532510004.280,1.953,20.020,14.160,-3.418,-3.418
1532510004.284,7.812,17.578,12.207,-10.742,11.230
1532510004.288,20.996,17.090,12.207,-19.531,48.828
1532510004.292,53.223,18.066,19.531,3.418,18.555
1532510004.296,46.875,18.555,17.578,8.301,-6.836
1532510004.300,14.648,17.578,17.090,-16.113,-24.414
1532510004.304,31.738,18.066,19.531,1.465,78.125
1532510004.308,34.180,20.508,19.043,23.438,100.098
1532510004.312,18.066,20.508,14.648,-26.367,-21.973
1532510004.316,21.973,18.066,14.160,-30.273,-89.844
1532510004.320,44.922,17.090,19.043,11.230,-3.906
1532510004.323,36.621,19.531,17.578,5.859,132.812
1532510004.327,9.277,19.043,18.555,-6.836,36.133
1532510004.331,24.414,11.719,25.391,-6.348,-210.449
1532510004.335,27.832,15.625,24.902,4.883,-74.707
1532510004.339,34.668,19.531,18.066,8.789,167.480
1532510004.343,38.574,20.020,16.113,-5.371,137.207
1532510004.347,19.043,20.508,19.531,-7.812,23.926
1532510004.351,19.531,19.531,20.020,2.930,-16.113
1532510004.355,23.926,16.602,22.461,17.090,94.238
1532510004.359,19.531,17.090,25.391,12.207,142.578
1532510004.363,10.742,21.973,20.020,-7.812,-12.207
1532510004.366,14.648,20.508,18.555,-8.301,-27.344
1532510004.370,20.020,16.113,20.508,-4.883,-20.508
1532510004.374,29.297,18.066,24.414,-23.438,-23.926
1532510004.378,36.621,20.996,26.367,-0.977,36.621
1532510004.382,9.766,19.043,22.461,19.043,-5.371
1532510004.386,8.789,16.113,20.508,6.348,58.594
1532510004.390,35.645,18.555,19.531,-3.906,107.910
1532510004.394,27.344,17.578,19.043,-14.648,45.898
1532510004.398,16.113,12.207,20.996,17.090,-14.160
1532510004.402,11.230,15.137,20.996,16.113,23.438
1532510004.405,12.695,14.160,20.020,-24.902,138.672
1532510004.409,18.555,10.254,20.508,-14.160,75.684
1532510004.413,10.742,11.719,23.438,-4.883,-86.914
1532510004.417,14.160,12.695,24.414,16.602,-30.273
1532510004.421,18.066,17.578,20.020,1.465,106.445
1532510004.425,38.574,20.996,17.578,-16.113,147.949
1532510004.429,24.902,20.508,18.555,5.371,-20.020
1532510004.433,14.160,16.113,18.555,-6.836,-128.418
1532510004.437,31.250,15.137,20.508,-7.812,43.945
1532510004.441,33.203,17.578,22.949,9.277,138.184
1532510004.445,31.738,15.625,22.461,14.648,74.219
1532510004.448,20.508,14.160,24.414,20.508,-49.316
1532510004.452,22.461,13.672,21.484,-1.465,1.953
1532510004.456,25.391,18.066,18.555,-15.137,96.191
1532510004.460,39.551,19.531,20.996,1.953,-15.625
1532510004.464,33.203,19.531,21.973,4.883,-52.246
1532510004.468,21.973,21.484,22.461,9.277,-14.648
1532510004.472,21.484,20.996,21.973,0.000,53.711
1532510004.476,25.391,18.066,18.066,-12.695,132.812
1532510004.480,39.062,18.066,13.672,8.789,24.902
1532510004.484,42.480,23.926,9.766,18.555,2.441
1532510004.488,12.207,17.578,16.602,-17.578,79.102
1532510004.491,8.301,7.812,29.785,-12.695,29.297
1532510004.495,18.555,7.812,27.832,0.488,-15.625
1532510004.499,28.809,10.254,22.949,-12.207,9.277
1532510004.503,32.715,13.184,24.414,10.742,49.805
1532510004.507,10.254,16.113,23.438,2.930,79.590
1532510004.511,28.809,15.625,20.996,-13.184,-79.102
1532510004.515,36.133,14.648,22.461,30.762,-128.906
1532510004.519,16.602,15.137,17.578,1.953,26.855
1532510004.523,18.066,13.184,14.160,-37.109,120.605
1532510004.527,13.184,14.160,17.090,-10.254,74.707
1532510004.530,19.043,15.137,17.578,3.906,-27.832
1532510004.534,19.043,17.578,16.602,3.418,17.090
1532510004.538,27.344,18.555,16.113,7.812,111.816
1532510004.542,33.691,16.113,18.555,35.645,104.980
1532510004.546,31.250,16.113,14.160,24.902,-5.859
1532510004.550,35.645,18.555,8.301,-10.742,-89.355
1532510004.554,27.344,20.996,8.301,-0.977,2.930
1532510004.558,32.227,17.090,8.789,-3.418,117.676
1532510004.562,18.066,17.578,13.184,-8.301,48.340
1532510004.566,31.250,19.531,17.578,10.742,10.254
1532510004.570,60.547,20.508,19.043,27.832,-6.348
1532510004.573,25.391,24.414,18.555,4.395,15.137
1532510004.577,4.883,21.973,20.508,-30.273,53.711
1532510004.581,22.461,19.531,20.508,-13.672,-37.109
1532510004.585,33.203,19.043,20.996,23.438,0.000
1532510004.589,55.664,22.949,18.555,0.977,59.570
1532510004.593,55.176,23.926,15.137,-20.020,55.664
1532510004.597,19.531,21.484,17.090,-2.930,-36.133
1532510004.601,26.855,20.996,21.484,20.996,-66.406
1532510004.605,35.156,18.555,24.414,23.438,104.004
1532510004.609,9.766,20.020,21.973,-14.648,79.590
1532510004.613,11.719,21.973,20.020,-30.762,-134.277
1532510004.616,54.688,20.996,22.949,-9.277,-69.336
1532510004.620,45.410,21.484,23.438,0.977,83.984
1532510004.624,2.441,19.043,27.832,14.160,161.133
1532510004.628,11.719,20.020,27.832,1.953,43.945
1532510004.632,26.855,23.926,23.926,-20.508,-93.262
1532510004.636,39.062,26.855,21.973,-6.836,37.109
1532510004.640,30.762,23.926,18.066,-4.395,140.137
1532510004.644,21.484,13.184,20.996,-7.324,40.527
1532510004.648,33.203,7.324,26.855,2.441,-111.816
1532510004.652,24.902,12.207,31.738,18.555,-164.551
1532510004.655,17.578,19.531,21.484,-8.301,29.785
1532510004.659,26.367,23.438,15.137,-25.391,149.902
1532510004.663,24.414,22.949,19.531,-13.184,64.453
1532510004.667,39.551,24.414,17.090,-2.930,-8.789
1532510004.671,41.016,25.391,18.555,3.906,57.617
1532510004.675,23.926,23.926,19.531,-10.742,162.598
1532510004.679,23.438,23.438,17.090,6.836,54.199
1532510004.683,32.227,23.926,17.090,23.926,6.348
1532510004.687,36.133,25.391,13.672,-9.277,80.566
1532510004.691,23.438,22.461,15.137,-7.812,80.078
1532510004.695,32.715,22.461,17.578,7.324,-17.578
1532510004.698,52.246,22.949,18.066,24.902,-57.617
1532510004.702,35.645,20.996,17.090,20.020,35.645
1532510004.706,23.438,23.926,13.184,-22.949,145.020
1532510004.710,15.625,32.715,8.789,-21.973,-20.996
1532510004.714,21.973,34.180,9.766,2.441,-174.805
1532510004.718,26.855,26.855,14.648,-7.324,18.066
1532510004.722,34.668,20.508,17.578,-7.812,130.859
1532510004.726,43.945,22.949,19.531,12.695,115.234
1532510004.730,30.762,26.855,15.625,-6.836,-14.648
1532510004.734,23.438,27.832,8.301,-19.531,-44.922
1532510004.737,23.438,28.809,6.836,2.441,39.062
1532510004.741,34.668,28.809,7.324,15.137,85.938
1532510004.745,38.574,27.832,7.812,-10.742,60.547
1532510004.749,27.832,27.832,9.766,-10.742,-104.004
1532510004.753,35.645,26.367,12.207,-5.371,-83.496
1532510004.757,41.016,27.344,10.742,-11.230,146.973
1532510004.761,22.461,26.367,15.137,-7.324,100.586
1532510004.765,27.344,23.438,15.137,20.996,-7.812
1532510004.769,41.992,25.391,15.137,26.367,18.555
1532510004.773,31.250,25.879,19.043,-18.066,117.188
1532510004.777,18.555,22.949,18.555,-12.695,121.582
1532510004.780,23.926,23.926,19.531,2.930,21.973
1532510004.784,16.602,27.344,19.043,10.742,-16.602
1532510004.788,36.133,25.879,18.066,16.113,18.555
1532510004.792,48.828,25.879,17.578,-19.043,-4.883
1532510004.796,21.484,22.949,16.602,-18.066,-35.645
1532510004.800,15.625,20.020,16.602,4.395,-26.855
1532510004.804,32.227,22.949,17.090,14.160,68.848
1532510004.808,54.688,22.949,16.602,5.371,103.027
1532510004.812,37.109,17.578,18.066,-0.977,0.488
1532510004.816,12.695,18.555,20.020,24.902,-2.930
1532510004.820,24.902,26.855,15.137,12.207,55.664
1532510004.823,20.508,31.738,12.207,-28.320,142.578
1532510004.827,21.973,26.367,15.625,-1.953,80.078
1532510004.831,33.691,20.996,18.066,17.090,-104.004
1532510004.835,27.832,28.809,14.160,-5.859,-80.078
1532510004.839,17.578,29.785,15.137,5.859,74.219
1532510004.843,33.691,26.855,20.996,22.949,104.492
1532510004.847,31.738,25.879,19.043,9.277,-2.441
1532510004.851,39.551,30.273,16.113,-23.438,-145.996
1532510004.855,50.293,33.203,21.484,-12.207,-19.043
1532510004.859,18.066,30.762,21.484,-3.418,147.949
1532510004.862,26.855,30.273,20.508,-13.184,42.969
1532510004.866,34.180,27.832,23.926,0.977,-36.621
1532510004.870,34.668,25.879,22.461,0.977,26.855
1532510004.874,50.293,33.691,12.207,-31.250,158.691
1532510004.878,51.270,36.621,11.719,-18.555,2.441
1532510004.882,62.988,33.691,21.484,24.414,-129.883
1532510004.886,71.289,34.180,22.461,-6.348,62.988
1532510004.890,28.809,29.785,26.367,-39.551,59.570
1532510004.894,1.465,25.391,31.738,-23.438,-32.227
1532510004.898,21.973,25.391,32.715,5.859,4.883
1532510004.902,21.973,20.508,39.062,10.254,22.461
1532510004.905,24.902,23.438,36.133,9.277,120.605
1532510004.909,28.320,28.809,33.203,14.160,90.332
1532510004.913,12.207,24.414,36.133,3.906,-19.043
1532510004.917,27.344,25.879,35.156,6.836,-11.719
1532510004.921,17.578,30.273,34.180,-5.859,79.590
1532510004.925,16.113,32.715,37.598,14.648,105.957
1532510004.929,32.715,36.133,41.016,-3.906,-52.734
1532510004.933,11.719,32.715,44.434,-38.086,-167.969
1532510004.937,20.508,30.273,44.434,5.371,0.488
1532510004.941,54.199,32.227,41.504,14.648,171.387
1532510004.945,41.016,29.785,41.992,3.906,96.191
1532510004.948,19.531,29.297,43.457,9.766,-37.598
1532510004.952,23.438,29.785,46.387,19.043,16.113
1532510004.956,24.902,29.297,44.434,-6.836,142.090
1532510004.960,34.668,23.926,42.969,-13.184,124.512
1532510004.964,35.645,20.508,47.852,12.695,6.836
1532510004.968,26.367,32.227,47.363,19.043,-29.297
1532510004.972,24.414,38.086,42.969,-12.695,37.598
1532510004.976,11.719,28.809,45.898,-28.320,39.551
1532510004.980,14.648,23.438,48.828,0.000,-40.527
1532510004.984,26.855,26.855,46.875,17.090,-4.395
1532510004.987,32.715,30.273,43.457,-6.348,88.379
1532510004.991,34.180,31.250,42.480,-12.695,4.395
1532510004.995,44.434,32.227,46.387,8.301,-62.012
1532510004.999,36.621,32.715,49.316,-6.348,-34.180
1532510005.003,21.484,29.297,53.223,-9.277,50.781
1532510005.007,11.719,26.367,54.199,3.906,122.070
1532510005.011,24.902,27.344,47.852,-5.859,30.273
1532510005.015,46.387,30.762,46.875,26.855,-23.926
1532510005.019,27.344,28.809,47.852,15.625,-5.859
1532510005.023,10.254,27.344,47.852,-16.602,76.172
1532510005.027,9.277,24.902,48.340,7.324,139.648
1532510005.030,33.691,25.391,46.875,-8.301,-115.723
1532510005.034,42.480,25.879,46.387,-18.555,-145.996
1532510005.038,20.996,24.414,47.852,5.859,122.559
1532510005.042,22.949,23.438,48.828,15.137,172.363
1532510005.046,22.461,21.484,47.363,1.953,79.102
1532510005.050,27.832,23.438,47.363,-1.465,-20.020
1532510005.054,37.109,29.297,47.363,1.953,62.988
1532510005.058,22.461,25.879,47.852,-5.859,179.199
1532510005.062,19.531,26.367,45.410,-3.418,85.938
1532510005.066,24.414,31.738,42.969,-0.977,-63.965
1532510005.069,31.738,30.762,43.945,6.836,-106.445
1532510005.073,39.551,27.832,47.363,25.879,-2.930
1532510005.077,48.828,28.320,41.992,7.324,70.312
1532510005.081,43.457,28.809,38.574,-18.066,-9.277
1532510005.085,43.945,24.902,42.969,3.418,29.297
1532510005.089,48.340,28.320,43.457,10.742,109.375
1532510005.093,22.949,29.785,43.457,3.906,98.633
1532510005.097,35.645,31.738,40.039,11.230,10.254
1532510005.101,48.340,31.738,38.086,19.043,-1.953
1532510005.105,28.809,33.203,37.598,2.930,112.793
1532510005.109,25.879,37.598,38.086,6.348,136.230
1532510005.112,36.621,32.227,41.016,20.020,-15.625
1532510005.116,40.039,25.879,42.480,-14.648,-82.520
1532510005.120,53.711,25.879,41.016,-0.977,38.086
1532510005.124,53.711,29.785,41.992,20.996,156.738
1532510005.128,24.902,30.762,41.504,10.742,37.598
1532510005.132,23.926,32.715,37.598,-7.324,-193.359
1532510005.136,63.477,35.645,38.086,28.320,-82.520
1532510005.140,56.152,34.668,40.527,31.738,125.488
1532510005.144,13.672,27.344,42.969,0.488,136.719
1532510005.148,24.414,24.414,45.410,-6.348,-4.883
1532510005.152,27.344,27.832,42.969,-14.648,-46.387
1532510005.155,28.809,26.855,41.992,-0.977,102.539
1532510005.159,40.527,20.996,48.828,19.531,78.125
1532510005.163,27.344,23.926,48.340,19.531,-31.250
1532510005.167,23.438,27.832,43.945,-3.418,-13.672
1532510005.171,41.992,25.391,43.945,-2.441,-18.555
1532510005.175,49.316,29.785,42.480,8.789,53.223
1532510005.179,21.484,29.785,43.945,-1.953,74.707
1532510005.183,24.902,22.949,43.457,9.766,-6.836
1532510005.187,48.828,26.855,41.504,13.672,65.430
1532510005.191,47.852,32.227,42.969,-7.812,121.094
1532510005.194,32.227,26.367,47.852,1.465,97.656
1532510005.198,18.066,24.414,48.340,10.254,27.344
1532510005.202,20.996,26.367,41.992,0.977,47.852
1532510005.206,20.020,22.949,41.504,-5.859,116.699
1532510005.210,39.551,29.297,44.922,-1.953,-32.715
1532510005.214,41.504,30.762,40.039,-1.953,-139.160
1532510005.218,14.648,26.367,41.992,19.043,-14.648
1532510005.222,33.203,28.320,47.363,11.230,118.652
1532510005.226,32.715,25.391,48.828,-9.766,148.926
1532510005.230,14.160,23.438,48.340,-8.301,4.395
1532510005.234,35.645,28.320,43.945,6.348,-40.039
1532510005.237,42.969,28.809,43.457,10.742,109.863
1532510005.241,43.457,25.879,45.410,24.414,157.715
1532510005.245,25.391,26.855,45.898,42.480,66.406
1532510005.249,18.066,26.855,39.551,0.488,-27.344
1532510005.253,47.363,25.879,38.086,-20.508,-21.484
1532510005.257,31.738,23.926,40.039,-11.719,59.082
1532510005.261,27.832,22.461,40.527,8.301,39.551
1532510005.265,52.734,25.391,42.480,30.762,-5.371
1532510005.269,45.898,26.367,41.504,-16.113,-57.129
1532510005.273,19.531,28.320,42.480,-19.531,-32.227
1532510005.277,19.531,26.367,45.898,4.395,83.984
1532510005.280,27.832,22.949,44.922,5.371,28.809
1532510005.284,41.504,25.391,40.039,19.531,3.418
1532510005.288,41.992,27.832,41.016,32.227,69.824
1532510005.292,20.020,24.902,39.062,1.465,83.984
1532510005.296,29.785,17.090,41.992,16.602,47.852
1532510005.300,40.527,15.137,45.898,11.719,-83.984
1532510005.304,20.508,25.391,40.039,-16.602,6.836
1532510005.308,23.926,30.762,35.156,5.859,131.348
1532510005.312,50.781,26.855,31.250,-5.859,-88.867
1532510005.316,20.996,30.273,28.809,-24.414,-110.352
1532510005.319,-2.441,30.762,30.273,-18.066,56.641
1532510005.323,12.695,27.344,30.762,-20.996,155.273
1532510005.327,20.996,25.879,31.250,6.348,104.004
1532510005.331,24.414,26.367,30.762,4.395,-31.738
1532510005.335,12.695,21.484,27.344,-31.738,22.461
1532510005.339,22.461,18.555,33.203,-14.160,122.070
1532510005.343,27.832,23.438,34.180,-4.395,127.930
1532510005.347,27.832,23.438,34.668,26.855,9.766
1532510005.351,31.250,22.949,39.551,2.441,-154.297
1532510005.355,30.762,23.438,36.621,-41.992,-31.250
1532510005.359,49.805,26.367,33.691,-14.160,142.578
1532510005.362,47.363,28.809,33.691,19.043,61.523
1532510005.366,26.367,24.902,36.621,14.648,-49.316
1532510005.370,22.949,25.391,38.086,-26.367,20.508
1532510005.374,19.043,24.902,39.551,-16.113,158.691
1532510005.378,24.902,22.461,41.016,12.695,80.078
1532510005.382,27.832,27.344,36.621,10.742,-5.859
1532510005.386,25.391,28.809,32.715,-16.602,33.203
1532510005.390,36.133,27.832,34.180,-16.113,116.211
1532510005.394,52.246,35.645,32.715,-6.348,68.359
1532510005.398,43.457,38.086,32.227,20.020,-94.238
1532510005.402,18.066,30.273,37.598,29.297,-73.242
1532510005.405,30.273,28.320,33.203,-15.137,117.188
1532510005.409,60.547,29.297,28.320,-21.484,90.332
1532510005.413,47.363,28.809,35.156,-6.836,-32.227
1532510005.417,21.484,28.320,38.574,-4.883,18.555
1532510005.421,30.762,30.273,38.086,11.719,104.980
1532510005.425,37.598,30.273,33.691,12.695,163.086
1532510005.429,31.250,29.785,32.227,-11.719,-0.977
1532510005.433,29.785,28.320,31.738,3.418,-139.160
1532510005.437,49.805,26.367,31.250,4.395,49.805
1532510005.441,37.109,29.785,37.598,9.766,109.863
1532510005.444,13.672,32.227,38.086,6.836,31.250
1532510005.448,32.227,29.297,37.109,-0.977,-78.613
1532510005.452,45.410,27.832,35.645,-12.695,-148.926
1532510005.456,47.363,28.320,33.203,-4.395,50.293
1532510005.460,49.316,28.809,35.156,21.484,135.742
1532510005.464,28.809,27.832,33.203,2.441,10.742
1532510005.468,22.949,28.809,33.203,-10.742,-23.438
1532510005.472,32.715,27.344,32.715,-22.461,62.500
1532510005.476,17.578,21.973,35.156,-3.906,113.281
1532510005.480,15.137,25.391,35.156,17.578,12.207
1532510005.484,33.203,28.320,36.621,10.742,-14.160
1532510005.487,34.668,30.273,38.574,1.953,33.691
1532510005.491,37.109,34.668,33.203,-12.207,-35.156
1532510005.495,36.133,32.227,37.109,11.719,-62.500
1532510005.499,22.461,27.832,38.086,23.926,-0.977
1532510005.503,27.344,30.762,32.227,-12.695,83.496
1532510005.507,14.160,33.691,30.273,-10.742,134.766
1532510005.511,17.578,30.273,31.250,-13.184,67.383
1532510005.515,23.926,28.320,30.762,-20.996,2.441
1532510005.519,30.273,28.809,34.668,4.395,15.625
1532510005.523,38.086,29.297,37.109,6.836,111.816
1532510005.526,38.574,32.227,31.738,-18.555,104.980
1532510005.530,31.738,32.715,27.832,-5.859,-21.484
1532510005.534,22.461,30.273,26.367,6.836,-62.012
1532510005.538,37.109,32.227,26.367,-1.465,19.531
1532510005.542,44.922,32.715,29.785,2.441,119.629
1532510005.546,21.973,29.785,26.367,-13.672,81.055
1532510005.550,23.926,26.855,27.832,0.000,-118.652
1532510005.554,50.293,26.367,30.762,16.602,-79.102
1532510005.558,24.902,23.438,25.879,-37.109,128.906
1532510005.562,11.719,21.973,27.344,-15.625,78.125
1532510005.566,27.344,27.344,33.203,23.926,8.789
1532510005.569,28.809,30.762,28.320,-14.160,30.762
1532510005.573,32.715,30.762,27.344,3.418,146.973
1532510005.577,39.062,29.785,29.297,20.996,113.281
1532510005.581,37.598,26.367,30.762,-2.930,-75.195
1532510005.585,35.156,21.484,36.133,13.184,-15.137
1532510005.589,27.344,24.902,33.203,7.812,54.688
1532510005.593,15.137,30.762,29.297,-16.602,-23.926
1532510005.597,14.648,26.855,30.273,-21.484,-19.043
1532510005.601,15.625,26.855,31.250,-21.484,0.488
1532510005.605,26.855,27.832,30.762,-5.859,89.844
1532510005.609,20.508,25.391,30.273,9.277,111.816
1532510005.612,18.555,24.414,33.691,2.441,25.391
1532510005.616,16.113,24.902,29.785,0.488,10.254
1532510005.620,28.809,25.391,27.832,20.508,79.102
1532510005.624,34.180,26.855,29.785,-7.812,153.320
1532510005.628,9.277,29.297,27.344,-9.277,4.395
1532510005.632,8.301,26.367,28.320,-2.441,-168.457
1532510005.636,22.949,24.902,27.832,-40.039,-6.348
1532510005.640,48.828,26.855,30.273,-12.695,151.855
1532510005.644,41.992,27.344,31.250,8.301,143.555
1532510005.648,9.766,28.809,30.273,12.207,0.488
1532510005.651,43.457,26.367,35.645,18.555,-20.508
1532510005.655,42.969,22.949,36.133,7.324,148.926
1532510005.659,3.906,25.391,29.785,0.488,154.785
1532510005.663,18.555,29.785,25.879,-16.113,21.484
1532510005.667,33.203,32.715,23.926,-24.414,-50.781
1532510005.671,32.715,29.785,28.320,-7.324,33.691
1532510005.675,32.715,24.902,31.738,7.812,88.867
1532510005.679,53.223,30.273,27.832,-11.719,-13.672
1532510005.683,63.477,35.645,26.367,-13.672,-7.812
1532510005.687,44.922,28.320,33.691,-9.766,112.305
1532510005.691,34.668,26.855,31.250,-27.344,36.133
1532510005.694,41.016,31.738,25.391,-30.273,-35.645
1532510005.698,50.781,27.832,30.273,-7.812,10.254
1532510005.702,52.246,28.320,31.738,6.348,52.246
1532510005.706,57.129,25.879,31.738,51.758,138.184
1532510005.710,41.992,20.508,32.227,28.809,71.289
1532510005.714,4.395,22.461,33.691,-31.738,-20.996
1532510005.718,4.395,23.926,35.645,8.301,0.977
1532510005.722,13.672,22.461,36.133,37.109,51.758
1532510005.726,10.742,23.438,35.156,-1.465,67.871
1532510005.730,36.133,23.926,30.273,-21.973,-89.355
1532510005.734,21.973,19.531,33.691,7.324,-152.832
1532510005.737,5.859,21.973,34.180,0.977,70.801
1532510005.741,28.809,28.809,28.320,-21.484,155.273
1532510005.745,12.207,30.762,27.832,-13.672,67.871
1532510005.749,9.766,21.973,33.203,-3.906,-30.273
1532510005.753,13.672,16.602,34.668,0.488,42.969
1532510005.757,4.883,23.438,32.715,2.441,158.691
1532510005.761,21.484,29.785,29.785,-4.883,100.586
1532510005.765,32.227,28.809,29.785,20.996,24.414
1532510005.769,17.090,28.320,28.320,-7.324,-38.086
1532510005.773,8.789,31.250,25.879,-49.316,-7.324
1532510005.776,17.090,28.320,28.809,-19.043,71.289
1532510005.780,15.625,25.879,27.832,-9.766,4.883
1532510005.784,24.902,26.367,26.367,-12.695,17.578
1532510005.788,11.719,27.344,25.879,-15.137,67.383
1532510005.792,-8.301,27.832,25.879,-14.648,16.602
1532510005.796,5.371,25.391,27.344,-18.066,-1.953
1532510005.800,12.207,21.484,30.762,-28.809,-12.207
1532510005.804,15.137,26.367,24.902,-24.414,59.570
1532510005.808,18.555,26.855,22.461,-5.859,125.000
1532510005.812,19.531,25.391,26.367,-1.953,39.062
1532510005.816,6.348,27.344,20.508,-31.250,-54.688
1532510005.819,10.742,23.926,21.484,-23.926,-46.875
1532510005.823,14.648,26.367,24.902,-21.973,105.469
1532510005.827,7.812,27.344,24.414,-31.738,99.609
1532510005.831,6.836,24.902,24.902,-13.672,-66.406
1532510005.835,23.438,24.414,23.438,-13.184,-21.484
1532510005.839,34.668,25.391,23.926,-17.578,100.098
1532510005.843,4.395,28.809,27.344,-8.789,116.699
1532510005.847,-12.207,23.926,26.367,-7.324,18.555
1532510005.851,7.324,20.020,25.879,-16.113,-137.207
1532510005.855,34.180,27.344,26.855,-15.625,-15.625
1532510005.858,33.203,25.879,29.297,-4.883,143.555
1532510005.862,8.789,24.902,28.320,-5.371,-20.508
1532510005.866,6.348,33.691,19.531,-39.062,-65.430
1532510005.870,19.531,35.156,21.973,-36.133,-44.922
1532510005.874,21.973,26.367,26.855,-0.488,2.930
1532510005.878,6.836,21.484,24.414,-8.301,103.027
1532510005.882,14.648,24.902,20.508,-27.832,51.270
1532510005.886,38.574,27.344,21.484,-22.461,70.801
1532510005.890,26.855,23.438,22.949,-17.090,114.746
1532510005.894,4.395,24.414,22.461,-14.160,86.914
1532510005.898,0.488,23.438,22.949,-8.301,-4.395
1532510005.901,18.555,17.090,26.855,3.906,0.977
1532510005.905,35.156,20.020,26.855,-0.488,123.047
1532510005.909,38.086,24.902,25.391,-6.836,65.918
1532510005.913,27.344,26.855,27.344,-9.766,-99.121
1532510005.917,16.602,22.949,28.320,-0.977,-58.105
1532510005.921,20.020,23.438,24.414,13.672,88.867
1532510005.925,23.438,27.344,20.508,-8.301,189.453
1532510005.929,18.066,24.414,25.879,-30.273,5.859
1532510005.933,10.254,21.973,25.879,-31.250,-155.762
1532510005.937,28.320,26.367,23.438,-27.832,37.598
1532510005.941,35.645,29.297,24.414,-12.207,158.691
1532510005.944,15.625,23.438,24.902,-8.789,125.977
1532510005.948,16.602,21.484,25.391,-14.648,3.906
1532510005.952,31.738,24.414,25.391,-9.277,-0.977
1532510005.956,14.648,23.926,26.367,-7.324,83.008
1532510005.960,16.602,24.414,26.367,-5.371,60.547
1532510005.964,19.043,23.438,27.344,6.836,9.766
1532510005.968,11.230,16.602,29.297,-5.371,-41.992
1532510005.972,25.391,19.043,29.297,-5.859,-60.059
1532510005.976,34.668,26.367,29.785,-6.348,40.039
1532510005.980,33.691,29.785,29.297,-9.766,36.133
1532510005.983,19.531,23.438,35.645,36.621,12.695
1532510005.987,22.949,21.973,35.156,12.207,79.590
1532510005.991,24.902,29.297,27.344,-5.371,95.215
1532510005.995,36.133,29.297,30.273,5.859,79.102
1532510005.999,42.480,27.832,34.180,38.574,-31.250
1532510006.003,28.809,28.320,34.180,6.836,-42.969
1532510006.007,27.832,27.832,34.180,-32.715,83.984
1532510006.011,19.043,25.879,37.109,9.277,-39.062
1532510006.015,50.293,26.367,35.645,17.578,-125.000
1532510006.019,47.852,26.367,34.180,24.902,37.598
1532510006.023,23.926,29.785,31.738,20.996,158.691
1532510006.026,25.879,36.133,25.879,0.000,130.371
1532510006.030,33.203,33.203,26.855,4.883,-13.184
1532510006.034,39.062,31.250,29.297,30.762,-3.418
1532510006.038,45.898,35.156,26.367,19.531,104.004
1532510006.042,46.875,36.133,25.879,4.883,145.020
1532510006.046,37.598,32.715,29.785,-2.441,64.453
1532510006.050,25.879,30.762,32.715,-1.465,-62.500
1532510006.054,26.367,30.273,30.762,9.766,-8.789
1532510006.058,31.738,31.250,30.273,4.883,141.113
1532510006.062,25.391,33.203,30.762,38.086,101.074
1532510006.066,25.391,29.785,30.273,30.273,9.277
1532510006.069,24.414,25.879,32.715,-26.367,-56.152
1532510006.073,40.527,25.879,39.062,6.836,-19.531
1532510006.077,52.734,27.832,38.086,30.273,65.430
1532510006.081,28.320,30.762,34.180,20.996,-13.672
1532510006.085,31.250,31.250,36.621,24.414,11.230
1532510006.089,63.965,31.738,34.668,44.434,106.934
1532510006.093,61.523,30.762,33.691,40.039,115.723
1532510006.097,42.480,28.320,34.180,12.695,-22.949
1532510006.101,41.992,28.809,32.715,8.789,-94.727
1532510006.105,52.734,29.785,29.297,23.926,88.867
1532510006.108,62.500,24.414,28.809,35.156,79.590
1532510006.112,62.012,27.832,30.762,30.273,-147.949
1532510006.116,62.988,33.203,31.738,42.969,-96.680
1532510006.120,48.340,32.715,30.762,22.949,41.992
1532510006.124,36.621,33.203,27.344,7.324,135.742
1532510006.128,39.062,29.297,27.832,18.066,70.312
1532510006.132,57.617,27.832,26.367,24.414,-35.645
1532510006.136,78.125,29.785,29.297,23.926,35.156
1532510006.140,49.805,31.250,27.832,18.555,134.766
1532510006.144,28.809,33.203,25.391,19.043,78.125
1532510006.148,60.547,32.227,28.320,18.066,-63.965
1532510006.151,57.617,28.320,31.738,34.668,-136.230
1532510006.155,34.180,29.785,28.809,22.461,30.273
1532510006.159,38.574,35.156,17.090,5.371,151.367
1532510006.163,69.336,32.715,18.555,-1.953,55.664
1532510006.167,55.176,30.273,25.391,-2.930,2.930
1532510006.171,42.480,29.785,21.484,7.324,60.547
1532510006.175,45.410,24.902,21.973,19.043,132.324
1532510006.179,36.621,24.414,27.344,28.809,72.754
1532510006.183,37.109,20.996,30.273,14.648,3.418
1532510006.187,38.086,20.020,30.273,31.738,48.340
1532510006.191,44.922,24.414,32.227,50.293,73.242
1532510006.194,29.297,23.438,35.156,16.602,-13.184
1532510006.198,26.855,23.926,33.691,0.488,-51.270
1532510006.202,47.852,22.461,33.691,23.438,10.742
1532510006.206,40.039,22.461,33.203,21.484,166.992
1532510006.210,27.344,22.949,29.297,-0.488,8.789
1532510006.214,39.551,22.949,32.227,12.207,-160.645
1532510006.218,45.410,22.461,34.180,46.875,19.043
1532510006.222,24.414,21.484,30.762,16.602,123.535
1532510006.226,10.742,22.949,25.879,-10.742,145.996
1532510006.230,39.062,24.414,26.367,9.766,28.320
1532510006.233,32.715,28.809,30.273,1.953,-27.832
1532510006.237,31.250,29.785,28.320,3.906,30.273
1532510006.241,58.105,28.320,25.391,23.926,61.523
1532510006.245,43.457,29.785,25.391,16.602,62.500
1532510006.249,20.996,28.320,31.250,-4.395,-59.570
1532510006.253,30.762,24.902,37.109,3.906,-123.535
1532510006.257,45.410,24.414,37.109,33.203,78.125
1532510006.261,47.852,29.785,32.227,42.969,122.559
1532510006.265,54.199,31.738,32.227,29.785,8.301
1532510006.269,61.523,28.320,31.250,8.301,-20.996
1532510006.273,44.434,23.438,30.762,-10.254,76.660
1532510006.276,20.020,24.902,32.227,-1.465,135.254
1532510006.280,30.762,26.367,32.715,17.090,37.109
1532510006.284,37.598,25.879,34.668,23.926,-15.137
1532510006.288,49.805,33.203,32.715,12.207,6.836
1532510006.292,50.293,31.250,29.785,2.441,-26.855
1532510006.296,38.086,28.320,25.391,2.441,-42.480
1532510006.300,55.176,35.156,25.391,44.922,-33.203
1532510006.304,42.480,33.691,27.832,16.602,70.312
1532510006.308,32.715,34.668,23.438,-36.133,121.094
1532510006.312,49.316,36.133,22.949,-3.906,38.086
1532510006.315,28.320,30.273,27.344,19.531,-5.371
1532510006.319,32.227,24.902,30.762,20.996,17.578
1532510006.323,26.367,21.973,36.133,35.645,117.676
1532510006.327,7.324,21.973,35.156,6.836,80.566
1532510006.331,13.184,24.414,29.785,-18.555,-81.055
1532510006.335,34.668,26.855,27.344,2.930,-68.359
1532510006.339,43.457,26.367,29.297,3.418,95.215
1532510006.343,7.812,18.066,35.156,-4.395,143.066
1532510006.347,17.090,19.531,33.691,10.254,37.598
1532510006.351,50.781,23.438,31.738,17.090,-149.414
1532510006.355,39.551,24.902,28.320,15.137,-58.105
1532510006.358,27.344,25.391,28.809,11.230,148.926
1532510006.362,37.598,23.926,31.738,-0.488,48.340
1532510006.366,48.828,23.926,32.227,21.484,-25.879
1532510006.370,44.434,28.320,30.762,20.508,17.090
1532510006.374,32.715,32.227,29.785,-14.648,140.625
1532510006.378,18.066,30.273,30.762,-16.113,57.617
1532510006.382,17.090,29.297,24.414,-4.883,-89.844
1532510006.386,21.484,27.832,25.391,-1.465,47.363
1532510006.390,37.598,24.902,26.367,5.859,47.363
1532510006.394,34.668,22.461,21.973,-1.465,-52.734
1532510006.398,25.879,27.832,24.414,-5.371,-22.461
1532510006.401,37.598,30.273,28.809,9.766,22.461
1532510006.405,44.922,23.438,31.250,18.066,145.508
1532510006.409,42.480,24.414,32.227,0.000,134.766
1532510006.413,12.207,26.367,28.809,0.977,10.254
1532510006.417,20.996,22.949,31.250,20.996,2.930
1532510006.421,38.574,27.344,29.785,12.695,61.035
1532510006.425,41.992,28.809,23.926,17.090,85.938
1532510006.429,54.688,30.273,22.949,2.441,-45.898
1532510006.433,36.133,32.227,24.902,-30.273,-184.570
1532510006.437,18.066,28.320,24.902,-12.695,-9.277
1532510006.440,24.414,31.250,22.461,-0.488,157.227
1532510006.444,22.949,28.809,23.438,5.371,107.422
1532510006.448,48.828,26.367,25.391,11.719,-28.809
1532510006.452,55.176,31.250,22.949,6.836,6.348
1532510006.456,34.668,28.809,21.484,-13.672,174.805
1532510006.460,31.250,22.949,26.855,17.090,147.949
1532510006.464,35.156,22.949,29.297,22.949,36.133
1532510006.468,41.504,29.785,22.949,-31.250,-17.090
1532510006.472,66.406,35.645,21.973,-27.344,-1.953
1532510006.476,72.754,37.109,23.438,-7.812,74.219
1532510006.480,35.645,34.180,23.926,7.812,30.273
1532510006.483,26.855,32.715,25.391,19.043,-22.461
1532510006.487,33.691,33.691,22.949,11.719,56.152
1532510006.491,41.504,33.691,20.508,31.250,20.020
1532510006.495,47.363,36.133,17.090,12.695,-22.461
1532510006.499,20.508,36.133,17.090,-23.926,-19.043
1532510006.503,17.578,34.180,21.484,10.742,35.645
1532510006.507,46.875,35.156,19.531,22.949,140.625
1532510006.511,33.203,33.203,19.043,2.441,72.754
1532510006.515,35.645,31.738,20.508,6.348,16.602
1532510006.519,41.992,33.691,20.020,26.855,-10.254
1532510006.523,23.438,35.645,20.508,16.602,50.781
1532510006.526,27.832,30.273,21.484,21.973,122.559
1532510006.530,52.246,25.879,18.555,0.000,-104.980
1532510006.534,39.551,24.902,21.484,-20.020,-121.582
1532510006.538,13.672,25.391,24.414,13.184,133.789
1532510006.542,20.020,30.762,18.555,-6.836,189.453
1532510006.546,27.344,31.738,14.648,-17.090,70.312
1532510006.550,42.969,30.273,19.043,7.812,-19.531
1532510006.554,50.293,31.738,22.949,15.137,57.617
1532510006.558,18.555,32.227,24.414,11.230,157.715
1532510006.562,15.137,34.668,22.949,-0.977,97.656
1532510006.565,21.484,34.668,19.531,-5.371,-20.508
1532510006.569,26.367,32.227,16.113,-10.742,-114.258
1532510006.573,35.156,32.715,18.555,-17.090,-39.062
1532510006.577,17.578,30.273,26.855,14.648,70.312
1532510006.581,27.832,28.320,26.855,23.926,0.488
1532510006.585,47.363,27.344,26.367,-11.230,13.672
1532510006.589,33.203,28.809,25.391,8.789,67.871
1532510006.593,33.691,29.785,23.438,22.461,107.910
1532510006.597,50.293,33.203,23.438,-7.812,40.039
1532510006.601,37.109,36.133,20.508,-5.859,7.812
1532510006.605,27.832,33.203,18.555,-9.277,96.191
1532510006.608,33.691,27.344,21.973,6.836,117.188
1532510006.612,36.133,28.809,22.949,15.137,-14.648
1532510006.616,37.109,35.156,19.043,8.301,-93.262
1532510006.620,32.715,33.203,22.461,15.137,10.254
1532510006.624,41.504,29.297,23.438,28.320,151.367
1532510006.628,39.551,35.645,15.137,-16.113,66.895
1532510006.632,19.043,38.574,11.230,-42.969,-176.758
1532510006.636,27.832,26.855,20.020,-1.465,-54.199
1532510006.640,43.457,20.020,24.902,10.254,161.621
1532510006.644,34.668,25.879,22.949,1.465,173.828
1532510006.647,15.625,27.344,22.949,-8.301,20.508
1532510006.651,33.691,26.855,22.461,11.230,-27.344
1532510006.655,45.410,27.832,24.414,18.066,132.324
1532510006.659,21.973,29.297,22.949,9.277,91.309
1532510006.663,21.484,29.297,19.531,2.930,-11.230
1532510006.667,47.363,28.809,18.555,10.742,7.812
1532510006.671,36.133,32.715,15.137,-15.137,-73.242
1532510006.675,18.066,34.668,14.648,-34.668,16.113
1532510006.679,17.090,31.250,14.648,-3.906,101.074
1532510006.683,38.574,29.785,12.207,9.766,9.766
1532510006.687,44.922,28.809,17.578,7.324,49.316
1532510006.690,39.551,28.809,20.508,20.996,106.445
1532510006.694,48.340,28.320,19.531,37.598,94.727
1532510006.698,37.598,26.855,17.090,-22.461,21.973
1532510006.702,32.715,30.273,9.277,-54.199,37.598
1532510006.706,39.062,32.227,17.578,-11.719,106.445
1532510006.710,43.945,31.738,22.461,21.484,-43.945
1532510006.714,61.523,36.621,14.160,0.977,-157.715
1532510006.718,44.434,36.621,15.625,-5.371,-23.438
1532510006.722,23.926,30.273,22.461,-5.859,116.699
1532510006.726,40.039,33.203,23.438,10.742,155.273
1532510006.730,34.180,37.598,21.484,20.996,15.137
1532510006.733,25.391,35.645,16.602,-2.930,-13.672
1532510006.737,49.805,36.133,15.625,1.953,94.727
1532510006.741,61.523,35.156,22.949,30.762,153.809
1532510006.745,42.480,38.574,20.508,21.484,78.613
1532510006.749,22.949,40.527,19.043,-10.742,-62.012
1532510006.753,20.996,35.645,25.879,-2.441,-43.945
1532510006.757,58.594,34.668,29.297,15.625,70.312
1532510006.761,47.852,35.645,24.414,6.836,48.340
1532510006.765,16.602,31.738,22.461,8.301,0.977
1532510006.769,29.297,35.156,24.414,-7.324,-39.551
1532510006.772,41.992,41.016,20.996,-20.996,-49.805
1532510006.776,39.062,37.109,23.438,1.953,62.012
1532510006.780,25.879,30.273,28.320,8.301,41.992
1532510006.784,27.832,28.320,25.391,15.137,19.043
1532510006.788,30.273,30.273,24.414,29.297,104.980
1532510006.792,29.297,24.902,29.297,-1.465,129.883
1532510006.796,42.969,25.391,33.691,-16.113,60.547
1532510006.800,27.832,30.273,34.180,4.395,-65.430
1532510006.804,29.297,31.738,31.738,13.672,22.461
1532510006.808,37.109,32.227,29.785,7.812,130.859
1532510006.812,26.367,34.180,29.297,-17.578,-54.199
1532510006.815,26.855,31.738,30.273,-3.906,-102.539
1532510006.819,35.645,33.203,26.367,4.883,38.574
1532510006.823,41.992,39.062,23.438,12.695,128.906
1532510006.827,41.992,32.715,27.344,20.996,86.426
1532510006.831,53.711,33.691,31.250,8.301,-55.664
1532510006.835,36.133,32.227,31.738,-1.465,-22.461
1532510006.839,13.184,23.438,33.691,-2.930,121.094
1532510006.843,26.367,28.320,34.668,25.879,97.168
1532510006.847,35.645,33.203,33.203,29.297,-44.434
1532510006.851,30.762,33.691,30.762,-14.160,-191.406
1532510006.855,23.438,31.738,33.203,-20.508,-52.734
1532510006.858,34.180,28.320,36.133,-10.742,161.621
1532510006.862,62.012,27.832,35.645,6.836,49.805
1532510006.866,37.109,30.273,32.227,14.648,-41.504
1532510006.870,29.297,30.762,26.855,14.648,9.277
1532510006.874,49.316,31.250,31.738,55.664,116.211
1532510006.878,43.945,34.180,33.203,14.648,84.473
1532510006.882,32.715,34.668,27.344,-34.668,-7.812
1532510006.886,51.270,36.133,24.414,0.000,49.805
1532510006.890,53.711,33.691,28.809,15.625,114.746
1532510006.894,27.832,31.250,30.762,20.996,57.617
1532510006.897,44.434,28.809,27.832,9.277,-70.801
1532510006.901,36.621,29.297,25.391,-2.930,-63.965
1532510006.905,17.578,33.691,23.926,10.254,113.770
1532510006.909,28.809,35.156,25.879,17.578,54.688
1532510006.913,44.922,32.715,25.879,15.137,-149.902
1532510006.917,60.547,25.879,25.391,0.000,-30.762
1532510006.921,38.086,24.902,32.715,6.348,121.582
1532510006.925,20.508,33.691,32.715,9.766,156.738
1532510006.929,26.367,38.086,24.902,7.812,51.758
1532510006.933,43.457,35.645,22.949,6.348,-46.875
1532510006.937,35.156,35.156,21.973,-13.672,33.691
1532510006.940,14.648,32.227,21.484,-8.301,62.500
1532510006.944,39.062,29.297,20.020,-18.555,46.875
1532510006.948,41.016,30.762,19.043,-20.508,-40.039
1532510006.952,9.277,30.762,22.461,8.301,-83.984
1532510006.956,19.043,34.180,20.020,-18.066,104.492
1532510006.960,36.621,36.621,17.578,-22.461,153.809
1532510006.964,37.598,34.180,20.020,14.160,36.133
1532510006.968,37.109,30.273,21.973,-6.348,-46.387
1532510006.972,34.180,31.250,21.973,-5.371,10.742
1532510006.976,27.832,33.691,20.996,2.441,135.742
1532510006.980,51.270,31.738,23.438,-29.297,62.988
1532510006.983,57.129,27.344,24.902,-14.160,-6.836
1532510006.987,41.016,30.273,22.461,16.113,40.527
1532510006.991,30.762,25.879,30.762,16.602,6.836
1532510006.995,34.668,21.973,32.227,2.441,-21.484
1532510006.999,39.062,28.320,26.367,-6.348,-7.324
1532510007.003,23.926,26.367,24.414,0.488,65.430
1532510007.007,15.625,22.949,25.391,0.000,153.320
1532510007.011,23.926,26.367,25.879,-8.789,86.426
1532510007.015,30.762,26.367,22.949,-17.090,22.461
1532510007.019,34.668,26.367,22.461,0.000,53.711
1532510007.022,34.180,25.391,24.902,26.367,143.066
1532510007.026,19.043,22.949,24.902,-9.277,110.840
1532510007.030,8.301,26.367,22.949,-19.531,-28.320
1532510007.034,24.902,27.344,21.973,15.625,-43.945
1532510007.038,34.180,27.344,25.391,32.715,49.805
1532510007.042,40.039,32.715,25.391,-1.953,114.258
1532510007.046,42.480,29.297,25.879,-8.789,71.777
1532510007.050,20.996,27.344,29.785,1.465,-101.562
1532510007.054,6.348,28.809,30.273,6.348,-115.234
1532510007.058,26.367,27.832,27.832,27.832,97.168
1532510007.062,50.781,31.250,25.391,19.043,81.055
1532510007.065,59.570,35.645,24.414,-4.883,-5.371
1532510007.069,29.785,34.180,27.832,18.555,0.977
1532510007.073,20.508,31.250,32.715,29.785,99.121
1532510007.077,48.340,34.180,31.250,36.133,115.234
1532510007.081,35.156,40.039,27.344,-1.953,-56.641
1532510007.085,21.973,36.133,30.762,2.441,-57.617
1532510007.089,41.992,31.250,34.668,34.668,32.715
1532510007.093,77.148,35.645,28.320,2.441,1.465
1532510007.097,54.199,35.156,28.320,13.672,-3.418
1532510007.101,8.301,34.180,28.320,-3.906,17.090
1532510007.104,17.578,35.156,22.949,-4.395,120.605
1532510007.108,36.621,33.691,26.367,12.695,144.043
1532510007.112,36.621,31.738,28.809,14.648,15.625
1532510007.116,44.922,31.738,27.344,16.602,-21.484
1532510007.120,69.336,33.203,23.926,-2.930,79.102
1532510007.124,38.086,35.645,25.391,20.996,175.781
1532510007.128,7.812,35.156,26.367,8.789,32.715
1532510007.132,24.414,32.227,24.902,-13.672,-176.758
1532510007.136,40.039,27.832,25.879,5.371,-57.129
1532510007.140,67.871,26.855,22.461,22.461,117.676
1532510007.144,55.176,33.203,23.438,24.902,111.328
1532510007.147,19.531,36.133,27.832,15.625,-18.066
1532510007.151,17.578,35.645,25.391,-2.930,-62.500
1532510007.155,39.062,35.645,22.949,-10.254,108.398
1532510007.159,50.781,36.621,24.414,9.766,137.207
1532510007.163,12.207,32.227,22.949,6.348,16.113
1532510007.167,3.418,25.391,19.531,5.859,-18.555
1532510007.171,14.648,25.391,23.926,-4.395,42.480
1532510007.175,12.695,30.273,22.949,-17.090,76.660
1532510007.179,43.945,26.367,23.926,9.277,15.625
1532510007.183,51.758,21.484,26.367,6.348,-0.977
1532510007.187,15.137,29.297,22.949,30.762,86.426
1532510007.190,9.766,34.180,22.949,-0.977,41.992
1532510007.194,28.809,34.180,19.043,-52.734,-39.551
1532510007.198,44.434,31.250,19.043,-16.113,6.836
1532510007.202,48.340,30.273,22.461,4.395,35.156
1532510007.206,27.832,28.809,26.367,6.348,101.562
1532510007.210,18.066,27.344,22.949,16.113,83.008
1532510007.214,21.484,26.855,22.461,9.766,18.555
1532510007.218,17.090,25.879,23.438,-14.648,36.133
1532510007.222,19.531,25.391,22.949,-21.973,58.105
1532510007.226,15.137,25.879,23.438,-14.648,108.398
1532510007.229,29.297,27.832,27.832,5.371,-47.363
1532510007.233,35.156,29.785,27.344,-4.883,-166.016
1532510007.237,17.578,32.715,23.438,-9.766,64.453
1532510007.241,23.926,30.762,27.832,8.789,164.062
1532510007.245,42.969,30.273,30.762,37.598,63.477
1532510007.249,33.203,30.762,30.273,15.625,-41.016
1532510007.253,36.621,32.715,24.902,-27.344,12.695
1532510007.257,29.785,32.715,23.438,-16.602,126.465
1532510007.261,45.410,31.250,29.297,4.395,103.027
1532510007.265,51.270,34.180,27.832,17.090,26.367
1532510007.269,42.480,36.621,22.949,-16.113,-54.199
1532510007.272,53.711,36.133,26.855,-41.992,-15.625
1532510007.276,39.062,33.203,32.227,-28.809,89.844
1532510007.280,21.484,36.621,29.297,7.812,15.625
1532510007.284,33.203,36.621,27.832,10.742,0.488
1532510007.288,31.738,30.273,29.785,-8.789,70.312
1532510007.292,8.301,30.273,28.809,7.812,117.188
1532510007.296,8.789,26.855,29.785,19.043,74.219
1532510007.300,31.738,25.391,33.203,37.598,-4.883
1532510007.304,18.555,33.691,28.809,17.578,65.918
1532510007.308,-4.395,31.250,28.809,-22.949,113.281
1532510007.312,8.301,26.855,36.133,9.277,39.551
1532510007.315,19.043,30.273,37.109,19.531,-66.406
1532510007.319,22.461,32.715,32.227,-7.324,-78.613
1532510007.323,21.484,33.203,31.250,-2.930,61.035
1532510007.327,45.410,33.691,33.203,1.953,83.984
1532510007.331,34.180,35.645,29.297,-0.977,-156.738
1532510007.335,-1.465,32.715,32.227,7.324,-109.375
1532510007.339,21.484,25.879,35.156,26.855,124.512
1532510007.343,54.199,26.367,34.180,50.781,111.328
1532510007.347,44.922,32.715,27.832,4.883,11.719
1532510007.351,31.738,36.133,22.461,-31.738,-39.062
1532510007.354,31.738,36.621,24.902,19.531,90.332
1532510007.358,54.199,39.551,25.391,1.953,166.016
1532510007.362,48.828,39.551,22.949,-28.809,18.555
1532510007.366,3.906,34.180,23.438,-19.043,-66.406
1532510007.370,10.742,33.691,25.391,-24.414,-58.594
1532510007.374,20.996,35.645,25.391,-22.949,-9.766
1532510007.378,26.367,35.156,24.414,2.930,47.363
1532510007.382,42.969,33.203,27.344,7.812,-15.625
1532510007.386,51.270,35.156,24.414,-9.766,26.855
1532510007.390,32.715,36.621,24.414,0.977,98.145
1532510007.394,24.902,33.691,28.809,-2.930,110.840
1532510007.397,26.855,32.715,25.879,-23.926,39.551
1532510007.401,24.414,33.203,24.414,3.418,3.906
1532510007.405,26.855,30.762,28.320,-6.348,93.262
1532510007.409,30.273,30.762,30.273,-17.090,60.059
1532510007.413,39.551,35.645,30.273,5.371,-87.891
1532510007.417,47.852,36.621,27.832,15.137,-70.312
1532510007.421,36.133,27.832,24.902,5.859,94.727
1532510007.425,20.020,24.414,24.902,2.930,178.711
1532510007.429,36.133,31.250,25.879,24.414,-11.719
1532510007.433,45.410,31.738,28.320,2.441,-162.598
1532510007.436,42.480,32.227,25.879,-21.484,9.277
1532510007.440,32.715,33.691,24.414,-5.859,145.508
1532510007.444,21.973,30.273,28.809,14.648,88.867
1532510007.448,37.598,33.203,27.344,12.695,-46.387
1532510007.452,35.645,34.668,23.926,6.836,-19.043
1532510007.456,27.832,32.715,28.320,37.109,78.125
1532510007.460,48.828,32.715,30.762,-4.395,28.320
1532510007.464,51.758,28.809,31.738,-30.273,-15.137
1532510007.468,18.555,28.320,32.227,8.301,-7.324
1532510007.472,8.789,33.203,31.250,0.488,-18.066
1532510007.476,38.574,35.156,34.668,-1.465,53.223
1532510007.479,48.340,35.645,30.273,26.855,34.180
1532510007.483,24.414,35.645,28.320,14.648,0.488
1532510007.487,25.879,28.809,36.133,-10.254,84.473
1532510007.491,37.598,28.320,32.715,-2.441,120.117
1532510007.495,43.945,32.227,28.809,-6.836,77.148
1532510007.499,43.457,31.738,32.227,3.906,20.996
1532510007.503,38.086,26.855,34.668,24.414,19.043
1532510007.507,30.273,23.438,38.086,6.836,70.312
1532510007.511,9.277,29.297,38.086,-16.602,-73.730
1532510007.515,20.996,36.133,32.227,-19.043,-138.184
1532510007.519,44.922,32.715,33.691,-4.883,36.133
1532510007.522,48.340,29.297,38.086,35.156,133.301
1532510007.526,31.738,31.738,32.715,26.855,130.371
1532510007.530,13.672,34.668,30.273,-4.883,-23.926
1532510007.534,29.785,33.203,34.668,0.977,-19.043
1532510007.538,47.363,30.273,34.180,6.348,115.234
1532510007.542,44.922,30.273,34.180,28.809,126.953
1532510007.546,35.645,32.715,34.180,6.836,21.484
1532510007.550,25.391,31.250,33.691,-16.113,-102.051
1532510007.554,19.531,27.832,35.645,6.836,-30.762
1532510007.558,29.297,28.809,37.109,10.742,120.605
1532510007.561,43.945,31.738,34.668,-2.930,83.984
1532510007.565,16.113,29.297,34.180,7.324,19.043
1532510007.569,8.301,28.320,32.715,1.465,-48.828
1532510007.573,35.645,29.297,32.227,-4.883,-25.879
1532510007.577,29.297,27.344,34.668,11.719,81.543
1532510007.581,36.133,23.926,37.598,4.395,14.648
1532510007.585,65.430,25.879,38.086,5.371,4.395
1532510007.589,28.809,25.879,43.945,21.973,63.477
1532510007.593,14.648,24.902,48.340,11.719,93.262
1532510007.597,29.297,28.809,44.434,6.348,-37.109
1532510007.601,14.648,25.391,48.340,-5.371,-95.703
1532510007.604,18.066,24.902,47.852,2.441,85.938
1532510007.608,23.438,28.809,46.387,12.207,83.496
1532510007.612,44.922,26.855,46.387,-2.930,-129.395
1532510007.616,50.781,27.832,41.992,-13.672,-83.496
1532510007.620,7.324,24.902,43.945,6.836,69.824
1532510007.624,8.301,21.484,47.363,6.836,158.691
1532510007.628,15.625,23.438,44.922,-0.977,67.383
1532510007.632,30.273,25.879,41.992,-6.348,-54.199
1532510007.636,48.828,27.344,38.086,27.344,31.250
1532510007.640,54.688,27.832,33.203,18.066,136.230
1532510007.644,33.203,30.273,38.086,-4.395,67.383
1532510007.647,15.137,32.227,43.457,11.719,-81.543
1532510007.651,33.203,32.227,43.945,-0.488,-154.297
1532510007.655,53.223,28.809,44.922,5.371,14.648
1532510007.659,44.434,32.715,38.574,8.301,175.781
1532510007.663,21.973,33.691,37.109,-22.461,96.191
1532510007.667,29.785,27.344,41.016,-13.184,15.625
1532510007.671,36.621,27.832,43.945,8.789,45.898
1532510007.675,28.320,25.391,48.340,17.578,163.086
1532510007.679,25.879,25.879,50.293,14.648,83.496
1532510007.683,25.391,29.785,45.898,-0.977,14.648
1532510007.686,46.387,29.297,43.945,-1.465,73.242
1532510007.690,52.246,29.297,49.805,15.137,65.918
1532510007.694,19.531,33.203,49.316,11.230,-0.977
1532510007.698,15.625,29.297,49.316,41.016,-14.160
1532510007.702,34.180,29.785,42.969,1.465,68.848
1532510007.706,39.062,34.180,38.086,-50.293,169.434
1532510007.710,52.246,29.785,45.898,8.301,50.781
1532510007.714,45.898,30.273,46.387,18.066,-86.426
1532510007.718,20.508,34.668,43.457,1.953,30.762
1532510007.722,30.273,35.645,40.039,7.812,154.297
1532510007.726,40.527,27.832,43.945,10.742,174.805
1532510007.729,29.785,26.855,46.387,13.184,16.602
1532510007.733,29.785,32.715,44.434,6.348,-31.250
1532510007.737,39.062,30.762,45.410,-0.488,56.641
1532510007.741,28.320,30.273,44.434,-4.883,57.617
1532510007.745,14.648,29.297,48.828,16.113,80.078
1532510007.749,24.414,29.785,45.410,7.812,-44.922
1532510007.753,28.809,30.273,39.062,23.438,-83.496
1532510007.757,21.484,30.762,38.086,13.184,137.207
1532510007.761,33.203,31.250,37.109,-34.668,132.324
1532510007.765,39.551,31.250,41.992,3.906,7.324
1532510007.769,26.855,31.738,42.969,17.578,-27.344
1532510007.772,19.531,30.273,38.574,-0.488,63.965
1532510007.776,25.391,28.809,45.898,16.602,145.508
1532510007.780,41.504,28.320,45.898,1.465,42.969
1532510007.784,47.363,30.273,40.039,-1.953,-35.645
1532510007.788,24.902,29.297,49.805,40.039,-8.789
1532510007.792,13.672,27.344,48.828,-12.207,-36.133
1532510007.796,24.414,26.367,43.457,-26.855,-41.992
1532510007.800,17.090,26.367,46.387,-11.230,-27.344
1532510007.804,4.883,25.879,43.945,-1.953,75.684
1532510007.808,26.855,30.273,44.922,26.367,134.766
1532510007.811,30.273,34.180,42.969,-11.719,10.742
1532510007.815,37.598,32.227,42.969,-20.508,-40.527
1532510007.819,59.570,29.785,43.945,-11.230,29.297
1532510007.823,24.414,30.762,41.992,8.301,119.629
1532510007.827,15.625,28.320,45.898,17.090,69.336
1532510007.831,34.668,25.879,44.922,-15.137,-84.961
1532510007.835,32.715,26.855,39.551,-16.602,-61.523
1532510007.839,35.645,22.949,42.480,15.137,100.586
1532510007.843,40.039,27.832,41.504,19.043,93.262
1532510007.847,43.457,31.250,41.992,3.418,8.301
1532510007.851,39.062,32.715,45.410,-4.883,-129.883
1532510007.854,34.668,32.227,43.945,-1.465,-65.918
1532510007.858,22.461,30.762,42.969,-5.859,126.465
1532510007.862,27.832,29.785,39.062,-18.066,43.945
1532510007.866,45.410,27.832,41.016,-1.953,-14.160
1532510007.870,33.203,31.738,41.016,-12.695,41.504
1532510007.874,16.113,32.715,35.645,-8.301,130.859
1532510007.878,19.531,30.273,41.016,21.973,54.688
1532510007.882,41.992,29.785,45.410,-4.395,-61.035
1532510007.886,40.039,26.855,39.062,-23.926,44.434
1532510007.890,20.996,26.367,36.133,-10.742,38.574
1532510007.893,22.949,25.879,40.039,-13.184,-59.570
1532510007.897,31.250,25.391,46.387,4.883,-48.828
1532510007.901,26.367,25.391,46.387,17.090,-16.113
1532510007.905,18.555,27.344,40.527,-16.602,133.789
1532510007.909,24.902,30.762,36.621,-0.488,125.000
1532510007.913,38.086,29.297,33.691,10.742,1.953
1532510007.917,31.250,29.785,30.762,-20.996,0.488
1532510007.921,-0.977,27.344,27.344,-7.812,82.520
1532510007.925,17.090,27.832,22.461,9.277,103.027
1532510007.929,33.203,27.832,26.367,-3.418,-80.078
1532510007.933,7.324,27.832,25.879,-10.742,-183.594
1532510007.936,22.461,26.367,20.996,3.906,27.344
1532510007.940,37.109,24.414,21.484,-14.160,130.371
1532510007.944,16.113,27.832,20.020,3.906,83.496
1532510007.948,27.344,26.855,21.973,12.695,-4.883
1532510007.952,35.645,29.785,18.555,11.230,-6.836
1532510007.956,44.922,33.203,15.137,9.766,124.512
1532510007.960,49.805,30.762,19.043,4.395,131.348
1532510007.964,30.762,29.785,22.949,2.441,30.273
1532510007.968,32.227,27.344,21.973,32.227,-25.391
1532510007.972,24.414,26.855,22.949,28.320,19.531
1532510007.976,12.695,29.785,20.996,-14.648,60.059
1532510007.979,26.855,30.762,17.090,-13.184,-0.488
1532510007.983,32.715,25.879,22.949,16.113,9.766
1532510007.987,23.438,25.391,20.508,-1.465,76.660
1532510007.991,27.832,29.785,11.230,-17.090,-19.043
1532510007.995,37.109,25.879,18.555,17.578,-53.223
1532510007.999,19.043,23.438,20.996,6.836,-5.371
1532510008.003,21.973,30.273,11.719,-13.184,54.199
1532510008.007,42.480,29.297,12.207,-22.461,127.930
1532510008.011,31.250,27.832,18.555,-10.254,43.945
1532510008.015,23.438,29.297,20.996,-11.719,-8.789
1532510008.018,48.828,27.832,19.531,7.324,-13.184
1532510008.022,62.988,31.738,12.695,9.766,31.250
1532510008.026,23.926,32.715,16.113,-25.391,91.797
1532510008.030,21.484,30.273,19.531,-36.133,-97.168
1532510008.034,38.086,29.297,15.137,-36.621,-143.066
1532510008.038,33.203,28.320,22.461,4.395,113.770
1532510008.042,48.340,23.926,28.320,-4.883,158.691
1532510008.046,29.785,24.414,25.391,2.930,32.227
1532510008.050,7.324,26.367,26.367,39.062,-33.203
1532510008.054,16.113,26.367,23.926,2.441,60.547
1532510008.058,18.555,26.367,22.461,-6.348,147.461
1532510008.061,20.996,23.438,26.367,16.602,81.055
1532510008.065,20.996,30.762,20.508,8.301,-29.297
1532510008.069,45.410,41.016,13.184,8.301,-79.590
1532510008.073,52.734,28.809,28.320,23.926,5.371
1532510008.077,21.484,19.043,41.504,19.531,114.746
1532510008.081,7.324,26.367,37.109,-10.742,43.945
1532510008.085,14.160,28.320,39.062,-5.859,21.973
1532510008.089,4.883,21.973,48.340,12.695,82.031
1532510008.093,-4.395,20.508,52.246,-3.906,110.352
1532510008.097,-3.418,17.578,52.246,-23.926,38.574
1532510008.101,-5.371,13.672,53.711,-0.977,3.906
1532510008.104,35.645,18.555,52.734,0.000,117.188
1532510008.108,18.555,15.625,58.594,-25.391,123.047
1532510008.112,-24.414,6.836,69.824,-12.207,-41.992
1532510008.116,-6.836,9.277,69.336,8.789,-93.262
1532510008.120,6.836,13.672,65.430,20.020,29.297
1532510008.124,2.930,12.695,67.383,13.672,159.668
1532510008.128,-0.488,13.184,66.895,-6.836,77.148
1532510008.132,22.949,15.137,58.105,-20.020,-96.191
1532510008.136,38.574,16.113,56.641,-11.719,10.254
1532510008.140,31.250,20.996,57.617,-5.371,139.160
1532510008.143,18.066,20.020,58.105,8.789,138.672
1532510008.147,3.418,18.555,55.664,0.977,-5.371
1532510008.151,4.395,21.973,53.711,-14.160,-90.332
1532510008.155,16.113,20.020,53.711,-7.324,88.379
1532510008.159,36.621,21.484,54.199,29.297,90.332
1532510008.163,38.574,25.391,50.293,14.648,-17.578
1532510008.167,22.949,22.461,46.387,-25.879,30.273
1532510008.171,15.137,21.973,50.293,9.766,-8.301
1532510008.175,16.602,22.949,53.223,24.414,34.668
1532510008.179,16.602,22.461,51.270,-4.883,67.871
1532510008.183,15.625,28.320,46.387,-6.836,11.719
1532510008.186,25.391,26.855,45.410,5.371,71.777
1532510008.190,59.570,26.855,44.922,-3.906,119.629
1532510008.194,52.734,28.809,41.992,-4.395,88.379
1532510008.198,0.488,28.809,37.109,1.953,29.785
1532510008.202,1.465,26.855,36.621,-13.184,63.477
1532510008.206,35.156,28.809,37.109,-14.648,129.395
1532510008.210,37.109,34.668,34.668,19.531,-8.301
1532510008.214,29.297,35.156,38.574,9.766,-124.023
1532510008.218,62.012,34.180,39.062,-20.508,20.996
1532510008.222,62.988,32.227,30.273,2.441,143.555
1532510008.225,27.832,25.879,32.715,17.578,179.688
1532510008.229,28.320,26.367,41.016,22.949,45.410
1532510008.233,39.551,32.227,35.645,24.902,-11.719
1532510008.237,43.457,31.250,38.574,44.434,109.863
1532510008.241,20.020,29.785,41.992,1.465,155.273
1532510008.245,22.949,32.227,35.645,-27.832,84.473
1532510008.249,59.570,35.156,35.645,1.465,-25.879
1532510008.253,58.105,34.180,36.621,9.766,-10.742
1532510008.257,27.832,32.227,35.156,14.648,83.008
1532510008.261,41.504,35.156,35.156,8.789,94.238
1532510008.265,47.852,35.645,38.086,10.742,71.289
1532510008.268,21.484,32.227,42.969,29.297,-18.066
1532510008.272,27.832,34.180,43.457,21.484,-29.297
1532510008.276,59.082,32.715,42.480,11.719,75.195
1532510008.280,32.227,33.203,41.016,17.578,37.109
1532510008.284,8.301,32.715,42.480,-11.230,48.340
1532510008.288,26.855,34.668,45.410,-14.648,119.141
1532510008.292,54.688,35.645,47.852,22.461,120.605
1532510008.296,54.199,35.645,43.457,3.418,50.293
1532510008.300,33.203,41.016,35.645,-0.977,-33.203
1532510008.304,36.621,39.062,36.621,12.695,46.875
1532510008.308,30.762,35.156,40.039,5.371,139.648
1532510008.311,19.043,34.180,43.457,23.438,-36.133
1532510008.315,36.133,35.156,41.504,-2.930,-101.074
1532510008.319,65.430,33.691,40.527,0.000,20.996
1532510008.323,26.367,32.715,41.992,31.250,136.719
1532510008.327,-2.441,34.180,40.527,31.250,117.188
1532510008.331,20.020,36.133,38.574,1.953,-40.039
1532510008.335,36.133,32.227,34.668,30.273,22.461
1532510008.339,23.438,31.738,37.598,45.898,140.625
1532510008.343,25.391,36.133,38.574,-36.621,140.137
1532510008.347,36.621,34.668,40.039,-26.855,18.555
1532510008.350,26.367,32.715,39.551,-6.836,-166.992
1532510008.354,32.227,33.691,35.645,-3.906,-75.195
1532510008.358,29.785,32.715,35.156,12.695,109.375
1532510008.362,22.461,33.203,36.133,-8.789,52.246
1532510008.366,25.391,28.320,40.039,1.953,-19.531
1532510008.370,21.484,28.320,34.668,6.348,15.625
1532510008.374,26.367,34.180,31.738,-2.441,100.586
1532510008.378,31.738,31.250,37.109,22.461,65.918
1532510008.382,45.898,27.344,36.621,0.488,-26.367
1532510008.386,30.273,31.738,38.086,2.930,28.320
1532510008.390,13.184,32.715,40.527,17.578,103.027
1532510008.393,23.438,30.273,39.551,9.277,0.977
1532510008.397,11.719,30.273,42.480,9.766,-118.164
1532510008.401,24.902,30.762,40.039,-19.043,-54.199
1532510008.405,56.152,33.203,34.668,-1.953,130.371
1532510008.409,33.691,32.715,37.598,6.348,76.660
1532510008.413,11.230,33.203,40.527,5.859,-132.812
1532510008.417,20.020,31.250,41.016,14.160,-49.805
1532510008.421,40.527,22.461,46.875,42.480,91.309
1532510008.425,51.270,24.414,44.922,37.109,169.434
1532510008.429,32.715,38.086,33.203,-2.930,37.109
1532510008.433,31.738,39.062,33.203,-26.855,-73.730
1532510008.436,23.438,27.344,42.480,-24.902,40.039
1532510008.440,-4.395,26.855,47.363,13.184,93.750
1532510008.444,5.859,33.691,38.086,2.930,30.273
1532510008.448,7.812,33.691,31.738,-9.766,-87.402
1532510008.452,0.000,31.738,37.598,-16.602,-164.062
1532510008.456,5.371,28.809,37.598,-19.531,16.113
1532510008.460,4.395,29.297,33.203,2.930,113.770
1532510008.464,29.785,31.250,35.645,-0.977,0.977
1532510008.468,32.227,29.297,36.621,-17.578,-39.551
1532510008.472,-0.977,28.320,36.133,5.371,50.781
1532510008.475,-2.441,29.297,36.133,20.996,123.535
1532510008.479,23.926,27.832,37.598,-1.953,44.434
1532510008.483,16.602,27.344,35.645,-16.602,-20.996
1532510008.487,34.180,26.367,35.156,-2.441,23.926
1532510008.491,38.574,27.832,39.062,19.043,-12.695
1532510008.495,7.812,32.715,36.621,6.836,-50.293
1532510008.499,14.648,32.715,34.180,8.301,-12.207
1532510008.503,54.688,33.691,35.156,31.738,63.477
1532510008.507,45.898,33.203,38.086,24.414,136.719
1532510008.511,21.484,30.762,38.574,3.906,70.312
1532510008.515,31.738,29.785,38.086,-15.137,21.484
1532510008.518,23.438,29.297,39.062,0.977,40.527
1532510008.522,16.113,27.832,38.086,29.785,95.215
1532510008.526,13.184,30.762,36.133,35.645,105.957
1532510008.530,16.602,35.156,33.691,5.371,-7.812
1532510008.534,27.832,35.645,32.715,8.301,-67.383
1532510008.538,44.434,35.156,29.785,8.301,23.926
1532510008.542,33.203,33.203,34.180,-7.812,97.168
1532510008.546,12.207,33.203,38.574,20.508,73.730
1532510008.550,25.879,34.668,35.645,23.438,-76.660
1532510008.554,41.016,32.227,34.180,18.066,-59.082
1532510008.557,33.203,31.738,34.180,1.465,145.996
1532510008.561,36.133,31.738,33.691,-5.859,95.215
1532510008.565,33.203,33.203,35.645,7.324,7.812
1532510008.569,37.598,34.180,37.109,4.395,49.805
1532510008.573,31.250,29.785,35.645,14.648,148.926
1532510008.577,13.672,28.320,34.668,-1.465,136.719
1532510008.581,15.625,31.250,33.203,-1.465,-33.203
1532510008.585,42.480,34.180,33.691,25.391,-24.414
1532510008.589,44.922,36.621,36.133,46.387,56.152
1532510008.593,19.531,36.621,32.227,-12.695,-2.441
1532510008.597,26.367,34.180,28.809,-38.574,16.113
1532510008.600,29.297,34.180,30.762,-11.719,32.227
1532510008.604,23.926,30.762,37.598,19.531,111.328
1532510008.608,25.391,30.273,39.062,30.762,111.816
1532510008.612,40.039,35.156,29.785,3.418,3.418
1532510008.616,23.438,33.203,28.320,0.488,-12.207
1532510008.620,19.043,30.273,30.273,-8.301,68.359
1532510008.624,31.250,32.715,30.273,-3.418,166.504
1532510008.628,12.695,33.203,33.203,-2.930,47.852
1532510008.632,18.066,30.762,33.691,-2.441,-166.992
1532510008.636,34.668,29.785,35.156,5.371,-43.945
1532510008.640,29.785,33.203,32.227,-2.930,160.645
1532510008.643,20.508,31.250,33.691,18.555,151.367
1532510008.647,20.508,25.879,35.156,5.859,2.441
1532510008.651,28.809,29.297,28.320,-20.508,-31.250
1532510008.655,16.602,28.809,31.738,25.391,108.398
1532510008.659,-5.371,26.367,32.227,24.902,111.816
1532510008.663,15.137,29.297,28.320,-16.602,16.113
1532510008.667,16.602,34.180,28.809,6.836,-21.484
1532510008.671,43.457,32.715,29.297,6.348,23.926
1532510008.675,59.570,29.297,31.738,-3.418,70.801
1532510008.679,14.160,32.715,34.668,18.555,15.625
1532510008.682,12.695,34.180,33.691,5.859,-11.719
1532510008.686,22.461,31.738,31.250,-27.832,47.852
1532510008.690,44.434,36.621,32.227,-9.766,14.648
1532510008.694,53.223,36.621,31.250,20.508,-44.922
1532510008.698,11.230,31.250,32.227,-1.953,-24.414
1532510008.702,27.832,27.344,35.645,0.488,-8.301
1532510008.706,39.062,21.973,36.133,22.949,111.328
1532510008.710,0.488,25.879,33.691,15.137,88.379
1532510008.714,1.953,28.809,34.668,-10.742,-42.969
1532510008.718,38.574,26.367,35.156,6.836,-28.809
1532510008.722,34.180,28.320,31.250,14.648,33.203
1532510008.725,-6.348,28.809,32.227,0.977,63.965
1532510008.729,14.648,29.297,34.180,4.395,-92.285
1532510008.733,43.457,29.785,33.203,4.883,-198.730
1532510008.737,11.230,28.809,33.691,-7.812,27.832
1532510008.741,11.719,29.785,29.297,-18.066,132.324
1532510008.745,23.438,27.344,26.855,-20.020,52.734
1532510008.749,31.738,28.320,28.320,6.348,-48.828
1532510008.753,44.922,30.762,30.273,5.859,-14.648
1532510008.757,36.133,26.855,31.250,-20.020,125.977
1532510008.761,67.871,20.508,38.086,9.277,118.164
1532510008.765,67.871,21.973,40.039,29.785,23.438
1532510008.768,14.648,31.250,27.344,-5.859,-93.262
1532510008.772,38.574,36.621,23.926,9.277,-68.359
1532510008.776,49.316,33.691,25.879,37.109,58.594
1532510008.780,12.695,28.809,23.926,-9.766,31.738
1532510008.784,2.930,33.203,22.949,-22.461,37.598
1532510008.788,37.598,40.039,20.508,29.297,61.035
1532510008.792,66.406,41.016,17.578,24.414,82.520
1532510008.796,28.809,38.574,15.625,-19.043,66.895
1532510008.800,25.391,36.621,18.555,55.176,-11.230
1532510008.804,52.246,39.551,18.066,38.086,48.828
1532510008.807,42.480,42.480,17.090,-20.996,103.027
1532510008.811,49.805,38.574,20.508,18.555,66.406
1532510008.815,41.992,30.762,26.367,38.574,-29.297
1532510008.819,24.414,31.738,26.855,0.000,-65.918
1532510008.823,27.832,35.645,20.508,-22.949,91.309
1532510008.827,22.949,29.297,20.020,13.672,124.023
1532510008.831,36.133,28.809,20.996,23.926,-129.883
1532510008.835,34.668,32.715,19.043,1.953,-114.258
1532510008.839,42.480,31.250,17.090,-10.742,93.262
1532510008.843,39.062,32.227,21.484,29.785,145.020
1532510008.847,34.668,34.668,21.973,26.855,69.824
1532510008.850,58.594,34.180,19.043,-6.836,-48.340
1532510008.854,33.203,32.227,21.973,29.785,28.809
1532510008.858,18.066,32.715,20.508,30.762,127.930
1532510008.862,57.129,35.645,19.531,-12.695,11.230
1532510008.866,47.363,30.762,28.320,15.137,-49.316
1532510008.870,0.488,28.809,25.879,13.184,-68.359
1532510008.874,23.926,36.133,8.301,-0.977,-26.855
1532510008.878,49.316,32.715,10.254,19.531,82.031
1532510008.882,28.320,27.344,16.602,17.090,13.672
1532510008.886,21.973,32.227,13.184,13.672,25.391
1532510008.890,21.484,32.227,13.672,18.066,111.816
1532510008.893,45.898,28.320,16.602,26.855,103.516
1532510008.897,43.945,28.809,21.484,44.922,20.996
1532510008.901,1.465,28.320,22.949,38.086,23.438
1532510008.905,22.949,32.227,20.020,18.555,114.258
1532510008.909,45.410,37.109,17.090,8.789,48.340
1532510008.913,34.180,37.109,17.090,-10.254,-114.746
1532510008.917,23.438,31.738,20.508,-7.324,-34.668
1532510008.921,45.898,27.832,24.414,19.531,96.191
1532510008.925,43.945,32.227,21.484,20.996,139.648
1532510008.929,30.762,33.203,20.996,0.488,24.902
1532510008.932,34.668,30.273,26.367,29.297,-71.289
1532510008.936,27.832,30.273,26.855,39.062,38.574
1532510008.940,31.738,30.762,24.414,6.836,123.047
1532510008.944,27.344,28.809,31.250,-6.348,94.727
1532510008.948,20.020,30.273,34.180,0.977,-16.602
1532510008.952,27.832,34.668,28.809,23.438,-41.504
1532510008.956,36.621,36.133,23.438,4.883,27.344
1532510008.960,45.410,36.621,22.949,-13.184,20.996
1532510008.964,37.109,32.227,27.344,4.883,4.883
1532510008.968,22.461,27.832,29.785,25.391,-40.527
1532510008.972,27.344,27.832,31.738,15.625,-99.609
1532510008.975,45.410,28.809,34.180,15.137,19.043
1532510008.979,30.762,29.297,33.203,17.578,30.273
1532510008.983,21.484,30.273,30.273,17.578,-4.395
1532510008.987,37.598,32.715,27.344,-8.301,50.781
1532510008.991,35.645,33.691,26.367,2.930,74.707
1532510008.995,26.367,31.250,31.250,19.531,62.012
1532510008.999,31.250,29.785,31.738,25.391,1.953
1532510009.003,38.574,29.297,28.320,32.227,-22.461
1532510009.007,25.391,29.785,26.855,19.043,56.152
1532510009.011,19.043,30.273,26.367,8.789,-53.223
1532510009.014,28.809,31.738,25.391,-1.465,-143.066
1532510009.018,39.062,30.762,26.855,31.738,13.672
1532510009.022,53.711,29.785,29.297,51.758,97.168
1532510009.026,31.738,31.738,25.391,5.371,130.371
1532510009.030,6.348,32.715,23.926,-18.066,23.926
1532510009.034,27.832,31.250,27.832,3.906,-21.484
1532510009.038,28.320,29.785,26.855,14.160,68.359
1532510009.042,6.836,26.367,24.414,15.625,116.699
1532510009.046,12.207,23.926,25.879,29.785,50.781
1532510009.050,10.742,25.879,23.926,18.066,-72.754
1532510009.054,22.461,22.461,24.902,5.371,-51.758
1532510009.057,45.410,21.973,26.367,8.789,93.262
1532510009.061,12.207,27.344,23.438,-10.254,49.805
1532510009.065,-12.207,24.414,26.367,5.859,-1.953
1532510009.069,14.648,24.902,25.879,20.020,-59.082
1532510009.073,25.391,28.809,24.414,-8.789,-43.457
1532510009.077,33.203,28.809,26.855,6.836,74.707
1532510009.081,31.738,26.855,27.344,17.578,18.555
1532510009.085,1.465,27.832,23.926,32.227,7.812
1532510009.089,-2.441,29.297,21.484,43.457,54.688
1532510009.093,12.695,28.320,26.367,5.859,85.449
1532510009.097,20.996,28.809,24.414,4.395,-6.348
1532510009.100,32.715,28.809,21.484,12.695,-99.609
1532510009.104,45.410,29.297,20.508,-2.441,51.758
1532510009.108,19.043,29.297,21.484,-7.324,99.609
1532510009.112,0.977,24.902,23.438,0.000,-102.539
1532510009.116,41.992,26.855,22.461,29.785,-108.398
1532510009.120,26.855,31.250,24.414,56.152,45.898
1532510009.124,6.836,31.738,21.973,13.184,129.883
1532510009.128,22.949,28.320,18.555,-9.766,59.570
1532510009.132,26.855,28.320,17.090,34.180,-57.129
1532510009.136,40.039,31.738,15.137,27.344,8.301
1532510009.139,17.090,28.320,20.996,9.277,115.723
1532510009.143,7.812,22.949,24.902,24.902,57.617
1532510009.147,15.625,23.438,18.555,51.270,-90.332
1532510009.151,35.156,26.367,20.508,70.801,-178.223
1532510009.155,41.992,28.320,17.090,-4.883,-14.160
1532510009.159,20.508,25.879,18.555,-7.812,127.441
1532510009.163,15.625,23.926,26.367,49.805,21.484
1532510009.167,31.738,26.367,19.531,35.645,-40.527
1532510009.171,35.156,28.320,13.184,13.184,40.527
1532510009.175,28.809,29.785,12.695,20.020,150.879
1532510009.179,20.508,26.855,13.672,23.926,74.707
1532510009.182,32.715,25.391,16.602,18.555,7.812
1532510009.186,40.527,28.809,13.672,35.645,80.078
1532510009.190,13.672,27.832,12.695,57.617,99.121
1532510009.194,12.207,24.414,15.625,30.273,3.418
1532510009.198,13.672,27.344,8.301,0.488,-50.293
1532510009.202,25.391,27.832,5.859,22.461,38.086
1532510009.206,56.641,23.926,11.719,22.461,140.625
1532510009.210,19.531,23.926,17.578,9.766,7.324
1532510009.214,-5.859,24.902,12.695,3.906,-104.492
1532510009.218,15.137,24.902,7.812,34.668,8.301
1532510009.222,11.719,26.367,7.812,48.340,112.793
1532510009.225,17.578,24.902,7.812,-11.230,163.086
1532510009.229,44.434,22.461,10.742,-16.113,7.812
1532510009.233,22.949,22.949,9.766,8.301,-46.387
1532510009.237,-6.836,22.949,13.672,12.695,27.344
1532510009.241,21.484,23.926,16.602,41.504,67.871
1532510009.245,39.551,23.926,15.625,37.598,85.938
1532510009.249,18.555,27.344,15.625,31.250,-60.547
1532510009.253,4.395,28.320,13.672,28.320,-124.512
1532510009.257,21.973,24.902,11.230,27.832,83.008
1532510009.261,38.574,21.484,13.672,27.832,115.234
1532510009.264,9.766,20.020,17.090,2.441,3.906
1532510009.268,8.301,21.484,15.137,-4.395,-12.207
1532510009.272,20.020,22.461,15.625,16.602,89.355
1532510009.276,6.348,21.973,17.090,21.484,145.996
1532510009.280,35.156,23.926,15.625,28.320,35.645
1532510009.284,42.480,23.438,17.578,39.062,-21.484
1532510009.288,4.395,23.926,13.184,0.977,14.160
1532510009.292,15.137,24.902,15.137,37.598,-31.250
1532510009.296,26.855,21.973,19.531,55.176,-46.875
1532510009.300,19.531,22.949,13.184,9.766,11.719
1532510009.304,38.086,24.414,15.137,11.230,90.332
1532510009.307,46.875,27.344,16.113,1.465,122.559
1532510009.311,8.789,27.344,16.602,7.812,44.922
1532510009.315,-1.953,21.973,21.484,30.762,9.766
1532510009.319,17.090,19.531,21.484,26.855,48.340
1532510009.323,21.973,24.902,16.113,19.531,124.023
1532510009.327,9.277,25.391,15.137,6.836,91.797
1532510009.331,4.883,23.926,18.555,0.977,-57.129
1532510009.335,29.785,24.902,18.066,14.160,-78.613
1532510009.339,25.879,22.949,18.555,38.086,83.984
1532510009.343,9.277,27.344,22.949,20.020,143.555
1532510009.346,10.742,30.273,20.508,-21.973,33.203
1532510009.350,25.391,27.832,17.090,-1.465,-143.555
1532510009.354,16.602,21.484,20.020,21.973,-82.520
1532510009.358,22.949,16.113,24.902,43.945,126.953
1532510009.362,27.832,18.555,21.484,11.719,88.379
1532510009.366,27.832,22.949,15.625,-7.324,8.301
1532510009.370,48.340,25.391,18.555,21.484,20.996
1532510009.374,19.043,24.902,21.973,14.160,112.793
1532510009.378,20.996,25.391,19.531,9.277,28.320
1532510009.382,32.715,27.832,19.531,21.973,-72.266
1532510009.386,2.441,23.926,21.484,13.672,37.598
1532510009.389,14.648,22.949,20.508,46.387,26.367
1532510009.393,20.996,24.902,21.973,37.109,-22.461
1532510009.397,11.230,24.414,21.973,-19.043,6.348
1532510009.401,16.113,22.461,19.531,0.000,4.395
1532510009.405,28.809,21.484,22.461,43.945,118.164
1532510009.409,17.578,21.973,22.461,37.598,100.098
1532510009.413,6.348,24.414,20.020,-0.977,-16.602
1532510009.417,34.180,28.809,18.555,4.395,-23.926
1532510009.421,37.109,25.879,20.508,41.504,55.176
1532510009.425,5.859,20.996,21.973,31.250,106.934
1532510009.429,13.672,22.461,20.020,14.648,-55.664
1532510009.432,46.387,27.832,18.555,44.922,-116.699
1532510009.436,50.293,29.297,20.020,47.363,67.871
1532510009.440,28.809,25.391,22.949,18.555,153.320
1532510009.444,29.785,25.879,23.926,5.371,87.891
1532510009.448,46.875,29.785,27.832,15.625,-63.965
1532510009.452,55.176,28.809,29.297,24.414,-97.168
1532510009.456,52.246,33.203,21.973,13.672,91.797
1532510009.460,60.059,34.180,20.996,12.695,131.348
1532510009.464,52.246,25.879,23.438,11.230,20.020
1532510009.468,36.133,22.461,21.973,19.531,-42.480
1532510009.471,32.227,26.367,22.949,21.484,-4.395
1532510009.475,26.367,23.438,28.809,21.973,60.547
1532510009.479,27.832,16.113,32.227,51.270,0.000
1532510009.483,38.574,20.508,27.832,63.965,-32.227
1532510009.487,6.836,24.414,27.344,18.555,44.434
1532510009.491,4.395,23.438,26.855,-0.488,8.301
1532510009.495,23.926,20.996,27.344,51.758,-55.664
1532510009.499,15.625,19.531,32.715,51.270,-33.203
1532510009.503,23.438,20.508,28.809,4.395,24.902
1532510009.507,26.855,19.043,25.879,11.230,146.973
1532510009.511,25.879,18.555,30.273,24.902,102.539
1532510009.514,13.672,21.484,27.832,17.090,3.906
1532510009.518,25.879,25.391,25.879,20.020,-11.230
1532510009.522,40.039,26.367,25.879,16.113,49.316
1532510009.526,35.156,25.391,27.344,46.387,161.133
1532510009.530,28.320,24.902,27.832,35.156,-39.551
1532510009.534,17.090,25.391,22.949,-5.371,-159.668
1532510009.538,31.738,24.414,25.879,33.691,79.590
1532510009.542,36.133,19.043,31.738,19.043,167.480
1532510009.546,30.273,18.555,28.320,7.324,69.336
1532510009.550,28.809,21.484,25.391,20.020,-33.691
1532510009.554,14.648,20.996,23.926,30.273,47.363
1532510009.557,13.672,16.113,22.461,34.180,156.738
1532510009.561,17.090,13.672,23.438,6.836,83.496
1532510009.565,10.254,14.648,22.949,13.672,-48.828
1532510009.569,17.578,13.672,24.902,22.949,-55.176
1532510009.573,20.996,19.531,23.926,39.062,82.520
1532510009.577,31.738,22.949,21.484,38.086,113.281
1532510009.581,37.109,19.043,20.996,-12.207,6.836
1532510009.585,36.133,19.043,19.043,24.414,1.953
1532510009.589,31.738,19.043,20.020,29.785,7.812
1532510009.593,36.133,18.555,20.508,-0.977,-45.410
1532510009.596,41.992,20.508,18.555,26.855,-33.203
1532510009.600,30.273,21.484,13.184,27.832,3.906
1532510009.604,23.438,16.113,16.113,22.949,109.863
1532510009.608,23.438,13.184,27.344,23.438,139.160
1532510009.612,34.180,13.672,28.320,23.926,2.930
1532510009.616,44.922,16.602,24.902,45.898,-65.918
1532510009.620,51.270,22.461,20.508,43.457,20.996
1532510009.624,55.664,31.738,13.672,9.766,160.156
1532510009.628,41.016,31.738,10.742,4.883,81.543
1532510009.632,28.809,24.902,15.137,9.277,-166.504
1532510009.636,41.504,22.461,19.531,16.113,-97.168
1532510009.639,28.809,20.508,16.602,6.836,113.281
1532510009.643,10.742,22.949,18.066,31.250,128.906
1532510009.647,42.480,29.785,19.531,27.344,7.324
1532510009.651,47.852,26.367,18.555,0.000,-24.414
1532510009.655,22.949,20.996,17.090,10.742,118.652
1532510009.659,17.578,22.461,18.066,21.973,87.402
1532510009.663,29.785,25.391,17.578,37.109,-21.973
1532510009.667,48.828,24.902,15.137,7.812,-19.043
1532510009.671,41.504,20.020,20.508,-4.883,10.742
1532510009.675,29.785,20.020,21.484,21.484,112.793
1532510009.679,40.039,26.367,17.578,9.766,77.637
1532510009.682,27.344,24.414,20.508,10.254,-28.809
1532510009.686,39.551,22.949,19.531,40.527,34.180
1532510009.690,52.246,23.926,17.090,45.410,25.391
1532510009.694,23.926,20.508,22.461,11.230,-36.133
1532510009.698,5.859,18.555,21.973,-2.930,-9.766
1532510009.702,16.602,23.926,19.043,7.812,28.809
1532510009.706,40.039,26.367,21.973,17.090,93.262
1532510009.710,41.016,24.414,21.973,23.926,-3.906
1532510009.714,34.180,22.949,22.461,32.227,-124.023
1532510009.718,32.227,20.508,21.484,2.441,-21.484
1532510009.721,45.410,18.555,24.414,14.160,122.559
1532510009.725,32.715,20.020,27.344,41.504,188.965
1532510009.729,22.461,20.996,26.367,41.016,43.457
1532510009.733,41.504,21.484,23.438,24.902,-34.668
1532510009.737,30.762,25.391,16.113,-7.812,83.984
1532510009.741,7.812,21.484,20.508,10.742,150.391
1532510009.745,21.973,17.090,27.344,57.129,76.172
1532510009.749,31.250,21.973,22.461,19.531,-47.363
1532510009.753,29.785,22.949,19.043,-13.672,-50.293
1532510009.757,10.742,20.996,23.926,15.625,52.246
1532510009.761,12.207,22.949,28.809,29.785,33.203
1532510009.764,43.945,23.438,28.809,41.992,-19.043
1532510009.768,42.480,15.137,30.762,24.414,-64.453
1532510009.772,20.020,20.020,26.855,12.695,-51.270
1532510009.776,14.160,27.832,22.949,12.695,74.219
1532510009.780,20.020,25.391,25.391,29.297,28.809
1532510009.784,21.484,23.926,26.367,26.855,11.719
1532510009.788,27.344,23.438,27.344,39.551,80.566
1532510009.792,27.832,21.973,26.367,26.855,120.117
1532510009.796,40.039,20.996,25.391,-11.719,28.809
1532510009.800,27.832,22.461,27.344,14.160,-107.910
1532510009.803,0.000,18.555,28.809,44.434,-36.621
1532510009.807,20.996,15.137,29.785,23.926,86.914
1532510009.811,11.230,19.043,25.879,-4.395,-68.359
1532510009.815,23.926,20.508,25.879,16.602,-105.469
1532510009.819,53.711,20.020,28.320,14.648,50.293
1532510009.823,24.902,19.043,29.297,41.504,145.996
1532510009.827,2.441,19.043,30.273,32.227,122.559
1532510009.831,23.438,23.926,27.344,-9.766,-24.902
1532510009.835,30.273,20.020,28.809,7.812,-9.277
1532510009.839,18.555,16.602,32.715,37.109,112.305
1532510009.843,29.785,19.043,30.762,40.039,120.117
1532510009.846,34.668,16.602,30.762,23.926,-40.039
1532510009.850,4.883,18.555,34.668,5.859,-196.289
1532510009.854,19.043,18.066,37.109,-1.465,-91.797
1532510009.858,33.691,16.602,35.156,11.719,111.816
1532510009.862,20.996,20.996,35.645,18.555,80.078
1532510009.866,18.066,21.973,36.133,23.926,-8.789
1532510009.870,31.738,18.066,39.551,36.621,-2.930
1532510009.874,49.316,19.531,41.016,35.645,104.980
1532510009.878,18.066,24.414,34.180,9.766,83.008
1532510009.882,-1.953,23.926,31.738,6.836,-38.574
1532510009.886,27.832,22.461,34.668,14.648,10.254
1532510009.889,41.504,17.578,40.039,60.059,101.074
1532510009.893,18.555,19.531,40.527,42.969,24.414
1532510009.897,17.578,24.902,35.156,-10.742,-72.266
1532510009.901,30.762,21.484,34.180,-9.277,-27.344
1532510009.905,40.039,20.020,34.668,9.766,124.023
1532510009.909,32.715,23.438,36.133,13.672,67.871
1532510009.913,16.113,23.926,34.668,9.766,-127.441
1532510009.917,25.879,21.973,34.668,30.762,-69.824
1532510009.921,43.945,20.508,37.598,26.855,48.828
1532510009.925,44.922,20.020,37.598,50.293,126.465
1532510009.928,26.855,20.508,37.109,40.039,45.410
1532510009.932,14.648,25.391,32.227,-28.320,-45.898
1532510009.936,26.367,25.879,32.227,8.789,46.875
1532510009.940,35.645,20.020,32.715,18.555,82.031
1532510009.944,29.785,24.414,25.879,1.953,50.293
1532510009.948,15.137,26.855,28.809,46.875,-41.016
1532510009.952,14.160,24.414,29.785,-0.488,-133.301
1532510009.956,20.996,23.926,30.762,-25.879,41.016
1532510009.960,25.879,20.996,36.621,1.953,158.203
1532510009.964,33.691,23.926,35.156,36.133,47.363
1532510009.968,42.480,28.809,31.738,28.809,-35.645
1532510009.971,39.062,28.320,31.250,5.859,31.250
1532510009.975,32.227,22.461,34.668,18.555,130.859
1532510009.979,34.180,23.926,30.762,17.090,71.289
1532510009.983,48.828,28.809,29.785,24.414,11.230
1532510009.987,35.156,25.879,37.109,35.156,55.176
1532510009.991,7.324,25.391,37.109,31.738,20.996
1532510009.995,21.484,31.250,31.738,16.113,-3.906
1532510009.999,24.414,28.320,31.738,0.977,-2.930
1532510010.003,21.973,25.391,33.203,-0.977,41.504
1532510010.007,22.461,27.832,29.785,12.695,114.746
1532510010.011,20.508,21.973,34.668,49.316,48.828
1532510010.014,45.410,20.996,36.621,43.457,-27.344
1532510010.018,41.992,27.832,27.832,1.953,-9.277
1532510010.022,6.836,26.367,30.762,10.254,121.582
1532510010.026,8.301,26.855,32.227,36.621,145.508
1532510010.030,11.230,32.227,27.344,41.504,-3.418
1532510010.034,17.578,29.785,28.809,-2.441,-71.289
1532510010.038,32.227,25.879,28.320,-13.184,30.762
1532510010.042,35.645,25.391,27.344,9.277,143.555
1532510010.046,13.184,23.926,29.297,24.902,88.867
1532510010.050,12.695,25.879,29.785,32.715,-122.559
1532510010.053,25.879,25.391,28.809,3.418,-101.074
1532510010.057,23.926,26.855,27.344,2.930,146.973
1532510010.061,35.645,25.879,25.879,37.109,104.004
1532510010.065,45.898,24.902,28.809,21.973,-12.695
1532510010.069,6.836,24.414,33.203,-10.742,-15.625
1532510010.073,0.000,20.020,35.156,32.227,67.871
1532510010.077,20.508,20.508,35.645,52.246,119.629
1532510010.081,21.973,20.508,34.180,10.254,-25.391
1532510010.085,23.926,21.484,34.180,14.648,-70.312
1532510010.089,40.527,23.438,35.645,41.504,7.324
1532510010.093,46.387,22.461,31.738,19.531,-6.348
1532510010.096,8.789,19.043,28.320,-15.137,0.000
1532510010.100,-4.883,22.461,30.273,-7.324,12.695
1532510010.104,25.391,24.902,29.297,11.230,109.863
1532510010.108,45.898,22.461,32.227,24.902,135.254
1532510010.112,28.320,21.973,31.250,35.645,16.602
1532510010.116,19.531,22.949,30.273,55.176,-25.391
1532510010.120,41.992,24.414,35.645,32.227,26.367
1532510010.124,26.367,23.438,33.203,-33.691,128.418
1532510010.128,21.973,20.996,31.738,-4.395,44.434
1532510010.132,25.391,27.344,29.297,20.508,-171.387
1532510010.135,1.953,23.926,31.250,29.297,-60.059
1532510010.139,20.996,21.484,30.273,30.762,138.184
1532510010.143,53.223,27.344,22.461,23.926,99.121
1532510010.147,27.832,27.832,22.461,25.391,-20.996
1532510010.151,-3.906,19.043,26.855,11.719,-49.316
1532510010.155,12.207,15.625,28.809,17.090,100.098
1532510010.159,29.297,21.484,28.809,5.859,187.012
1532510010.163,34.180,22.461,26.855,-8.789,65.430
1532510010.167,65.430,22.461,28.809,-7.324,-30.273
1532510010.171,77.637,22.461,29.297,18.555,23.438
1532510010.175,24.414,23.926,30.762,66.406,80.078
1532510010.178,18.066,25.879,27.344,42.969,0.488
1532510010.182,29.297,24.414,27.344,-3.906,-57.129
1532510010.186,22.949,21.484,29.785,2.441,41.504
1532510010.190,25.879,24.414,28.809,14.160,12.695
1532510010.194,34.180,29.785,28.809,18.066,-66.406
1532510010.198,23.438,24.902,31.738,57.617,-36.133
1532510010.202,2.930,22.949,30.273,53.223,0.977
1532510010.206,7.812,24.902,28.320,2.930,131.348
1532510010.210,25.879,24.902,34.180,25.391,102.051
1532510010.214,32.227,27.832,33.691,52.734,-21.973
1532510010.218,48.828,26.367,32.227,34.180,-29.785
1532510010.221,34.668,24.414,30.273,8.789,7.324
1532510010.225,0.488,28.320,28.320,16.113,100.098
1532510010.229,21.484,28.320,27.832,16.113,-29.297
1532510010.233,26.855,25.391,30.762,31.250,-178.711
1532510010.237,18.066,25.391,28.809,31.250,31.738
1532510010.241,24.902,24.414,27.344,38.574,155.273
1532510010.245,33.203,22.461,32.715,75.684,101.074
1532510010.249,48.828,27.344,24.902,14.648,-16.113
1532510010.253,28.809,27.344,21.973,-19.043,-13.184
1532510010.257,3.906,23.438,30.273,28.809,139.648
1532510010.260,7.324,24.414,29.785,25.879,149.414
1532510010.264,18.555,20.020,28.320,18.555,45.898
1532510010.268,17.578,22.461,27.344,40.039,-53.223
1532510010.272,22.949,27.344,26.855,24.902,-63.477
1532510010.276,47.363,25.879,27.832,4.395,67.871
1532510010.280,43.945,27.344,26.855,18.555,45.898
1532510010.284,15.137,28.320,27.344,21.484,3.418
1532510010.288,-0.488,28.809,27.344,34.668,43.945
1532510010.292,16.113,26.367,23.438,26.367,83.008
1532510010.296,39.062,25.391,21.973,8.301,70.312
1532510010.300,51.270,31.250,24.414,21.973,-10.742
1532510010.303,30.762,30.273,29.297,25.879,49.316
1532510010.307,24.414,23.926,30.762,20.996,128.906
1532510010.311,52.734,24.902,26.855,54.688,39.551
1532510010.315,28.320,28.320,22.949,60.547,-75.684
1532510010.319,1.465,26.855,26.367,-4.395,-40.039
1532510010.323,17.578,24.414,28.320,3.418,105.469
1532510010.327,28.809,27.832,24.414,35.156,112.305
1532510010.331,44.922,32.715,21.973,12.695,-132.324
1532510010.335,36.621,32.227,23.438,19.531,-145.020
1532510010.339,17.090,29.785,25.391,42.480,91.797
1532510010.343,22.461,27.832,29.297,36.621,167.969
1532510010.346,39.551,22.461,32.715,25.391,69.336
1532510010.350,40.039,32.227,24.902,14.160,-54.199
1532510010.354,32.715,35.645,20.508,26.855,51.758
1532510010.358,33.203,35.156,20.508,26.855,162.109
1532510010.362,31.250,35.645,20.996,15.625,23.438
1532510010.366,36.133,28.809,23.926,28.809,-58.105
1532510010.370,34.180,31.250,20.996,28.320,-81.055
1532510010.374,38.574,28.809,22.461,40.527,-22.949
1532510010.378,28.809,24.902,26.367,30.273,96.680
1532510010.382,25.391,29.785,24.902,14.160,16.602
1532510010.385,36.133,33.691,25.879,12.207,18.555
1532510010.389,43.945,33.691,28.809,14.648,101.074
1532510010.393,23.438,33.203,29.297,32.227,113.281
1532510010.397,22.949,35.156,23.926,17.578,40.039
1532510010.401,34.668,34.668,19.043,8.301,3.906
1532510010.405,45.410,38.574,17.578,19.043,106.934
1532510010.409,41.504,41.504,19.043,17.578,61.035
1532510010.413,21.973,33.203,23.438,18.066,-65.918
1532510010.417,16.113,27.832,25.879,15.137,-30.273
1532510010.421,37.598,27.832,23.926,31.250,41.016
1532510010.425,47.363,26.367,26.855,41.504,160.156
1532510010.428,13.672,31.250,25.879,17.578,55.664
1532510010.432,13.184,31.250,22.949,-7.324,-65.918
1532510010.436,19.043,25.391,26.367,2.441,50.293
1532510010.440,24.414,24.902,27.344,23.926,140.625
1532510010.444,27.832,25.879,29.785,18.555,101.074
1532510010.448,40.039,29.297,27.832,7.324,-15.625
1532510010.452,48.828,32.227,23.926,7.812,-3.906
1532510010.456,20.508,29.785,25.391,26.855,77.637
1532510010.460,23.926,24.902,25.391,34.668,44.434
1532510010.464,29.297,23.926,27.344,5.371,3.906
1532510010.468,8.789,22.461,29.785,0.488,-22.461
1532510010.471,11.719,24.414,28.809,10.742,21.973
1532510010.475,54.199,24.902,29.785,7.812,121.582
1532510010.479,36.621,22.949,29.297,12.207,61.523
1532510010.483,2.930,27.344,26.855,11.719,-5.859
1532510010.487,18.555,28.809,26.367,9.277,49.805
1532510010.491,28.809,28.320,27.344,44.434,18.555
1532510010.495,31.250,30.762,23.438,19.531,2.441
1532510010.499,29.297,30.273,23.926,-0.488,3.418
1532510010.503,27.832,25.879,33.203,22.949,-41.992
1532510010.507,20.996,26.367,30.762,21.484,66.895
1532510010.510,31.738,27.832,27.832,12.695,7.324
1532510010.514,27.344,29.785,25.391,-10.254,-130.859
1532510010.518,27.344,29.785,27.832,25.879,-0.977
1532510010.522,15.625,30.273,30.273,23.438,154.297
1532510010.526,6.348,28.809,24.414,-2.930,175.293
1532510010.530,23.926,25.879,24.902,10.254,30.273
1532510010.534,41.016,24.414,31.738,12.207,-29.785
1532510010.538,29.785,22.949,32.715,37.598,95.703
1532510010.542,34.668,23.926,26.855,21.973,154.297
1532510010.546,27.832,29.297,25.879,4.883,62.500
1532510010.550,40.039,31.250,23.926,4.883,-67.871
1532510010.553,39.551,25.879,24.902,5.859,-39.551
1532510010.557,6.836,28.320,26.855,39.062,121.094
1532510010.561,18.066,31.250,24.902,26.855,86.426
1532510010.565,32.227,30.762,21.973,8.789,28.320
1532510010.569,41.016,31.738,23.926,21.484,-28.320
1532510010.573,38.086,30.762,24.414,10.254,-23.438
1532510010.577,38.086,29.785,28.809,8.301,89.355
1532510010.581,19.531,33.203,27.832,24.414,16.113
1532510010.585,14.160,33.691,23.438,42.969,-9.766
1532510010.589,34.180,33.691,21.973,18.555,51.758
1532510010.592,31.250,36.621,24.414,-10.742,99.121
1532510010.596,13.672,30.762,28.320,-1.953,-4.883
1532510010.600,25.391,27.832,24.414,10.742,-111.816
1532510010.604,29.297,30.273,23.926,4.395,39.551
1532510010.608,8.301,28.809,28.320,-0.977,102.051
1532510010.612,14.160,27.344,25.879,15.625,-69.824
1532510010.616,32.715,30.273,23.438,33.691,-66.406
1532510010.620,16.602,30.273,25.879,-1.953,55.176
1532510010.624,31.738,26.855,29.785,0.977,138.672
1532510010.628,41.016,26.855,31.250,29.297,85.449
1532510010.632,16.602,27.344,29.785,5.859,-62.012
1532510010.635,22.949,27.832,24.414,-3.906,-22.461
1532510010.639,32.715,27.832,27.344,9.766,97.168
1532510010.643,25.879,30.762,30.762,12.695,58.594
1532510010.647,33.691,31.250,29.785,29.785,-53.711
1532510010.651,59.082,32.715,26.855,7.812,-158.691
1532510010.655,24.902,31.738,25.879,2.930,-11.230
1532510010.659,5.859,27.832,29.297,20.020,170.410
1532510010.663,26.367,29.297,24.902,-8.789,71.777
1532510010.667,32.227,38.086,17.090,10.254,-23.926
1532510010.671,56.152,35.156,23.926,35.645,27.832
1532510010.675,32.227,21.484,32.227,8.789,141.602
1532510010.678,19.043,23.926,30.762,12.207,103.516
1532510010.682,39.062,33.691,27.344,0.977,19.531
1532510010.686,18.066,32.227,30.762,-6.348,46.875
1532510010.690,26.855,26.855,34.180,27.344,50.781
1532510010.694,39.062,27.344,34.180,47.363,8.301
1532510010.698,23.438,30.273,32.227,26.855,-28.320
1532510010.702,24.414,27.832,33.203,-1.953,-9.277
1532510010.706,33.691,26.855,28.320,-2.441,127.930
1532510010.710,36.133,29.297,21.973,-5.371,36.133
1532510010.714,52.734,26.367,27.344,6.836,-101.074
1532510010.717,36.621,20.508,33.203,46.875,-11.719
1532510010.721,27.832,26.855,26.855,19.531,75.195
1532510010.725,55.664,31.738,23.438,-10.742,132.812
1532510010.729,50.781,23.926,35.156,16.602,32.715
1532510010.733,26.367,21.484,38.574,18.555,-35.645
1532510010.737,26.367,25.391,35.156,12.207,4.883
1532510010.741,29.785,26.855,31.250,12.207,61.523
1532510010.745,61.035,27.344,26.855,40.527,90.820
1532510010.749,59.082,28.809,30.273,53.223,-56.641
1532510010.753,19.043,34.180,28.809,22.949,-138.672
1532510010.757,31.250,34.180,30.762,4.395,74.219
1532510010.760,40.527,31.250,30.273,-1.465,142.090
1532510010.764,26.855,28.809,31.738,17.578,63.965
1532510010.768,29.785,26.855,36.133,31.250,-4.395
1532510010.772,41.504,30.273,34.668,43.945,67.383
1532510010.776,47.363,34.668,32.715,32.227,169.922
1532510010.780,42.969,34.668,32.715,9.277,57.617
1532510010.784,41.504,31.738,33.691,16.602,-50.293
1532510010.788,42.969,31.738,35.156,42.969,-28.320
1532510010.792,58.105,35.156,38.086,29.785,20.508
1532510010.796,43.457,36.621,35.645,27.344,30.762
1532510010.800,38.574,42.969,33.203,39.551,22.461
1532510010.803,31.738,43.945,39.551,24.902,89.355
1532510010.807,19.531,36.133,39.062,9.766,135.742
1532510010.811,38.574,37.109,35.645,9.766,26.855
1532510010.815,47.363,48.828,38.086,41.992,-38.574
1532510010.819,19.043,51.270,41.992,2.930,21.484
1532510010.823,2.930,43.457,41.016,-44.922,141.113
1532510010.827,21.973,46.387,35.645,-12.207,139.160
1532510010.831,5.859,49.805,39.551,10.742,-27.832
1532510010.835,-16.602,50.781,41.992,-7.324,-81.055
1532510010.839,-0.488,62.988,45.898,-30.762,19.531
1532510010.842,0.977,66.406,47.363,-35.156,105.957
1532510010.846,-17.090,59.082,45.410,-50.781,60.059
1532510010.850,-19.043,64.453,45.410,-31.250,-70.801
1532510010.854,-8.789,70.801,44.434,-16.602,34.180
1532510010.858,-26.855,69.824,42.969,-71.777,170.410
1532510010.862,-53.223,67.871,42.969,-75.684,53.711
1532510010.866,-40.039,68.359,42.480,-67.383,-8.301
1532510010.870,-29.785,76.172,39.062,-64.941,-65.430
1532510010.874,-33.691,79.590,46.387,-58.105,-12.207
1532510010.878,-55.664,72.754,47.852,-73.242,38.574
1532510010.882,-69.824,71.777,44.922,-81.055,-69.336
1532510010.885,-36.621,75.684,43.945,-101.562,17.090
1532510010.889,-5.859,77.637,42.480,-83.008,73.730
1532510010.893,-1.465,68.359,44.922,-67.871,0.488
1532510010.897,-8.301,57.129,45.410,-55.176,-5.371
1532510010.901,-10.254,57.129,41.504,-19.531,-2.441
1532510010.905,-2.441,54.199,38.086,-37.109,100.586
1532510010.909,3.418,49.805,37.109,-43.945,113.281
1532510010.913,-4.883,44.434,39.551,-14.648,11.230
1532510010.917,-2.441,36.621,44.434,8.789,1.953
1532510010.921,14.648,33.203,38.574,2.930,51.270
1532510010.924,27.832,30.762,34.180,-2.930,92.285
1532510010.928,12.695,30.762,38.574,17.578,-44.922
1532510010.932,9.766,30.762,33.691,19.043,-179.688
1532510010.936,22.461,26.367,27.832,17.578,-19.043
1532510010.940,38.574,22.461,30.273,9.766,142.578
1532510010.944,45.410,15.137,33.691,25.391,118.652
1532510010.948,22.949,15.625,31.250,41.504,-26.855
1532510010.952,33.203,19.043,30.762,40.527,-47.852
1532510010.956,47.363,15.625,34.180,57.617,90.820
1532510010.960,47.363,12.695,32.715,47.852,135.254
1532510010.964,66.406,16.602,25.879,20.020,37.109
1532510010.967,90.332,15.625,31.250,67.871,-37.598
1532510010.971,54.688,13.184,32.227,66.895,-20.508
1532510010.975,47.852,17.578,27.832,24.414,44.922
1532510010.979,65.918,16.113,32.715,41.992,6.836
1532510010.983,63.477,11.719,30.273,55.176,-25.391
1532510010.987,60.059,14.648,27.832,42.480,59.082
1532510010.991,61.035,15.625,29.297,43.945,-26.855
1532510010.995,76.172,10.254,34.180,75.684,-55.664
1532510010.999,62.500,11.230,30.762,48.340,-4.883
1532510011.003,44.434,13.672,27.344,20.508,12.695
1532510011.007,47.852,12.207,28.320,42.480,100.586
1532510011.010,61.523,14.160,24.902,43.945,76.172
1532510011.014,67.383,14.160,26.367,47.852,-8.789
1532510011.018,79.590,12.695,31.738,63.965,-41.992
1532510011.022,79.102,18.066,30.762,76.172,23.438
1532510011.026,73.242,23.926,24.414,65.430,128.418
1532510011.030,70.801,18.555,24.414,22.461,-50.293
1532510011.034,63.965,13.672,30.762,36.133,-167.480
1532510011.038,64.941,14.648,33.203,64.941,62.500
1532510011.042,73.242,18.066,32.715,67.383,171.875
1532510011.046,62.500,18.555,31.738,49.316,95.703
1532510011.049,55.176,17.578,31.250,62.012,-21.973
1532510011.053,60.547,19.531,30.273,40.039,30.762
1532510011.057,74.707,21.973,31.738,20.508,163.086
1532510011.061,73.730,20.508,33.691,62.012,83.496
1532510011.065,47.363,21.973,31.250,48.340,-68.848
1532510011.069,42.969,27.344,27.344,32.227,-76.660
1532510011.073,52.734,24.902,26.367,43.457,73.242
1532510011.077,68.848,21.973,28.320,63.965,161.133
1532510011.081,80.078,22.949,32.227,53.223,14.648
1532510011.085,60.547,24.414,31.250,48.340,3.906
1532510011.089,53.711,25.879,28.320,49.805,47.852
1532510011.092,64.453,25.879,29.297,35.156,-27.344
1532510011.096,62.500,28.809,26.855,43.457,-8.301
1532510011.100,43.945,31.250,23.926,26.367,0.977
1532510011.104,39.062,30.762,25.391,20.508,67.871
1532510011.108,52.246,31.250,26.855,34.668,93.750
1532510011.112,87.402,30.273,29.297,41.992,-10.254
1532510011.116,70.312,31.738,27.344,31.738,-57.129
1532510011.120,34.668,27.344,31.250,54.688,0.977
1532510011.124,41.016,21.973,35.645,50.293,134.277
1532510011.128,49.316,25.879,30.273,17.578,81.543
1532510011.132,48.828,29.297,28.320,11.230,-166.504
1532510011.135,41.504,25.879,31.250,22.949,-80.566
1532510011.139,46.387,24.902,31.738,23.926,123.047
1532510011.143,42.969,31.738,31.250,44.434,124.512
1532510011.147,38.574,31.250,33.203,40.527,2.441
1532510011.151,31.250,28.320,31.250,20.996,-52.734
1532510011.155,44.922,33.203,28.320,30.273,73.730
1532510011.159,78.125,34.180,28.320,19.043,103.027
1532510011.163,48.828,29.785,29.785,1.465,-26.855
1532510011.167,9.766,25.391,30.762,-1.953,-26.855
1532510011.171,33.203,26.367,32.715,8.301,-26.367
1532510011.174,30.762,32.715,30.762,-2.441,50.293
1532510011.178,44.434,37.109,28.809,41.016,114.746
1532510011.182,40.527,34.180,32.715,44.922,24.414
1532510011.186,22.461,34.180,28.809,-33.203,55.664
1532510011.190,35.645,32.715,27.832,-20.996,95.215
1532510011.194,22.949,24.414,34.668,21.484,118.164
1532510011.198,32.715,29.297,34.180,15.625,54.688
1532510011.202,41.016,34.180,31.250,32.715,9.766
1532510011.206,36.621,27.832,34.180,49.805,74.707
1532510011.210,34.180,29.785,35.156,10.254,17.578
1532510011.214,22.461,32.227,32.715,-8.789,-92.285
1532510011.217,41.504,31.250,35.156,50.293,-25.879
1532510011.221,52.246,36.133,32.715,44.922,79.590
1532510011.225,15.137,36.621,30.273,-9.766,160.156
1532510011.229,11.230,28.320,35.156,1.465,38.086
1532510011.233,30.273,25.879,33.203,20.996,-35.156
1532510011.237,35.645,30.273,30.273,28.320,66.895
1532510011.241,33.203,31.250,32.227,37.598,151.855
1532510011.245,30.762,31.738,30.762,27.832,103.027
1532510011.249,32.715,31.738,30.762,-3.418,-65.918
1532510011.253,40.527,26.855,34.668,38.574,-73.242
1532510011.257,47.363,26.855,38.086,49.805,53.711
1532510011.260,41.016,36.621,32.715,-10.742,50.293
1532510011.264,18.066,33.691,32.715,7.812,7.812
1532510011.268,15.625,28.320,38.086,25.879,-34.668
1532510011.272,38.086,31.250,31.250,0.488,-63.965
1532510011.276,42.969,34.180,22.949,10.254,50.293
1532510011.280,34.180,35.645,23.438,24.902,49.316
1532510011.284,48.340,27.832,34.180,42.480,8.789
1532510011.288,48.340,24.414,37.109,27.344,59.570
1532510011.292,21.973,27.832,33.203,9.766,90.820
1532510011.296,19.043,29.785,31.738,22.461,67.383
1532510011.299,21.484,25.879,31.250,25.879,-45.410
1532510011.303,58.594,26.855,32.227,73.242,15.137
1532510011.307,61.035,30.762,33.691,31.738,123.047
1532510011.311,19.043,27.344,32.715,-34.668,-47.363
1532510011.315,7.812,25.391,31.738,15.137,-86.426
1532510011.319,17.578,25.391,34.180,30.273,43.457
1532510011.323,33.691,27.832,32.227,3.906,117.676
1532510011.327,36.133,31.738,29.785,13.672,128.906
1532510011.331,43.945,35.156,31.738,36.133,31.250
1532510011.335,38.574,31.250,36.621,43.945,20.020
1532510011.339,39.062,25.879,33.691,14.160,125.488
1532510011.342,39.551,26.855,28.809,-8.789,172.852
1532510011.346,32.227,31.738,30.762,9.277,33.203
1532510011.350,38.574,32.715,31.250,11.230,-163.086
1532510011.354,33.691,30.762,31.738,10.254,-85.938
1532510011.358,48.340,32.715,29.297,16.602,140.137
1532510011.362,55.176,33.691,24.902,27.344,89.355
1532510011.366,22.949,28.320,26.855,50.781,0.488
1532510011.370,35.156,25.879,23.926,14.160,11.230
1532510011.374,36.133,29.785,23.926,-27.344,103.027
1532510011.378,22.461,31.738,21.973,1.953,115.234
1532510011.381,53.223,29.297,21.973,25.879,17.090
1532510011.385,51.270,27.344,25.391,30.273,21.973
1532510011.389,19.043,28.320,24.414,26.855,88.867
1532510011.393,16.113,29.297,20.508,17.578,78.125
1532510011.397,34.668,30.762,21.484,23.926,-43.945
1532510011.401,38.574,30.762,25.879,-0.488,-83.496
1532510011.405,31.738,29.785,22.949,-0.488,78.613
1532510011.409,35.156,26.367,25.391,31.738,77.637
1532510011.413,30.762,25.391,22.461,23.438,-87.402
1532510011.417,28.809,23.926,18.066,-3.906,-39.062
1532510011.421,30.762,25.391,18.066,-11.719,93.262
1532510011.424,32.227,27.832,16.602,11.719,174.805
1532510011.428,45.410,28.809,12.207,14.648,44.922
1532510011.432,33.203,24.902,10.254,20.020,-62.012
1532510011.436,12.695,21.484,16.113,29.785,41.992
1532510011.440,17.090,24.414,13.184,31.738,87.402
1532510011.444,23.438,25.879,7.812,22.461,40.039
1532510011.448,28.809,26.367,9.766,-4.883,-58.594
1532510011.452,37.598,27.344,12.207,-3.418,-148.926
1532510011.456,29.785,26.367,11.719,-2.441,33.203
1532510011.460,28.809,24.414,10.254,29.785,145.996
1532510011.464,27.344,23.926,12.207,35.156,46.387
1532510011.467,31.738,23.438,15.137,-9.766,-36.133
1532510011.471,31.738,22.949,15.137,-0.488,1.465
1532510011.475,13.672,18.066,14.160,5.859,137.695
1532510011.479,23.438,19.531,17.090,20.508,73.730
1532510011.483,27.344,27.344,22.461,22.949,-33.691
1532510011.487,35.156,27.344,18.555,4.883,10.254
1532510011.491,33.691,21.973,19.043,7.324,5.371
1532510011.495,21.484,15.625,23.926,36.133,-11.230
1532510011.499,34.180,18.555,17.090,14.160,13.184
1532510011.503,30.273,22.461,19.043,9.277,54.199
1532510011.506,25.391,21.973,27.832,39.062,136.719
1532510011.510,54.199,26.367,23.926,21.973,90.332
1532510011.514,41.016,26.855,19.531,8.789,6.348
1532510011.518,8.789,23.926,23.926,16.113,19.531
1532510011.522,9.277,23.438,26.367,5.859,97.168
1532510011.526,21.973,25.391,18.555,-23.438,139.648
1532510011.530,23.926,29.785,14.648,-1.465,21.973
1532510011.534,23.926,25.391,17.090,11.230,-93.262
1532510011.538,32.227,24.902,17.090,13.184,3.906
1532510011.542,58.594,28.320,16.602,26.855,123.047
1532510011.546,43.945,28.809,18.066,15.625,106.445
1532510011.549,6.836,24.902,23.438,2.930,-104.980
1532510011.553,9.277,20.020,22.949,-7.812,-151.367
1532510011.557,20.996,20.508,21.484,15.137,123.047
1532510011.561,27.344,22.461,20.020,13.184,130.371
1532510011.565,22.461,24.414,13.184,-5.859,10.254
1532510011.569,21.484,26.367,13.184,37.598,1.465
1532510011.573,18.066,22.949,19.043,33.691,102.539
1532510011.577,19.043,21.484,19.531,-2.441,149.414
1532510011.581,33.691,25.391,17.090,21.973,-18.555
1532510011.585,65.918,26.367,16.602,34.668,-59.570
1532510011.589,35.156,24.414,20.508,23.926,8.301
1532510011.592,1.465,20.996,20.020,5.371,5.859
1532510011.596,19.531,21.484,16.113,9.766,18.066
1532510011.600,27.832,25.879,14.648,21.484,-31.250
1532510011.604,22.461,27.344,9.766,0.000,58.105
1532510011.608,13.672,25.391,9.277,23.438,116.211
1532510011.612,43.945,22.461,10.742,29.297,21.484
1532510011.616,37.109,19.531,13.672,-5.371,-14.648
1532510011.620,7.324,19.043,14.648,-11.719,25.391
1532510011.624,20.508,19.043,15.137,15.137,152.832
1532510011.628,21.484,20.508,19.043,35.645,85.449
1532510011.631,19.531,24.414,11.230,-14.648,-179.688
1532510011.635,26.855,26.367,4.395,12.207,-100.586
1532510011.639,27.832,30.762,5.859,29.297,118.164
1532510011.643,29.297,26.367,12.695,-25.879,119.141
1532510011.647,18.555,21.973,15.137,6.836,8.301
1532510011.651,28.809,24.902,8.301,8.301,-44.434
1532510011.655,22.949,19.043,8.301,-0.977,69.824
1532510011.659,10.254,22.949,5.859,19.043,148.438
1532510011.663,20.508,24.902,3.418,16.113,66.406
1532510011.667,18.066,19.043,9.766,27.344,-42.969
1532510011.671,28.320,20.996,9.766,0.488,20.996
1532510011.674,39.062,27.344,4.395,-0.977,103.027
1532510011.678,45.898,29.297,3.418,18.066,12.695
1532510011.682,37.598,27.832,1.953,-12.207,-49.316
1532510011.686,35.645,29.785,-3.906,-5.371,65.918
1532510011.690,54.199,29.785,-4.395,3.418,57.129
1532510011.694,62.500,24.902,1.465,1.465,-58.594
1532510011.698,38.086,25.391,-1.465,14.648,-25.391
1532510011.702,15.625,26.367,-5.859,26.367,19.531
1532510011.706,21.973,22.949,1.465,42.969,109.863
1532510011.710,24.902,21.973,1.953,26.367,115.723
1532510011.713,25.391,20.508,1.465,19.531,21.484
1532510011.717,34.668,20.020,4.395,23.926,2.441
1532510011.721,25.879,21.484,0.488,29.785,0.977
1532510011.725,-2.930,20.996,-3.418,20.508,78.613
1532510011.729,8.301,20.996,-1.953,18.555,-12.695
1532510011.733,21.973,21.484,-2.930,24.902,-168.457
1532510011.737,8.789,18.555,-1.953,28.809,6.836
1532510011.741,20.996,21.484,-1.465,17.578,157.227
1532510011.745,31.250,26.367,-0.977,-0.977,127.930
1532510011.749,11.719,24.414,2.930,45.898,-14.648
1532510011.753,9.277,24.902,0.000,16.602,-7.324
1532510011.756,10.742,24.902,-4.883,-13.672,151.367
1532510011.760,23.438,20.996,-0.488,8.301,144.043
1532510011.764,32.715,22.461,1.953,27.344,41.016
1532510011.768,15.137,24.902,-3.418,14.648,-75.684
1532510011.772,10.742,19.531,0.000,-9.277,-93.262
1532510011.776,4.883,16.602,0.977,3.418,68.359
1532510011.780,26.855,19.531,-0.488,8.789,80.566
1532510011.784,30.273,24.902,-1.465,8.789,21.484
1532510011.788,7.324,24.902,-3.906,5.859,31.250
1532510011.792,31.250,20.508,-2.930,11.719,81.055
1532510011.796,27.832,23.438,-5.371,5.859,69.336
1532510011.799,4.395,23.926,-5.371,8.301,-18.066
1532510011.803,12.207,19.043,1.465,44.434,32.715
1532510011.807,33.203,20.508,0.488,23.438,98.145
1532510011.811,43.945,21.973,-4.395,-7.324,44.922
1532510011.815,-2.441,17.090,-2.930,-0.488,-54.199
1532510011.819,-1.953,17.090,-4.395,8.789,-60.547
1532510011.823,21.973,19.043,-7.324,0.977,106.445
1532510011.827,27.832,14.160,-2.930,21.484,147.461
1532510011.831,20.996,14.160,0.000,28.320,-97.168
1532510011.835,9.766,21.484,-7.324,-18.066,-127.441
1532510011.838,20.996,18.555,-9.766,10.742,100.098
1532510011.842,32.227,12.695,-3.906,38.574,151.855
1532510011.846,31.250,15.625,-5.859,-2.441,63.477
1532510011.850,30.762,17.090,-6.836,-18.066,-39.551
1532510011.854,16.113,16.602,-8.789,4.395,48.340
1532510011.858,-3.906,16.602,-5.859,11.230,155.273
1532510011.862,-4.883,15.625,0.488,10.254,-7.812
1532510011.866,20.020,18.066,-6.348,-10.742,-99.609
1532510011.870,38.574,24.414,-7.324,-27.832,-104.492
1532510011.874,25.391,24.414,-1.953,-5.859,-34.180
1532510011.878,19.043,17.578,-1.465,18.555,114.746
1532510011.881,12.207,19.531,-3.906,16.113,45.410
1532510011.885,0.488,23.926,-12.207,-3.906,31.738
1532510011.889,6.348,24.414,-15.137,-3.906,105.469
1532510011.893,30.273,23.438,-11.230,19.531,96.191
1532510011.897,38.086,22.949,-7.324,18.555,14.160
1532510011.901,28.320,18.066,-1.953,18.555,-12.695
1532510011.905,11.230,19.043,-3.418,33.203,81.055
1532510011.909,15.625,24.414,-11.230,-13.184,45.410
1532510011.913,37.109,22.949,-9.277,-19.531,-67.383
1532510011.917,20.020,21.973,-6.348,22.949,-20.020
1532510011.921,20.996,20.508,-6.348,42.969,77.637
1532510011.924,29.785,20.020,-7.324,15.137,186.035
1532510011.928,33.691,18.555,-3.418,-17.090,61.035
1532510011.932,36.621,20.508,-1.953,0.977,-87.402
1532510011.936,8.789,19.531,-0.488,20.020,31.738
1532510011.940,1.953,19.531,-0.488,11.719,131.348
1532510011.944,19.043,21.484,-2.441,15.625,145.020
1532510011.948,18.555,19.531,-2.441,8.789,31.250
1532510011.952,22.949,20.020,-3.418,-2.930,-27.344
1532510011.956,15.625,19.531,-2.441,16.602,89.844
1532510011.960,16.602,21.973,-4.395,32.227,76.172
1532510011.963,29.297,23.926,0.977,7.324,0.488
1532510011.967,6.348,21.484,-2.441,-18.066,-23.926
1532510011.971,-5.859,18.555,-7.324,-6.836,-79.590
1532510011.975,17.090,17.578,0.977,1.953,14.648
1532510011.979,29.297,16.602,1.953,5.859,57.617
1532510011.983,10.254,14.648,0.000,5.859,4.395
1532510011.987,-5.859,11.230,2.441,20.020,45.898
1532510011.991,11.719,14.648,-2.930,18.066,98.633
1532510011.995,15.625,17.090,-3.906,11.230,73.242
1532510011.999,24.902,16.602,-4.395,2.441,-9.277
1532510012.003,18.066,14.648,-5.859,-7.324,-27.344
1532510012.006,-12.207,18.555,-2.441,26.367,81.055
1532510012.010,16.602,26.855,-3.906,9.766,36.133
1532510012.014,17.090,20.020,1.953,3.906,-102.539
1532510012.018,10.254,19.043,3.418,17.578,9.277
1532510012.022,18.555,25.879,1.465,-6.836,136.719
1532510012.026,13.184,23.926,5.371,9.766,166.504
1532510012.030,22.949,22.461,0.000,-5.859,30.273
1532510012.034,18.555,21.484,1.465,3.906,-20.020
1532510012.038,9.277,19.043,6.836,34.668,97.656
1532510012.042,19.531,20.508,1.953,13.184,165.039
1532510012.046,37.109,21.973,2.930,15.625,93.750
1532510012.049,37.109,24.902,4.883,7.812,-75.684
1532510012.053,3.418,20.020,4.883,-0.977,-80.078
1532510012.057,0.977,15.625,1.465,7.324,101.074
1532510012.061,12.695,21.484,-1.465,-15.137,92.285
1532510012.065,10.742,21.973,0.977,8.789,20.508
1532510012.069,24.414,18.066,3.418,15.137,-39.062
1532510012.073,25.879,21.484,2.930,-14.648,-18.066
1532510012.077,10.742,26.367,4.395,-2.441,101.074
1532510012.081,11.230,22.461,5.371,11.719,-0.488
1532510012.085,38.574,21.973,6.348,28.320,-19.043
1532510012.088,34.180,21.484,10.254,37.598,75.195
1532510012.092,3.906,18.555,6.836,1.465,130.371
1532510012.096,9.277,19.531,1.465,7.812,29.297
1532510012.100,22.949,21.973,3.418,-7.324,-89.844
1532510012.104,30.273,20.996,7.812,-10.254,50.293
1532510012.108,9.766,20.020,5.371,-5.371,123.535
1532510012.112,6.348,24.414,2.441,-6.836,-54.688
1532510012.116,0.977,22.949,5.371,4.395,-74.219
1532510012.120,0.000,17.578,7.812,16.113,23.926
1532510012.124,10.742,16.602,1.465,-4.883,146.973
1532510012.128,8.301,17.090,2.930,21.973,98.633
1532510012.131,8.789,17.578,8.789,47.852,-43.457
1532510012.135,26.855,18.555,-0.488,-9.277,-6.348
1532510012.139,43.945,20.508,-5.371,-16.113,94.238
1532510012.143,15.137,22.461,1.465,28.320,68.848
1532510012.147,-5.371,20.996,4.883,31.250,-59.570
1532510012.151,6.836,20.020,-0.488,-8.789,-172.363
1532510012.155,42.480,22.949,3.418,-7.324,-57.617
1532510012.159,40.039,21.484,9.277,8.301,146.484
1532510012.163,8.789,19.531,7.324,23.926,67.871
1532510012.167,3.418,19.043,4.883,6.836,-21.484
1532510012.170,11.719,20.020,3.418,10.742,22.461
1532510012.174,21.484,24.902,7.324,33.203,134.277
1532510012.178,42.969,26.367,9.766,8.301,107.910
1532510012.182,41.504,22.949,7.324,5.859,13.672
1532510012.186,28.809,22.461,4.883,20.020,32.715
1532510012.190,23.926,21.973,7.324,46.387,78.613
1532510012.194,1.953,19.043,9.766,29.297,59.082
1532510012.198,13.184,18.066,7.812,-35.156,3.418
1532510012.202,28.320,18.066,10.742,3.906,-8.789
1532510012.206,28.320,19.043,12.207,32.227,122.559
1532510012.210,34.180,22.949,9.277,20.996,54.688
1532510012.213,26.367,20.508,10.742,12.207,-137.695
1532510012.217,22.461,18.066,8.789,11.719,-39.062
1532510012.221,37.598,20.020,7.812,23.926,101.562
1532510012.225,21.973,23.926,6.836,9.277,157.227
1532510012.229,17.578,21.484,7.812,6.348,30.762
1532510012.233,27.832,18.066,9.277,47.363,-49.316
1532510012.237,27.832,21.973,4.395,24.902,17.578
1532510012.241,45.898,20.508,7.812,-18.555,92.285
1532510012.245,53.223,19.043,13.672,35.156,111.816
1532510012.249,17.578,21.484,9.766,17.578,-60.547
1532510012.253,6.348,21.484,7.812,-31.738,-136.230
1532510012.256,35.645,21.484,9.766,-12.695,70.312
1532510012.260,26.855,21.484,10.742,18.066,145.020
1532510012.264,22.461,20.508,9.766,39.062,28.320
1532510012.268,29.785,21.484,5.371,15.625,-30.273
1532510012.272,19.531,21.484,3.906,-4.883,56.641
1532510012.276,14.160,21.973,2.930,6.836,153.809
1532510012.280,11.719,19.531,2.441,28.320,78.613
1532510012.284,23.438,20.508,4.883,43.457,-58.105
1532510012.288,24.414,23.926,-1.953,-5.859,-31.738
1532510012.292,47.363,23.926,-5.859,-17.578,-20.020
1532510012.295,38.086,23.438,-2.441,3.418,-26.855
1532510012.299,9.277,21.484,-0.488,23.926,-39.062
1532510012.303,21.973,24.414,-2.930,28.809,47.852
1532510012.307,20.508,25.391,-8.301,-18.555,180.664
1532510012.311,12.207,20.508,-2.930,-16.113,91.797
1532510012.315,23.926,21.973,-3.418,4.395,20.996
1532510012.319,41.016,24.414,-6.836,1.953,49.805
1532510012.323,35.645,23.926,-2.930,-7.324,153.320
1532510012.327,20.996,23.438,-4.883,0.488,132.324
1532510012.331,12.207,19.531,-1.953,8.789,-48.340
1532510012.335,14.160,18.555,0.000,3.906,-87.891
1532510012.338,37.598,22.949,0.000,21.973,64.453
1532510012.342,18.066,25.391,-1.953,19.043,169.922
1532510012.346,14.160,23.438,-5.371,-9.277,67.871
1532510012.350,38.086,22.461,0.000,5.859,-139.160
1532510012.354,28.809,20.996,6.836,63.477,-65.918
1532510012.358,22.461,20.996,4.883,30.273,136.230
1532510012.362,25.879,26.855,-1.953,-23.438,69.336
1532510012.366,18.066,24.414,0.488,13.184,-21.484
1532510012.370,11.719,20.996,0.000,9.766,1.465
1532510012.374,12.695,21.484,2.930,11.230,115.234
1532510012.378,42.969,25.879,5.859,36.621,66.895
1532510012.381,37.598,25.879,2.441,6.836,-99.609
1532510012.385,28.809,21.484,4.395,3.906,-17.090
1532510012.389,43.945,20.020,12.207,13.184,36.621
1532510012.393,17.578,18.066,15.137,0.000,-13.184
1532510012.397,34.180,19.043,11.719,8.789,-19.043
1532510012.401,32.715,22.949,11.230,16.113,-15.625
1532510012.405,17.578,24.902,12.695,41.016,125.488
1532510012.409,25.391,20.020,16.113,7.812,155.762
1532510012.413,36.133,18.066,19.531,20.020,39.551
1532510012.417,31.738,18.066,19.043,61.523,6.348
1532510012.420,8.301,20.996,13.672,-2.441,53.711
1532510012.424,16.113,20.020,16.113,-14.160,90.332
1532510012.428,22.461,15.137,21.973,10.742,-6.348
1532510012.432,22.949,16.113,20.020,13.184,-155.273
1532510012.436,23.926,16.113,15.625,23.926,-41.016
1532510012.440,49.805,20.020,16.602,14.648,137.207
1532510012.444,17.578,20.508,19.043,20.508,132.324
1532510012.448,-10.742,9.766,25.879,62.988,23.438
1532510012.452,31.250,13.184,23.926,20.996,-7.324
1532510012.456,32.715,25.391,15.625,-39.062,114.258
1532510012.460,32.715,29.785,10.254,-16.602,156.250
1532510012.463,65.430,26.367,12.207,4.395,71.777
1532510012.467,73.242,25.879,17.090,1.953,-17.578
1532510012.471,39.062,27.832,16.113,1.953,-11.719
1532510012.475,26.855,26.367,17.090,14.648,45.898
1532510012.479,27.832,20.996,17.090,9.277,19.043
1532510012.483,25.391,19.043,16.113,21.973,-2.930
1532510012.487,36.621,18.555,20.020,38.574,62.500
1532510012.491,34.668,14.648,25.879,15.137,3.418
1532510012.495,-2.441,17.090,25.879,10.742,-46.875
1532510012.499,4.395,24.414,22.461,8.789,-21.484
1532510012.502,30.273,23.926,18.066,19.043,0.488
1532510012.506,2.930,18.555,21.484,24.902,102.051
1532510012.510,7.812,17.578,24.414,49.805,75.195
1532510012.514,47.363,19.043,26.855,54.199,-14.160
1532510012.518,22.949,20.020,22.949,0.977,-74.219
1532510012.522,-0.977,21.484,18.066,-2.441,11.719
1532510012.526,16.113,18.066,25.391,22.461,145.508
1532510012.530,19.531,15.137,27.832,23.926,-47.852
1532510012.534,23.926,16.602,26.855,-7.812,-180.176
1532510012.538,36.133,18.555,24.902,3.906,-13.184
1532510012.542,35.156,19.043,24.414,30.762,102.051
1532510012.545,25.879,20.020,26.855,44.922,68.359
1532510012.549,15.137,20.508,29.785,47.363,-38.086
1532510012.553,24.414,22.949,23.926,-0.488,19.531
1532510012.557,23.926,20.996,24.902,6.836,123.535
1532510012.561,26.367,19.043,31.738,30.273,104.492
1532510012.565,53.223,21.973,27.344,21.973,-10.742
1532510012.569,43.457,19.531,27.832,16.113,-106.934
1532510012.573,18.555,18.555,29.785,47.363,-54.688
1532510012.577,34.180,22.461,20.996,44.922,81.055
1532510012.581,41.992,25.879,18.555,-5.859,30.273
1532510012.585,9.766,21.973,22.949,-11.719,12.207
1532510012.588,3.418,18.555,22.949,12.695,48.828
1532510012.592,31.738,24.902,19.531,29.785,90.332
1532510012.596,51.758,25.391,23.438,27.832,67.871
1532510012.600,48.828,23.438,24.414,71.777,-18.066
1532510012.604,22.949,22.461,20.996,28.809,83.984
1532510012.608,20.508,21.484,25.391,-19.531,118.164
1532510012.612,22.461,24.414,28.809,36.133,16.113
1532510012.616,21.973,22.949,28.320,42.969,-64.453
1532510012.620,28.320,20.508,25.879,19.531,-8.301
1532510012.624,50.781,23.926,25.879,35.156,149.414
1532510012.627,63.965,28.320,28.320,59.082,113.770
1532510012.631,27.344,31.738,24.902,6.348,-140.625
1532510012.635,27.832,29.785,25.879,-8.301,-88.867
1532510012.639,26.855,25.879,24.414,21.973,137.207
1532510012.643,28.320,26.855,19.043,29.297,146.973
1532510012.647,42.969,27.344,18.555,0.000,16.602
1532510012.651,28.809,26.855,21.484,5.371,-43.945
1532510012.655,29.297,26.855,26.367,34.668,73.242
1532510012.659,26.855,25.391,27.832,23.926,78.125
1532510012.663,19.531,26.367,26.855,24.902,-14.160
1532510012.667,17.090,24.902,29.297,28.809,-11.719
1532510012.670,45.410,22.949,30.273,17.090,-81.055
1532510012.674,56.641,23.438,24.902,-0.488,-25.879
1532510012.678,12.695,21.484,26.367,25.391,66.406
1532510012.682,12.695,20.996,29.785,20.996,-17.090
1532510012.686,40.039,20.020,29.297,-2.441,19.043
1532510012.690,48.340,23.926,29.297,25.391,101.074
1532510012.694,34.668,24.414,28.320,37.598,127.441
1532510012.698,16.113,19.043,25.391,10.742,54.199
1532510012.702,20.020,20.508,25.391,1.465,2.441
1532510012.706,41.992,20.508,26.855,17.578,104.004
1532510012.710,41.504,18.066,30.762,21.973,22.461
1532510012.713,19.043,19.531,32.715,1.465,-130.371
1532510012.717,11.719,22.949,24.902,8.301,-36.621
1532510012.721,30.273,22.461,24.902,21.973,68.359
1532510012.725,50.293,16.113,30.273,29.785,151.367
1532510012.729,36.133,18.066,30.762,31.250,47.852
1532510012.733,10.742,26.367,29.297,24.902,-54.688
1532510012.737,17.578,30.762,24.414,17.090,43.945
1532510012.741,45.410,28.809,18.066,-16.602,144.043
1532510012.745,27.832,26.367,18.555,-5.859,100.586
1532510012.749,33.203,24.902,24.902,27.344,-40.527
1532510012.752,55.176,23.926,26.367,32.227,-85.938
1532510012.756,16.602,21.484,25.879,33.203,43.457
1532510012.760,13.184,23.438,23.438,26.367,87.891
1532510012.764,22.949,23.438,24.902,8.789,26.367
1532510012.768,25.879,21.973,29.297,51.270,-29.785
1532510012.772,41.016,25.879,26.367,64.941,-83.496
1532510012.776,54.688,24.902,19.043,-14.648,34.668
1532510012.780,35.156,20.996,28.320,10.742,57.129
1532510012.784,16.113,20.996,30.273,24.902,0.977
1532510012.788,28.809,20.996,20.508,-6.348,34.180
1532510012.792,33.203,19.531,23.926,6.836,94.727
1532510012.795,33.691,20.020,24.902,28.320,94.727
1532510012.799,52.734,20.020,22.949,20.996,-26.855
1532510012.803,41.992,21.973,24.902,59.082,7.324
1532510012.807,2.930,21.973,24.902,57.129,143.066
1532510012.811,15.137,19.531,23.438,-19.043,-19.043
1532510012.815,35.645,21.484,26.855,-7.324,-103.027
1532510012.819,28.809,21.484,26.367,19.531,33.691
1532510012.823,38.574,20.996,27.344,36.133,147.949
1532510012.827,42.969,21.484,29.297,46.387,137.695
1532510012.831,28.320,22.461,23.438,21.973,-20.020
1532510012.835,17.090,23.438,23.438,13.672,-20.508
1532510012.838,23.926,18.555,30.273,41.992,77.148
1532510012.842,31.250,19.531,25.879,17.090,133.301
1532510012.846,40.039,21.484,21.484,18.066,19.531
1532510012.850,46.875,20.996,23.438,26.855,-173.828
1532510012.854,27.832,21.973,19.043,-1.953,-105.469
1532510012.858,22.949,22.949,18.555,30.762,126.465
1532510012.862,12.695,22.461,22.949,45.898,94.238
1532510012.866,18.066,19.531,19.531,0.000,-5.859
1532510012.870,25.391,20.508,20.996,25.879,5.371
1532510012.874,10.254,20.996,17.090,32.715,110.840
1532510012.877,32.715,20.508,15.625,5.371,132.324
1532510012.881,54.688,18.066,25.391,12.695,27.832
1532510012.885,44.434,21.973,20.508,-1.953,14.160
1532510012.889,21.484,27.344,17.578,6.348,89.844
1532510012.893,12.207,20.996,20.508,15.137,74.219
1532510012.897,31.738,21.973,20.020,32.227,-74.219
1532510012.901,42.480,23.926,19.531,38.086,-76.172
1532510012.905,39.062,20.508,20.508,6.348,114.746
1532510012.909,37.109,23.438,20.508,-7.324,107.910
1532510012.913,21.973,25.391,23.438,32.715,-101.562
1532510012.917,-0.488,20.508,24.414,31.250,-40.527
1532510012.920,3.418,16.602,23.438,-0.977,98.145
1532510012.924,23.438,17.090,25.879,6.348,162.598
1532510012.928,30.762,19.531,26.367,24.414,76.660
1532510012.932,26.367,20.020,25.879,44.434,-36.133
1532510012.936,18.066,20.996,25.391,34.180,26.367
1532510012.940,17.090,22.461,20.020,-2.930,58.105
1532510012.944,22.949,24.414,19.531,-18.066,41.992
1532510012.948,29.297,24.902,23.438,3.906,-8.789
1532510012.952,38.574,25.391,23.438,18.066,-126.465
1532510012.956,21.973,22.949,23.438,32.227,35.645
1532510012.959,2.441,21.484,22.461,12.695,148.926
1532510012.963,10.254,20.020,23.926,-9.277,54.688
1532510012.967,20.020,18.555,23.926,9.766,-20.508
1532510012.971,42.969,18.066,23.926,25.391,35.156
1532510012.975,32.715,19.531,23.926,58.105,142.090
1532510012.979,0.000,24.902,19.043,28.809,37.109
1532510012.983,14.648,30.273,19.531,-22.949,-34.180
1532510012.987,27.344,25.879,20.508,-3.906,-6.348
1532510012.991,31.250,17.578,24.414,10.254,7.812
1532510012.995,19.531,16.113,28.320,28.809,29.297
1532510012.999,19.531,19.531,21.973,40.039,2.930
1532510013.002,21.484,21.484,19.043,13.672,36.133
1532510013.006,32.227,22.461,22.461,8.301,153.809
1532510013.010,53.711,22.949,26.367,25.879,80.566
1532510013.014,25.879,25.391,21.484,-10.742,-46.387
1532510013.018,17.578,24.414,20.508,-13.672,-16.113
1532510013.022,22.461,23.438,26.367,15.625,90.332
1532510013.026,4.883,26.367,27.344,31.250,147.949
1532510013.030,35.156,22.949,30.273,51.270,32.227
1532510013.034,57.617,18.555,34.668,32.715,-77.637
1532510013.038,12.207,25.391,27.344,5.371,12.207
1532510013.042,-5.371,31.250,20.996,16.602,153.809
1532510013.045,44.434,25.391,20.020,7.324,157.715
1532510013.049,44.922,20.020,23.438,-7.324,-44.922
1532510013.053,10.254,16.113,28.809,11.719,-130.859
1532510013.057,7.812,20.508,28.809,65.918,89.844
1532510013.061,22.949,26.367,22.461,30.762,107.910
1532510013.065,33.691,23.438,22.949,-19.531,8.789
1532510013.069,24.414,25.879,27.344,3.906,2.930
1532510013.073,22.949,33.203,19.043,-3.906,83.008
1532510013.077,15.137,29.785,22.461,11.230,140.625
1532510013.081,19.043,25.879,28.809,55.176,-43.457
1532510013.084,29.785,29.785,20.508,26.855,-82.520
1532510013.088,10.742,27.344,21.484,-22.461,27.832
1532510013.092,5.371,23.438,26.367,-6.348,-26.367
1532510013.096,21.484,27.344,23.438,15.137,-32.715
1532510013.100,44.434,25.391,25.879,32.227,-7.812
1532510013.104,35.156,23.926,24.902,35.156,83.008
1532510013.108,13.184,29.297,20.508,10.254,111.328
1532510013.112,34.668,29.297,22.949,27.832,32.715
1532510013.116,24.902,24.902,25.879,39.062,-16.602
1532510013.120,18.066,26.367,25.391,16.602,42.480
1532510013.124,29.785,25.391,24.902,21.484,147.949
1532510013.127,42.480,23.926,26.855,14.160,56.641
1532510013.131,41.016,30.762,21.973,-13.672,-166.016
1532510013.135,19.531,30.762,20.996,7.324,-82.031
1532510013.139,15.137,25.879,23.438,15.137,139.160
1532510013.143,32.227,26.855,19.531,16.602,158.691
1532510013.147,49.805,29.785,14.160,34.180,6.348
1532510013.151,44.434,21.973,22.949,42.969,-65.918
1532510013.155,25.879,17.090,29.297,37.598,92.285
1532510013.159,4.883,20.020,25.391,4.395,167.480
1532510013.163,6.836,20.996,22.461,-5.371,52.246
1532510013.167,23.926,18.066,26.367,18.555,-20.508
1532510013.170,24.414,16.602,29.297,30.762,6.348
1532510013.174,35.156,19.043,31.250,44.922,54.688
1532510013.178,24.414,18.555,30.273,22.461,20.996
1532510013.182,46.875,18.066,25.391,24.414,-24.902
1532510013.186,48.828,18.066,25.879,32.227,53.711
1532510013.190,31.250,19.531,23.926,-5.859,33.203
1532510013.194,34.180,21.973,23.926,-7.324,-33.691
1532510013.198,29.785,19.531,27.344,29.785,11.230
1532510013.202,49.316,18.555,26.855,48.340,38.086
1532510013.206,50.293,21.973,27.344,32.715,116.699
1532510013.209,20.508,19.043,29.297,27.344,114.258
1532510013.213,18.555,18.555,29.297,38.574,46.387
1532510013.217,28.809,21.484,26.367,21.973,17.090
1532510013.221,25.879,22.461,25.391,12.695,13.672
1532510013.225,38.574,18.555,29.297,32.227,77.637
1532510013.229,46.875,16.602,33.203,31.738,-41.016
1532510013.233,28.320,20.020,29.785,29.297,-187.012
