timestamps,TP9,AF7,AF8,TP10,Right AUX
1532404013.826,104.004,47.363,33.203,27.344,56.641
1532404013.830,32.715,45.410,34.180,38.574,41.016
1532404013.833,2.930,30.273,33.203,32.715,20.996
1532404013.837,57.129,35.156,34.180,22.461,39.551
1532404013.841,24.414,52.246,34.668,3.906,46.875
1532404013.845,-15.137,39.062,32.715,4.883,47.852
1532404013.849,16.602,27.832,34.668,36.621,37.109
1532404013.853,61.523,34.180,32.715,30.273,-9.277
1532404013.857,76.172,45.410,32.227,-0.488,18.555
1532404013.861,27.832,31.250,44.434,9.766,61.523
1532404013.865,5.371,17.578,37.598,19.531,38.574
1532404013.869,-13.672,42.969,27.344,21.484,45.898
1532404013.873,-16.113,54.688,27.344,9.277,11.719
1532404013.876,46.875,30.273,34.668,29.785,-7.812
1532404013.880,61.523,24.902,45.898,48.828,53.711
1532404013.884,62.012,33.203,35.645,41.016,52.734
1532404013.888,18.066,47.852,24.902,16.113,8.301
1532404013.892,-56.152,40.527,31.738,-0.977,-1.465
1532404013.896,-23.438,26.367,32.715,-5.371,21.484
1532404013.900,23.926,24.902,26.855,-12.207,1.465
1532404013.904,55.176,38.574,32.227,20.508,15.137
1532404013.908,42.480,39.551,35.645,-4.395,47.363
1532404013.912,16.113,28.809,27.832,-12.695,21.973
1532404013.916,46.875,27.344,40.039,54.199,14.648
1532404013.919,53.711,33.203,41.504,47.363,35.156
1532404013.923,29.297,21.484,29.785,8.301,18.066
1532404013.927,1.953,20.996,28.320,-12.695,25.391
1532404013.931,-25.391,38.086,41.504,33.691,24.414
1532404013.935,21.484,27.832,40.039,41.504,16.602
1532404013.939,53.223,39.551,29.785,26.367,12.695
1532404013.943,13.672,39.551,31.250,-10.254,21.484
1532404013.947,12.695,20.996,34.180,-2.441,62.988
1532404013.951,41.992,42.480,20.996,25.879,32.715
1532404013.955,39.062,48.828,22.461,-14.648,-10.254
1532404013.958,-20.996,30.273,35.645,-5.371,-0.977
1532404013.962,-30.273,30.762,33.691,29.297,36.621
1532404013.966,42.480,35.645,23.926,6.348,33.203
1532404013.970,20.508,20.508,26.367,4.395,11.719
1532404013.974,-6.348,48.340,31.250,11.719,29.785
1532404013.978,50.781,69.824,29.297,1.465,37.109
1532404013.982,65.918,28.809,38.574,24.414,41.992
1532404013.986,38.086,21.484,38.086,11.230,55.664
1532404013.990,0.488,26.367,44.434,3.418,29.297
1532404013.994,-9.277,19.531,41.016,-0.488,-5.859
1532404013.998,23.438,35.645,26.367,-8.789,4.883
1532404014.001,21.484,41.992,22.949,9.766,22.949
1532404014.005,-7.812,31.250,32.227,9.277,2.441
1532404014.009,-28.809,22.461,40.527,19.531,9.766
1532404014.013,19.043,44.922,35.645,34.180,39.551
1532404014.017,67.383,52.246,35.156,18.555,16.602
1532404014.021,42.480,29.297,39.062,28.809,24.902
1532404014.025,45.898,34.180,39.551,29.785,40.527
1532404014.029,28.320,33.691,39.551,9.766,53.223
1532404014.033,18.066,33.203,34.668,11.719,66.895
1532404014.037,39.062,35.645,25.879,10.742,42.480
1532404014.040,21.484,29.785,22.461,-12.207,24.902
1532404014.044,-7.812,32.715,17.578,-38.086,42.480
1532404014.048,32.227,50.293,26.855,11.719,27.344
1532404014.052,38.086,28.809,45.898,44.434,0.977
1532404014.056,38.574,20.508,41.016,5.371,-7.324
1532404014.060,25.391,37.598,39.062,-9.766,12.695
1532404014.064,23.926,41.992,44.434,1.465,41.992
1532404014.068,12.207,38.086,39.551,15.137,27.832
1532404014.072,15.137,41.504,37.598,21.484,16.602
1532404014.076,95.215,46.875,44.434,46.387,50.293
1532404014.080,43.457,44.922,46.875,25.879,61.523
1532404014.083,-4.883,33.691,38.574,-10.742,49.805
1532404014.087,-11.719,24.414,32.715,12.207,45.410
1532404014.091,-2.441,13.184,41.016,12.207,34.180
1532404014.095,71.289,26.855,45.410,20.508,20.508
1532404014.099,47.363,54.688,38.574,22.949,27.344
1532404014.103,32.227,38.574,46.387,5.859,39.062
1532404014.107,47.363,37.598,50.781,24.414,70.312
1532404014.111,60.059,41.992,45.898,44.434,62.012
1532404014.115,59.082,40.527,44.922,46.387,1.465
1532404014.119,8.789,45.898,39.551,-1.953,19.531
1532404014.123,30.762,35.156,42.969,-0.488,58.594
1532404014.126,1.953,47.363,36.621,26.855,52.246
1532404014.130,-5.371,39.551,42.480,16.602,50.781
1532404014.134,56.152,41.992,46.875,-7.812,21.484
1532404014.138,56.152,47.363,39.551,1.953,18.066
1532404014.142,43.457,29.785,48.340,65.918,30.273
1532404014.146,32.715,29.297,50.293,62.012,28.320
1532404014.150,50.781,40.039,47.363,47.363,27.344
1532404014.154,42.969,40.527,50.781,38.574,26.855
1532404014.158,29.785,40.527,48.828,11.230,10.254
1532404014.162,13.184,51.758,41.016,7.324,20.508
1532404014.165,17.090,37.109,41.992,21.484,16.602
1532404014.169,48.828,25.879,45.898,28.809,29.785
1532404014.173,62.500,40.527,39.062,18.066,17.578
1532404014.177,55.664,40.527,35.156,18.555,4.883
1532404014.181,43.457,36.621,44.434,11.719,41.504
1532404014.185,26.855,31.250,46.387,11.719,17.090
1532404014.189,-11.230,35.156,44.922,35.645,16.602
1532404014.193,-7.812,34.668,45.410,45.898,45.410
1532404014.197,40.527,38.086,44.434,38.574,35.645
1532404014.201,-0.488,54.199,32.715,0.977,29.785
1532404014.205,-24.414,20.020,40.527,17.090,8.789
1532404014.208,12.695,17.090,41.992,38.574,6.836
1532404014.212,33.691,54.199,35.645,18.066,11.719
1532404014.216,30.273,31.738,45.410,19.043,-18.066
1532404014.220,-5.371,27.832,37.109,33.203,-10.254
1532404014.224,-5.371,36.133,31.738,25.879,8.789
1532404014.228,33.691,36.133,25.391,-0.488,18.555
1532404014.232,66.895,43.945,33.691,27.832,12.207
1532404014.236,61.523,49.805,41.992,20.996,0.977
1532404014.240,40.527,31.250,33.691,10.742,39.551
1532404014.244,52.734,37.598,22.461,2.441,40.039
1532404014.248,46.387,55.176,16.602,-12.695,21.484
1532404014.251,13.184,38.574,27.832,16.602,34.668
1532404014.255,13.184,31.250,40.527,25.391,16.602
1532404014.259,45.410,29.785,41.992,27.832,28.809
1532404014.263,26.367,19.043,40.039,34.668,70.312
1532404014.267,40.527,26.855,38.086,13.184,46.875
1532404014.271,62.988,32.715,35.645,26.367,16.602
1532404014.275,37.598,33.203,34.180,29.785,6.348
1532404014.279,11.719,20.020,38.086,18.066,14.648
1532404014.283,-10.254,22.949,39.551,12.695,13.184
1532404014.287,29.297,33.203,43.945,23.438,16.602
1532404014.290,49.805,25.879,54.688,42.480,9.766
1532404014.294,58.105,38.086,42.480,25.391,22.461
1532404014.298,37.109,12.695,27.344,4.395,56.152
1532404014.302,39.062,24.902,24.902,12.695,28.809
1532404014.306,71.777,48.828,37.109,26.367,25.391
1532404014.310,52.734,24.902,37.598,24.902,42.969
1532404014.314,59.570,31.738,35.156,23.438,47.363
1532404014.318,78.613,23.438,39.062,8.301,9.277
1532404014.322,51.758,26.367,32.227,-10.742,-23.438
1532404014.326,-22.461,9.766,43.945,23.926,-8.789
1532404014.330,-5.371,13.184,44.922,34.180,22.461
1532404014.333,67.871,38.086,38.574,12.207,19.043
1532404014.337,60.059,38.574,42.480,38.086,20.996
1532404014.341,34.668,30.273,47.363,40.527,30.273
1532404014.345,56.152,23.926,49.316,0.000,27.344
1532404014.349,14.160,28.320,38.086,26.855,30.762
1532404014.353,24.902,38.086,30.762,18.555,22.949
1532404014.357,52.246,37.109,34.668,-30.762,44.434
1532404014.361,56.152,26.367,50.293,30.762,30.762
1532404014.365,76.172,48.340,41.504,59.082,21.973
1532404014.369,41.504,62.012,35.645,47.363,44.434
1532404014.373,32.227,26.855,53.711,47.363,16.113
1532404014.376,35.645,32.227,47.852,10.254,20.996
1532404014.380,40.039,41.504,41.992,-4.883,42.480
1532404014.384,57.129,35.645,33.691,7.812,13.184
1532404014.388,42.969,29.297,36.133,48.828,28.809
1532404014.392,14.160,32.715,42.969,53.223,28.320
1532404014.396,22.949,32.227,38.574,-14.160,38.574
1532404014.400,57.129,28.809,41.504,6.348,33.691
1532404014.404,85.938,52.246,47.852,77.637,2.441
1532404014.408,58.105,51.758,40.039,55.664,22.461
1532404014.412,-8.789,29.297,37.109,5.371,39.062
1532404014.415,1.953,39.062,41.016,-11.719,10.254
1532404014.419,44.922,45.898,37.109,-16.602,14.648
1532404014.423,43.457,35.645,37.598,18.066,32.715
1532404014.427,75.195,26.855,39.551,74.219,44.434
1532404014.431,60.059,39.062,28.809,34.180,36.133
1532404014.435,22.949,44.434,32.715,21.484,20.508
1532404014.439,2.930,40.039,38.086,-36.133,32.715
1532404014.443,6.348,41.504,34.668,-36.133,22.949
1532404014.447,20.996,38.086,39.062,48.340,17.578
1532404014.451,14.160,24.902,38.086,31.250,31.738
1532404014.455,36.133,33.203,40.039,9.766,19.531
1532404014.458,61.523,50.781,37.109,44.922,10.742
1532404014.462,51.758,46.387,39.551,74.219,32.715
1532404014.466,27.344,47.363,48.340,62.012,17.090
1532404014.470,29.785,33.203,42.480,38.574,-10.254
1532404014.474,45.898,22.949,39.062,18.066,-13.184
1532404014.478,42.969,55.176,42.969,27.832,7.812
1532404014.482,29.785,47.852,43.457,18.066,28.320
1532404014.486,13.184,46.875,30.762,-15.625,7.324
1532404014.490,-30.273,41.504,28.809,-22.949,4.883
1532404014.494,-12.695,26.367,41.992,19.043,25.391
1532404014.497,38.574,33.203,48.340,54.688,53.223
1532404014.501,34.668,43.945,39.551,23.438,55.176
1532404014.505,18.555,16.113,32.227,-17.578,53.223
1532404014.509,22.461,28.809,39.551,-3.906,33.203
1532404014.513,52.734,61.035,33.203,33.203,11.719
1532404014.517,41.016,32.715,33.203,6.836,16.602
1532404014.521,31.250,22.461,31.738,11.230,31.738
1532404014.525,32.227,21.973,32.227,25.391,45.898
1532404014.529,32.715,46.875,36.621,41.504,50.293
1532404014.533,-2.441,46.875,32.715,5.859,21.973
1532404014.537,2.441,30.762,32.227,-8.301,30.762
1532404014.540,36.133,41.016,37.598,42.969,54.688
1532404014.544,5.371,25.879,41.504,44.922,29.785
1532404014.548,45.898,38.086,34.668,41.504,4.395
1532404014.552,16.113,43.945,27.832,2.930,-4.395
1532404014.556,-32.715,23.926,35.156,-21.973,-7.324
1532404014.560,30.273,49.805,27.344,6.348,18.066
1532404014.564,44.922,55.176,35.645,23.926,22.461
1532404014.568,34.668,45.410,36.133,11.230,20.508
1532404014.572,0.488,44.434,23.438,24.414,31.738
1532404014.576,6.348,30.762,30.762,41.992,34.180
1532404014.580,34.668,34.668,24.902,8.789,25.879
1532404014.583,31.250,59.082,15.137,-9.277,20.508
1532404014.587,19.531,45.898,32.715,23.438,25.391
1532404014.591,20.508,36.621,36.133,5.371,3.906
1532404014.595,41.016,41.992,21.973,6.348,18.066
1532404014.599,44.922,40.039,27.344,28.320,23.438
1532404014.603,11.230,49.805,23.926,11.719,-10.742
1532404014.607,-25.879,40.039,26.367,31.250,13.184
1532404014.611,20.020,38.086,30.762,56.152,38.086
1532404014.615,54.199,46.875,33.691,38.086,24.414
1532404014.619,51.758,44.922,34.180,10.742,22.949
1532404014.622,-2.441,61.035,20.996,-4.883,27.344
1532404014.626,2.930,44.434,24.414,-4.395,23.926
1532404014.630,63.477,34.668,36.133,33.203,26.855
1532404014.634,47.852,42.969,37.598,60.547,38.086
1532404014.638,9.766,39.062,17.090,-15.625,24.414
1532404014.642,16.602,34.180,23.438,-35.156,12.695
1532404014.646,56.641,35.156,35.645,36.133,15.137
1532404014.650,61.523,50.781,21.484,72.266,-0.488
1532404014.654,21.484,50.781,35.645,47.363,-25.879
1532404014.658,-19.531,42.969,31.250,-0.977,-14.648
1532404014.662,-60.059,28.320,27.344,-1.465,24.902
1532404014.665,63.965,50.293,30.762,50.293,39.551
1532404014.669,124.512,62.988,27.344,40.039,17.578
1532404014.673,53.223,47.363,29.297,11.230,4.883
1532404014.677,-24.414,43.457,41.504,24.414,34.180
1532404014.681,-24.414,27.832,39.062,13.184,38.086
1532404014.685,69.824,26.367,33.203,32.227,21.484
1532404014.689,74.219,31.250,37.598,44.922,41.504
1532404014.693,20.020,25.391,29.297,-2.441,20.020
1532404014.697,-9.277,21.973,30.273,-4.883,-2.930
1532404014.701,29.297,27.832,33.691,29.297,22.949
1532404014.705,21.484,39.551,35.156,35.156,18.555
1532404014.708,27.832,17.578,49.805,80.566,40.527
1532404014.712,43.457,37.109,42.969,38.086,22.461
1532404014.716,34.180,50.293,25.879,-3.906,10.742
1532404014.720,7.324,13.672,40.039,26.367,29.297
1532404014.724,23.926,41.504,33.203,9.766,34.668
1532404014.728,48.340,54.688,17.578,-9.277,52.246
1532404014.732,34.180,25.391,32.227,-8.301,21.484
1532404014.736,63.965,30.273,38.086,25.391,-2.441
1532404014.740,71.289,39.062,29.297,35.645,29.297
1532404014.744,44.922,30.762,26.855,30.273,37.109
1532404014.747,-1.953,32.227,34.668,18.555,44.922
1532404014.751,9.766,25.391,39.062,-20.996,56.152
1532404014.755,66.406,34.180,23.926,0.488,22.949
1532404014.759,41.504,39.062,31.250,31.738,25.391
1532404014.763,4.883,21.973,39.062,6.348,37.109
1532404014.767,36.133,38.574,30.273,23.926,34.668
1532404014.771,80.078,44.922,20.996,30.273,8.789
1532404014.775,58.594,33.691,32.227,7.812,-4.395
1532404014.779,8.301,41.992,24.902,-34.668,40.039
1532404014.783,-14.648,41.016,19.531,-38.086,37.598
1532404014.787,29.785,19.531,35.645,65.430,18.066
1532404014.790,84.473,29.785,34.668,53.223,19.531
1532404014.794,65.918,39.062,28.809,-8.789,30.762
1532404014.798,8.789,39.062,21.973,-40.039,41.504
1532404014.802,29.297,39.062,28.320,-18.066,41.992
1532404014.806,89.844,30.273,34.180,44.434,55.664
1532404014.810,104.980,49.316,37.598,95.215,40.039
1532404014.814,83.008,40.527,39.551,55.176,22.949
1532404014.818,33.203,43.457,26.855,13.672,33.691
1532404014.822,-30.762,51.270,30.273,12.695,24.902
1532404014.826,34.180,33.691,41.504,40.527,21.973
1532404014.830,30.762,32.715,27.832,34.180,41.016
1532404014.833,14.648,42.480,34.668,-14.160,41.504
1532404014.837,61.035,56.641,35.156,0.977,51.270
1532404014.841,62.012,39.062,29.297,35.156,29.785
1532404014.845,45.898,59.570,26.855,14.648,40.527
1532404014.849,34.668,61.035,26.855,25.391,51.270
1532404014.853,52.246,29.297,46.875,36.621,16.113
1532404014.857,53.223,39.551,38.574,-0.977,33.691
1532404014.861,62.012,27.832,24.414,23.438,50.293
1532404014.865,51.758,27.832,38.574,23.438,61.035
1532404014.869,54.199,58.105,35.645,-7.324,41.016
1532404014.872,51.758,46.875,32.227,-5.859,12.207
1532404014.876,36.133,45.410,42.969,39.062,29.785
1532404014.880,48.828,39.062,34.668,44.922,26.367
1532404014.884,90.332,29.785,24.414,18.066,23.926
1532404014.888,92.773,38.086,33.691,12.695,43.457
1532404014.892,26.367,29.297,44.922,1.953,59.082
1532404014.896,-6.836,24.902,38.574,-0.488,47.852
1532404014.900,46.875,37.109,46.387,43.457,33.691
1532404014.904,81.543,40.527,41.992,40.527,30.762
1532404014.908,29.297,6.348,42.969,12.207,37.598
1532404014.912,25.391,33.691,33.691,15.137,31.250
1532404014.915,59.570,56.152,31.250,36.621,30.273
1532404014.919,72.754,27.832,38.086,48.340,31.738
1532404014.923,70.312,41.504,29.297,44.922,12.695
1532404014.927,21.973,43.945,40.527,42.480,3.906
1532404014.931,-7.324,39.551,26.855,-26.855,31.250
1532404014.935,13.184,25.391,21.484,-9.277,6.348
1532404014.939,62.500,24.902,51.270,67.383,12.207
1532404014.943,49.805,36.133,44.922,28.809,39.062
1532404014.947,15.625,20.996,35.156,3.906,23.438
1532404014.951,0.488,11.230,33.203,15.625,15.625
1532404014.954,-69.824,21.973,32.227,31.738,-4.395
1532404014.958,3.906,22.461,40.527,24.902,10.254
1532404014.962,106.445,25.879,27.832,-43.457,21.484
1532404014.966,67.383,10.742,24.902,12.695,14.160
1532404014.970,-5.371,25.391,28.809,37.109,23.926
1532404014.974,-22.949,46.875,13.184,-22.949,9.277
1532404014.978,38.574,28.320,23.438,30.273,30.762
1532404014.982,24.414,28.809,28.809,4.395,30.762
1532404014.986,37.109,21.973,28.809,-11.230,11.719
1532404014.990,75.684,37.109,35.156,34.180,38.574
1532404014.994,24.414,48.828,27.344,25.391,31.250
1532404014.997,-20.508,5.859,38.086,22.461,15.137
1532404015.001,45.898,10.254,46.875,34.668,24.902
1532404015.005,66.406,35.156,34.180,28.320,40.527
1532404015.009,10.254,37.598,25.879,0.488,40.039
1532404015.013,38.086,35.645,31.250,-19.043,23.926
1532404015.017,3.418,53.223,25.879,-26.855,19.043
1532404015.021,-48.340,40.039,24.414,27.344,31.738
1532404015.025,46.875,22.949,40.039,44.922,38.574
1532404015.029,80.078,41.992,33.203,31.738,61.523
1532404015.033,8.789,26.855,29.785,-0.488,32.227
1532404015.037,7.812,12.207,33.203,-13.184,15.625
1532404015.040,48.340,37.598,24.902,20.508,50.781
1532404015.044,25.391,53.223,23.926,10.742,51.758
1532404015.048,59.570,54.199,20.020,0.977,58.594
1532404015.052,70.801,43.945,24.414,21.484,46.875
1532404015.056,-6.348,37.598,50.293,17.578,23.438
1532404015.060,-11.230,30.273,38.574,-15.137,30.762
1532404015.064,45.410,19.531,38.574,34.668,35.645
1532404015.068,26.855,34.180,47.852,41.992,21.484
1532404015.072,-47.852,13.672,52.734,-11.230,16.602
1532404015.076,-81.543,0.488,64.941,-29.785,20.996
1532404015.079,3.418,37.109,48.828,-1.465,36.133
1532404015.083,61.523,61.035,28.320,25.391,50.293
1532404015.087,34.668,43.457,37.598,26.855,35.645
1532404015.091,29.785,17.090,55.176,17.578,1.465
1532404015.095,86.914,15.137,42.969,-62.012,17.090
1532404015.099,37.109,17.578,46.387,-20.508,57.129
1532404015.103,31.738,24.902,42.480,69.824,41.016
1532404015.107,66.406,49.316,37.109,29.785,2.930
1532404015.111,0.488,32.715,33.691,2.930,-4.395
1532404015.115,-6.836,32.715,33.203,25.391,5.371
1532404015.119,25.391,43.945,41.504,13.672,29.785
1532404015.122,72.266,30.273,40.527,48.340,27.832
1532404015.126,80.078,30.762,51.758,83.008,20.996
1532404015.130,88.867,40.527,47.363,64.941,42.480
1532404015.134,74.219,43.945,49.805,47.852,11.719
1532404015.138,64.453,45.898,33.203,5.371,6.836
1532404015.142,-15.625,41.504,41.504,-56.152,53.711
1532404015.146,-25.391,36.621,36.621,-8.301,60.059
1532404015.150,93.262,40.527,20.020,73.730,45.898
1532404015.154,103.027,37.598,47.363,75.684,19.043
1532404015.158,34.180,22.461,59.570,43.945,-5.371
1532404015.162,23.926,25.391,41.504,23.438,25.879
1532404015.165,49.805,33.203,31.250,37.109,41.992
1532404015.169,17.578,41.504,41.992,44.922,2.930
1532404015.173,41.992,27.344,40.039,18.555,-23.926
1532404015.177,40.039,24.902,27.344,-15.625,-5.371
1532404015.181,27.832,54.688,33.203,32.715,20.020
1532404015.185,1.465,35.156,29.785,50.781,9.766
1532404015.189,33.203,25.879,36.133,20.508,-1.465
1532404015.193,107.422,38.086,33.691,50.293,6.348
1532404015.197,76.660,37.109,37.598,61.523,44.434
1532404015.201,21.484,25.391,37.598,9.766,57.129
1532404015.204,18.066,20.020,40.527,-5.859,30.273
1532404015.208,10.742,35.156,49.805,18.066,26.855
1532404015.212,17.090,45.410,32.227,33.203,13.672
1532404015.216,45.410,54.688,22.461,33.203,4.883
1532404015.220,35.645,38.574,35.645,52.734,24.902
1532404015.224,28.809,30.762,41.504,24.414,19.043
1532404015.228,23.926,43.457,41.016,17.578,13.672
1532404015.232,58.594,47.363,37.109,43.945,-0.977
1532404015.236,5.371,34.668,41.504,14.648,4.395
1532404015.240,-2.441,33.203,37.109,-1.465,8.789
1532404015.244,15.625,31.738,36.133,-13.672,35.156
1532404015.247,42.969,43.457,45.410,42.969,53.711
1532404015.251,95.703,56.641,50.293,80.566,6.348
1532404015.255,10.254,58.594,33.691,-20.508,-11.719
1532404015.259,-55.176,51.270,36.133,-33.203,21.973
1532404015.263,-37.598,36.133,57.129,-7.324,34.180
1532404015.267,18.066,35.156,53.711,28.320,32.715
1532404015.271,78.125,42.969,50.293,50.781,11.230
1532404015.275,35.645,44.922,46.875,14.648,22.461
1532404015.279,13.672,50.781,47.852,21.973,31.738
1532404015.283,21.484,56.641,68.359,21.973,29.785
1532404015.287,-31.738,42.480,71.777,-37.598,24.902
1532404015.290,-59.570,54.688,57.129,-59.082,5.859
1532404015.294,-3.418,67.383,63.477,-18.555,24.414
1532404015.298,-15.625,63.965,63.477,-22.461,37.598
1532404015.302,-75.195,40.527,73.242,-23.438,21.484
1532404015.306,-58.105,46.387,69.336,-36.621,29.785
1532404015.310,-50.293,78.125,69.336,-50.293,31.250
1532404015.314,-28.809,75.195,72.266,-60.547,19.043
1532404015.318,-50.293,65.918,71.777,-82.520,26.855
1532404015.322,-85.938,64.941,82.031,-47.363,39.551
1532404015.326,-19.531,84.961,78.613,-39.062,51.270
1532404015.329,-39.551,89.355,84.961,-62.988,45.898
1532404015.333,-84.961,75.195,95.703,-59.570,12.207
1532404015.337,-142.090,66.895,97.656,-79.102,50.293
1532404015.341,-71.289,80.078,84.473,-69.824,50.781
1532404015.345,15.625,95.703,71.289,-70.801,59.082
1532404015.349,-12.695,88.379,79.590,-64.941,67.871
1532404015.353,-58.594,74.707,87.891,-38.574,14.648
1532404015.357,-87.891,69.824,85.938,-57.617,24.414
1532404015.361,-51.270,73.242,82.031,-48.828,28.320
1532404015.365,-20.996,80.566,66.895,-67.383,35.645
1532404015.369,-41.016,74.707,70.801,-40.039,87.402
1532404015.372,-76.660,62.500,91.309,-0.977,73.242
1532404015.376,-18.066,66.406,80.078,-42.969,38.574
1532404015.380,-4.883,63.477,71.289,-2.930,42.480
1532404015.384,-1.953,72.266,71.289,17.090,44.434
1532404015.388,59.082,67.871,67.383,-35.645,25.879
1532404015.392,3.418,65.430,53.223,-26.855,18.555
1532404015.396,-40.527,58.594,58.594,-45.410,36.133
1532404015.400,-9.277,57.617,70.801,-36.133,41.992
1532404015.404,0.488,58.594,66.406,63.965,14.160
1532404015.408,29.297,61.035,54.688,52.246,2.930
1532404015.411,-10.254,73.730,45.410,1.465,9.766
1532404015.415,38.574,62.012,40.039,-4.883,28.320
1532404015.419,98.145,51.270,48.340,24.902,42.480
1532404015.423,81.543,28.809,56.152,69.336,26.855
1532404015.427,51.270,32.227,54.688,77.637,29.297
1532404015.431,5.371,34.180,41.992,18.555,61.523
1532404015.435,40.527,22.949,50.781,3.906,34.180
1532404015.439,80.078,33.203,58.594,33.203,20.508
1532404015.443,95.703,36.621,35.645,94.238,21.484
1532404015.447,118.164,47.363,28.809,59.570,15.625
1532404015.451,78.613,45.410,31.250,23.438,10.254
1532404015.454,3.418,20.996,48.828,65.918,8.789
1532404015.458,86.426,28.320,49.316,69.824,32.715
1532404015.462,85.449,52.734,42.480,65.918,42.969
1532404015.466,24.902,43.457,44.434,33.203,26.855
1532404015.470,44.922,27.832,31.738,21.484,6.836
1532404015.474,67.383,20.020,31.738,62.988,9.277
1532404015.478,128.418,14.160,36.133,109.863,40.039
1532404015.482,98.633,41.016,30.273,76.660,49.805
1532404015.486,50.781,52.734,24.414,24.902,33.691
1532404015.490,88.379,20.020,29.297,39.062,9.277
1532404015.494,118.652,23.438,40.039,74.219,-2.930
1532404015.497,95.215,38.086,33.203,82.520,20.996
1532404015.501,83.496,42.480,32.715,62.500,28.320
1532404015.505,18.555,14.648,51.758,62.012,24.414
1532404015.509,56.152,9.277,49.805,93.750,27.832
1532404015.513,147.949,34.180,30.762,93.262,6.348
1532404015.517,82.520,19.531,31.250,80.078,7.324
1532404015.521,84.961,22.949,34.180,37.598,14.160
1532404015.525,105.957,41.992,25.879,55.664,25.879
1532404015.529,89.844,28.809,32.715,70.312,11.719
1532404015.533,66.895,27.344,38.574,25.879,1.953
1532404015.536,83.496,31.738,36.621,74.219,19.531
1532404015.540,83.008,22.949,37.598,89.355,34.668
1532404015.544,99.609,29.785,41.992,65.918,39.551
1532404015.548,112.793,34.668,36.621,55.176,44.434
1532404015.552,83.496,27.344,26.855,42.969,25.391
1532404015.556,76.660,21.484,38.574,70.801,25.391
1532404015.560,80.566,27.344,39.062,85.449,64.453
1532404015.564,95.215,30.762,23.926,49.805,66.895
1532404015.568,76.660,32.227,33.691,56.641,44.434
1532404015.572,73.730,26.367,49.316,84.473,25.391
1532404015.576,69.824,20.020,45.898,55.664,13.672
1532404015.579,100.586,37.598,41.504,54.199,26.367
1532404015.583,110.840,33.691,41.016,64.453,39.062
1532404015.587,39.551,26.367,35.645,58.105,55.176
1532404015.591,64.453,33.691,37.109,41.504,43.457
1532404015.595,125.000,29.785,39.551,31.738,38.574
1532404015.599,130.371,33.691,22.949,40.527,68.848
1532404015.603,105.957,35.156,21.484,47.363,48.340
1532404015.607,99.121,19.531,33.691,47.363,54.199
1532404015.611,70.312,19.531,30.273,30.762,56.641
1532404015.615,9.766,36.133,15.625,21.973,33.691
1532404015.619,26.855,24.902,33.203,50.293,29.297
1532404015.622,48.340,23.926,30.273,24.902,45.898
1532404015.626,42.480,27.344,23.438,44.434,49.805
1532404015.630,1.465,10.742,42.480,79.590,41.016
1532404015.634,-20.508,18.066,32.227,36.133,24.902
1532404015.638,41.992,30.762,23.438,37.598,16.113
1532404015.642,70.801,39.551,27.344,62.012,53.711
1532404015.646,42.480,27.832,31.738,-7.812,62.500
1532404015.650,-2.441,24.902,36.621,-8.789,48.340
1532404015.654,54.199,35.156,27.832,41.016,24.414
1532404015.658,76.172,16.113,24.414,43.457,33.203
1532404015.661,64.941,14.160,32.227,55.176,63.965
1532404015.665,54.199,14.648,24.902,44.434,41.504
1532404015.669,38.574,4.883,25.391,34.180,46.875
1532404015.673,22.461,-2.930,38.086,18.066,46.387
1532404015.677,45.410,15.137,36.133,40.039,31.250
1532404015.681,99.609,32.227,24.414,45.410,37.598
1532404015.685,79.590,30.762,22.949,24.414,32.715
1532404015.689,53.223,20.996,35.156,38.574,4.395
1532404015.693,42.480,37.598,28.809,35.645,-13.672
1532404015.697,-17.090,41.992,7.812,-18.066,19.531
1532404015.701,-3.906,14.160,23.926,11.719,48.340
1532404015.704,102.051,27.832,39.062,81.055,22.949
1532404015.708,54.199,20.996,33.691,23.926,38.574
1532404015.712,19.043,17.090,29.297,-20.020,42.480
1532404015.716,54.688,23.438,36.133,35.156,28.320
1532404015.720,44.434,22.949,30.762,36.621,47.852
1532404015.724,23.926,8.789,44.434,28.809,32.227
1532404015.728,63.965,8.789,55.176,53.711,18.555
1532404015.732,47.852,17.090,40.039,49.805,41.992
1532404015.736,70.312,30.273,23.438,42.969,42.969
1532404015.740,49.805,43.457,19.531,11.719,43.457
1532404015.744,5.859,41.016,30.273,7.812,41.504
1532404015.747,87.402,23.438,25.879,3.418,36.133
1532404015.751,106.445,24.414,32.227,37.109,24.902
1532404015.755,85.449,27.344,37.598,69.824,32.715
1532404015.759,65.430,27.832,37.598,52.734,50.293
1532404015.763,42.969,36.133,33.691,29.785,26.855
1532404015.767,31.250,28.320,27.344,-18.066,14.648
1532404015.771,40.039,19.531,34.668,7.812,13.184
1532404015.775,23.926,22.949,34.180,59.082,-12.695
1532404015.779,-10.254,11.719,34.668,52.246,21.973
1532404015.783,40.039,11.719,37.598,40.527,49.316
1532404015.786,57.617,37.598,31.250,-2.441,21.973
1532404015.790,26.855,32.227,33.203,5.371,42.969
1532404015.794,4.395,26.367,29.785,31.250,55.664
1532404015.798,45.898,37.109,20.508,-25.391,40.527
1532404015.802,79.590,29.785,33.203,16.113,43.457
1532404015.806,59.570,39.551,36.621,75.684,44.434
1532404015.810,44.922,38.086,30.273,53.711,36.621
1532404015.814,19.531,31.738,26.367,10.742,15.137
1532404015.818,-19.531,55.176,18.555,-9.277,33.691
1532404015.822,8.789,47.363,21.484,33.203,37.598
1532404015.826,76.172,20.996,31.250,55.176,30.762
1532404015.829,53.223,19.043,31.250,39.551,37.598
1532404015.833,6.348,20.996,21.484,1.953,11.230
1532404015.837,13.184,16.113,36.621,-0.488,5.371
1532404015.841,41.016,28.320,32.715,34.180,33.203
1532404015.845,48.828,49.805,21.973,23.926,49.316
1532404015.849,50.293,33.691,32.227,37.598,39.551
1532404015.853,40.527,20.020,21.973,30.762,32.227
1532404015.857,22.461,21.484,21.484,29.297,37.598
1532404015.861,17.090,40.039,22.461,40.039,23.926
1532404015.865,8.301,30.273,34.668,29.297,15.625
1532404015.868,28.320,31.250,29.785,-9.277,35.156
1532404015.872,58.594,36.133,21.973,9.766,10.254
1532404015.876,41.016,32.227,30.273,51.758,0.977
1532404015.880,33.691,39.551,31.250,60.547,29.297
1532404015.884,-2.930,48.340,28.809,35.645,26.855
1532404015.888,-33.691,25.391,26.855,-17.090,28.320
1532404015.892,9.277,17.090,39.551,-15.137,17.578
1532404015.896,20.020,25.391,33.203,50.293,15.625
1532404015.900,41.992,21.973,28.320,55.664,34.180
1532404015.904,27.344,41.504,24.902,-9.277,9.277
1532404015.908,4.395,45.410,21.484,19.531,-17.090
1532404015.911,26.855,11.230,30.762,27.832,2.930
1532404015.915,59.570,12.207,34.180,34.668,24.902
1532404015.919,63.477,47.852,32.715,51.758,37.109
1532404015.923,50.293,31.250,25.391,25.879,49.316
1532404015.927,35.156,35.645,24.414,42.480,48.340
1532404015.931,16.602,33.691,26.367,50.781,22.461
1532404015.935,15.137,20.996,31.738,23.926,16.602
1532404015.939,37.598,32.715,24.414,23.926,2.930
1532404015.943,16.602,27.832,21.484,44.922,11.719
1532404015.947,-15.625,18.066,29.297,43.457,41.504
1532404015.951,29.297,16.602,32.715,42.480,40.527
1532404015.954,48.340,28.320,27.344,30.762,13.184
1532404015.958,59.082,29.785,23.438,23.926,16.113
1532404015.962,44.434,21.484,24.414,21.973,36.133
1532404015.966,20.508,31.250,25.879,27.344,35.156
1532404015.970,14.160,37.109,19.043,-8.301,28.809
1532404015.974,36.133,23.926,11.230,-23.438,13.184
1532404015.978,60.059,21.973,23.438,45.410,24.414
1532404015.982,52.246,24.902,27.832,54.688,53.223
1532404015.986,47.852,33.691,21.484,11.230,37.109
1532404015.990,21.973,22.949,21.484,7.324,28.809
1532404015.993,23.926,12.207,28.809,19.043,27.832
1532404015.997,44.922,31.250,20.020,-1.953,34.668
1532404016.001,12.207,31.738,26.855,28.320,27.344
1532404016.005,7.324,16.113,32.715,57.129,24.414
1532404016.009,41.992,25.879,21.484,40.039,45.410
1532404016.013,1.953,18.066,33.691,5.859,13.184
1532404016.017,17.090,13.672,30.273,13.672,-8.789
1532404016.021,82.031,38.086,20.996,57.129,1.465
1532404016.025,79.590,42.480,24.902,56.152,4.883
1532404016.029,41.504,26.367,25.879,36.621,22.461
1532404016.033,7.324,22.949,20.020,-6.836,25.391
1532404016.036,7.324,22.949,13.184,14.160,31.738
1532404016.040,43.945,37.109,21.973,38.086,56.152
1532404016.044,33.203,39.551,31.738,24.902,51.270
1532404016.048,15.137,14.160,23.438,11.719,35.156
1532404016.052,37.109,27.832,14.160,-19.531,21.484
1532404016.056,28.320,31.738,21.973,0.977,23.438
1532404016.060,-7.812,25.879,28.809,24.902,34.180
1532404016.064,-60.547,11.719,28.809,12.207,29.297
1532404016.068,-13.672,26.855,15.137,13.184,11.719
1532404016.072,76.660,39.062,21.973,64.453,1.953
1532404016.076,62.988,31.738,29.785,64.453,29.297
1532404016.079,62.012,31.250,27.344,53.711,41.504
1532404016.083,45.410,33.691,22.949,9.277,17.578
1532404016.087,21.973,19.531,29.297,-13.672,29.297
1532404016.091,50.781,16.602,31.738,36.133,23.438
1532404016.095,43.457,34.180,15.625,38.574,18.066
1532404016.099,29.785,34.180,14.160,19.043,35.645
1532404016.103,48.828,17.090,21.973,15.137,14.648
1532404016.107,32.227,18.066,23.438,26.367,9.277
1532404016.111,32.227,32.715,16.602,16.113,-4.883
1532404016.115,30.762,25.879,13.672,18.066,6.348
1532404016.118,15.625,17.578,11.230,31.738,38.086
1532404016.122,22.949,30.762,11.230,-2.441,41.504
1532404016.126,-21.973,46.387,14.648,-13.184,56.641
1532404016.130,10.254,32.227,19.531,30.273,54.199
1532404016.134,66.895,24.414,15.137,-1.953,41.504
1532404016.138,48.340,31.738,5.371,11.230,20.508
1532404016.142,6.348,26.367,14.648,35.645,25.391
1532404016.146,33.691,17.090,20.996,53.223,50.781
1532404016.150,63.965,22.949,18.066,13.184,42.969
1532404016.154,28.809,41.016,7.324,-26.367,4.883
1532404016.158,24.414,24.902,18.555,29.297,24.902
1532404016.161,39.062,23.926,23.438,29.785,38.574
1532404016.165,33.203,24.414,10.742,18.066,30.273
1532404016.169,47.852,23.438,9.277,12.207,27.344
1532404016.173,-13.184,15.625,16.113,25.879,22.461
1532404016.177,-37.109,11.230,8.789,39.062,26.855
1532404016.181,57.129,35.645,3.906,13.184,51.758
1532404016.185,61.523,27.344,12.695,9.766,34.668
1532404016.189,37.598,29.785,5.371,15.137,8.789
1532404016.193,11.230,36.621,11.230,-3.906,-0.488
1532404016.197,53.223,45.410,15.137,16.602,-9.766
1532404016.201,45.410,33.203,8.789,31.250,6.836
1532404016.204,28.320,20.020,15.625,27.832,10.742
1532404016.208,47.852,35.645,11.719,51.270,6.836
1532404016.212,55.176,26.855,17.578,27.344,8.789
1532404016.216,50.781,27.344,15.625,11.719,21.484
1532404016.220,42.480,38.574,6.348,35.156,29.297
1532404016.224,22.461,31.738,11.719,39.062,28.809
1532404016.228,22.461,16.602,17.090,42.969,42.480
1532404016.232,4.883,15.137,11.230,26.367,54.199
1532404016.236,20.508,23.926,9.766,28.809,20.020
1532404016.240,39.062,31.250,14.648,31.250,-8.789
1532404016.243,-2.441,14.648,12.207,15.137,36.621
1532404016.247,30.273,19.531,1.465,0.488,66.895
1532404016.251,41.504,40.039,4.883,8.301,40.527
1532404016.255,25.879,32.227,13.184,24.902,37.598
1532404016.259,40.527,19.043,11.230,14.160,40.039
1532404016.263,-9.277,20.996,6.348,5.859,48.828
1532404016.267,-43.457,28.809,2.930,8.789,44.434
1532404016.271,33.203,35.156,-1.953,5.859,6.836
1532404016.275,82.031,44.922,-4.883,11.719,11.719
1532404016.279,76.660,39.551,7.324,43.457,29.297
1532404016.283,61.035,25.879,9.277,35.156,6.836
1532404016.286,54.199,27.832,8.789,18.066,16.113
1532404016.290,-1.953,20.996,5.371,12.695,41.504
1532404016.294,-8.301,13.672,6.836,14.648,30.273
1532404016.298,66.895,38.086,7.812,13.184,20.020
1532404016.302,66.406,39.062,-6.836,-5.859,5.859
1532404016.306,57.129,19.531,-1.465,5.371,53.711
1532404016.310,47.363,23.438,2.441,17.090,52.246
1532404016.314,26.367,27.832,-1.465,23.926,12.695
1532404016.318,31.250,29.785,4.395,17.090,42.969
1532404016.322,25.391,26.367,8.301,-2.441,59.082
1532404016.325,1.953,29.785,4.395,4.883,43.457
1532404016.329,42.969,28.320,6.836,49.805,39.062
1532404016.333,55.664,14.160,5.371,67.383,15.137
1532404016.337,29.785,15.137,5.859,32.715,8.301
1532404016.341,51.270,16.113,3.906,22.461,32.715
1532404016.345,34.180,16.113,0.977,43.457,55.176
1532404016.349,24.902,20.020,3.906,47.852,49.316
1532404016.353,4.883,10.742,0.977,24.902,31.738
1532404016.357,-3.906,10.742,2.930,6.348,20.508
1532404016.361,64.453,25.391,1.465,4.395,28.809
1532404016.365,66.406,26.367,2.441,32.227,33.691
1532404016.368,39.551,24.414,7.324,37.109,15.625
1532404016.372,20.508,11.719,5.371,19.043,0.977
1532404016.376,36.133,7.812,0.488,26.367,2.930
1532404016.380,-10.742,10.742,4.395,18.555,45.410
1532404016.384,-17.578,27.344,3.418,5.859,32.227
1532404016.388,68.848,36.621,4.395,22.949,3.418
1532404016.392,65.430,29.785,2.441,38.574,2.930
1532404016.396,39.062,28.809,-7.324,30.273,-14.160
1532404016.400,38.574,16.113,0.000,8.301,-5.859
1532404016.404,15.137,5.859,-6.836,-11.719,8.789
1532404016.408,-7.324,7.324,-11.719,19.531,17.578
1532404016.411,27.832,12.207,6.836,42.480,5.371
1532404016.415,65.918,16.602,6.836,50.781,-1.465
1532404016.419,48.340,25.879,8.301,53.711,20.996
1532404016.423,16.602,23.926,6.836,30.273,39.551
1532404016.427,25.391,9.766,8.789,-1.465,43.945
1532404016.431,65.430,21.973,2.930,13.184,47.852
1532404016.435,82.520,30.762,-2.441,42.480,-3.906
1532404016.439,57.617,20.996,-3.906,16.113,-2.441
1532404016.443,46.875,22.461,-5.371,-3.418,44.434
1532404016.447,31.738,20.020,2.930,39.551,53.223
1532404016.450,19.043,24.902,-1.465,-3.906,29.785
1532404016.454,40.039,32.715,-17.090,-41.504,16.602
1532404016.458,28.320,10.254,-2.930,46.387,45.898
1532404016.462,61.035,19.043,-1.953,35.156,51.270
1532404016.466,54.688,26.367,-9.277,11.230,24.414
1532404016.470,33.691,15.137,0.488,51.758,20.996
1532404016.474,61.035,14.648,0.488,16.113,-12.695
1532404016.478,60.059,25.879,1.465,-12.207,-18.066
1532404016.482,30.762,6.348,-0.977,39.062,21.484
1532404016.486,43.945,14.648,-1.953,44.922,13.184
1532404016.490,60.059,36.621,-0.977,22.949,19.043
1532404016.493,43.945,19.531,-5.371,31.738,40.039
1532404016.497,29.785,23.438,4.883,36.133,52.734
1532404016.501,1.465,15.137,12.207,-1.953,51.758
1532404016.505,47.363,28.320,12.695,2.930,30.273
1532404016.509,79.102,50.293,8.301,31.250,19.043
1532404016.513,66.895,37.109,9.766,44.922,46.875
1532404016.517,52.246,32.227,23.926,56.152,39.551
1532404016.521,9.277,42.969,12.695,11.230,27.344
1532404016.525,5.371,36.133,1.953,0.977,59.082
1532404016.529,99.609,35.156,6.836,55.664,69.824
1532404016.533,120.605,49.805,16.602,37.109,33.691
1532404016.536,53.223,42.480,10.254,-13.184,13.672
1532404016.540,46.387,36.621,6.348,26.367,30.762
1532404016.544,50.293,30.273,13.184,47.363,41.016
1532404016.548,50.293,50.293,3.906,34.668,52.734
1532404016.552,54.199,53.711,3.906,36.621,36.133
1532404016.556,43.457,39.062,9.277,28.320,35.156
1532404016.560,52.734,30.762,14.648,19.043,46.875
1532404016.564,34.668,43.457,5.371,8.789,28.320
1532404016.568,35.156,49.316,20.508,60.547,22.461
1532404016.572,52.246,47.363,32.715,67.383,-3.906
1532404016.575,64.453,50.293,14.648,4.883,2.441
1532404016.579,84.961,43.945,18.555,24.902,50.781
1532404016.583,58.105,44.434,18.555,44.922,46.875
1532404016.587,-9.277,32.715,6.836,41.016,26.367
1532404016.591,15.625,17.090,16.602,63.477,33.203
1532404016.595,83.984,41.504,16.602,36.621,16.602
1532404016.599,78.613,41.504,15.137,41.504,6.836
1532404016.603,68.848,43.945,12.695,62.500,48.828
1532404016.607,73.730,47.363,11.230,58.105,56.641
1532404016.611,54.688,40.039,17.090,46.875,56.641
1532404016.615,14.648,35.645,15.625,23.438,25.391
1532404016.618,20.508,32.227,8.789,-8.301,8.301
1532404016.622,48.340,30.762,10.254,24.414,21.484
1532404016.626,72.754,33.691,21.973,89.355,31.738
1532404016.630,15.137,33.203,23.926,66.895,26.367
1532404016.634,17.578,25.391,18.066,35.156,21.484
1532404016.638,59.570,48.340,8.301,23.438,32.227
1532404016.642,38.086,52.734,11.230,24.902,36.621
1532404016.646,46.875,37.598,13.184,43.945,40.527
1532404016.650,42.969,28.809,16.602,48.828,41.504
1532404016.654,29.297,20.508,15.625,30.273,22.949
1532404016.658,-4.883,15.137,18.555,49.805,-20.996
1532404016.661,57.617,41.992,14.648,41.504,6.836
1532404016.665,88.379,57.129,7.812,33.691,59.082
1532404016.669,49.316,27.344,9.766,44.922,43.945
1532404016.673,31.250,46.387,-1.953,13.672,-0.488
1532404016.677,35.156,50.293,4.395,15.137,3.906
1532404016.681,55.176,23.926,13.184,34.668,42.480
1532404016.685,34.668,33.203,10.254,41.504,45.410
1532404016.689,12.207,34.180,13.184,21.484,23.438
1532404016.693,43.945,21.973,16.602,21.484,14.160
1532404016.697,75.684,30.762,10.742,40.527,25.879
1532404016.700,64.941,28.809,16.113,35.156,20.996
1532404016.704,57.129,37.598,8.789,4.883,26.367
1532404016.708,13.672,32.715,19.531,6.348,41.992
1532404016.712,-1.465,16.113,24.414,32.227,25.879
1532404016.716,60.547,32.227,10.742,38.574,1.953
1532404016.720,60.547,43.945,14.648,41.992,-4.883
1532404016.724,40.039,41.016,8.789,20.020,28.809
1532404016.728,22.949,26.855,13.184,11.230,31.250
1532404016.732,-11.719,10.742,19.043,13.184,23.926
1532404016.736,35.645,19.043,19.531,24.902,19.043
1532404016.740,66.406,30.273,24.414,34.180,-0.977
1532404016.743,26.855,25.879,13.184,18.066,33.691
1532404016.747,44.434,29.297,12.207,27.344,46.875
1532404016.751,86.914,33.691,23.438,55.664,-21.484
1532404016.755,44.922,25.391,30.762,41.504,-2.441
1532404016.759,32.715,35.156,29.297,26.367,63.477
1532404016.763,43.457,37.109,20.996,36.621,61.035
1532404016.767,21.973,26.855,15.625,18.555,28.809
1532404016.771,18.066,17.578,24.902,-2.930,-10.742
1532404016.775,16.602,35.645,23.438,-0.488,-18.555
1532404016.779,40.527,42.969,15.137,25.391,32.227
1532404016.782,66.406,35.645,16.602,35.156,55.664
1532404016.786,37.109,20.508,27.344,39.551,28.809
1532404016.790,34.668,17.578,25.391,31.738,19.531
1532404016.794,59.570,37.598,11.719,30.762,22.461
1532404016.798,71.289,35.156,16.113,40.039,23.438
1532404016.802,72.754,34.668,14.648,28.809,23.438
1532404016.806,33.203,30.273,19.531,30.762,27.344
1532404016.810,49.316,28.809,22.949,29.785,26.367
1532404016.814,50.781,24.902,14.648,0.488,9.766
1532404016.818,14.160,20.020,18.555,10.742,23.438
1532404016.822,58.105,34.180,20.508,33.691,35.645
1532404016.825,62.988,40.039,13.184,31.738,6.836
1532404016.829,35.645,36.621,13.184,32.227,4.395
1532404016.833,52.246,38.574,19.043,28.809,24.414
1532404016.837,57.129,38.086,17.578,22.949,18.555
1532404016.841,50.781,27.832,17.090,28.320,18.555
1532404016.845,24.902,21.973,19.531,30.762,44.434
1532404016.849,20.020,22.461,20.508,24.902,61.035
1532404016.853,21.484,26.367,16.602,12.695,20.996
1532404016.857,-0.977,15.625,23.438,-1.953,21.973
1532404016.861,56.641,20.996,17.578,8.789,48.340
1532404016.865,78.613,39.551,7.324,14.648,53.223
1532404016.868,59.570,35.645,16.602,16.602,30.762
1532404016.872,23.438,28.809,20.996,10.742,14.160
1532404016.876,8.789,28.809,12.207,-0.488,16.602
1532404016.880,13.184,19.043,21.973,33.203,41.016
1532404016.884,7.812,18.066,20.508,29.297,58.594
1532404016.888,58.594,38.086,9.766,17.090,41.016
1532404016.892,51.270,33.203,25.391,46.387,20.020
1532404016.896,-5.859,30.273,23.438,3.418,3.906
1532404016.900,25.391,32.715,8.789,-18.555,21.973
1532404016.904,81.055,38.086,15.137,38.086,45.410
1532404016.907,87.891,31.738,29.297,29.785,53.223
1532404016.911,63.477,33.691,29.297,16.113,41.992
1532404016.915,-10.254,29.297,20.996,-4.883,47.363
1532404016.919,9.766,29.297,21.484,-4.395,50.293
1532404016.923,90.332,47.852,22.461,37.598,52.734
1532404016.927,56.641,33.691,29.297,51.758,67.871
1532404016.931,4.883,21.973,34.180,44.434,62.988
1532404016.935,28.809,35.156,31.738,44.922,29.297
1532404016.939,83.496,45.898,33.203,31.738,20.996
1532404016.943,51.270,40.527,28.320,25.879,22.949
1532404016.947,12.695,28.809,25.391,26.367,19.531
1532404016.950,37.109,38.086,28.809,-3.418,23.438
1532404016.954,69.336,41.504,31.738,21.484,13.184
1532404016.958,83.984,42.480,21.484,34.668,25.391
1532404016.962,51.758,41.016,24.414,13.672,45.898
1532404016.966,22.461,41.504,28.320,21.484,45.410
1532404016.970,52.246,54.199,20.508,18.066,34.668
1532404016.974,66.895,41.016,28.320,20.020,25.879
1532404016.978,70.801,34.668,30.762,20.020,24.414
1532404016.982,60.059,42.480,28.320,39.062,16.602
1532404016.986,62.500,43.945,28.320,44.922,22.949
1532404016.990,62.988,50.293,26.367,29.297,15.625
1532404016.993,61.035,47.852,26.367,4.395,2.441
1532404016.997,37.109,37.109,30.762,20.020,14.648
1532404017.001,22.461,34.180,29.297,30.273,32.715
1532404017.005,57.617,43.945,20.996,39.551,28.809
1532404017.009,54.688,42.480,12.695,26.367,20.508
1532404017.013,8.301,31.250,16.113,-11.230,20.996
1532404017.017,38.086,40.039,28.809,28.809,3.906
1532404017.021,61.035,46.387,41.016,76.660,13.184
1532404017.025,38.574,30.762,36.621,46.387,27.344
1532404017.029,52.246,31.738,25.391,28.809,34.180
1532404017.032,34.180,43.457,24.902,29.785,15.137
1532404017.036,0.977,41.504,18.066,19.531,-7.324
1532404017.040,42.969,34.180,16.602,33.691,11.719
1532404017.044,44.434,37.598,15.137,3.906,38.086
1532404017.048,19.531,27.832,11.719,-9.277,51.270
1532404017.052,26.855,22.949,16.602,2.930,20.020
1532404017.056,21.973,31.250,18.555,14.160,1.465
1532404017.060,14.648,36.133,17.090,21.973,39.551
1532404017.064,20.020,42.969,21.973,23.438,39.551
1532404017.068,5.859,43.457,33.203,62.988,41.504
1532404017.072,48.340,38.574,28.809,53.711,27.344
1532404017.075,56.152,29.785,20.508,-0.977,7.324
1532404017.079,50.293,28.809,19.043,0.000,29.785
1532404017.083,72.266,38.574,14.160,33.203,52.734
1532404017.087,25.879,32.227,16.113,55.664,38.086
1532404017.091,-13.184,20.020,19.531,36.133,7.812
1532404017.095,36.133,35.645,18.066,-5.371,-16.113
1532404017.099,75.684,50.293,23.926,3.906,18.555
1532404017.103,66.895,40.527,27.832,38.574,27.832
1532404017.107,48.828,32.715,23.438,49.805,21.973
1532404017.111,33.203,29.785,24.902,43.945,12.207
1532404017.114,50.293,25.879,33.691,50.781,8.301
1532404017.118,56.641,31.250,35.156,40.527,22.461
1532404017.122,34.180,37.109,21.973,-14.648,15.137
1532404017.126,25.391,32.227,15.625,-7.324,16.113
1532404017.130,42.480,34.180,18.555,44.434,20.020
1532404017.134,44.922,41.504,15.625,13.184,-4.883
1532404017.138,46.387,38.574,17.090,14.160,2.441
1532404017.142,38.574,33.203,19.531,23.926,31.738
1532404017.146,27.832,40.039,20.508,28.809,25.391
1532404017.150,18.555,40.527,26.855,55.176,15.625
1532404017.154,26.367,29.785,25.879,46.387,32.227
1532404017.157,5.859,34.668,19.531,26.367,60.547
1532404017.161,-9.277,32.715,22.949,25.879,46.875
1532404017.165,50.293,34.668,25.391,27.344,24.902
1532404017.169,50.293,35.645,23.438,34.180,32.227
1532404017.173,15.625,34.668,24.414,45.410,36.621
1532404017.177,51.270,38.574,28.809,48.340,35.645
1532404017.181,69.824,52.246,17.090,22.949,40.039
1532404017.185,36.133,44.434,14.648,13.184,33.203
1532404017.189,43.945,38.086,22.461,11.719,22.949
1532404017.193,56.152,42.969,26.367,27.832,17.090
1532404017.197,30.762,34.180,25.391,27.832,1.465
1532404017.200,30.762,24.902,17.090,32.227,29.785
1532404017.204,-10.742,47.363,7.324,23.438,34.180
1532404017.208,-0.977,48.340,12.207,31.738,38.086
1532404017.212,100.098,38.574,14.648,22.461,44.434
1532404017.216,90.332,41.504,12.695,17.090,34.180
1532404017.220,59.570,39.551,14.160,20.020,32.715
1532404017.224,27.344,40.039,14.648,10.742,26.367
1532404017.228,42.480,40.039,17.578,36.621,36.621
1532404017.232,39.551,37.109,12.695,26.855,15.137
1532404017.236,38.086,36.621,9.766,16.602,10.742
1532404017.239,43.457,44.922,9.766,24.414,38.574
1532404017.243,14.160,33.203,16.113,18.555,28.320
1532404017.247,39.062,31.250,17.090,12.695,14.160
1532404017.251,9.766,37.598,9.766,6.348,-5.859
1532404017.255,47.363,35.156,6.348,7.812,19.531
1532404017.259,41.992,35.156,14.160,25.391,38.086
1532404017.263,1.465,38.086,21.973,38.086,35.645
1532404017.267,62.500,38.574,12.207,17.090,29.297
1532404017.271,68.359,44.434,12.695,-4.883,0.488
1532404017.275,41.016,43.945,15.137,8.789,4.883
1532404017.279,41.992,29.785,13.672,27.832,32.715
1532404017.282,36.621,31.250,17.578,9.766,28.320
1532404017.286,57.129,38.574,16.602,11.719,20.508
1532404017.290,74.707,29.297,19.043,47.852,11.230
1532404017.294,41.992,28.320,16.113,41.992,31.738
1532404017.298,-45.898,29.785,23.926,41.016,38.574
1532404017.302,-1.465,39.062,20.020,26.855,23.926
1532404017.306,89.355,47.852,1.953,2.441,56.152
1532404017.310,46.387,52.246,6.348,11.230,44.922
1532404017.314,20.508,49.316,15.137,17.090,26.855
1532404017.318,29.297,38.086,23.926,35.156,62.012
1532404017.322,15.137,34.180,20.996,24.902,68.359
1532404017.325,11.230,22.949,18.555,17.578,40.527
1532404017.329,56.152,37.109,19.043,11.719,15.625
1532404017.333,61.035,48.340,12.695,-13.184,-23.438
1532404017.337,35.645,38.574,20.996,14.160,44.434
1532404017.341,43.457,32.227,19.531,29.297,78.125
1532404017.345,54.199,35.156,14.648,9.766,33.203
1532404017.349,36.621,33.203,20.508,3.418,47.852
1532404017.353,23.438,34.180,17.578,39.062,42.969
1532404017.357,43.457,51.270,18.066,50.293,38.086
1532404017.361,54.688,43.457,25.879,36.621,29.785
1532404017.364,41.016,33.691,24.414,18.066,35.156
1532404017.368,37.598,43.457,17.090,21.484,41.504
1532404017.372,15.137,36.133,18.555,15.137,21.484
1532404017.376,6.348,32.715,21.973,2.441,24.902
1532404017.380,41.504,38.574,23.438,36.621,35.645
1532404017.384,52.734,38.086,20.020,25.391,28.320
1532404017.388,49.316,37.109,18.066,25.879,62.988
1532404017.392,63.477,35.156,17.090,22.461,84.961
1532404017.396,41.504,37.598,16.602,-5.859,55.176
1532404017.400,13.672,41.016,19.043,14.648,28.809
1532404017.404,-20.996,19.531,22.949,9.766,27.832
1532404017.407,-3.418,22.461,27.344,-1.953,5.859
1532404017.411,73.242,49.805,18.066,20.508,3.418
1532404017.415,32.227,32.227,15.625,12.695,23.438
1532404017.419,16.602,28.320,19.531,33.203,34.668
1532404017.423,52.246,33.203,17.578,44.922,38.574
1532404017.427,30.762,26.855,18.555,25.879,37.109
1532404017.431,26.855,36.621,20.020,5.371,25.391
1532404017.435,28.809,42.969,19.043,7.812,2.930
1532404017.439,21.484,26.367,10.742,-0.977,13.672
1532404017.443,2.441,16.602,12.695,1.953,38.086
1532404017.447,-2.930,19.531,20.020,41.992,34.180
1532404017.450,14.160,23.926,17.090,33.203,28.809
1532404017.454,47.852,26.367,20.508,27.832,45.410
1532404017.458,21.973,39.551,20.996,23.926,55.664
1532404017.462,-55.176,25.391,18.555,-2.441,43.945
1532404017.466,-2.930,16.602,18.555,-0.488,39.062
1532404017.470,69.336,35.645,12.207,7.812,22.949
1532404017.474,47.852,32.715,20.508,21.484,4.883
1532404017.478,25.391,31.250,22.461,14.160,21.484
1532404017.482,15.625,31.738,8.301,4.883,21.484
1532404017.486,1.465,26.855,19.043,20.508,21.973
1532404017.489,16.602,31.250,29.297,26.855,25.879
1532404017.493,29.297,36.133,15.625,-3.418,32.227
1532404017.497,19.043,27.832,13.672,12.695,35.645
1532404017.501,35.156,25.391,17.090,8.301,25.879
1532404017.505,13.672,33.691,21.973,14.648,34.668
1532404017.509,0.977,34.180,23.438,0.488,41.504
1532404017.513,36.133,29.297,25.879,-10.254,35.645
1532404017.517,35.645,29.785,21.973,25.879,57.129
1532404017.521,-16.113,30.273,20.508,35.156,58.594
1532404017.525,-6.836,23.438,29.297,33.691,39.551
1532404017.529,30.762,56.152,21.973,-14.160,50.293
1532404017.532,9.277,66.895,17.578,-9.277,61.523
1532404017.536,30.762,43.945,23.438,-7.812,51.758
1532404017.540,41.992,38.574,18.555,-41.016,19.531
1532404017.544,57.129,32.715,20.508,20.020,41.504
1532404017.548,49.316,41.504,12.695,0.000,43.457
1532404017.552,27.832,46.875,2.441,-57.617,20.996
1532404017.556,25.391,28.809,27.344,7.324,43.945
1532404017.560,29.297,33.203,37.598,40.039,47.852
1532404017.564,25.879,32.227,32.715,-19.043,19.043
1532404017.568,36.133,30.273,22.461,7.812,23.438
1532404017.571,24.902,26.855,28.320,51.758,9.277
1532404017.575,36.133,30.762,30.273,19.531,11.719
1532404017.579,56.641,44.434,27.832,27.832,45.410
1532404017.583,19.043,33.691,28.320,-9.766,21.973
1532404017.587,-30.762,18.555,19.531,-15.137,4.395
1532404017.591,9.277,27.344,25.391,47.363,35.156
1532404017.595,75.195,37.598,26.367,35.156,58.594
1532404017.599,63.965,30.273,22.461,26.855,17.090
1532404017.603,42.969,35.645,25.391,23.926,9.766
1532404017.607,-11.230,37.598,9.766,-26.367,38.574
1532404017.611,10.742,23.438,21.973,6.348,37.109
1532404017.614,59.570,26.855,33.691,40.527,34.180
1532404017.618,42.969,42.969,21.484,15.625,16.602
1532404017.622,46.875,40.527,27.344,9.277,31.738
1532404017.626,36.133,22.949,22.461,21.484,86.426
1532404017.630,21.973,19.043,25.879,26.367,62.012
1532404017.634,7.812,22.949,34.180,11.719,15.625
1532404017.638,18.555,33.691,21.973,11.230,43.457
1532404017.642,56.641,38.086,21.484,14.160,66.895
1532404017.646,55.176,35.156,24.414,9.277,44.434
1532404017.650,44.922,36.133,24.414,32.227,44.922
1532404017.654,59.570,46.387,20.996,-11.230,17.578
1532404017.657,34.180,45.410,24.902,-35.645,23.438
1532404017.661,14.160,30.762,35.156,42.969,67.383
1532404017.665,29.785,35.156,29.297,40.039,58.105
1532404017.669,50.781,31.738,26.855,23.438,35.156
1532404017.673,49.316,31.738,23.926,26.367,15.625
1532404017.677,39.551,31.738,22.461,29.297,26.855
1532404017.681,52.246,27.344,21.484,20.996,39.062
1532404017.685,59.570,38.574,26.367,21.973,26.367
1532404017.689,46.387,44.434,27.832,39.062,32.227
1532404017.693,50.293,38.574,20.996,23.438,25.391
1532404017.696,17.578,27.832,29.297,8.301,23.926
1532404017.700,4.883,26.855,30.762,26.855,40.527
1532404017.704,49.316,41.504,27.832,43.945,41.016
1532404017.708,38.574,35.645,28.320,31.250,30.273
1532404017.712,23.438,30.762,32.227,26.855,16.602
1532404017.716,32.715,27.832,25.879,14.648,14.160
1532404017.720,12.207,28.809,13.672,-9.277,15.137
1532404017.724,-26.367,35.645,17.578,7.324,32.715
1532404017.728,36.621,32.715,17.090,33.691,40.039
1532404017.732,53.711,25.391,21.973,36.133,41.992
1532404017.736,7.324,29.785,21.484,9.277,42.969
1532404017.739,37.109,32.715,11.719,10.254,23.438
1532404017.743,43.945,27.832,23.438,56.152,9.766
1532404017.747,22.949,20.996,28.809,51.270,19.043
1532404017.751,14.160,29.297,22.949,19.043,11.719
1532404017.755,-3.906,38.574,20.996,-1.465,14.648
1532404017.759,-17.090,27.832,22.949,19.043,49.805
1532404017.763,12.207,37.598,23.926,28.809,54.199
1532404017.767,22.949,33.691,18.555,22.461,28.320
1532404017.771,14.648,27.832,21.484,21.484,10.254
1532404017.775,-6.836,28.809,31.250,28.809,3.906
1532404017.779,1.465,41.992,18.555,11.719,35.645
1532404017.782,20.508,41.992,17.578,0.000,63.477
1532404017.786,18.555,46.387,31.738,34.180,43.457
1532404017.790,-6.348,39.062,30.273,20.020,19.043
1532404017.794,-45.410,22.461,19.043,0.488,3.418
1532404017.798,-10.742,21.973,25.391,8.789,-2.930
1532404017.802,16.113,40.039,18.066,-59.082,26.367
1532404017.806,-10.254,58.105,12.207,-63.477,36.621
1532404017.810,-34.668,38.086,37.109,6.348,37.598
1532404017.814,6.836,32.715,45.898,9.277,54.199
1532404017.818,-1.953,60.547,41.504,-19.043,38.574
1532404017.821,-58.594,49.805,41.992,-40.527,21.484
1532404017.825,-42.480,50.293,48.828,-57.617,28.320
1532404017.829,-33.691,63.477,48.340,-51.270,57.129
1532404017.833,-66.406,62.988,52.246,-38.574,37.109
1532404017.837,-78.613,54.688,61.523,-58.105,2.930
1532404017.841,-35.645,43.945,63.477,-88.867,32.715
1532404017.845,-54.199,46.387,53.711,-82.520,28.809
1532404017.849,-136.230,24.902,66.406,-72.266,27.344
1532404017.853,-126.465,28.320,65.918,-74.707,32.715
1532404017.857,-61.523,47.852,63.477,-60.059,16.602
1532404017.861,-20.020,67.383,76.172,-48.828,17.090
1532404017.864,-51.270,60.547,64.453,-70.312,49.805
1532404017.868,-54.688,48.340,59.570,-65.918,43.945
1532404017.872,-144.531,34.668,67.871,-45.898,28.320
1532404017.876,-115.234,28.809,59.570,-59.570,68.359
1532404017.880,-42.480,40.039,59.570,-63.965,64.453
1532404017.884,-93.262,46.387,58.594,-56.641,29.297
1532404017.888,-105.469,20.508,56.641,-40.039,25.391
1532404017.892,-62.500,23.926,48.828,-72.266,21.484
1532404017.896,17.090,49.805,40.527,-81.543,11.230
1532404017.900,11.230,36.133,46.387,-34.668,20.508
1532404017.904,-78.613,12.695,43.945,-40.527,38.574
1532404017.907,-71.777,24.414,49.805,-42.969,40.039
1532404017.911,-6.348,39.062,47.852,-10.742,41.504
1532404017.915,11.230,37.598,34.668,13.672,65.430
1532404017.919,-18.555,42.480,25.391,-2.441,79.102
1532404017.923,-63.965,15.137,43.945,2.930,55.176
1532404017.927,-18.066,16.113,38.086,3.906,52.246
1532404017.931,-10.742,10.742,26.855,8.789,49.805
1532404017.935,36.621,16.113,29.297,27.344,35.156
1532404017.939,61.523,28.320,20.996,13.672,36.621
1532404017.943,16.602,25.391,22.949,7.324,40.039
1532404017.946,-24.414,14.160,14.648,9.766,33.691
1532404017.950,6.348,1.465,18.066,13.184,8.301
1532404017.954,86.426,25.879,20.996,24.902,13.672
1532404017.958,71.289,35.645,19.531,28.809,43.457
1532404017.962,40.527,30.273,28.809,13.184,32.227
1532404017.966,41.016,37.109,13.672,-2.441,59.082
1532404017.970,47.852,31.738,7.324,21.484,62.012
1532404017.974,42.480,19.043,8.789,3.418,34.668
1532404017.978,32.715,24.902,11.230,10.254,30.273
1532404017.982,46.875,27.832,19.531,32.715,52.246
1532404017.986,80.566,21.973,20.996,32.227,76.172
1532404017.989,72.266,26.855,17.578,26.367,50.293
1532404017.993,22.949,14.160,20.508,-7.812,36.621
1532404017.997,62.012,11.719,20.508,8.789,39.062
1532404018.001,89.844,21.973,13.184,25.391,40.527
1532404018.005,61.035,20.508,28.320,33.691,29.785
1532404018.009,42.480,22.949,24.902,20.996,27.832
1532404018.013,60.547,5.371,17.090,19.043,30.273
1532404018.017,88.867,17.090,17.090,23.438,31.250
1532404018.021,96.680,37.598,5.859,3.906,40.527
1532404018.025,79.590,23.438,14.648,9.277,40.039
1532404018.028,71.289,16.602,24.902,51.270,48.828
1532404018.032,75.195,23.926,17.090,16.602,11.230
1532404018.036,74.707,25.391,14.648,-15.625,-21.484
1532404018.040,79.590,21.484,19.043,34.668,9.277
1532404018.044,52.734,17.090,20.508,36.133,34.180
1532404018.048,14.648,13.672,23.438,12.207,30.762
1532404018.052,43.457,21.484,17.090,12.207,25.391
1532404018.056,90.820,20.508,14.160,8.789,26.367
1532404018.060,80.566,26.855,17.578,-0.977,42.480
1532404018.064,63.965,20.020,18.555,27.832,12.695
1532404018.068,65.918,14.160,14.160,32.715,11.230
1532404018.071,43.457,22.949,12.695,2.441,12.695
1532404018.075,58.594,22.461,24.902,9.277,-16.113
1532404018.079,75.195,35.156,21.973,17.090,21.484
1532404018.083,62.500,20.508,20.996,39.062,48.340
1532404018.087,52.734,19.043,22.949,30.273,60.547
1532404018.091,63.477,31.250,14.648,4.395,47.852
1532404018.095,95.215,32.227,13.672,19.043,18.066
1532404018.099,76.172,34.180,19.043,38.086,24.414
1532404018.103,70.801,27.344,22.461,39.551,39.062
1532404018.107,68.848,34.180,22.949,31.738,58.105
1532404018.111,42.969,33.691,24.902,4.395,38.086
1532404018.114,22.949,20.020,26.855,12.207,-11.230
1532404018.118,83.008,10.742,26.367,26.855,22.461
1532404018.122,55.176,20.508,14.160,2.930,51.270
1532404018.126,5.371,41.016,15.625,15.137,49.316
1532404018.130,80.566,35.645,20.508,4.395,27.832
1532404018.134,89.844,33.691,14.648,0.977,20.508
1532404018.138,77.637,29.785,26.855,27.832,32.715
1532404018.142,39.551,20.508,35.156,25.391,28.320
1532404018.146,11.719,21.484,34.180,58.594,66.406
1532404018.150,9.766,16.113,28.809,60.059,58.594
1532404018.153,41.504,26.855,19.043,17.578,20.996
1532404018.157,47.852,32.227,20.508,13.184,32.227
1532404018.161,50.781,26.367,24.414,28.320,41.504
1532404018.165,7.812,34.668,22.461,8.789,44.434
1532404018.169,0.488,39.062,37.598,31.738,36.621
1532404018.173,116.211,50.293,38.574,40.527,13.672
1532404018.177,95.215,46.387,28.809,1.953,-1.953
1532404018.181,51.758,45.898,29.297,23.438,15.625
1532404018.185,47.852,41.016,31.250,40.039,35.645
1532404018.189,50.781,35.645,24.414,37.598,12.207
1532404018.193,14.160,39.062,24.414,21.484,-5.371
1532404018.196,40.527,31.738,31.738,2.441,17.578
1532404018.200,48.828,33.203,27.832,13.184,20.996
1532404018.204,15.625,28.320,33.691,45.898,23.438
1532404018.208,75.684,31.250,35.156,54.199,45.410
1532404018.212,67.383,43.945,34.668,28.809,24.902
1532404018.216,-1.465,29.297,36.621,20.508,-8.789
1532404018.220,7.812,31.250,39.551,38.086,12.207
1532404018.224,59.570,47.852,36.133,40.527,28.809
1532404018.228,46.875,38.574,35.645,15.625,20.508
1532404018.232,67.871,41.016,38.086,39.551,18.066
1532404018.236,83.984,42.969,34.668,43.457,32.227
1532404018.239,58.594,47.363,36.621,18.555,23.926
1532404018.243,54.199,45.898,39.062,12.695,27.832
1532404018.247,39.551,40.039,37.109,18.066,41.992
1532404018.251,29.297,47.852,29.785,7.812,10.742
1532404018.255,53.223,58.105,24.902,-5.859,-20.508
1532404018.259,51.270,47.363,34.668,24.414,15.625
1532404018.263,30.762,30.762,34.180,23.926,30.762
1532404018.267,51.270,33.691,33.203,25.879,38.086
1532404018.271,22.949,23.926,42.480,38.086,34.668
1532404018.275,31.250,33.203,31.738,12.695,22.461
1532404018.278,84.961,55.176,34.668,30.273,43.945
1532404018.282,38.574,48.828,44.922,27.832,42.480
1532404018.286,-1.953,30.762,47.363,16.602,29.297
1532404018.290,37.598,30.273,43.945,39.062,23.926
1532404018.294,61.523,34.180,32.715,39.551,28.809
1532404018.298,30.762,30.762,26.855,14.648,18.555
1532404018.302,30.762,38.574,36.621,14.648,9.766
1532404018.306,33.203,31.738,49.316,26.855,32.715
1532404018.310,28.809,39.551,44.922,21.973,41.016
1532404018.314,53.223,54.688,37.109,6.348,19.531
1532404018.318,29.785,33.203,40.039,5.859,17.090
1532404018.321,25.879,27.344,32.715,5.371,21.973
1532404018.325,28.320,25.391,37.109,5.859,16.113
1532404018.329,38.574,40.527,40.527,26.855,34.668
1532404018.333,59.082,46.875,36.621,39.551,56.641
1532404018.337,54.199,38.086,40.039,13.672,39.062
1532404018.341,86.914,53.711,33.203,-1.465,30.762
1532404018.345,79.590,49.805,34.668,24.902,30.762
1532404018.349,62.012,45.410,36.133,27.344,16.602
1532404018.353,86.914,53.223,42.480,22.949,-4.883
1532404018.357,67.871,30.273,43.945,31.738,-6.836
1532404018.361,73.730,40.039,41.992,28.320,30.273
1532404018.364,76.172,62.500,38.574,2.930,47.363
1532404018.368,66.895,56.641,27.344,20.020,51.270
1532404018.372,75.684,53.223,37.109,42.969,39.062
1532404018.376,62.988,55.176,42.969,39.062,28.320
1532404018.380,54.199,50.293,32.227,41.504,26.367
1532404018.384,44.434,49.316,28.320,10.742,47.363
1532404018.388,70.312,45.410,36.621,25.391,23.926
1532404018.392,83.496,41.992,38.086,33.691,15.625
1532404018.396,66.895,46.387,40.527,7.812,28.809
1532404018.400,75.684,47.363,42.480,20.508,35.156
1532404018.403,82.520,44.434,39.551,22.949,67.383
1532404018.407,85.938,53.223,37.109,40.527,61.035
1532404018.411,78.125,46.387,38.086,24.902,18.555
1532404018.415,63.477,44.434,32.715,4.883,11.719
1532404018.419,75.684,57.129,30.273,18.555,35.156
1532404018.423,81.543,48.828,36.133,28.809,8.789
1532404018.427,95.703,50.781,31.250,36.133,18.555
1532404018.431,71.289,50.781,34.180,26.855,25.879
1532404018.435,42.969,43.945,36.621,10.254,10.742
1532404018.439,38.086,43.457,31.250,24.414,3.906
1532404018.443,47.852,45.898,35.156,34.180,26.855
1532404018.446,74.707,60.059,42.969,20.508,51.270
1532404018.450,65.430,60.059,32.715,5.859,23.438
1532404018.454,28.809,47.363,26.855,-8.301,8.301
1532404018.458,49.805,43.457,30.273,14.648,20.508
1532404018.462,63.477,56.641,28.809,30.273,37.598
1532404018.466,62.988,54.199,32.227,16.113,42.480
1532404018.470,15.137,43.457,41.504,20.508,24.414
1532404018.474,1.953,41.504,44.434,37.598,22.949
1532404018.478,41.992,34.180,38.574,15.137,33.691
1532404018.482,27.832,48.828,24.414,-5.371,40.039
1532404018.485,47.363,54.199,24.414,11.719,28.809
1532404018.489,50.781,40.527,34.668,29.785,3.906
1532404018.493,61.035,42.480,33.691,27.832,-16.602
1532404018.497,51.270,45.898,36.621,19.043,6.836
1532404018.501,1.465,45.898,40.527,20.508,34.180
1532404018.505,5.371,45.410,29.785,29.785,39.551
1532404018.509,48.340,50.293,32.715,31.250,22.949
1532404018.513,50.781,52.246,42.969,37.598,-1.465
1532404018.517,41.992,42.969,41.992,25.879,17.090
1532404018.521,44.922,40.527,35.156,25.879,39.551
1532404018.525,0.488,41.016,28.320,10.254,25.391
1532404018.528,3.906,43.945,28.320,14.160,23.438
1532404018.532,70.312,55.664,36.133,32.715,7.812
1532404018.536,76.660,61.035,38.086,19.531,-3.906
1532404018.540,60.547,55.176,38.086,21.973,11.719
1532404018.544,41.504,58.105,32.715,23.926,0.000
1532404018.548,27.344,39.551,29.785,15.137,25.391
1532404018.552,21.973,44.922,33.691,7.812,4.883
1532404018.556,59.570,56.152,39.551,21.973,-19.043
1532404018.560,73.730,57.617,36.621,16.602,25.879
1532404018.564,30.762,56.641,34.180,2.930,28.320
1532404018.568,37.598,52.734,30.273,19.531,39.551
1532404018.571,33.691,46.875,32.227,20.020,42.480
1532404018.575,24.902,52.734,47.363,23.438,34.180
1532404018.579,14.648,56.152,38.574,20.020,49.805
1532404018.583,12.207,42.969,30.762,2.930,71.777
1532404018.587,54.199,62.012,44.922,25.879,62.012
1532404018.591,43.457,53.223,40.527,32.715,38.086
1532404018.595,2.930,33.203,33.691,-11.719,6.348
1532404018.599,-15.137,49.316,33.203,-4.883,22.949
1532404018.603,-49.316,40.527,33.691,9.277,25.879
1532404018.607,-13.184,35.156,34.180,15.137,36.133
1532404018.610,77.148,62.012,30.273,21.973,59.082
1532404018.614,49.805,56.152,33.691,5.859,50.781
1532404018.618,23.926,45.898,30.273,11.230,47.852
1532404018.622,27.344,45.898,38.574,35.156,43.457
1532404018.626,0.488,45.898,35.645,19.531,41.992
1532404018.630,23.926,45.410,26.367,-8.301,13.672
1532404018.634,38.086,60.059,40.527,-0.977,12.207
1532404018.638,18.555,46.387,49.805,10.742,20.508
1532404018.642,-10.742,32.715,42.969,9.277,12.207
1532404018.646,3.418,44.434,31.250,15.137,9.277
1532404018.650,51.270,43.945,39.062,22.461,3.906
1532404018.653,36.621,53.223,40.527,27.344,15.625
1532404018.657,20.996,62.988,39.062,26.855,23.438
1532404018.661,-5.371,46.875,36.133,18.066,32.227
1532404018.665,6.836,39.551,32.227,21.484,51.270
1532404018.669,54.199,50.781,33.691,20.020,48.828
1532404018.673,42.969,57.129,38.086,29.297,11.719
1532404018.677,5.371,46.875,41.992,12.695,23.926
1532404018.681,30.273,34.180,34.668,-6.836,59.082
1532404018.685,69.824,43.457,33.691,22.461,36.133
1532404018.689,62.500,46.387,38.086,41.016,28.320
1532404018.693,36.133,50.293,44.922,24.902,-4.883
1532404018.696,50.293,47.852,41.992,19.043,17.578
1532404018.700,29.297,38.086,36.133,21.973,43.457
1532404018.704,11.719,42.969,38.086,13.672,33.203
1532404018.708,34.180,60.547,27.344,-21.484,43.457
1532404018.712,15.137,48.828,30.273,-12.207,29.785
1532404018.716,28.320,36.621,41.016,25.391,12.695
1532404018.720,63.477,44.922,41.016,44.922,4.395
1532404018.724,51.758,46.875,44.922,47.363,6.348
1532404018.728,38.574,53.223,37.598,14.160,37.598
1532404018.732,52.246,45.410,34.180,6.836,27.344
1532404018.735,43.945,38.086,37.598,16.113,9.766
1532404018.739,0.488,36.621,37.109,14.160,33.203
1532404018.743,25.391,42.969,37.109,15.137,19.531
1532404018.747,76.660,55.664,39.062,36.621,14.648
1532404018.751,64.453,53.711,38.086,39.062,25.879
1532404018.755,30.273,43.945,36.621,26.367,4.883
1532404018.759,11.230,35.645,34.180,1.953,12.695
1532404018.763,41.992,47.852,27.344,11.230,32.715
1532404018.767,47.852,49.316,36.621,37.109,33.691
1532404018.771,10.254,50.293,37.598,20.996,21.484
1532404018.775,7.812,40.039,34.180,15.625,-9.766
1532404018.778,41.992,38.574,36.133,4.395,17.090
1532404018.782,39.551,47.852,30.762,-2.441,52.734
1532404018.786,23.438,42.480,28.809,12.207,54.199
1532404018.790,43.945,41.504,37.109,28.809,23.926
1532404018.794,57.129,33.691,36.133,33.203,27.344
1532404018.798,11.230,37.598,31.738,-4.395,58.594
1532404018.802,20.020,37.598,36.621,-21.973,65.918
1532404018.806,62.012,46.875,38.574,46.875,67.871
1532404018.810,40.527,44.922,36.621,29.297,49.316
1532404018.814,41.016,41.016,36.621,10.254,46.387
1532404018.818,49.316,44.922,35.645,39.062,52.734
1532404018.821,24.414,39.062,30.762,15.137,27.344
1532404018.825,1.465,26.367,34.180,21.484,55.664
1532404018.829,39.551,26.367,30.762,29.785,44.434
1532404018.833,45.898,47.363,33.691,10.254,-3.418
1532404018.837,-12.207,57.617,37.109,8.301,25.391
1532404018.841,35.645,49.316,39.062,27.832,38.086
1532404018.845,67.871,43.945,38.574,18.555,34.180
1532404018.849,19.531,39.551,37.109,9.766,47.363
1532404018.853,43.457,39.551,36.133,21.973,47.852
1532404018.857,43.457,47.852,30.762,24.414,54.199
1532404018.860,24.902,39.551,33.691,19.043,29.785
1532404018.864,6.836,40.527,35.645,8.789,-1.465
1532404018.868,10.742,36.133,33.691,-17.578,32.715
1532404018.872,40.039,27.832,31.250,6.836,11.230
1532404018.876,36.133,50.781,24.414,31.738,-12.207
1532404018.880,5.859,43.457,41.016,52.246,42.480
1532404018.884,36.621,49.316,43.457,41.016,36.621
1532404018.888,54.199,51.758,36.133,19.043,18.066
1532404018.892,44.922,24.902,41.016,26.367,20.508
1532404018.896,9.277,35.645,25.879,8.301,32.227
1532404018.900,-0.977,45.410,22.949,17.578,24.414
1532404018.903,21.484,36.133,40.527,30.273,7.324
1532404018.907,29.297,46.387,38.086,25.879,32.227
1532404018.911,43.457,49.316,31.250,29.785,36.621
1532404018.915,23.926,37.109,37.598,13.184,-1.953
1532404018.919,20.996,38.574,39.551,9.277,8.789
1532404018.923,3.906,38.574,39.551,-1.953,33.203
1532404018.927,8.301,35.645,35.645,-17.090,66.406
1532404018.931,30.762,38.574,37.109,15.625,55.176
1532404018.935,31.738,36.621,40.039,42.969,32.715
1532404018.939,37.109,41.992,33.691,23.926,40.039
1532404018.942,30.273,45.410,38.574,23.438,31.250
1532404018.946,32.715,41.016,37.598,28.809,38.086
1532404018.950,28.320,33.203,35.156,16.113,4.883
1532404018.954,-4.883,18.066,37.598,17.578,11.719
1532404018.958,-8.301,15.625,44.434,19.531,41.992
1532404018.962,12.695,39.551,39.551,-0.488,4.395
1532404018.966,13.672,48.340,33.691,29.785,9.766
1532404018.970,55.176,49.316,41.504,58.105,32.227
1532404018.974,72.266,46.875,38.086,11.719,26.855
1532404018.978,3.418,41.016,35.156,12.207,33.203
1532404018.982,0.488,41.992,31.738,11.230,48.828
1532404018.985,-3.418,32.227,32.715,22.949,37.598
1532404018.989,-4.395,29.785,45.898,35.156,10.742
1532404018.993,64.941,47.852,42.480,12.207,12.207
1532404018.997,48.828,30.762,34.180,5.371,29.297
1532404019.001,40.039,36.621,29.297,-6.836,39.062
1532404019.005,59.570,62.012,29.785,5.371,31.250
1532404019.009,44.434,55.664,36.621,32.715,24.414
1532404019.013,-8.301,43.457,36.621,15.137,32.715
1532404019.017,32.715,55.664,32.227,-15.625,17.578
1532404019.021,95.215,50.293,36.621,17.090,20.020
1532404019.025,74.219,36.621,38.574,59.082,29.297
1532404019.028,11.719,30.762,44.922,26.367,34.668
1532404019.032,-9.766,35.156,54.199,23.926,25.391
1532404019.036,18.066,47.363,44.922,44.922,26.367
1532404019.040,42.969,37.598,45.898,60.059,23.926
1532404019.044,63.965,40.527,43.457,43.945,25.391
1532404019.048,-21.484,26.367,41.992,38.574,51.270
1532404019.052,-15.137,23.926,38.574,30.762,23.926
1532404019.056,65.430,43.945,27.344,8.789,-4.883
1532404019.060,32.715,54.199,29.785,15.137,25.879
1532404019.064,-3.906,57.129,41.016,19.043,40.527
1532404019.067,-5.859,40.039,42.969,18.066,21.484
1532404019.071,1.953,39.551,37.598,15.137,40.527
1532404019.075,21.973,48.340,36.621,11.230,44.922
1532404019.079,82.520,46.875,28.320,15.137,28.809
1532404019.083,55.664,33.691,38.086,35.156,56.152
1532404019.087,42.969,45.410,43.457,33.691,57.617
1532404019.091,61.523,53.223,37.109,22.949,10.254
1532404019.095,20.020,28.320,42.480,30.273,16.602
1532404019.099,19.043,26.367,36.133,0.000,45.410
1532404019.103,36.133,54.199,31.250,-17.090,20.020
1532404019.107,2.930,42.480,44.922,19.043,18.555
1532404019.110,23.438,28.320,48.340,41.992,27.832
1532404019.114,12.695,38.574,38.086,30.762,-7.812
1532404019.118,-18.555,35.645,40.039,29.297,-0.488
1532404019.122,52.246,48.340,33.691,16.113,18.066
1532404019.126,62.012,65.430,25.391,3.418,22.949
1532404019.130,36.621,44.434,41.992,21.484,34.668
1532404019.134,12.207,31.738,38.086,-9.766,27.344
1532404019.138,6.348,41.016,35.156,9.277,36.133
1532404019.142,18.555,44.922,34.668,36.133,30.762
1532404019.146,13.672,40.527,40.039,27.832,27.344
1532404019.150,44.434,45.410,38.086,17.578,24.414
1532404019.153,60.547,51.758,32.227,24.414,-19.043
1532404019.157,49.316,49.316,41.016,14.648,-20.996
1532404019.161,35.645,38.574,43.945,40.527,22.461
1532404019.165,23.926,33.203,39.062,44.922,33.203
1532404019.169,35.156,41.016,44.434,3.418,32.227
1532404019.173,22.461,32.715,40.039,2.441,29.785
1532404019.177,10.742,44.922,20.508,19.043,33.691
1532404019.181,32.227,51.270,24.414,23.926,77.148
1532404019.185,49.316,46.875,36.621,11.230,60.059
1532404019.189,50.293,49.805,37.598,-5.859,1.465
1532404019.192,10.254,54.199,29.785,1.953,-5.371
1532404019.196,37.598,51.270,35.156,49.316,10.742
1532404019.200,75.195,42.969,36.133,50.781,41.016
1532404019.204,52.734,36.133,36.621,29.297,58.105
1532404019.208,51.758,41.992,41.992,19.531,67.383
1532404019.212,24.902,39.062,45.898,34.668,66.895
1532404019.216,3.418,16.602,40.039,51.758,56.152
1532404019.220,21.973,32.715,31.250,26.367,31.250
1532404019.224,41.992,62.012,32.227,0.977,29.785
1532404019.228,24.902,52.734,26.367,4.883,60.059
1532404019.232,7.812,36.621,28.809,10.254,72.266
1532404019.235,38.086,33.691,37.109,31.250,45.410
1532404019.239,51.758,39.062,36.621,45.410,15.137
1532404019.243,52.734,44.922,30.273,18.066,19.531
1532404019.247,31.250,47.852,27.344,15.137,33.691
1532404019.251,2.441,49.316,24.902,8.301,32.715
1532404019.255,10.742,38.574,31.250,0.000,27.344
1532404019.259,54.688,39.551,38.086,33.203,30.762
1532404019.263,54.688,43.457,39.062,58.105,46.875
1532404019.267,26.367,44.922,35.645,41.992,62.500
1532404019.271,31.250,43.457,36.621,34.180,31.738
1532404019.275,44.434,38.574,35.156,26.367,25.879
1532404019.278,44.434,49.805,30.273,19.043,62.988
1532404019.282,35.156,46.387,34.668,31.250,31.738
1532404019.286,19.043,35.645,42.480,36.133,16.113
1532404019.290,35.156,46.387,52.246,44.434,15.625
1532404019.294,47.852,52.734,56.641,26.367,-14.648
1532404019.298,31.738,41.016,47.363,8.789,-8.789
1532404019.302,-5.859,33.203,31.738,6.348,-10.742
1532404019.306,2.930,31.738,37.598,30.762,-2.441
1532404019.310,43.945,38.086,40.527,57.617,-3.906
1532404019.314,45.898,35.156,31.738,34.668,3.906
1532404019.317,29.785,21.484,37.109,29.785,23.438
1532404019.321,15.137,33.203,40.527,10.254,4.395
1532404019.325,0.488,37.109,34.668,7.812,-7.324
1532404019.329,18.066,26.855,41.504,32.715,21.973
1532404019.333,36.621,24.414,44.434,28.809,1.465
1532404019.337,27.832,23.926,42.969,37.598,-19.043
1532404019.341,21.973,28.320,40.039,19.531,14.160
1532404019.345,-0.977,26.367,41.992,15.625,8.301
1532404019.349,23.926,16.602,41.992,41.504,22.461
1532404019.353,40.039,16.113,36.133,7.324,11.230
1532404019.357,-5.859,15.137,32.227,-13.184,13.184
1532404019.360,20.020,25.879,33.691,40.039,26.855
1532404019.364,55.664,32.715,43.945,47.852,13.672
1532404019.368,35.645,30.273,45.410,22.949,22.461
1532404019.372,18.066,30.273,40.527,28.320,25.879
1532404019.376,-18.066,1.953,43.457,33.691,28.809
1532404019.380,3.418,1.465,40.527,19.043,23.438
1532404019.384,66.406,30.273,31.250,29.297,4.883
1532404019.388,41.016,25.391,34.180,31.250,5.371
1532404019.392,28.809,23.438,36.621,15.625,-3.418
1532404019.396,26.367,28.320,36.133,14.648,-16.602
1532404019.399,18.066,24.902,38.574,27.344,29.297
1532404019.403,34.668,12.207,46.387,25.879,41.016
1532404019.407,37.109,18.066,49.805,26.367,24.902
1532404019.411,31.738,22.461,44.434,18.555,34.180
1532404019.415,34.180,25.879,33.691,3.418,49.316
1532404019.419,-6.348,30.762,27.344,11.719,49.805
1532404019.423,-19.043,13.184,36.133,22.461,61.035
1532404019.427,64.453,20.996,39.062,13.184,47.852
1532404019.431,55.664,28.320,32.715,-1.465,4.883
1532404019.435,32.227,20.508,36.133,16.113,-13.184
1532404019.439,37.109,23.926,43.945,28.320,-11.230
1532404019.442,32.715,26.367,44.434,34.668,14.160
1532404019.446,51.270,30.762,41.992,30.273,40.039
1532404019.450,-19.043,18.555,41.016,9.277,22.949
1532404019.454,-30.273,23.926,41.992,7.812,15.137
1532404019.458,49.805,42.480,41.016,22.461,31.738
1532404019.462,54.199,40.039,47.852,28.809,24.414
1532404019.466,43.457,35.156,52.246,25.391,12.207
1532404019.470,29.297,35.645,51.758,26.367,20.508
1532404019.474,-3.418,32.227,52.734,8.301,21.484
1532404019.478,-2.930,25.391,53.711,-2.930,43.457
1532404019.482,34.180,47.852,50.293,-5.859,76.172
1532404019.485,23.438,60.059,41.504,-10.742,47.852
1532404019.489,3.906,50.293,45.410,-25.391,21.973
1532404019.493,-28.809,43.945,62.500,-16.602,28.809
1532404019.497,-16.113,42.480,64.453,-27.344,36.133
1532404019.501,-11.230,57.617,44.922,-70.312,25.391
1532404019.505,-50.293,51.758,52.246,-53.711,10.742
1532404019.509,-20.996,54.199,67.383,-15.137,9.766
1532404019.513,0.000,57.129,69.336,-30.762,14.648
1532404019.517,-48.828,68.848,72.754,-55.664,23.926
1532404019.521,-82.520,70.312,75.195,-64.941,32.227
1532404019.524,-48.340,55.664,65.430,-66.406,29.297
1532404019.528,-42.480,80.566,63.477,-75.684,29.297
1532404019.532,-64.941,73.730,71.777,-79.102,11.719
1532404019.536,-38.086,64.453,70.312,-67.383,1.953
1532404019.540,-12.207,76.660,73.730,-52.246,2.441
1532404019.544,-54.199,73.730,68.359,-44.922,48.828
1532404019.548,-74.707,75.684,62.988,-71.777,64.941
1532404019.552,-26.855,75.684,66.895,-53.223,26.367
1532404019.556,0.000,77.148,65.918,-21.484,18.555
1532404019.560,-8.301,79.102,62.500,-44.434,58.105
1532404019.564,-12.695,77.148,53.711,-51.758,59.082
1532404019.567,-11.230,77.637,45.898,-40.039,32.227
1532404019.571,-17.578,61.035,51.758,-6.348,15.625
1532404019.575,16.113,58.105,57.617,21.973,-19.531
1532404019.579,39.551,64.453,52.734,6.348,5.371
1532404019.583,32.715,54.199,50.781,12.695,21.484
1532404019.587,21.973,54.199,45.898,14.648,24.414
1532404019.591,31.738,59.082,37.109,14.648,37.598
1532404019.595,55.176,32.227,38.574,12.207,15.625
1532404019.599,19.531,32.715,34.180,5.859,31.738
1532404019.603,27.344,51.758,36.133,46.875,63.477
1532404019.607,32.715,36.133,39.062,71.289,55.664
1532404019.610,39.062,30.273,31.250,55.176,35.156
1532404019.614,79.590,40.527,26.855,19.531,14.648
1532404019.618,70.312,40.527,26.855,38.574,15.625
1532404019.622,77.637,32.227,26.855,62.500,49.805
1532404019.626,57.129,27.832,26.367,32.227,45.410
1532404019.630,74.219,20.508,26.855,62.988,19.531
1532404019.634,93.262,23.926,23.438,66.895,21.973
1532404019.638,68.848,38.086,15.625,41.992,15.625
1532404019.642,34.180,31.250,21.973,66.406,27.832
1532404019.646,76.172,26.855,27.832,86.426,25.391
1532404019.649,88.867,16.602,31.250,72.266,1.465
1532404019.653,62.988,22.949,26.855,62.012,-2.930
1532404019.657,79.102,30.273,25.391,77.637,2.441
1532404019.661,57.129,26.855,29.297,87.402,26.367
1532404019.665,42.480,27.344,25.391,66.895,59.082
1532404019.669,46.387,23.438,20.508,61.523,43.457
1532404019.673,61.523,20.020,27.832,74.219,-11.230
1532404019.677,92.285,22.949,33.691,53.223,-7.812
1532404019.681,99.121,24.414,24.414,59.570,16.602
1532404019.685,69.824,22.949,30.273,56.152,20.508
1532404019.689,61.523,31.738,33.203,40.039,33.691
1532404019.692,71.289,25.391,28.320,52.246,28.320
1532404019.696,65.430,21.973,23.438,40.527,48.340
1532404019.700,122.070,47.363,30.762,51.758,41.992
1532404019.704,100.586,49.805,35.645,65.430,21.484
1532404019.708,45.410,33.203,31.250,61.523,40.527
1532404019.712,70.801,30.762,36.621,75.684,18.555
1532404019.716,79.102,43.457,37.109,80.078,12.207
1532404019.720,45.410,24.902,43.457,80.566,18.066
1532404019.724,56.641,26.855,41.016,68.359,5.859
1532404019.728,76.172,45.898,30.762,35.156,22.949
1532404019.732,61.523,37.109,31.250,57.617,29.785
1532404019.735,63.477,32.227,31.250,65.430,25.879
1532404019.739,74.219,35.156,30.273,53.711,36.133
1532404019.743,55.176,39.062,34.668,71.777,53.223
1532404019.747,34.180,35.645,39.062,63.965,50.781
1532404019.751,64.941,46.387,29.785,34.180,15.625
1532404019.755,83.008,47.363,29.785,46.387,6.348
1532404019.759,70.312,30.273,39.062,74.219,54.199
1532404019.763,56.152,38.574,33.203,47.852,70.801
1532404019.767,51.758,43.945,35.645,44.922,69.824
1532404019.771,36.621,33.203,40.039,57.129,41.992
1532404019.774,27.832,32.227,34.180,56.641,16.113
1532404019.778,67.383,36.133,31.738,41.992,44.922
1532404019.782,70.312,30.762,35.645,44.922,39.062
1532404019.786,33.691,42.969,34.668,67.383,16.113
1532404019.790,31.250,36.621,35.645,40.039,20.996
1532404019.794,57.129,36.621,31.250,33.203,32.715
1532404019.798,56.152,39.551,32.227,41.504,20.996
1532404019.802,71.289,30.273,30.273,52.734,11.230
1532404019.806,66.895,44.922,21.973,50.293,35.156
1532404019.810,57.129,48.340,32.715,45.410,40.039
1532404019.814,62.012,36.133,37.598,70.312,19.531
1532404019.817,65.430,29.785,38.086,78.125,13.184
1532404019.821,84.961,42.480,39.551,61.035,22.949
1532404019.825,78.613,45.898,42.480,62.012,34.180
1532404019.829,53.711,46.387,40.527,40.039,36.133
1532404019.833,25.879,43.457,37.109,12.695,23.926
1532404019.837,49.805,31.250,40.039,45.898,-8.301
1532404019.841,46.875,27.344,38.086,52.246,-2.441
1532404019.845,41.016,45.898,29.785,33.691,26.855
1532404019.849,57.617,44.922,32.715,43.945,30.762
1532404019.853,68.359,39.062,31.738,34.180,3.418
1532404019.856,3.418,18.066,28.809,29.297,6.348
1532404019.860,21.484,17.578,34.668,35.645,40.527
1532404019.864,89.844,47.363,26.855,20.508,27.832
1532404019.868,75.684,42.969,22.949,17.090,13.184
1532404019.872,56.641,43.457,31.738,25.879,14.648
1532404019.876,37.109,35.156,34.668,33.203,24.414
1532404019.880,33.691,26.855,31.738,48.340,17.090
1532404019.884,20.508,33.691,30.273,41.504,28.320
1532404019.888,41.016,35.645,26.855,21.484,34.180
1532404019.892,66.895,42.480,17.578,20.020,17.090
1532404019.896,44.434,49.316,23.438,25.391,39.551
1532404019.899,-1.465,33.691,27.832,20.508,68.848
1532404019.903,9.277,22.461,27.344,21.973,42.969
1532404019.907,69.824,40.039,25.879,29.297,36.621
1532404019.911,60.059,40.039,27.832,29.297,26.367
1532404019.915,37.109,38.574,30.762,30.273,12.207
1532404019.919,-6.836,29.297,40.039,34.668,20.020
1532404019.923,1.465,16.113,43.457,43.457,5.859
1532404019.927,43.945,39.062,32.715,32.227,15.625
1532404019.931,10.254,42.969,21.973,14.160,11.230
1532404019.935,30.273,29.785,25.391,26.855,-9.766
1532404019.939,62.500,35.645,30.273,36.133,20.508
1532404019.942,46.387,47.852,28.809,20.020,39.551
1532404019.946,9.277,47.363,37.109,28.809,36.133
1532404019.950,6.836,34.668,41.992,27.832,31.250
1532404019.954,19.043,32.715,38.086,11.719,-3.418
1532404019.958,36.621,47.363,29.297,15.625,27.344
1532404019.962,51.758,55.176,36.133,20.508,37.598
1532404019.966,44.922,41.992,41.504,35.156,12.207
1532404019.970,22.949,36.621,29.785,25.879,15.625
1532404019.974,17.090,35.156,29.785,21.484,7.324
1532404019.978,16.602,38.574,35.156,18.066,32.715
1532404019.981,20.508,50.293,35.156,19.531,62.012
1532404019.985,-26.367,31.250,45.898,64.453,35.156
1532404019.989,-13.184,15.137,41.016,47.363,-16.113
1532404019.993,82.520,49.316,29.785,45.410,8.301
1532404019.997,79.590,53.223,35.645,51.270,52.734
1532404020.001,65.918,33.691,43.457,39.551,48.828
1532404020.005,18.555,38.574,39.062,22.461,17.578
1532404020.009,21.484,38.574,28.809,12.207,14.160
1532404020.013,64.453,53.223,31.738,20.996,12.695
1532404020.017,35.645,51.270,40.039,25.391,-2.441
1532404020.021,27.832,36.621,34.668,23.926,8.301
1532404020.024,31.250,43.945,24.414,22.461,33.203
1532404020.028,20.508,49.805,25.391,10.254,35.156
1532404020.032,36.621,53.711,31.738,39.551,14.160
1532404020.036,39.062,47.363,33.691,50.781,11.230
1532404020.040,39.551,44.922,31.738,38.086,28.809
1532404020.044,49.316,42.969,29.297,29.785,30.273
1532404020.048,28.809,48.340,23.926,29.297,13.184
1532404020.052,-4.883,41.504,34.180,48.340,-0.488
1532404020.056,17.090,38.574,42.969,41.992,22.949
1532404020.060,63.477,47.363,32.227,16.113,70.801
1532404020.064,32.715,41.016,24.414,11.719,59.082
1532404020.067,33.203,40.527,31.250,33.691,25.391
1532404020.071,71.289,60.059,32.715,23.926,24.414
1532404020.075,68.359,57.617,32.715,28.809,48.828
1532404020.079,62.988,31.250,42.969,57.617,51.270
1532404020.083,68.848,29.297,44.434,62.012,36.621
1532404020.087,61.035,41.016,35.645,47.363,16.113
1532404020.091,52.246,36.133,36.621,35.156,15.137
1532404020.095,54.199,54.688,33.203,20.508,8.301
1532404020.099,44.434,47.852,31.738,28.809,28.809
1532404020.103,70.801,44.434,30.273,40.039,42.969
1532404020.106,6.348,26.367,38.086,40.039,28.320
1532404020.110,22.949,6.836,50.293,37.598,23.438
1532404020.114,112.305,45.410,35.156,13.672,16.602
1532404020.118,93.262,52.734,37.598,20.020,9.766
1532404020.122,61.035,45.410,41.016,44.434,11.719
1532404020.126,58.594,35.645,35.645,41.504,41.504
1532404020.130,77.148,35.156,37.109,37.109,60.059
1532404020.134,69.824,42.480,37.109,23.926,5.859
1532404020.138,93.750,41.504,27.832,20.020,-2.930
1532404020.142,75.684,38.086,28.320,41.992,1.953
1532404020.146,54.688,40.039,34.180,34.180,15.625
1532404020.149,63.965,39.062,34.180,40.527,61.035
1532404020.153,79.102,35.156,32.227,52.246,29.785
1532404020.157,57.129,36.133,31.738,41.016,1.953
1532404020.161,47.852,37.109,33.691,24.902,8.301
1532404020.165,66.406,46.387,25.391,16.602,20.020
1532404020.169,54.688,33.203,25.879,16.602,34.180
1532404020.173,48.340,32.715,31.738,6.836,16.602
1532404020.177,73.242,38.574,35.156,9.766,34.180
1532404020.181,64.453,26.855,42.480,24.414,47.363
1532404020.185,69.336,31.738,37.598,32.227,8.789
1532404020.189,60.059,37.598,32.227,43.457,14.648
1532404020.192,41.992,24.414,42.480,36.133,16.113
1532404020.196,51.270,31.738,27.832,5.371,36.621
1532404020.200,41.016,35.156,24.414,24.902,63.965
1532404020.204,35.156,31.250,38.086,29.785,32.715
1532404020.208,41.504,37.598,31.738,23.926,12.207
1532404020.212,25.391,31.250,33.203,25.391,23.438
1532404020.216,3.418,25.391,32.715,2.441,40.039
1532404020.220,35.645,43.457,20.508,20.508,20.996
1532404020.224,67.871,43.457,25.879,39.062,6.836
1532404020.228,55.176,27.832,35.156,33.691,27.832
1532404020.231,41.992,24.414,28.320,21.973,20.996
1532404020.235,27.832,33.691,24.414,2.441,8.789
1532404020.239,64.453,34.668,29.297,-0.977,22.949
1532404020.243,76.172,28.320,33.691,18.066,27.344
1532404020.247,66.895,32.715,37.109,45.410,39.062
1532404020.251,55.664,35.156,34.180,24.902,19.531
1532404020.255,26.367,25.879,31.738,20.020,37.109
1532404020.259,22.949,22.461,37.109,34.180,66.406
1532404020.263,33.691,37.598,35.645,41.992,59.082
1532404020.267,40.039,30.762,38.574,54.688,36.133
1532404020.271,26.855,21.973,37.109,30.762,7.812
1532404020.274,36.133,36.133,22.949,6.836,10.742
1532404020.278,31.738,30.762,30.273,37.598,19.043
1532404020.282,37.109,25.391,40.527,55.176,29.297
1532404020.286,54.688,31.738,34.180,38.574,68.848
1532404020.290,52.734,37.598,27.344,42.969,66.895
1532404020.294,54.688,35.156,26.855,30.762,54.199
1532404020.298,31.738,29.785,28.320,13.672,55.664
1532404020.302,11.230,29.297,25.879,-3.418,43.457
1532404020.306,14.160,35.156,27.344,13.184,32.227
1532404020.310,62.500,40.527,31.738,31.250,27.344
1532404020.313,47.363,34.180,32.715,4.883,41.016
1532404020.317,38.086,41.504,27.832,25.391,20.508
1532404020.321,29.297,18.066,30.762,42.969,-4.883
1532404020.325,20.508,27.832,30.273,20.020,45.898
1532404020.329,54.199,40.527,26.855,11.719,63.965
1532404020.333,41.504,23.926,34.668,22.949,46.875
1532404020.337,34.668,26.367,32.715,20.020,21.484
1532404020.341,42.480,20.508,38.574,26.855,7.324
1532404020.345,34.668,32.227,31.738,17.578,51.758
1532404020.349,34.180,41.016,26.855,20.508,58.105
1532404020.353,25.391,39.062,30.762,15.625,20.996
1532404020.356,13.672,33.691,38.086,33.203,14.160
1532404020.360,31.250,28.809,39.551,37.109,21.973
1532404020.364,56.641,32.715,29.297,21.484,25.391
1532404020.368,62.988,34.668,33.203,19.531,17.578
1532404020.372,81.543,43.945,29.297,0.000,6.836
1532404020.376,68.359,39.062,22.461,-2.441,11.719
1532404020.380,81.543,35.156,25.879,50.781,32.227
1532404020.384,85.938,32.227,28.320,70.801,50.293
1532404020.388,41.016,2.930,36.133,51.270,56.641
1532404020.392,46.387,16.113,47.363,41.992,22.461
1532404020.396,41.992,40.527,54.199,44.434,-1.953
1532404020.399,11.230,16.602,53.711,39.551,38.574
1532404020.403,25.391,5.371,55.176,51.270,49.316
1532404020.407,35.156,15.625,52.734,57.617,25.391
1532404020.411,-3.906,16.602,51.758,18.066,38.086
1532404020.415,-14.160,0.488,57.129,15.137,43.457
1532404020.419,19.043,21.484,52.246,31.738,48.828
1532404020.423,22.461,20.508,54.199,24.414,22.949
1532404020.427,20.996,10.254,52.734,14.648,33.203
1532404020.431,31.738,20.020,43.457,20.996,50.781
1532404020.435,4.883,22.949,47.363,29.297,40.527
1532404020.438,28.320,2.441,56.641,34.668,35.645
1532404020.442,55.176,9.277,48.340,35.156,23.926
1532404020.446,38.574,43.457,38.574,27.344,40.527
1532404020.450,24.414,25.391,42.969,-3.906,36.133
1532404020.454,22.461,15.625,41.992,-0.488,-11.719
1532404020.458,41.992,30.762,39.062,45.898,-10.742
1532404020.462,46.875,41.504,47.363,44.434,21.484
1532404020.466,63.477,30.762,48.828,35.645,38.574
1532404020.470,52.734,34.180,43.457,38.086,44.922
1532404020.474,33.203,23.926,53.711,15.625,28.809
1532404020.478,29.785,24.414,54.199,13.672,39.062
1532404020.481,19.531,47.363,40.527,17.578,73.242
1532404020.485,30.762,41.016,39.551,14.648,58.105
1532404020.489,58.105,30.273,44.922,40.527,40.527
1532404020.493,32.227,20.996,42.480,53.223,28.809
1532404020.497,27.344,36.133,44.922,35.645,21.973
1532404020.501,64.941,49.316,49.805,28.320,31.738
1532404020.505,85.449,42.480,47.363,28.809,25.879
1532404020.509,84.961,39.551,50.781,43.945,34.668
1532404020.513,72.266,38.086,57.129,56.152,46.387
1532404020.517,77.637,43.945,44.922,38.086,49.316
1532404020.521,69.824,44.922,41.504,20.996,47.852
1532404020.524,59.082,38.086,51.758,37.598,31.250
1532404020.528,77.148,40.039,45.410,58.105,59.082
1532404020.532,61.523,39.551,44.922,40.527,56.152
1532404020.536,28.320,32.227,45.410,25.391,27.344
1532404020.540,46.387,40.039,47.852,32.227,55.176
1532404020.544,36.621,40.039,50.781,17.090,29.297
1532404020.548,34.180,38.574,41.992,18.555,27.344
1532404020.552,53.711,43.945,49.805,34.668,30.273
1532404020.556,39.062,41.504,58.105,13.184,-0.488
1532404020.560,16.602,40.039,45.898,12.207,14.648
1532404020.563,46.387,35.645,49.805,51.270,45.410
1532404020.567,74.707,30.762,56.152,55.176,50.781
1532404020.571,45.898,43.457,54.199,34.668,42.969
1532404020.575,43.457,52.734,58.594,49.805,58.105
1532404020.579,23.438,40.039,53.711,58.105,81.055
1532404020.583,39.062,46.387,45.898,22.949,49.805
1532404020.587,56.641,70.801,43.457,6.836,6.836
1532404020.591,20.996,39.062,57.617,26.367,19.531
1532404020.595,20.508,14.648,60.059,31.738,21.973
1532404020.599,38.574,50.781,41.992,39.551,17.578
1532404020.603,41.016,51.758,41.504,40.527,25.879
1532404020.606,45.898,34.668,52.734,14.160,32.227
1532404020.610,34.668,35.156,54.199,-14.648,34.180
1532404020.614,15.625,38.574,41.504,1.953,4.883
1532404020.618,43.945,43.457,41.016,32.227,0.977
1532404020.622,41.504,58.105,43.945,42.480,17.090
1532404020.626,0.977,46.387,40.039,27.832,3.418
1532404020.630,31.250,36.133,51.758,23.926,16.602
1532404020.634,16.602,31.738,50.293,20.996,-4.395
1532404020.638,21.973,42.969,44.922,2.930,-18.066
1532404020.642,69.824,45.410,56.641,27.344,7.812
1532404020.646,40.527,37.598,52.246,32.227,16.602
1532404020.649,20.020,44.922,37.598,16.113,53.711
1532404020.653,9.277,36.621,47.363,23.926,48.340
1532404020.657,31.738,41.504,57.617,7.324,28.320
1532404020.661,35.156,60.059,48.828,-11.230,42.969
1532404020.665,17.578,62.988,53.711,-6.836,49.316
1532404020.669,2.930,51.758,74.707,9.766,56.641
1532404020.673,-16.602,48.828,84.961,0.977,33.691
1532404020.677,-16.602,62.500,72.754,-20.020,38.574
1532404020.681,-33.691,65.918,59.570,-52.734,58.105
1532404020.685,-37.109,63.965,79.590,-34.180,44.922
1532404020.688,-18.066,64.453,87.891,-18.555,38.086
1532404020.692,-70.312,40.039,72.754,-64.941,4.883
1532404020.696,-84.961,42.480,82.031,-62.988,2.930
1532404020.700,-23.926,77.148,82.031,-58.594,21.484
1532404020.704,-57.617,67.383,79.102,-67.383,20.508
1532404020.708,-85.449,70.312,87.402,-99.609,42.969
1532404020.712,-78.125,84.961,85.449,-129.883,48.828
1532404020.716,-73.242,73.242,83.984,-80.078,54.199
1532404020.720,-98.145,72.754,85.938,-70.312,41.992
1532404020.724,-116.699,83.496,96.191,-120.605,27.832
1532404020.728,-112.305,90.820,96.191,-129.883,22.949
1532404020.731,-86.914,91.797,90.820,-87.402,26.367
1532404020.735,-91.309,94.238,89.355,-99.121,16.602
1532404020.739,-126.465,78.613,86.914,-109.375,31.250
1532404020.743,-101.074,72.754,85.449,-107.910,43.945
1532404020.747,-87.891,81.055,88.379,-108.398,62.988
1532404020.751,-88.867,81.543,81.543,-97.656,54.688
1532404020.755,-71.289,82.031,75.195,-95.215,8.789
1532404020.759,-73.242,70.312,76.660,-83.008,13.184
1532404020.763,-56.641,69.824,68.848,-76.172,43.945
1532404020.767,-65.430,63.477,64.453,-73.730,46.875
1532404020.770,-83.496,59.082,65.430,-57.617,30.273
1532404020.774,-43.945,57.617,67.871,-53.223,37.598
1532404020.778,-42.480,56.152,55.664,-67.383,31.250
1532404020.782,-51.758,53.223,60.059,-59.570,28.320
1532404020.786,-51.758,41.504,65.918,-62.988,27.344
1532404020.790,-47.852,25.391,55.176,-46.387,16.602
1532404020.794,-22.949,41.016,51.270,-33.203,17.578
1532404020.798,-27.832,49.805,45.898,-31.738,12.695
1532404020.802,-21.973,34.668,35.156,-20.508,9.277
1532404020.806,24.902,37.598,35.645,-6.348,20.996
1532404020.810,19.531,34.668,41.992,20.020,16.602
1532404020.813,-22.949,24.902,46.875,-2.441,21.973
1532404020.817,5.859,26.855,41.992,-2.930,30.273
1532404020.821,15.137,34.668,29.297,-14.648,15.137
1532404020.825,-10.254,19.043,37.109,-4.395,30.273
1532404020.829,32.227,23.438,43.457,29.785,36.621
1532404020.833,58.105,21.973,41.016,29.785,-0.977
1532404020.837,14.160,22.461,31.738,-1.465,-9.766
1532404020.841,-23.438,31.250,29.785,-20.996,18.555
1532404020.845,36.621,12.695,35.156,13.184,20.020
1532404020.849,67.871,17.090,30.273,41.992,13.184
1532404020.853,23.926,17.090,33.203,54.688,-1.465
1532404020.856,32.227,20.020,25.391,44.434,5.371
1532404020.860,90.332,25.391,28.320,42.480,26.855
1532404020.864,96.680,25.391,30.273,50.293,54.199
1532404020.868,93.750,34.180,24.902,41.992,40.039
1532404020.872,67.383,29.785,24.414,30.273,8.301
1532404020.876,54.199,23.438,19.531,36.621,0.977
1532404020.880,78.613,22.949,24.902,48.340,2.930
1532404020.884,83.984,22.949,29.785,67.383,38.086
1532404020.888,79.102,18.555,26.367,76.172,57.129
1532404020.892,87.402,24.902,24.902,78.125,37.109
1532404020.895,72.754,15.137,17.578,54.688,14.648
1532404020.899,77.637,8.789,20.020,48.828,31.738
1532404020.903,93.262,23.438,32.715,74.707,46.875
1532404020.907,78.125,25.879,33.203,59.570,49.316
1532404020.911,83.008,31.250,26.855,41.504,21.973
1532404020.915,76.172,32.227,31.738,69.336,7.812
1532404020.919,54.199,20.508,34.668,77.637,42.480
1532404020.923,57.617,24.414,24.902,63.965,67.383
1532404020.927,62.988,21.973,30.762,77.637,68.359
1532404020.931,74.707,22.949,32.227,90.820,47.852
1532404020.935,106.445,23.926,33.203,79.590,19.043
1532404020.938,85.938,21.973,26.367,59.082,1.465
1532404020.942,57.129,27.832,27.344,77.637,2.930
1532404020.946,72.266,28.320,31.738,51.758,23.926
1532404020.950,57.129,31.250,26.855,30.273,42.969
1532404020.954,55.664,24.902,27.344,63.477,48.340
1532404020.958,55.664,19.531,25.879,66.895,45.898
1532404020.962,61.035,16.602,34.668,78.613,34.180
1532404020.966,67.871,17.578,37.598,69.824,53.223
1532404020.970,65.918,19.043,32.715,58.594,44.922
1532404020.974,40.039,18.066,33.691,43.945,13.672
1532404020.978,36.133,15.625,30.273,36.621,10.254
1532404020.981,71.289,31.250,27.344,67.871,17.090
1532404020.985,68.848,32.715,35.645,81.543,46.875
1532404020.989,62.988,24.414,30.762,66.406,35.156
1532404020.993,77.637,34.180,29.297,55.664,13.184
1532404020.997,49.316,25.391,35.156,63.965,31.250
1532404021.001,43.945,16.113,27.344,57.617,32.715
1532404021.005,80.078,31.738,28.320,48.828,31.738
1532404021.009,70.312,33.691,34.668,54.199,27.832
1532404021.013,62.012,26.367,27.832,54.688,28.809
1532404021.017,60.547,31.250,35.645,50.293,48.340
1532404021.020,60.547,34.180,42.480,57.617,54.199
1532404021.024,38.574,25.391,38.574,43.457,52.734
1532404021.028,15.625,18.066,32.715,47.852,35.156
1532404021.032,48.340,32.715,26.367,61.035,-8.301
1532404021.036,74.219,32.227,36.621,53.711,-17.090
1532404021.040,67.871,26.367,34.180,62.500,22.461
1532404021.044,55.664,31.250,29.785,52.246,42.969
1532404021.048,31.250,30.762,31.250,40.527,34.180
1532404021.052,50.293,34.668,36.621,43.945,24.414
1532404021.056,69.336,51.758,39.062,50.781,28.809
1532404021.060,51.758,40.039,32.715,42.969,30.273
1532404021.063,69.824,32.227,35.156,57.129,25.879
1532404021.067,51.758,34.668,37.109,65.430,37.109
1532404021.071,26.367,15.625,40.527,73.730,4.883
1532404021.075,44.922,23.926,47.852,61.523,-3.906
1532404021.079,29.297,31.250,43.457,33.691,41.992
1532404021.083,39.062,25.879,42.480,62.500,35.156
1532404021.087,62.988,30.273,41.504,79.590,12.695
1532404021.091,40.039,28.809,38.574,54.688,19.043
1532404021.095,29.297,32.227,33.203,36.133,39.062
1532404021.099,24.414,29.297,31.738,34.668,49.805
1532404021.103,28.320,31.738,35.645,52.734,38.086
1532404021.106,64.453,42.480,30.762,64.941,12.207
1532404021.110,74.707,39.551,36.621,57.129,-19.043
1532404021.114,56.641,32.715,40.527,36.621,-18.066
1532404021.118,55.176,32.227,35.645,37.109,16.602
1532404021.122,45.410,32.715,31.250,38.574,30.273
1532404021.126,47.852,28.320,34.668,31.250,23.926
1532404021.130,54.688,35.645,38.574,33.691,28.809
1532404021.134,57.617,40.527,39.062,44.434,35.156
1532404021.138,58.105,37.598,36.621,48.828,49.805
1532404021.142,41.016,26.855,33.203,34.668,67.871
1532404021.145,35.156,29.785,32.715,28.809,49.805
1532404021.149,38.574,36.133,29.785,51.270,28.809
1532404021.153,51.270,26.855,35.156,64.453,5.859
1532404021.157,62.012,30.762,38.086,54.688,-0.977
1532404021.161,54.688,34.668,35.156,29.785,29.297
1532404021.165,36.621,32.715,33.203,32.227,41.504
1532404021.169,27.832,30.273,33.203,28.320,40.039
1532404021.173,52.734,37.109,33.691,23.438,25.879
1532404021.177,46.875,33.691,41.504,41.016,35.156
1532404021.181,25.879,26.367,39.062,34.668,51.270
1532404021.185,40.527,26.855,35.645,20.996,38.086
1532404021.188,40.527,21.973,35.645,21.973,48.340
1532404021.192,42.969,34.668,28.320,30.273,29.297
1532404021.196,50.293,36.621,36.133,52.246,0.000
1532404021.200,65.430,35.156,45.410,56.152,27.344
1532404021.204,53.711,36.621,40.527,38.574,20.508
1532404021.208,37.598,33.691,34.180,33.203,12.207
1532404021.212,33.691,28.809,42.969,39.551,25.879
1532404021.216,20.020,33.691,41.016,23.438,60.547
1532404021.220,44.922,30.273,39.062,5.371,62.988
1532404021.224,50.781,37.109,34.180,23.438,41.992
1532404021.227,15.137,31.250,29.297,50.293,40.039
1532404021.231,51.270,37.598,35.156,23.438,23.926
1532404021.235,83.008,44.922,31.250,9.766,14.648
1532404021.239,54.688,28.320,36.133,37.109,18.555
1532404021.243,48.828,38.086,42.480,46.875,39.062
1532404021.247,38.086,37.109,36.621,46.875,41.992
1532404021.251,29.785,35.156,34.180,12.695,11.719
1532404021.255,39.551,41.504,44.434,17.578,-7.812
1532404021.259,42.480,45.898,40.527,48.340,15.625
1532404021.263,77.637,44.434,36.621,41.992,36.621
1532404021.267,46.875,41.504,38.086,26.855,41.992
1532404021.270,38.574,39.551,32.227,28.320,30.762
1532404021.274,54.688,41.992,35.645,25.879,32.715
1532404021.278,37.598,44.922,42.480,25.391,26.367
1532404021.282,47.363,40.527,41.504,30.273,36.133
1532404021.286,46.875,35.645,38.574,22.461,52.734
1532404021.290,48.828,37.598,39.062,37.109,22.461
1532404021.294,50.293,44.922,40.527,24.902,24.414
1532404021.298,43.945,46.387,37.109,0.488,28.320
1532404021.302,43.457,49.805,33.691,22.949,7.324
1532404021.306,51.270,38.086,40.527,50.781,-2.441
1532404021.310,42.969,31.738,40.039,35.156,7.812
1532404021.313,49.805,46.387,45.898,32.227,29.297
1532404021.317,39.551,38.574,40.527,36.621,25.391
1532404021.321,35.156,36.621,31.738,36.133,8.789
1532404021.325,45.410,49.316,45.898,47.852,-0.488
1532404021.329,36.133,42.480,42.969,23.438,43.945
1532404021.333,26.855,29.297,32.715,13.184,31.250
1532404021.337,15.137,29.785,34.180,20.996,-4.395
1532404021.341,37.109,27.344,40.039,41.504,21.973
1532404021.345,48.340,31.738,44.922,35.645,11.719
1532404021.349,35.645,35.156,46.387,32.227,11.719
1532404021.352,17.578,34.180,39.062,18.066,-6.836
1532404021.356,21.484,40.527,34.668,3.906,-9.766
1532404021.360,55.664,38.574,33.203,22.461,15.137
1532404021.364,41.992,31.250,33.203,16.602,22.461
1532404021.368,8.301,16.602,37.109,31.738,22.461
1532404021.372,10.254,28.809,42.480,48.828,42.480
1532404021.376,26.855,42.480,45.410,43.945,32.227
1532404021.380,46.875,44.434,46.387,35.156,19.043
1532404021.384,54.199,34.668,49.805,34.668,44.922
1532404021.388,14.648,22.949,40.527,26.855,40.527
1532404021.392,-9.766,42.480,28.320,4.883,18.066
1532404021.395,19.043,58.594,28.320,3.418,4.883
1532404021.399,51.758,50.781,32.227,11.719,15.625
1532404021.403,59.570,40.039,29.297,23.926,28.809
1532404021.407,26.855,38.574,28.320,23.926,16.602
1532404021.411,27.832,41.504,37.598,23.926,2.930
1532404021.415,30.273,36.621,41.016,32.715,33.691
1532404021.419,15.137,35.156,38.086,27.832,42.969
1532404021.423,43.457,39.551,33.691,22.949,18.066
1532404021.427,43.945,39.551,29.785,19.531,22.461
1532404021.431,31.250,31.250,42.480,22.949,31.250
1532404021.435,65.430,44.922,37.598,29.785,22.949
1532404021.438,56.152,53.711,28.320,23.926,17.578
1532404021.442,41.016,38.086,33.691,20.020,-2.930
1532404021.446,38.574,39.551,35.645,41.992,32.715
1532404021.450,30.273,42.480,32.227,36.621,55.176
1532404021.454,57.129,32.715,28.809,18.066,7.812
1532404021.458,50.781,31.250,33.691,22.949,24.902
1532404021.462,47.852,37.109,35.645,40.039,37.598
1532404021.466,77.637,41.992,39.062,19.531,56.152
1532404021.470,20.996,50.781,23.926,-22.949,56.152
1532404021.474,5.371,41.016,25.879,15.625,21.973
1532404021.477,74.219,27.832,44.922,57.129,32.715
1532404021.481,61.523,29.297,42.969,33.691,41.504
1532404021.485,61.035,26.367,37.598,20.508,58.105
1532404021.489,60.059,32.227,30.762,33.691,44.434
1532404021.493,46.387,41.016,33.691,32.715,4.883
1532404021.497,55.176,43.945,35.645,20.508,36.621
1532404021.501,43.457,43.945,38.574,36.621,77.637
1532404021.505,39.551,29.785,49.316,61.523,56.152
1532404021.509,44.434,33.203,40.527,48.340,46.875
1532404021.513,38.574,40.527,40.039,33.691,54.199
1532404021.517,17.090,44.434,42.480,41.504,57.129
1532404021.520,0.977,28.320,32.227,38.574,46.387
1532404021.524,53.223,34.668,30.762,24.902,29.297
1532404021.528,71.777,45.410,35.645,35.645,32.227
1532404021.532,35.156,29.297,41.992,39.551,37.109
1532404021.536,17.578,26.367,35.645,24.902,39.551
1532404021.540,24.902,31.738,39.551,21.484,33.203
1532404021.544,32.227,39.062,42.969,37.109,28.320
1532404021.548,31.250,49.805,38.086,44.434,40.527
1532404021.552,38.574,36.621,42.969,19.043,26.367
1532404021.556,39.551,34.180,39.062,13.672,27.344
1532404021.560,36.133,38.086,37.109,29.297,46.387
1532404021.563,56.152,32.715,35.645,31.250,20.508
1532404021.567,47.363,32.715,32.227,26.367,34.180
1532404021.571,34.668,37.598,28.809,0.977,42.969
1532404021.575,32.227,53.223,34.668,17.578,38.086
1532404021.579,21.973,41.992,50.781,53.223,35.156
1532404021.583,18.555,34.668,50.293,37.109,20.020
1532404021.587,20.020,41.016,43.457,26.367,23.438
1532404021.591,30.273,36.133,46.387,37.598,21.484
1532404021.595,66.895,35.156,40.527,38.086,38.574
1532404021.599,78.125,41.016,38.574,35.645,53.711
1532404021.602,84.473,44.922,36.133,44.922,12.207
1532404021.606,41.016,32.715,37.109,24.414,12.695
1532404021.610,18.066,37.109,36.621,18.555,44.434
1532404021.614,44.434,48.340,37.598,31.250,44.922
1532404021.618,32.715,40.039,36.621,30.762,23.438
1532404021.622,61.523,39.062,28.809,46.875,-8.789
1532404021.626,76.660,48.828,28.809,10.254,4.883
1532404021.630,58.105,43.945,32.715,14.160,38.086
1532404021.634,55.664,32.227,39.062,65.430,19.531
1532404021.638,56.641,37.598,36.133,55.664,-17.578
1532404021.642,36.621,36.133,35.156,52.246,-8.789
1532404021.645,9.766,31.738,29.785,48.340,19.531
1532404021.649,19.043,38.086,29.785,14.160,19.043
1532404021.653,10.254,40.039,34.180,19.531,25.391
1532404021.657,37.109,42.969,40.039,42.480,49.316
1532404021.661,51.270,40.039,36.133,27.344,23.926
1532404021.665,47.363,41.992,30.273,28.320,8.789
1532404021.669,60.059,44.922,36.621,37.598,23.926
1532404021.673,34.180,37.109,37.109,18.066,-20.508
1532404021.677,18.066,43.457,31.738,15.625,-28.809
1532404021.681,43.457,38.574,27.344,42.480,24.902
1532404021.684,64.941,41.992,27.344,47.363,45.410
1532404021.688,47.363,44.922,30.762,20.020,38.574
1532404021.692,52.246,35.645,38.574,33.203,18.555
1532404021.696,48.828,37.598,38.574,41.992,30.762
1532404021.700,40.527,42.969,38.086,23.926,52.246
1532404021.704,54.199,46.387,37.109,21.484,61.523
1532404021.708,58.594,33.203,30.273,20.996,43.945
1532404021.712,42.969,20.996,29.297,24.902,44.922
1532404021.716,22.949,40.039,26.855,18.066,49.805
1532404021.720,47.852,33.203,31.250,30.273,41.992
1532404021.724,59.570,38.574,33.203,24.902,28.809
1532404021.727,34.668,57.129,28.809,9.766,35.645
1532404021.731,61.035,45.410,30.762,-0.488,35.156
1532404021.735,61.035,46.875,42.480,24.902,12.695
1532404021.739,19.531,53.223,38.574,44.434,19.531
1532404021.743,43.457,41.016,42.480,36.621,19.531
1532404021.747,61.523,33.203,42.480,41.504,31.738
1532404021.751,44.922,30.762,32.227,41.992,30.273
1532404021.755,35.645,23.926,36.133,57.617,25.391
1532404021.759,8.301,37.598,35.645,45.898,56.152
1532404021.763,20.508,53.711,31.738,28.320,57.617
1532404021.767,57.129,43.945,42.480,38.086,40.527
1532404021.770,53.223,48.828,52.734,46.875,20.508
1532404021.774,22.461,52.734,46.875,50.293,2.441
1532404021.778,31.250,55.176,34.180,37.598,21.484
1532404021.782,41.992,26.367,41.016,44.922,41.504
1532404021.786,25.879,15.137,41.016,42.969,24.902
1532404021.790,29.785,51.758,25.391,19.043,41.504
1532404021.794,27.832,57.129,34.668,24.902,60.547
1532404021.798,42.480,47.852,40.527,31.738,43.457
1532404021.802,28.320,41.504,32.227,29.785,27.344
1532404021.806,14.648,40.039,41.016,37.109,18.066
1532404021.809,44.434,55.664,38.574,25.879,5.859
1532404021.813,19.043,45.410,41.504,33.691,32.227
1532404021.817,20.508,26.367,45.410,46.875,70.312
1532404021.821,43.457,50.293,29.297,32.715,57.617
1532404021.825,43.457,59.082,26.855,32.227,29.785
1532404021.829,41.016,45.410,36.133,43.945,38.574
1532404021.833,30.762,43.457,45.410,18.066,34.668
1532404021.837,28.320,42.480,43.457,20.996,15.137
1532404021.841,18.555,50.781,35.645,23.438,17.578
1532404021.845,15.625,50.781,44.434,23.926,27.832
1532404021.849,22.461,46.387,39.551,26.855,42.480
1532404021.852,25.391,28.320,32.715,13.184,57.617
1532404021.856,32.715,31.738,34.668,16.113,32.715
1532404021.860,52.734,61.035,33.203,34.180,2.441
1532404021.864,53.223,54.199,39.062,32.715,31.738
1532404021.868,47.363,51.270,41.504,24.414,78.613
1532404021.872,29.297,48.828,37.598,-2.930,26.367
1532404021.876,22.461,42.969,40.039,2.441,-13.184
1532404021.880,46.875,55.176,45.410,40.527,18.555
1532404021.884,36.133,46.875,45.410,38.086,37.109
1532404021.888,35.156,40.527,30.762,26.367,35.645
1532404021.892,47.852,47.852,25.391,16.113,30.762
1532404021.895,40.527,45.898,32.715,21.973,16.602
1532404021.899,9.277,41.504,38.086,10.742,28.809
1532404021.903,6.836,44.434,34.668,9.277,49.316
1532404021.907,44.434,47.852,35.645,34.180,44.922
1532404021.911,65.918,54.688,50.293,48.828,23.926
1532404021.915,54.199,51.758,45.898,38.574,28.809
1532404021.919,32.227,47.852,35.156,7.324,25.391
1532404021.923,25.391,39.062,48.340,39.062,23.438
1532404021.927,40.039,48.828,45.898,57.617,57.129
1532404021.931,73.730,54.688,40.527,55.176,41.016
1532404021.934,73.730,46.387,42.969,56.152,14.648
1532404021.938,41.504,48.340,32.715,31.738,19.531
1532404021.942,17.090,46.875,33.203,26.367,46.875
1532404021.946,51.270,45.410,43.457,24.902,69.336
1532404021.950,61.035,45.410,38.574,22.461,52.734
1532404021.954,31.738,48.828,42.480,47.852,8.301
1532404021.958,20.020,45.898,41.992,41.016,-1.465
1532404021.962,52.246,45.410,35.156,44.922,45.410
1532404021.966,50.781,47.363,43.457,20.508,79.590
1532404021.970,31.250,46.387,46.387,15.137,47.852
1532404021.974,29.297,42.969,38.086,35.645,-13.672
1532404021.977,30.273,45.898,40.527,29.785,-16.602
1532404021.981,43.945,56.152,47.363,45.410,32.715
1532404021.985,40.527,48.340,44.922,50.781,30.273
1532404021.989,37.598,45.410,38.086,33.691,1.953
1532404021.993,59.570,50.781,35.645,39.062,26.855
1532404021.997,34.668,41.504,37.598,45.410,44.434
1532404022.001,30.762,41.504,39.062,38.574,18.555
1532404022.005,48.828,53.711,35.645,25.879,17.578
1532404022.009,49.805,47.852,36.621,32.227,53.223
1532404022.013,43.457,44.922,39.062,50.293,7.324
1532404022.017,35.645,44.922,39.062,44.434,-24.902
1532404022.020,41.016,42.969,41.992,40.039,12.695
1532404022.024,15.137,53.711,33.203,26.367,24.902
1532404022.028,22.461,51.270,31.250,20.508,43.457
1532404022.032,45.410,34.180,43.945,25.391,55.176
1532404022.036,41.016,37.598,39.551,27.832,48.340
1532404022.040,24.902,47.363,31.250,29.297,57.617
1532404022.044,15.137,46.875,28.809,32.715,54.199
1532404022.048,6.348,41.504,35.156,23.926,32.227
1532404022.052,5.859,39.551,38.086,2.441,14.648
1532404022.056,41.992,42.969,35.645,10.254,-4.883
1532404022.059,60.059,41.992,29.785,37.598,12.695
1532404022.063,39.551,41.504,28.809,38.086,30.762
1532404022.067,25.879,35.156,35.645,28.809,26.367
1532404022.071,37.109,39.551,33.203,32.715,25.879
1532404022.075,6.836,41.992,34.668,24.414,42.969
1532404022.079,18.555,36.133,39.062,22.461,20.020
1532404022.083,50.781,50.293,38.086,51.270,18.066
1532404022.087,46.875,55.176,38.086,37.598,30.273
1532404022.091,37.598,42.969,34.668,33.691,9.766
1532404022.095,5.371,32.227,36.621,37.109,9.277
1532404022.099,23.438,33.203,41.016,21.973,14.160
1532404022.102,49.316,38.574,31.250,28.809,12.695
1532404022.106,41.504,36.133,36.133,32.227,16.602
1532404022.110,39.551,48.828,29.297,-18.555,25.879
1532404022.114,31.250,60.059,19.043,-9.277,6.348
1532404022.118,21.973,46.875,38.086,54.688,-13.184
1532404022.122,22.461,35.645,41.992,60.547,17.578
1532404022.126,48.340,37.598,32.227,49.805,17.578
1532404022.130,52.246,41.016,31.250,35.645,25.391
1532404022.134,-17.090,45.898,32.227,31.250,37.598
1532404022.138,-42.480,35.645,31.250,36.621,33.203
1532404022.141,81.543,41.504,43.457,54.688,20.508
1532404022.145,108.887,51.758,40.527,45.898,20.996
1532404022.149,42.969,39.551,32.227,41.992,23.926
1532404022.153,13.672,35.156,24.902,21.484,11.719
1532404022.157,51.270,42.969,25.879,16.113,16.602
1532404022.161,73.242,43.945,42.480,49.805,28.320
1532404022.165,57.129,36.621,40.527,53.223,47.852
1532404022.169,56.152,41.504,42.480,53.223,32.227
1532404022.173,43.457,36.133,44.434,26.855,-4.395
1532404022.177,46.875,36.621,37.109,7.324,3.906
1532404022.181,16.602,48.828,34.668,29.785,20.508
1532404022.184,3.418,42.969,32.715,32.715,2.930
1532404022.188,57.617,43.945,35.156,40.039,26.367
1532404022.192,45.410,43.945,36.133,44.922,23.926
1532404022.196,50.293,45.898,37.109,38.086,-0.488
1532404022.200,48.340,46.875,37.598,34.180,29.785
1532404022.204,11.230,36.133,33.203,20.508,39.062
1532404022.208,41.992,34.668,34.180,25.879,51.270
1532404022.212,65.918,47.852,33.203,33.203,60.547
1532404022.216,57.129,49.316,30.273,39.551,61.523
1532404022.220,19.531,42.480,34.180,31.250,47.363
1532404022.224,29.785,44.434,31.250,9.277,16.113
1532404022.227,55.664,47.363,33.203,20.996,33.691
1532404022.231,35.645,48.340,40.039,24.414,28.320
1532404022.235,38.086,40.039,37.598,32.227,10.254
1532404022.239,49.316,37.598,31.738,36.621,22.949
1532404022.243,38.086,45.410,26.367,17.578,38.574
1532404022.247,28.320,51.758,33.691,8.301,57.617
1532404022.251,27.344,44.922,39.062,26.367,24.414
1532404022.255,28.320,41.504,33.203,43.945,5.371
1532404022.259,36.621,34.668,30.762,46.875,12.207
1532404022.263,51.270,32.227,33.203,42.480,18.555
1532404022.266,57.617,48.828,33.203,41.992,43.457
1532404022.270,43.945,59.082,28.320,19.531,27.344
1532404022.274,30.273,45.898,35.156,16.602,5.859
1532404022.278,34.668,38.086,35.156,45.898,35.645
1532404022.282,64.453,32.715,29.297,36.621,57.129
1532404022.286,62.988,37.598,34.668,41.016,56.152
1532404022.290,42.969,49.316,38.086,39.551,43.945
1532404022.294,41.992,42.480,33.691,18.066,-0.977
1532404022.298,15.625,32.227,33.203,18.555,8.789
1532404022.302,-5.859,37.109,33.691,17.578,42.480
1532404022.306,13.184,37.109,37.598,22.949,35.645
1532404022.309,49.316,38.574,39.551,43.457,12.207
1532404022.313,62.012,44.922,33.203,22.461,16.113
1532404022.317,48.340,36.133,43.457,10.254,33.691
1532404022.321,20.996,46.387,32.715,13.184,21.973
1532404022.325,20.020,55.176,24.414,16.602,21.484
1532404022.329,49.805,48.828,33.691,41.016,22.461
1532404022.333,46.875,55.176,25.879,38.574,4.395
1532404022.337,58.105,41.504,39.551,36.621,-17.090
1532404022.341,57.617,40.527,40.039,38.086,13.184
1532404022.345,34.180,49.805,29.297,28.320,69.336
1532404022.349,30.762,39.551,30.762,18.066,88.379
1532404022.352,40.527,32.227,33.691,31.250,34.668
1532404022.356,42.969,36.621,36.133,42.969,20.020
1532404022.360,24.414,44.434,39.551,35.156,54.199
1532404022.364,-0.977,33.691,40.527,8.301,60.547
1532404022.368,28.320,35.156,31.250,11.230,22.461
1532404022.372,71.777,51.758,33.203,49.805,7.324
1532404022.376,65.918,48.828,39.551,52.734,11.719
1532404022.380,58.105,40.527,30.273,24.902,20.508
1532404022.384,21.484,30.273,27.832,6.836,38.086
1532404022.388,19.043,37.109,27.832,31.250,24.414
1532404022.391,10.254,43.945,22.461,-0.977,-1.953
1532404022.395,15.137,37.109,24.902,-6.348,24.414
1532404022.399,67.871,48.828,33.691,42.969,66.895
1532404022.403,96.680,48.828,31.738,40.527,57.129
1532404022.407,95.215,43.457,30.273,33.691,26.855
1532404022.411,52.246,38.086,33.691,31.738,19.043
1532404022.415,-19.043,27.832,36.621,33.691,27.344
1532404022.419,24.902,36.133,33.691,24.414,25.391
1532404022.423,82.031,44.434,33.203,21.973,14.648
1532404022.427,50.781,50.293,37.598,40.527,34.668
1532404022.431,35.645,50.781,31.738,37.598,44.922
1532404022.434,30.273,31.250,33.691,30.762,20.508
1532404022.438,26.367,33.691,28.320,30.762,18.555
1532404022.442,5.371,39.551,25.391,21.484,38.086
1532404022.446,0.488,27.832,36.133,18.555,44.434
1532404022.450,39.551,33.691,27.344,23.926,27.832
1532404022.454,41.992,45.898,24.414,14.648,24.414
1532404022.458,44.922,49.316,24.414,18.066,42.480
1532404022.462,48.828,37.109,16.602,32.227,54.199
1532404022.466,42.480,26.855,22.949,37.598,62.988
1532404022.470,57.617,28.320,23.438,45.410,43.945
1532404022.474,56.152,41.992,22.949,27.344,6.836
1532404022.477,36.133,49.316,26.855,4.883,0.000
1532404022.481,13.184,41.504,25.391,9.766,23.926
1532404022.485,52.246,29.297,22.949,31.250,24.414
1532404022.489,57.617,36.621,24.902,55.176,24.414
1532404022.493,38.574,39.551,27.344,38.574,26.367
1532404022.497,-16.113,43.945,20.508,0.000,22.461
1532404022.501,0.977,42.969,23.926,15.625,30.273
1532404022.505,80.566,31.738,24.902,37.598,24.902
1532404022.509,60.547,54.199,11.719,26.367,25.391
1532404022.513,21.973,37.109,22.461,15.137,17.578
1532404022.516,27.344,21.973,20.508,26.855,20.508
1532404022.520,63.477,45.410,12.695,51.270,36.133
1532404022.524,50.781,45.410,16.113,37.598,48.828
1532404022.528,35.645,35.645,10.742,21.484,49.805
1532404022.532,38.086,41.016,9.766,13.184,13.672
1532404022.536,63.477,44.434,18.066,25.879,-1.953
1532404022.540,55.664,36.133,24.902,45.898,16.113
1532404022.544,54.199,38.086,14.648,28.320,10.254
1532404022.548,59.570,38.574,10.742,28.809,4.883
1532404022.552,19.531,35.156,6.836,23.926,28.320
1532404022.556,10.254,39.062,-0.488,0.488,53.711
1532404022.559,20.020,36.621,8.789,7.812,41.016
1532404022.563,30.273,37.598,13.672,38.574,16.113
1532404022.567,71.289,38.574,9.766,42.969,14.648
1532404022.571,59.082,29.297,5.859,18.555,-19.531
1532404022.575,24.414,37.109,2.930,-4.395,-26.367
1532404022.579,32.227,51.270,8.301,8.789,41.992
1532404022.583,65.918,30.762,13.184,26.367,70.312
1532404022.587,74.707,27.344,4.883,21.484,26.855
1532404022.591,43.945,45.410,3.418,19.531,18.555
1532404022.595,47.363,43.457,9.277,30.762,47.852
1532404022.598,60.547,39.062,5.859,26.367,33.691
1532404022.602,62.988,32.227,3.906,9.766,13.184
1532404022.606,39.551,49.316,3.906,4.395,36.133
1532404022.610,24.902,36.133,13.672,15.625,19.043
1532404022.614,20.020,26.855,4.883,-7.812,0.488
1532404022.618,31.738,39.062,0.977,7.812,25.391
1532404022.622,57.617,31.250,12.207,36.621,50.781
1532404022.626,37.598,26.855,11.230,11.719,53.711
1532404022.630,45.410,28.809,8.301,33.691,46.875
1532404022.634,47.363,37.598,10.254,49.805,43.945
1532404022.638,40.527,35.645,6.836,20.020,28.320
1532404022.641,43.945,21.484,16.113,8.301,35.156
1532404022.645,41.016,35.156,10.742,22.461,40.527
1532404022.649,36.133,38.086,6.836,15.137,47.852
1532404022.653,28.809,39.062,1.465,-4.395,41.016
1532404022.657,52.734,40.527,2.441,32.715,17.090
1532404022.661,79.102,23.926,14.160,41.016,31.250
1532404022.665,-7.812,39.551,6.348,9.277,58.594
1532404022.669,-70.801,27.832,13.184,11.230,46.387
1532404022.673,50.293,30.273,17.578,30.273,8.301
1532404022.677,95.215,45.410,11.719,38.574,19.531
1532404022.681,61.523,22.949,11.230,29.297,42.480
1532404022.684,31.250,25.879,11.719,15.625,32.715
1532404022.688,45.410,28.809,4.395,33.203,16.113
1532404022.692,53.223,32.715,4.395,45.410,13.672
1532404022.696,44.922,29.785,15.625,36.621,18.555
1532404022.700,32.715,41.016,8.789,18.066,49.805
1532404022.704,30.273,56.152,2.930,10.254,55.664
1532404022.708,50.293,34.668,4.883,34.668,33.691
1532404022.712,39.062,37.109,7.812,30.273,34.180
1532404022.716,3.418,41.992,11.719,14.160,15.137
1532404022.720,30.762,33.691,7.812,23.926,29.785
1532404022.723,63.965,32.715,9.277,32.227,61.035
1532404022.727,41.016,39.062,9.277,46.387,67.871
1532404022.731,21.484,37.109,11.230,46.387,62.500
1532404022.735,26.855,32.227,11.230,31.738,37.598
1532404022.739,42.969,41.016,8.301,32.227,29.785
1532404022.743,40.039,41.992,3.906,25.879,34.180
1532404022.747,48.340,36.133,8.301,28.809,38.086
1532404022.751,-1.465,41.992,3.418,3.418,36.621
1532404022.755,-16.602,24.414,5.859,-14.648,2.930
1532404022.759,63.965,38.574,15.625,29.785,11.230
1532404022.763,77.637,69.336,5.371,44.922,30.273
1532404022.766,58.105,49.805,0.000,39.062,17.578
1532404022.770,47.363,43.945,4.395,27.344,19.531
1532404022.774,42.480,45.410,6.836,22.461,27.344
1532404022.778,39.062,41.016,1.953,20.508,49.805
1532404022.782,31.250,38.086,-1.953,24.902,59.082
1532404022.786,14.648,36.133,-1.465,25.391,56.152
1532404022.790,45.898,41.016,0.000,16.113,34.668
1532404022.794,22.461,35.645,4.395,34.668,14.648
1532404022.798,-4.883,27.344,4.883,29.297,35.645
1532404022.802,56.641,43.457,2.930,24.414,31.250
1532404022.806,56.641,52.246,3.418,26.855,25.391
1532404022.809,47.363,45.410,4.883,27.344,30.762
1532404022.813,26.855,41.016,8.789,36.133,10.254
1532404022.817,7.812,34.180,11.719,21.484,18.066
1532404022.821,42.969,35.156,4.883,33.203,2.930
1532404022.825,42.480,36.133,7.324,41.992,10.742
1532404022.829,8.301,36.621,5.859,27.344,27.832
1532404022.833,35.645,41.504,-1.953,24.902,8.789
1532404022.837,44.922,42.480,2.441,0.488,23.438
1532404022.841,27.832,50.781,2.930,7.324,49.316
1532404022.845,-10.742,44.922,2.930,28.809,24.414
1532404022.848,-0.488,37.598,4.395,29.785,-7.324
1532404022.852,62.500,49.805,7.812,26.367,-1.465
1532404022.856,57.617,31.250,5.371,9.766,19.531
1532404022.860,48.340,33.203,0.488,18.066,9.766
1532404022.864,26.367,42.969,3.418,37.109,26.855
1532404022.868,39.551,35.156,7.324,30.273,40.039
1532404022.872,47.852,34.668,6.836,25.879,26.855
1532404022.876,32.227,41.504,3.418,36.621,33.203
1532404022.880,7.324,40.527,1.953,33.691,27.832
1532404022.884,2.930,31.738,-1.953,27.832,31.738
1532404022.888,50.293,28.320,-0.977,27.344,44.434
1532404022.891,27.344,34.180,11.719,20.508,31.250
1532404022.895,-1.953,37.109,7.812,0.000,24.414
1532404022.899,43.457,42.480,-1.953,9.766,49.805
1532404022.903,49.805,46.387,-3.418,17.090,37.598
1532404022.907,12.695,46.387,-4.883,25.879,28.809
1532404022.911,31.738,41.992,-3.906,34.180,24.414
1532404022.915,41.016,37.598,-0.488,27.832,20.020
1532404022.919,9.277,38.574,8.789,39.062,35.645
1532404022.923,24.414,37.598,17.578,25.391,56.641
1532404022.927,39.551,36.621,17.090,6.836,51.758
1532404022.930,49.805,50.293,7.812,30.762,4.883
1532404022.934,12.207,44.434,-3.906,22.461,13.184
1532404022.938,19.043,34.180,-3.418,16.602,46.875
1532404022.942,73.242,46.387,6.836,71.289,42.969
1532404022.946,20.020,40.527,12.695,47.363,52.246
1532404022.950,-31.738,30.273,13.672,18.066,42.969
1532404022.954,38.574,37.598,10.742,41.992,16.602
1532404022.958,81.055,47.852,3.418,43.457,41.992
1532404022.962,56.641,46.387,-1.953,43.457,55.664
1532404022.966,33.691,53.223,-0.488,40.039,44.434
1532404022.970,0.000,46.875,2.930,32.715,22.461
1532404022.973,25.879,38.086,-3.906,32.227,47.852
1532404022.977,23.926,35.645,-7.324,31.738,66.895
1532404022.981,26.367,44.922,-5.371,24.414,38.086
1532404022.985,50.781,54.688,0.488,26.367,58.594
1532404022.989,9.277,33.691,4.395,36.621,46.387
1532404022.993,32.227,20.020,4.883,29.785,0.488
1532404022.997,65.918,37.598,2.441,-5.371,8.301
1532404023.001,51.758,38.086,1.953,26.855,48.340
1532404023.005,52.734,41.992,-3.418,41.504,47.363
1532404023.009,54.199,42.969,-1.953,28.320,37.598
1532404023.013,35.645,39.062,-6.348,15.137,27.344
1532404023.016,12.695,48.340,-6.348,8.789,38.086
1532404023.020,25.879,34.180,7.812,20.996,54.688
1532404023.024,34.180,38.574,5.371,29.785,42.480
1532404023.028,22.949,48.828,1.465,19.043,66.406
