timestamps,TP9,AF7,AF8,TP10,Right AUX
1532403797.930,11.719,38.574,46.387,-17.090,41.504
1532403797.934,20.508,34.180,46.387,-4.395,33.203
1532403797.938,25.879,30.273,47.363,-5.859,33.691
1532403797.942,8.301,34.180,43.945,-23.926,45.410
1532403797.946,5.371,35.645,41.992,-25.391,39.062
1532403797.949,24.902,25.391,44.434,-18.066,25.391
1532403797.953,24.414,26.367,44.434,-13.672,11.719
1532403797.957,21.484,21.484,47.852,-4.883,18.066
1532403797.961,22.461,27.344,44.922,-11.719,16.113
1532403797.965,0.977,29.785,43.945,-26.855,-3.418
1532403797.969,0.977,24.414,52.246,-19.531,23.926
1532403797.973,26.367,32.227,46.875,-17.578,62.500
1532403797.977,31.738,31.250,45.410,-9.277,46.387
1532403797.981,27.832,31.250,45.898,-2.930,31.738
1532403797.985,13.672,21.484,46.387,-12.695,50.293
1532403797.989,23.926,20.508,47.852,-5.859,52.734
1532403797.992,39.551,33.203,47.852,7.812,24.414
1532403797.996,26.367,33.203,49.316,0.488,26.367
1532403798.000,8.789,26.367,52.734,-15.137,37.109
1532403798.004,8.789,18.555,54.199,-21.484,11.719
1532403798.008,29.785,22.949,51.270,-15.625,0.977
1532403798.012,35.156,29.297,48.828,-11.230,20.508
1532403798.016,24.414,34.180,43.945,-20.996,53.223
1532403798.020,31.738,30.762,44.922,-10.742,62.988
1532403798.024,29.785,28.320,46.875,2.441,23.438
1532403798.028,18.066,32.227,41.992,-18.066,46.387
1532403798.031,34.180,20.996,47.363,-14.160,51.758
1532403798.035,23.438,24.414,47.852,-10.254,16.113
1532403798.039,18.066,35.645,44.922,-7.812,41.504
1532403798.043,30.762,38.086,46.387,-4.883,39.062
1532403798.047,9.277,22.461,48.340,-8.301,4.883
1532403798.051,15.137,28.809,43.457,-2.441,47.852
1532403798.055,29.785,34.180,43.945,1.953,60.547
1532403798.059,18.555,24.414,47.852,-9.277,45.410
1532403798.063,21.973,26.367,46.387,-14.648,41.504
1532403798.067,22.949,32.715,40.527,-18.066,42.480
1532403798.071,7.812,27.832,41.992,-17.090,40.527
1532403798.074,16.113,30.762,38.086,-17.090,26.367
1532403798.078,38.574,34.180,32.227,-13.672,31.250
1532403798.082,47.363,36.133,31.738,3.906,47.363
1532403798.086,38.574,34.668,40.039,2.930,76.660
1532403798.090,32.715,25.391,50.293,0.000,63.965
1532403798.094,15.625,28.809,45.898,-13.672,36.133
1532403798.098,5.371,29.297,43.945,-11.719,40.039
1532403798.102,7.324,26.367,42.480,-10.742,44.922
1532403798.106,1.465,21.484,46.387,-12.695,27.344
1532403798.110,17.090,24.902,48.828,2.930,4.883
1532403798.113,28.320,31.250,47.363,-1.953,22.949
1532403798.117,35.156,27.832,50.293,3.418,39.551
1532403798.121,31.738,29.785,48.828,13.184,46.387
1532403798.125,10.254,33.691,45.410,-7.324,45.410
1532403798.129,16.113,30.273,45.898,-14.648,38.086
1532403798.133,36.621,30.762,51.758,11.719,50.293
1532403798.137,36.133,30.273,49.805,9.766,49.316
1532403798.141,32.227,27.344,43.457,-0.488,22.461
1532403798.145,21.484,27.832,45.898,-2.930,22.949
1532403798.149,16.113,24.414,47.363,-4.395,36.133
1532403798.153,26.855,22.949,45.898,11.230,25.391
1532403798.156,30.762,33.203,44.434,5.371,22.461
1532403798.160,26.367,38.574,41.016,-9.277,43.945
1532403798.164,-3.906,24.414,35.645,-25.391,44.922
1532403798.168,-1.465,21.484,41.504,-14.648,73.242
1532403798.172,24.414,29.785,50.293,-1.953,44.434
1532403798.176,14.648,27.832,48.828,2.441,12.207
1532403798.180,23.926,31.250,43.457,5.859,44.922
1532403798.184,29.297,30.762,42.480,-4.395,25.879
1532403798.188,8.789,24.902,44.922,-9.766,14.160
1532403798.192,4.883,18.066,50.293,-9.766,36.133
1532403798.196,14.160,25.391,49.805,-1.465,20.996
1532403798.199,26.367,42.480,47.852,13.672,11.719
1532403798.203,21.973,32.715,48.340,11.230,-6.348
1532403798.207,20.996,29.297,47.852,-4.883,-19.531
1532403798.211,20.508,32.227,43.457,-14.648,22.949
1532403798.215,0.977,31.738,39.551,-25.391,38.574
1532403798.219,2.930,30.762,41.992,-7.812,41.992
1532403798.223,18.066,25.879,47.852,6.836,26.367
1532403798.227,22.461,24.902,46.875,-1.465,48.340
1532403798.231,40.527,32.715,47.363,-1.465,76.660
1532403798.235,20.996,28.320,44.922,0.000,41.016
1532403798.238,-16.602,29.297,41.992,-4.395,16.602
1532403798.242,9.766,25.879,50.293,-1.953,19.043
1532403798.246,28.809,21.973,51.758,-12.207,17.090
1532403798.250,21.973,25.391,51.270,0.488,26.367
1532403798.254,18.066,25.879,50.293,14.648,32.715
1532403798.258,23.926,26.367,45.898,-4.883,25.879
1532403798.262,32.715,34.668,44.434,-0.977,35.156
1532403798.266,25.879,23.438,48.340,6.348,38.574
1532403798.270,20.996,23.438,47.363,-12.695,25.879
1532403798.274,28.320,39.551,47.852,-3.906,21.484
1532403798.278,14.648,39.062,44.434,-19.531,30.762
1532403798.281,30.762,34.180,39.551,-27.832,36.621
1532403798.285,55.176,33.691,41.016,-10.254,30.762
1532403798.289,45.410,35.156,41.992,-4.883,-3.906
1532403798.293,49.805,34.180,49.316,-7.324,-7.324
1532403798.297,29.297,22.949,52.734,-19.043,32.715
1532403798.301,13.672,15.137,53.223,-4.883,32.715
1532403798.305,45.410,26.855,52.734,9.277,31.250
1532403798.309,45.410,27.832,53.711,2.441,10.742
1532403798.313,29.297,25.879,50.781,-5.371,3.418
1532403798.317,0.488,19.043,52.246,-7.812,27.344
1532403798.321,-4.395,24.902,52.246,-2.441,29.785
1532403798.324,41.992,33.691,49.805,-6.348,4.883
1532403798.328,24.902,29.297,48.828,-24.414,-6.348
1532403798.332,1.953,25.879,48.340,-21.484,14.160
1532403798.336,26.855,23.438,54.199,-3.906,52.734
1532403798.340,38.574,28.809,52.734,0.000,49.316
1532403798.344,23.438,29.785,49.316,-12.695,37.598
1532403798.348,19.531,34.180,47.852,-20.020,57.129
1532403798.352,19.531,33.691,44.434,-16.113,46.875
1532403798.356,18.066,29.297,44.434,-29.297,43.945
1532403798.360,38.086,25.391,50.781,-14.160,55.664
1532403798.363,39.062,27.344,53.711,-4.883,27.344
1532403798.367,6.348,30.273,49.316,-22.461,18.555
1532403798.371,20.508,23.926,49.316,-8.301,32.227
1532403798.375,47.852,29.785,46.387,-11.719,3.906
1532403798.379,20.020,31.250,45.410,-20.508,7.324
1532403798.383,26.367,24.414,51.270,-14.648,17.578
1532403798.387,41.992,21.973,50.293,-16.602,-11.230
1532403798.391,36.621,34.180,47.363,-14.648,1.465
1532403798.395,41.504,31.738,46.387,-5.859,39.062
1532403798.399,38.086,26.367,42.480,-17.578,41.016
1532403798.403,26.855,31.250,38.086,-27.832,37.109
1532403798.406,24.414,33.203,38.574,-25.391,15.625
1532403798.410,24.414,34.668,44.434,-17.578,10.254
1532403798.414,29.297,28.809,51.270,-4.883,5.859
1532403798.418,30.762,31.738,43.457,-7.812,9.277
1532403798.422,24.902,28.809,38.574,-15.625,38.574
1532403798.426,24.414,37.109,38.086,-26.367,1.465
1532403798.430,14.648,35.156,40.039,-16.602,1.465
1532403798.434,20.020,16.602,48.828,5.859,43.945
1532403798.438,24.414,30.762,40.039,-6.836,27.344
1532403798.442,39.062,37.109,38.574,-6.836,36.133
1532403798.446,45.410,29.297,44.434,7.812,45.410
1532403798.449,17.090,31.250,38.574,-6.348,33.203
1532403798.453,15.137,28.809,41.992,-3.906,30.762
1532403798.457,42.969,35.156,42.969,-4.395,36.621
1532403798.461,29.785,26.855,41.504,-16.602,39.551
1532403798.465,25.391,22.949,45.410,-7.812,18.555
1532403798.469,35.156,32.227,41.504,-7.812,27.344
1532403798.473,36.133,27.832,40.039,-13.672,28.809
1532403798.477,15.137,32.227,44.922,-3.418,26.367
1532403798.481,6.348,35.156,42.480,-8.301,49.805
1532403798.485,32.715,28.809,41.016,-11.230,32.715
1532403798.488,21.484,29.297,41.992,-23.438,11.230
1532403798.492,21.484,30.273,38.086,-17.090,12.207
1532403798.496,40.527,32.715,39.551,-1.465,35.645
1532403798.500,31.738,36.621,41.016,-9.766,45.410
1532403798.504,25.391,34.668,38.574,-6.836,33.203
1532403798.508,19.531,24.902,44.922,14.648,28.320
1532403798.512,30.273,25.879,45.410,2.441,35.156
1532403798.516,25.391,32.715,41.992,-13.672,23.926
1532403798.520,27.344,20.996,41.504,-1.953,20.020
1532403798.524,19.531,25.879,40.039,-8.789,3.418
1532403798.528,-2.441,24.902,36.621,-19.531,-10.742
1532403798.531,21.973,22.461,39.551,-5.859,39.062
1532403798.535,39.062,32.227,38.574,3.906,45.410
1532403798.539,39.062,27.344,37.598,-4.883,60.547
1532403798.543,30.273,28.809,40.039,-7.324,55.664
1532403798.547,19.043,29.297,39.551,-1.953,21.973
1532403798.551,17.578,26.855,39.551,-9.277,29.297
1532403798.555,26.367,29.297,37.598,-17.090,26.855
1532403798.559,20.996,35.156,39.062,-9.277,48.340
1532403798.563,4.395,41.504,37.109,-19.043,39.551
1532403798.567,20.508,32.715,35.645,-20.508,17.578
1532403798.571,35.156,26.855,38.086,-2.930,53.711
1532403798.574,35.156,31.738,43.457,-2.441,40.527
1532403798.578,22.949,26.855,41.992,-22.949,28.320
1532403798.582,10.742,26.855,39.551,-24.414,38.086
1532403798.586,28.320,30.762,41.504,-9.766,41.992
1532403798.590,35.156,29.297,41.992,-7.324,44.434
1532403798.594,35.156,37.598,42.480,0.000,25.391
1532403798.598,38.086,28.320,46.875,6.836,35.645
1532403798.602,27.344,22.949,46.875,-9.766,41.016
1532403798.606,35.645,34.668,42.480,-5.371,24.902
1532403798.610,38.086,26.855,47.363,8.789,20.508
1532403798.613,37.598,33.691,42.480,-9.277,28.809
1532403798.617,39.551,44.922,38.574,-11.719,32.715
1532403798.621,18.555,35.645,44.922,-13.672,58.594
1532403798.625,41.504,38.086,44.434,-11.230,54.199
1532403798.629,47.852,43.945,40.527,-6.348,34.668
1532403798.633,31.250,22.949,48.828,9.766,55.176
1532403798.637,59.082,25.391,54.199,8.789,62.500
1532403798.641,56.152,35.156,48.828,-14.648,41.504
1532403798.645,27.344,23.926,42.969,-12.695,51.270
1532403798.649,37.109,36.133,41.504,-14.648,41.504
1532403798.653,43.457,38.086,45.898,-18.555,12.695
1532403798.656,39.062,25.879,46.387,1.465,36.621
1532403798.660,37.598,26.367,45.410,9.277,65.918
1532403798.664,22.949,28.320,46.387,-5.371,43.945
1532403798.668,11.230,24.414,47.852,-15.137,7.812
1532403798.672,26.855,30.762,41.504,-24.902,41.504
1532403798.676,51.270,41.016,37.598,-19.531,67.871
1532403798.680,45.898,30.762,44.434,-1.465,58.594
1532403798.684,20.996,31.250,46.875,-11.719,49.805
1532403798.688,20.508,31.738,43.457,-19.531,40.527
1532403798.692,35.645,35.645,42.969,-7.324,35.156
1532403798.696,33.691,39.062,44.922,-13.672,30.762
1532403798.699,25.391,36.621,45.410,-10.254,46.875
1532403798.703,32.715,31.250,41.504,-13.184,67.871
1532403798.707,20.020,23.438,41.016,-20.020,26.855
1532403798.711,18.066,30.762,42.969,1.953,-0.977
1532403798.715,34.180,29.785,42.969,-4.883,36.621
1532403798.719,36.133,31.250,38.086,-11.719,46.387
1532403798.723,31.738,41.016,37.109,-4.395,8.301
1532403798.727,17.578,29.297,44.922,-3.418,9.766
1532403798.731,24.902,26.855,45.410,5.371,34.668
1532403798.735,20.508,31.738,37.598,-8.789,33.203
1532403798.738,22.461,26.855,34.668,-20.020,34.180
1532403798.742,33.691,25.879,38.574,-9.766,28.809
1532403798.746,16.113,25.879,42.969,-9.277,27.832
1532403798.750,31.250,30.273,42.969,-7.324,49.805
1532403798.754,34.668,31.738,40.039,-9.277,46.387
1532403798.758,37.598,32.715,39.551,-11.719,40.527
1532403798.762,33.691,31.738,37.109,-10.742,39.551
1532403798.766,34.180,24.902,35.156,-33.203,18.066
1532403798.770,46.875,31.250,38.086,-32.227,2.441
1532403798.774,24.902,32.227,39.062,-20.020,29.297
1532403798.778,2.441,26.855,40.527,-29.785,27.344
1532403798.781,9.766,19.531,44.434,-4.395,2.930
1532403798.785,40.527,22.949,41.504,2.930,27.832
1532403798.789,28.809,33.203,36.621,-16.113,27.832
1532403798.793,19.531,26.855,40.039,-5.371,12.695
1532403798.797,37.109,28.320,38.086,-7.812,42.480
1532403798.801,35.156,28.809,38.574,-8.301,65.430
1532403798.805,14.160,25.879,43.457,-6.836,38.086
1532403798.809,21.484,27.344,41.992,-12.695,9.277
1532403798.813,16.113,26.855,41.992,-14.160,47.363
1532403798.817,20.020,24.414,47.852,-6.836,71.289
1532403798.820,47.363,27.344,42.969,-13.672,53.223
1532403798.824,39.062,30.273,36.621,-29.785,44.434
1532403798.828,21.484,24.902,45.410,-20.996,25.391
1532403798.832,30.273,26.367,47.363,-17.578,31.738
1532403798.836,32.715,25.879,41.504,-19.531,41.992
1532403798.840,23.926,27.344,44.434,-9.277,24.414
1532403798.844,42.480,33.691,46.387,-3.418,8.789
1532403798.848,50.293,39.551,39.062,-10.254,21.973
1532403798.852,37.598,37.598,37.598,-17.578,33.203
1532403798.856,29.785,34.180,37.598,-24.902,22.461
1532403798.860,23.926,36.621,33.203,-25.879,21.973
1532403798.863,43.945,32.227,36.621,-21.973,25.391
1532403798.867,48.828,35.645,41.504,-8.301,15.137
1532403798.871,42.480,31.738,42.969,9.277,30.762
1532403798.875,53.711,26.367,44.434,9.277,33.691
1532403798.879,55.664,30.273,41.016,-2.441,34.180
1532403798.883,24.902,42.969,35.156,-19.043,52.246
1532403798.887,7.324,31.250,38.574,-14.160,52.246
1532403798.891,44.922,28.809,42.969,2.930,28.809
1532403798.895,50.781,39.551,40.527,5.859,33.203
1532403798.899,46.387,27.832,43.945,2.441,59.082
1532403798.903,23.926,29.785,38.574,-7.812,40.527
1532403798.906,5.371,30.273,36.133,-30.762,4.883
1532403798.910,35.156,35.156,46.387,-7.812,18.066
1532403798.914,46.387,37.598,40.527,15.625,59.570
1532403798.918,29.297,32.227,38.574,1.465,37.109
1532403798.922,18.066,29.785,41.016,-15.137,20.996
1532403798.926,25.879,26.855,41.504,-13.184,30.762
1532403798.930,29.785,21.484,42.480,-1.953,20.996
1532403798.934,14.648,31.250,37.598,-22.461,14.160
1532403798.938,10.742,40.039,39.551,-25.879,15.625
1532403798.942,27.832,25.879,43.457,0.977,42.480
1532403798.945,42.969,23.438,43.945,0.977,1.465
1532403798.949,27.832,25.391,41.992,-6.836,-12.695
1532403798.953,29.785,20.996,39.551,7.812,40.527
1532403798.957,26.367,15.625,42.480,8.789,48.340
1532403798.961,14.160,18.555,41.016,-10.742,38.574
1532403798.965,6.348,25.391,38.086,-12.207,47.852
1532403798.969,22.949,33.203,32.227,-26.367,38.086
1532403798.973,33.691,27.344,37.598,-32.227,52.246
1532403798.977,39.062,23.926,43.945,-12.207,71.289
1532403798.981,54.688,23.926,47.852,10.742,55.664
1532403798.985,38.086,29.297,42.480,-3.418,24.414
1532403798.988,25.879,32.715,36.621,-25.391,-15.137
1532403798.992,34.668,21.973,42.969,-11.719,10.742
1532403798.996,21.973,23.926,47.363,-7.812,41.504
1532403799.000,23.438,25.879,48.828,-13.184,48.340
1532403799.004,39.062,22.949,43.945,-8.789,41.992
1532403799.008,33.203,24.414,46.387,-0.977,20.508
1532403799.012,49.316,32.227,44.434,-15.137,26.855
1532403799.016,26.855,35.156,37.109,-37.109,41.504
1532403799.020,14.160,31.250,40.039,-26.855,42.480
1532403799.024,45.410,34.180,37.598,-24.902,41.504
1532403799.028,60.059,34.668,43.457,-0.977,29.785
1532403799.031,66.406,30.273,49.316,13.672,36.133
1532403799.035,42.480,26.367,43.457,-3.418,44.434
1532403799.039,5.371,32.715,35.645,-30.762,41.016
1532403799.043,10.254,33.203,37.598,-12.207,29.297
1532403799.047,22.461,30.762,45.410,4.883,-1.465
1532403799.051,34.180,38.086,41.016,-7.324,25.879
1532403799.055,31.738,31.250,43.457,0.977,62.012
1532403799.059,16.602,31.250,43.945,1.953,50.293
1532403799.063,22.949,26.367,39.062,-7.812,26.855
1532403799.067,10.254,21.973,38.574,-13.672,26.855
1532403799.070,5.371,26.855,42.969,-5.371,62.500
1532403799.074,20.996,27.832,41.992,-11.230,45.410
1532403799.078,10.254,33.203,37.109,-22.461,32.715
1532403799.082,14.160,25.879,40.527,-1.953,69.824
1532403799.086,42.969,29.297,41.016,-2.441,50.781
1532403799.090,26.367,41.504,35.645,-12.695,36.621
1532403799.094,16.602,32.715,35.156,-15.137,57.617
1532403799.098,-12.695,15.625,41.992,-6.348,46.875
1532403799.102,-3.906,14.160,43.457,-2.441,27.344
1532403799.106,17.578,32.227,37.598,-18.066,29.785
1532403799.110,24.902,29.297,40.527,-3.418,53.223
1532403799.113,40.039,24.414,41.992,13.184,52.246
1532403799.117,29.785,25.879,41.992,-5.859,45.898
1532403799.121,25.879,24.902,38.574,-7.812,53.711
1532403799.125,26.367,30.273,37.109,-7.324,0.977
1532403799.129,9.277,22.949,39.551,-13.184,-0.488
1532403799.133,9.766,17.578,37.109,-9.277,35.156
1532403799.137,20.996,26.367,35.645,-19.531,38.086
1532403799.141,33.203,36.621,31.738,-22.461,44.434
1532403799.145,41.504,25.391,34.668,-14.160,32.227
1532403799.149,15.625,7.812,44.434,-17.578,42.969
1532403799.153,19.531,22.949,39.062,-27.344,51.270
1532403799.156,39.551,31.738,36.133,-11.230,36.621
1532403799.160,21.484,16.113,46.387,2.930,39.551
1532403799.164,18.555,20.020,44.922,0.488,50.293
1532403799.168,17.578,24.902,44.922,-1.953,30.762
1532403799.172,19.531,22.949,44.922,-14.160,24.414
1532403799.176,19.531,23.926,43.457,-17.578,35.156
1532403799.180,22.949,20.996,45.898,-23.438,33.203
1532403799.184,43.945,24.414,46.875,-12.207,5.859
1532403799.188,32.715,24.414,47.363,1.953,-4.395
1532403799.192,22.461,20.508,45.410,3.418,28.320
1532403799.195,27.344,22.949,47.852,-2.930,44.434
1532403799.199,18.066,23.926,46.387,-23.438,45.410
1532403799.203,7.812,27.832,43.457,-16.113,18.555
1532403799.207,18.066,28.320,46.875,-6.836,6.348
1532403799.211,34.180,28.809,50.293,5.859,33.691
1532403799.215,19.531,36.621,48.340,-0.488,28.320
1532403799.219,4.883,33.203,54.688,-9.277,9.766
1532403799.223,42.480,33.203,58.105,5.371,42.969
1532403799.227,32.715,37.598,42.969,-12.695,29.297
1532403799.231,3.418,41.016,48.828,-20.020,41.504
1532403799.235,20.508,44.434,58.594,-12.695,77.148
1532403799.238,20.020,38.086,44.434,-31.250,35.645
1532403799.242,2.930,34.668,41.016,-41.016,-5.371
1532403799.246,-1.465,44.434,43.945,-60.059,14.160
1532403799.250,-22.461,49.316,48.340,-71.777,32.227
1532403799.254,-42.480,58.105,56.641,-51.758,19.531
1532403799.258,-56.641,60.059,55.664,-70.801,10.254
1532403799.262,-43.945,48.340,62.500,-87.891,13.672
1532403799.266,-26.367,68.848,67.871,-73.242,6.348
1532403799.270,-29.785,71.289,64.453,-74.707,23.438
1532403799.274,-32.227,58.594,67.871,-80.566,55.664
1532403799.278,-47.363,61.523,70.312,-89.355,38.086
1532403799.281,-63.477,62.012,72.754,-95.215,12.695
1532403799.285,-73.730,61.523,68.848,-99.609,23.926
1532403799.289,-68.359,61.523,66.895,-106.934,48.340
1532403799.293,-56.152,62.012,67.871,-97.168,28.809
1532403799.297,-54.688,59.570,67.383,-79.590,19.531
1532403799.301,-62.500,57.129,68.359,-76.660,35.156
1532403799.305,-46.387,45.898,70.801,-70.312,47.363
1532403799.309,-42.969,41.504,66.895,-72.754,40.039
1532403799.313,-38.086,49.805,62.500,-71.289,37.109
1532403799.317,-20.508,49.316,61.035,-49.805,33.691
1532403799.320,-26.367,41.016,57.617,-44.922,46.387
1532403799.324,-15.137,32.227,55.664,-43.945,26.855
1532403799.328,9.766,32.715,49.316,-37.109,-9.766
1532403799.332,-1.953,38.574,39.551,-36.133,19.531
1532403799.336,-10.742,28.320,41.016,-28.320,40.039
1532403799.340,11.719,21.484,44.922,-10.254,26.367
1532403799.344,23.438,25.879,42.969,-1.465,4.883
1532403799.348,21.973,21.484,40.527,-0.488,25.879
1532403799.352,30.762,20.020,38.086,6.348,44.922
1532403799.356,26.367,14.648,42.480,15.137,39.062
1532403799.360,26.367,14.160,43.945,16.602,32.715
1532403799.363,37.598,24.902,38.086,3.906,24.414
1532403799.367,38.574,18.555,35.645,-4.395,41.016
1532403799.371,47.852,12.695,39.062,17.090,71.777
1532403799.375,44.922,20.508,38.086,14.160,56.641
1532403799.379,39.551,20.508,35.645,2.441,46.387
1532403799.383,52.734,16.602,48.828,30.273,32.227
1532403799.387,50.781,18.555,50.781,25.879,-14.648
1532403799.391,49.316,23.926,49.805,17.090,-11.719
1532403799.395,57.129,25.879,59.570,28.320,25.879
1532403799.399,48.340,22.949,52.246,14.648,28.320
1532403799.403,40.039,24.414,55.176,3.418,30.273
1532403799.406,26.367,28.809,55.664,-14.648,21.484
1532403799.410,-1.953,25.879,41.992,-40.039,8.789
1532403799.414,-6.348,26.367,50.293,-41.992,7.324
1532403799.418,-9.766,37.109,62.988,-51.758,13.184
1532403799.422,-37.109,40.039,67.871,-88.379,18.066
1532403799.426,-55.176,46.387,78.613,-88.867,1.953
1532403799.430,-48.828,46.875,83.984,-71.289,20.996
1532403799.434,-38.086,41.016,86.426,-77.148,49.316
1532403799.438,-42.480,53.223,82.520,-92.285,42.969
1532403799.442,-60.059,53.223,79.590,-95.703,42.480
1532403799.445,-47.852,53.711,80.078,-89.844,29.297
1532403799.449,-41.504,55.664,77.148,-86.426,36.133
1532403799.453,-47.363,47.852,74.707,-79.102,40.527
1532403799.457,-29.297,46.387,69.824,-74.219,39.062
1532403799.461,-36.133,41.504,67.871,-69.824,38.574
1532403799.465,-43.457,29.785,64.941,-64.453,18.066
1532403799.469,-34.668,29.297,58.105,-67.383,18.066
1532403799.473,-11.230,38.086,54.688,-55.664,24.414
1532403799.477,6.836,27.344,53.711,-31.250,20.020
1532403799.481,11.719,23.438,52.246,-31.738,41.016
1532403799.485,10.254,28.809,47.363,-30.273,51.758
1532403799.488,3.906,24.902,39.062,-20.508,32.227
1532403799.492,13.184,13.184,44.434,-18.555,44.922
1532403799.496,32.227,14.160,47.363,-6.348,37.109
1532403799.500,40.527,19.043,38.574,9.766,15.137
1532403799.504,43.945,10.254,37.109,11.719,21.973
1532403799.508,38.574,4.395,34.180,-2.441,0.977
1532403799.512,29.785,15.625,28.809,-6.836,1.953
1532403799.516,32.715,20.508,28.809,8.301,29.785
1532403799.520,27.344,12.695,27.344,13.184,26.367
1532403799.524,47.852,11.719,26.367,11.719,18.066
1532403799.527,70.801,8.301,24.414,22.949,46.875
1532403799.531,70.312,5.859,30.273,37.109,41.504
1532403799.535,74.707,6.836,30.762,36.621,31.738
1532403799.539,70.312,10.742,24.902,24.902,43.945
1532403799.543,61.035,12.695,25.391,23.438,20.020
1532403799.547,67.383,16.113,25.879,27.344,13.672
1532403799.551,81.543,17.578,26.855,30.762,38.574
1532403799.555,67.871,6.836,25.391,31.738,44.434
1532403799.559,56.641,5.859,25.391,29.297,14.160
1532403799.563,52.246,9.766,29.785,28.320,7.324
1532403799.567,55.176,18.066,24.902,20.508,48.340
1532403799.570,69.824,12.207,25.879,26.367,53.223
1532403799.574,58.105,16.113,23.438,24.902,34.180
1532403799.578,53.223,19.531,26.855,29.297,60.059
1532403799.582,66.895,6.348,30.273,34.180,62.012
1532403799.586,75.684,17.090,26.367,34.668,46.875
1532403799.590,70.312,15.137,31.250,43.457,20.996
1532403799.594,62.012,12.695,29.297,29.785,2.441
1532403799.598,57.617,12.695,30.273,24.902,47.852
1532403799.602,67.383,13.184,30.762,37.109,49.805
1532403799.606,67.383,17.578,27.344,25.879,4.883
1532403799.610,55.664,19.531,30.762,21.484,4.883
1532403799.613,53.711,16.602,31.738,24.902,32.715
1532403799.617,50.293,17.090,24.414,18.066,19.531
1532403799.621,49.805,15.137,26.367,20.020,15.137
1532403799.625,49.316,19.531,29.785,18.066,16.602
1532403799.629,47.852,15.137,34.668,10.254,-11.719
1532403799.633,52.246,12.695,38.086,19.043,10.742
1532403799.637,50.781,26.855,30.762,19.531,36.621
1532403799.641,52.246,23.438,32.227,18.066,57.129
1532403799.645,51.758,19.531,33.691,18.555,43.945
1532403799.649,32.227,13.672,34.180,8.301,15.625
1532403799.652,39.062,16.602,32.715,13.184,52.246
1532403799.656,67.871,24.414,31.738,20.996,58.594
1532403799.660,60.547,19.043,38.574,31.250,32.715
1532403799.664,50.781,20.020,39.062,26.855,25.391
1532403799.668,52.246,20.020,35.645,20.996,7.324
1532403799.672,53.223,26.367,32.715,16.602,18.066
1532403799.676,37.598,24.414,32.715,7.812,35.645
1532403799.680,30.762,14.648,38.574,17.090,43.945
1532403799.684,40.527,13.672,41.016,14.648,27.344
1532403799.688,48.340,23.926,36.133,-4.395,25.879
1532403799.692,36.133,19.043,39.062,2.930,53.223
1532403799.695,26.367,11.719,46.387,13.672,28.809
1532403799.699,34.668,20.020,39.551,-3.418,38.086
1532403799.703,16.602,21.973,38.574,2.441,34.668
1532403799.707,26.855,24.902,41.504,16.113,0.000
1532403799.711,48.340,22.461,41.016,20.996,10.254
1532403799.715,45.410,6.836,44.922,23.438,32.715
1532403799.719,49.805,22.949,39.062,13.184,23.926
1532403799.723,44.922,35.645,34.668,4.395,26.367
1532403799.727,41.504,23.438,40.527,7.324,28.320
1532403799.731,44.922,24.414,42.969,11.719,23.926
1532403799.735,42.969,22.461,41.992,6.836,34.180
1532403799.738,29.297,30.762,38.086,-4.395,37.109
1532403799.742,4.883,34.668,37.598,-14.648,49.316
1532403799.746,14.648,11.719,43.457,-13.672,17.578
1532403799.750,59.570,16.113,36.621,-15.137,13.184
1532403799.754,52.734,30.273,32.227,-24.414,21.973
1532403799.758,49.316,29.785,39.551,0.488,18.555
1532403799.762,46.387,29.785,36.133,0.977,20.996
1532403799.766,26.367,24.414,38.086,-0.977,15.625
1532403799.770,32.715,22.949,44.434,14.160,26.855
1532403799.774,34.668,18.066,45.898,12.695,39.062
1532403799.777,46.875,6.836,46.387,17.578,21.973
1532403799.781,24.414,15.625,39.551,-0.488,33.203
1532403799.785,16.113,13.672,38.086,-1.465,36.621
1532403799.789,23.926,17.578,42.969,9.277,16.113
1532403799.793,13.184,35.645,40.039,2.930,21.484
1532403799.797,20.508,31.250,33.691,1.465,31.738
1532403799.801,24.902,27.344,36.133,-1.953,56.641
1532403799.805,20.508,19.531,38.574,3.418,39.062
1532403799.809,17.578,24.414,37.109,-3.418,26.367
1532403799.813,13.184,19.043,42.480,-6.836,46.875
1532403799.817,28.320,26.855,39.551,-4.883,51.758
1532403799.820,29.785,42.969,30.273,-18.066,53.223
1532403799.824,24.414,28.809,36.621,-10.742,40.527
1532403799.828,36.621,26.855,38.574,-6.836,17.090
1532403799.832,22.461,26.367,30.273,-10.254,-5.859
1532403799.836,7.324,27.344,32.227,-7.324,13.184
1532403799.840,16.602,23.926,42.480,1.953,33.203
1532403799.844,33.203,19.531,47.363,0.977,34.180
1532403799.848,38.574,32.715,38.574,-8.789,9.766
1532403799.852,32.715,26.367,36.133,5.371,33.691
1532403799.856,41.992,28.809,36.621,1.465,53.711
1532403799.860,36.621,27.832,37.109,-12.207,40.527
1532403799.863,13.672,25.879,36.621,-10.742,40.039
1532403799.867,18.066,28.809,32.227,-8.301,24.902
1532403799.871,28.320,23.926,33.691,-18.555,-3.906
1532403799.875,40.039,18.066,37.598,-13.672,-9.277
1532403799.879,33.691,26.855,34.180,-8.789,32.227
1532403799.883,9.277,30.762,34.180,-0.977,31.250
1532403799.887,17.578,21.484,40.039,0.488,3.418
1532403799.891,31.738,35.156,37.598,-7.324,26.367
1532403799.895,26.367,36.621,38.574,-0.488,20.020
1532403799.899,27.832,21.973,38.086,-12.695,22.949
1532403799.902,25.391,22.949,36.133,-20.020,49.805
1532403799.906,11.719,33.691,33.203,-26.367,38.574
1532403799.910,27.344,32.227,38.086,-3.906,37.598
1532403799.914,33.203,22.461,41.992,10.254,49.805
1532403799.918,25.391,27.344,38.086,-4.883,52.246
1532403799.922,32.227,32.715,38.086,-0.977,33.691
1532403799.926,36.133,36.133,40.039,-8.789,12.695
1532403799.930,21.973,24.902,43.457,-4.395,18.066
1532403799.934,15.137,22.461,39.551,2.441,36.133
1532403799.938,17.090,21.973,29.785,3.906,54.688
1532403799.942,39.551,25.879,22.461,-2.930,43.457
1532403799.945,45.410,38.574,9.277,-22.949,13.184
1532403799.949,22.461,27.832,10.254,-14.160,11.230
1532403799.953,22.949,30.273,10.742,-8.789,30.762
1532403799.957,11.719,37.109,3.906,-15.625,48.828
1532403799.961,27.344,32.227,5.371,-14.648,34.180
1532403799.965,36.133,33.691,8.789,-19.531,6.348
1532403799.969,40.527,23.438,15.137,-12.207,2.930
1532403799.973,29.297,26.367,12.207,-7.812,35.156
1532403799.977,8.301,24.902,13.184,-2.930,24.902
1532403799.981,19.531,17.578,22.949,0.977,9.277
1532403799.985,30.762,28.320,16.602,-5.371,24.902
1532403799.988,41.992,29.785,12.207,-6.836,-1.465
1532403799.992,38.086,38.086,15.137,-3.906,-2.930
1532403799.996,41.504,19.531,23.926,9.277,34.668
1532403800.000,21.484,14.160,25.879,3.906,31.738
1532403800.004,16.602,37.109,20.508,-18.555,6.348
1532403800.008,48.828,36.133,20.508,-2.930,8.789
1532403800.012,37.598,30.762,26.855,5.859,42.480
1532403800.016,33.691,40.039,26.367,-4.395,22.461
1532403800.020,21.973,45.410,21.484,-8.789,22.949
1532403800.024,10.254,23.926,23.438,4.883,23.926
1532403800.027,32.227,30.273,23.438,-0.977,-21.484
1532403800.031,12.695,34.668,25.879,-24.414,13.672
1532403800.035,8.301,22.461,32.227,-18.066,58.105
1532403800.039,30.762,25.391,38.086,7.324,46.387
1532403800.043,34.180,32.715,35.645,0.488,43.457
1532403800.047,30.762,28.320,36.133,-8.301,56.641
1532403800.051,26.855,27.832,36.621,0.000,61.523
1532403800.055,21.973,30.762,35.645,-3.418,46.875
1532403800.059,16.602,32.227,32.227,-18.066,41.992
1532403800.063,10.742,27.832,30.762,-28.320,41.504
1532403800.067,25.879,21.973,36.133,-6.348,17.090
1532403800.070,27.832,28.809,30.762,0.977,29.785
1532403800.074,27.344,30.273,33.203,-4.883,32.715
1532403800.078,35.645,33.691,36.133,-6.836,36.621
1532403800.082,19.043,26.855,38.086,-10.254,48.340
1532403800.086,17.578,23.926,36.621,-11.719,39.551
1532403800.090,23.438,31.250,32.227,-11.719,45.898
1532403800.094,23.438,30.762,35.156,-9.766,32.227
1532403800.098,24.902,35.645,34.668,-6.836,37.598
1532403800.102,21.973,28.320,35.156,-13.672,54.199
1532403800.106,22.949,22.949,34.180,-12.695,34.180
1532403800.110,20.996,36.621,30.273,-9.277,39.062
1532403800.113,3.418,36.133,34.180,-11.719,48.828
1532403800.117,19.531,25.879,38.574,4.883,44.922
1532403800.121,50.781,23.926,37.109,5.859,37.109
1532403800.125,38.086,25.391,37.598,-7.812,8.301
1532403800.129,29.785,28.320,38.574,-10.742,5.371
1532403800.133,30.762,28.809,36.621,-5.859,21.973
1532403800.137,36.621,28.809,38.086,-4.883,35.645
1532403800.141,23.438,30.273,37.109,-3.906,65.918
1532403800.145,8.301,29.297,35.156,-8.789,41.016
1532403800.149,26.855,30.762,37.109,-12.207,18.555
1532403800.152,22.949,32.227,35.156,-17.578,37.109
1532403800.156,28.320,23.438,40.039,-1.953,53.711
1532403800.160,17.090,26.367,37.598,-12.695,44.922
1532403800.164,10.742,29.297,36.133,-36.133,27.344
1532403800.168,39.062,29.785,34.180,-31.250,14.160
1532403800.172,36.621,28.320,37.109,-6.348,32.227
1532403800.176,27.832,26.367,41.992,-7.324,62.012
1532403800.180,25.879,29.297,36.133,-16.113,40.527
1532403800.184,18.066,26.367,35.156,-16.602,26.367
1532403800.188,14.160,18.555,41.016,-23.438,28.809
1532403800.192,1.465,20.996,43.945,-2.441,21.973
1532403800.195,-1.953,34.180,38.574,-6.836,6.348
1532403800.199,28.320,31.738,39.062,-12.695,14.648
1532403800.203,47.852,28.809,39.551,-2.441,30.762
1532403800.207,26.367,24.902,42.969,-5.371,-9.277
1532403800.211,11.230,27.832,42.480,-3.906,8.789
1532403800.215,6.348,42.480,31.738,-25.879,48.828
1532403800.219,21.484,31.738,34.668,-24.414,51.758
1532403800.223,39.551,19.043,42.969,-0.488,18.555
1532403800.227,41.992,27.832,40.039,-3.418,-3.418
1532403800.231,24.414,27.344,36.621,-11.230,16.113
1532403800.234,14.648,23.438,37.109,-13.672,33.691
1532403800.238,23.926,22.949,43.945,-3.418,45.898
1532403800.242,20.996,27.832,55.176,10.742,36.133
1532403800.246,25.391,29.297,52.246,0.488,10.742
1532403800.250,37.598,16.113,50.293,1.465,10.742
1532403800.254,31.250,31.250,42.969,-10.742,27.832
1532403800.258,13.184,40.527,36.621,-23.438,51.758
1532403800.262,22.949,27.832,40.527,-7.324,50.293
1532403800.266,33.691,35.156,37.598,-20.508,18.555
1532403800.270,37.109,30.273,42.969,-7.812,49.316
1532403800.274,9.277,31.250,41.992,-4.395,56.152
1532403800.277,-2.441,30.273,37.109,-22.949,43.945
1532403800.281,37.109,30.762,40.527,-18.555,70.312
1532403800.285,37.109,26.367,43.457,-27.344,39.551
1532403800.289,24.414,21.973,43.457,-27.832,-9.277
1532403800.293,14.160,26.855,44.922,-17.578,10.742
1532403800.297,11.230,23.926,43.457,-8.789,31.250
1532403800.301,18.066,26.855,41.992,-6.348,39.551
1532403800.305,20.996,30.273,41.504,-15.625,0.977
1532403800.309,24.902,27.344,42.480,-12.207,-20.020
1532403800.313,28.809,34.668,40.039,-6.348,28.320
1532403800.317,20.020,30.762,39.062,-3.906,64.453
1532403800.320,12.207,31.738,40.039,-14.648,41.992
1532403800.324,28.809,40.527,35.645,-29.785,20.508
1532403800.328,18.555,35.645,35.645,-22.949,38.574
1532403800.332,4.395,22.949,42.480,-21.973,46.875
1532403800.336,28.320,18.555,44.922,-15.137,53.223
1532403800.340,28.809,30.273,39.062,-11.719,39.551
1532403800.344,20.508,29.785,39.551,-14.160,5.371
1532403800.348,17.578,17.090,41.992,-30.762,-4.395
1532403800.352,11.719,23.438,38.574,-37.109,46.875
1532403800.356,34.180,30.762,41.504,-1.953,63.965
1532403800.359,27.832,30.762,41.992,-7.324,25.879
1532403800.363,28.320,32.715,42.969,-11.719,-0.488
1532403800.367,39.062,26.855,45.898,-2.930,11.230
1532403800.371,35.645,23.926,43.457,-11.719,37.109
1532403800.375,28.809,23.438,42.969,-12.207,39.062
1532403800.379,28.320,25.879,43.945,-18.066,39.062
1532403800.383,47.363,26.855,40.039,-19.531,43.457
1532403800.387,27.832,24.902,41.016,-11.230,24.902
1532403800.391,2.930,24.414,41.992,-12.695,-3.906
1532403800.395,17.578,25.391,41.504,-15.625,34.668
1532403800.399,29.785,25.879,43.457,-16.113,63.477
1532403800.402,24.414,23.438,41.992,-9.277,37.598
1532403800.406,10.254,18.555,42.969,-24.902,16.602
1532403800.410,13.184,29.297,36.621,-36.621,21.973
1532403800.414,27.344,28.809,40.039,-19.531,26.367
1532403800.418,19.043,20.996,48.340,-18.555,23.438
1532403800.422,6.836,18.555,42.969,-33.203,36.621
1532403800.426,15.137,18.066,39.551,-21.484,27.832
1532403800.430,20.996,21.484,40.527,-5.859,25.391
1532403800.434,24.902,25.391,41.992,-16.113,69.336
1532403800.438,17.090,41.016,38.574,-24.414,70.312
1532403800.442,4.883,37.598,36.621,-36.621,37.598
1532403800.445,29.297,22.461,43.457,-23.926,29.785
1532403800.449,48.828,35.156,42.480,-33.691,34.668
1532403800.453,44.434,38.574,37.598,-35.645,56.641
1532403800.457,60.547,35.156,40.527,-5.371,64.453
1532403800.461,42.480,31.738,38.574,-28.809,63.477
1532403800.465,30.762,19.531,41.016,-23.926,42.969
1532403800.469,57.129,25.879,43.457,12.695,42.480
1532403800.473,40.039,32.227,38.086,3.906,73.730
1532403800.477,30.762,30.762,40.527,2.441,61.523
1532403800.481,35.645,31.738,44.434,3.906,38.086
1532403800.484,18.555,25.391,46.875,-2.930,7.324
1532403800.488,14.160,30.762,47.363,-8.301,3.906
1532403800.492,18.555,33.691,44.922,-4.395,42.480
1532403800.496,17.578,33.203,42.969,9.277,55.176
1532403800.500,18.555,37.598,43.945,4.395,41.016
1532403800.504,40.527,32.715,47.852,-5.371,61.523
1532403800.508,43.457,23.926,50.781,14.160,63.477
1532403800.512,34.180,35.156,47.852,18.066,32.227
1532403800.516,9.277,26.367,48.340,2.441,24.414
1532403800.520,12.695,15.625,47.852,-4.395,38.086
1532403800.524,35.156,35.156,42.969,-19.531,42.969
1532403800.527,43.945,36.621,44.922,-5.371,54.199
1532403800.531,56.641,32.715,48.340,1.953,48.340
1532403800.535,33.203,32.715,46.387,-13.184,24.414
1532403800.539,7.324,30.762,43.945,-21.973,30.762
1532403800.543,33.203,37.109,47.852,-35.645,30.762
1532403800.547,47.363,31.250,45.898,-46.875,-2.930
1532403800.551,28.320,30.762,46.387,-13.672,20.996
1532403800.555,37.109,36.621,49.805,7.812,62.500
1532403800.559,14.648,31.738,47.852,-4.883,37.109
1532403800.563,6.348,32.227,51.270,0.977,21.973
1532403800.567,50.781,31.738,50.781,-8.301,33.203
1532403800.570,50.781,39.551,47.363,-23.438,40.039
1532403800.574,28.809,39.062,49.805,-9.766,29.785
1532403800.578,24.902,36.133,54.199,12.207,25.879
1532403800.582,24.902,34.180,51.270,1.465,39.551
1532403800.586,23.926,26.855,49.316,-9.766,23.926
1532403800.590,28.320,28.320,51.270,-11.719,17.090
1532403800.594,29.785,37.109,48.340,-14.648,46.875
1532403800.598,13.672,31.250,49.316,-14.160,77.148
1532403800.602,11.230,29.297,47.852,-9.766,79.102
1532403800.606,39.551,32.715,46.875,-10.254,60.547
1532403800.609,14.648,26.855,46.387,-27.832,49.316
1532403800.613,-5.371,22.949,50.781,-18.555,51.758
1532403800.617,29.297,27.344,47.852,-5.859,61.523
1532403800.621,50.293,34.180,44.922,-5.859,61.035
1532403800.625,42.480,33.691,49.316,1.465,25.391
1532403800.629,30.273,39.062,49.805,10.742,24.414
1532403800.633,19.043,33.203,53.223,15.625,52.246
1532403800.637,23.438,27.344,50.781,3.906,52.734
1532403800.641,25.391,44.434,40.527,-20.020,51.270
1532403800.645,30.273,39.062,41.992,-3.906,54.688
1532403800.649,46.387,33.203,53.223,17.578,52.246
1532403800.652,12.207,32.715,53.223,10.742,37.598
1532403800.656,15.625,24.902,48.828,8.789,49.316
1532403800.660,31.250,21.973,53.711,15.137,23.926
1532403800.664,37.109,33.203,51.270,8.301,15.137
1532403800.668,43.945,36.621,47.852,1.465,29.785
1532403800.672,43.457,27.832,49.805,9.766,25.391
1532403800.676,23.926,41.504,44.922,-2.930,42.969
1532403800.680,21.484,39.551,42.480,-9.277,57.129
1532403800.684,47.852,30.273,43.457,8.301,69.336
1532403800.688,42.480,37.598,43.945,2.930,40.039
1532403800.692,37.598,31.250,42.969,-30.762,30.762
1532403800.695,39.551,28.809,46.875,-11.230,51.270
1532403800.699,30.273,39.062,48.828,30.762,67.383
1532403800.703,30.762,37.109,49.805,20.508,43.457
1532403800.707,25.879,33.203,51.270,18.066,23.926
1532403800.711,9.766,26.855,46.875,13.672,47.363
1532403800.715,25.391,27.832,41.992,7.324,36.621
1532403800.719,11.230,30.273,44.434,3.906,16.113
1532403800.723,27.344,33.203,48.340,8.301,29.297
1532403800.727,54.199,37.109,48.340,8.789,13.184
1532403800.731,39.551,31.738,48.828,11.719,23.926
1532403800.734,44.922,13.672,55.176,19.531,30.762
1532403800.738,40.527,28.320,48.828,5.371,24.414
1532403800.742,52.246,35.645,44.434,22.949,16.113
1532403800.746,41.992,18.555,50.293,21.973,23.926
1532403800.750,27.344,25.879,46.387,0.977,62.988
1532403800.754,20.996,23.438,46.875,-3.418,72.266
1532403800.758,-11.230,2.441,54.688,0.488,61.523
1532403800.762,44.434,25.879,48.340,21.484,41.992
1532403800.766,69.336,32.227,50.293,18.555,28.809
1532403800.770,33.203,20.508,48.828,-8.301,59.570
1532403800.774,38.086,24.414,43.457,-0.488,54.688
1532403800.777,42.969,26.367,50.293,27.344,40.039
1532403800.781,-10.254,16.602,50.781,1.953,29.785
1532403800.785,-24.902,20.020,46.875,-9.277,20.020
1532403800.789,57.617,32.715,44.922,20.508,59.082
1532403800.793,82.520,31.738,45.898,17.578,41.504
1532403800.797,59.570,28.809,47.363,11.230,25.391
1532403800.801,45.898,27.832,40.527,-2.441,30.273
1532403800.805,35.156,38.086,37.598,-10.254,25.879
1532403800.809,16.113,27.344,45.410,-7.812,20.508
1532403800.813,28.809,23.926,46.387,-2.441,16.602
1532403800.816,30.762,26.855,45.410,-5.371,50.293
1532403800.820,23.438,30.273,40.039,-25.391,79.590
1532403800.824,22.949,26.855,44.922,-18.066,42.969
1532403800.828,28.809,21.484,48.340,4.395,30.762
1532403800.832,19.531,25.879,43.457,-1.465,43.457
1532403800.836,14.648,28.320,43.457,-3.418,27.832
1532403800.840,27.832,36.621,44.922,16.602,40.039
1532403800.844,41.504,28.809,42.480,-5.371,31.738
1532403800.848,42.480,25.879,40.527,-8.301,41.504
1532403800.852,14.648,25.879,44.434,0.977,63.965
1532403800.856,-3.418,29.297,42.480,-9.766,51.270
1532403800.859,15.137,28.809,48.340,2.930,55.176
1532403800.863,-3.906,16.113,48.828,-10.742,53.711
1532403800.867,4.395,21.484,44.434,-20.020,39.062
1532403800.871,30.273,15.137,50.781,-11.719,47.363
1532403800.875,16.113,16.113,44.434,-33.203,39.551
1532403800.879,24.414,32.227,41.504,-15.625,51.758
1532403800.883,32.715,28.320,47.852,10.742,47.363
1532403800.887,28.320,21.973,46.387,0.000,39.062
1532403800.891,16.602,20.996,46.875,-16.113,29.785
1532403800.895,3.906,28.320,44.922,-14.648,17.090
1532403800.899,14.160,17.578,50.293,13.184,14.648
1532403800.902,20.996,18.555,47.852,5.859,41.992
1532403800.906,6.836,44.922,38.086,-25.391,25.391
1532403800.910,11.719,23.926,46.875,-17.578,9.277
1532403800.914,20.508,25.391,46.875,-9.277,58.594
1532403800.918,30.273,34.668,43.457,1.465,62.988
1532403800.922,28.809,19.043,45.410,-10.254,56.152
1532403800.926,41.016,21.973,43.457,-37.598,37.598
1532403800.930,41.016,34.668,45.898,-7.812,44.434
1532403800.934,22.461,29.297,50.293,11.230,63.477
1532403800.938,8.301,28.809,47.852,-1.465,32.715
1532403800.941,17.090,32.715,42.969,-14.648,22.949
1532403800.945,20.508,18.555,44.434,-11.719,33.203
1532403800.949,36.133,32.227,42.969,-2.441,38.574
1532403800.953,18.555,52.734,42.480,-9.766,15.137
1532403800.957,-6.836,41.016,47.363,-17.578,25.391
1532403800.961,35.645,30.273,44.434,-6.836,49.805
1532403800.965,53.223,31.250,41.504,-7.324,23.438
1532403800.969,25.879,37.598,41.504,-12.207,12.695
1532403800.973,24.414,42.969,45.410,-9.766,44.922
1532403800.977,24.902,41.504,47.852,3.906,48.828
1532403800.981,49.805,36.621,52.246,10.742,41.504
1532403800.984,50.781,34.668,50.781,8.789,55.664
1532403800.988,27.832,36.621,41.992,-2.930,34.668
1532403800.992,11.719,16.113,48.828,-3.418,32.227
1532403800.996,21.484,31.250,48.828,10.742,62.012
1532403801.000,54.688,54.688,41.016,15.625,52.246
1532403801.004,60.059,38.086,42.969,6.836,31.738
1532403801.008,29.297,31.738,42.480,-17.578,20.508
1532403801.012,23.438,24.902,43.945,-7.812,21.973
1532403801.016,45.898,30.273,39.551,-4.395,28.320
1532403801.020,27.832,36.133,36.133,-30.762,41.992
1532403801.024,15.625,21.484,45.410,-10.254,49.805
1532403801.027,27.344,31.738,39.551,-1.465,40.039
1532403801.031,35.645,19.531,45.898,11.230,38.086
1532403801.035,16.113,13.184,48.828,12.207,45.898
1532403801.039,16.113,39.551,37.598,-8.789,40.527
1532403801.043,26.855,34.668,40.039,-0.977,36.621
1532403801.047,32.227,33.203,40.527,0.000,27.344
1532403801.051,31.250,41.504,37.598,-5.859,29.297
1532403801.055,15.625,35.156,38.086,-7.812,51.270
1532403801.059,10.254,26.855,39.551,-8.301,40.527
1532403801.063,32.715,33.691,33.691,-16.602,38.086
1532403801.066,16.113,38.574,33.691,-25.879,55.664
1532403801.070,16.602,35.645,34.668,-23.926,41.016
1532403801.074,40.039,28.320,37.598,-6.836,22.461
1532403801.078,25.879,33.203,38.086,-4.395,61.035
1532403801.082,35.156,34.668,35.645,0.488,68.359
1532403801.086,37.598,29.297,40.527,2.930,24.414
1532403801.090,28.809,30.762,39.062,-17.090,26.367
1532403801.094,13.672,32.227,36.621,-19.043,30.273
1532403801.098,4.395,20.508,45.410,-0.488,11.230
1532403801.102,23.926,27.344,42.480,-4.883,13.184
1532403801.106,36.621,44.434,39.062,-6.836,38.086
1532403801.109,26.855,41.016,41.016,-5.371,24.414
1532403801.113,34.180,45.898,37.109,-18.555,12.207
1532403801.117,24.902,44.922,38.574,-9.766,37.109
1532403801.121,7.812,34.668,36.133,-7.812,55.664
1532403801.125,9.277,23.438,37.109,-16.113,20.996
1532403801.129,19.531,22.949,42.480,-11.719,32.715
1532403801.133,33.691,35.156,38.086,-9.766,75.195
1532403801.137,21.973,25.879,37.598,-11.230,55.664
1532403801.141,12.207,25.879,39.062,-11.719,36.621
1532403801.145,7.812,34.668,41.016,-13.184,33.691
1532403801.149,27.344,36.133,42.480,-13.672,0.977
1532403801.152,30.762,27.344,40.527,-4.883,11.230
1532403801.156,25.391,29.297,39.062,-9.766,20.508
1532403801.160,39.551,39.551,39.551,-12.695,20.020
1532403801.164,39.062,41.504,38.086,-16.602,23.438
1532403801.168,17.090,44.434,38.086,-5.859,45.410
1532403801.172,17.578,44.434,40.527,9.277,59.570
1532403801.176,28.809,36.133,43.945,10.742,36.133
1532403801.180,28.320,25.391,46.387,9.277,63.477
1532403801.184,36.621,30.762,47.852,7.324,49.316
1532403801.188,23.926,28.809,51.758,10.254,16.602
1532403801.191,-5.859,23.438,46.387,9.766,40.039
1532403801.195,-12.207,20.508,49.805,22.949,49.316
1532403801.199,25.879,29.785,51.758,11.719,35.156
1532403801.203,35.156,33.203,54.688,8.301,43.457
1532403801.207,26.855,41.992,50.293,-11.719,27.832
1532403801.211,12.207,33.691,42.480,-25.391,20.508
1532403801.215,-1.953,29.785,39.062,-20.996,56.641
1532403801.219,4.395,36.133,45.410,-13.672,59.082
1532403801.223,25.879,29.785,52.246,2.441,41.016
1532403801.227,20.020,27.344,55.176,13.184,27.832
1532403801.231,7.812,25.879,57.617,8.789,15.137
1532403801.234,24.902,38.574,50.293,-8.789,34.180
1532403801.238,11.230,44.922,50.293,-3.418,64.941
1532403801.242,-11.230,27.344,58.105,-0.977,59.082
1532403801.246,1.465,20.996,55.176,1.465,15.625
1532403801.250,39.551,41.504,48.828,4.883,6.348
1532403801.254,24.414,35.156,48.340,0.977,41.504
1532403801.258,1.953,22.949,49.805,8.301,46.387
1532403801.262,19.043,30.273,56.152,10.742,56.641
1532403801.266,41.992,38.574,54.199,18.066,45.410
1532403801.270,45.898,31.738,47.363,16.602,32.227
1532403801.274,28.809,33.203,46.875,2.441,43.945
1532403801.277,5.371,32.715,48.828,9.766,26.855
1532403801.281,22.461,29.785,47.852,1.465,-1.953
1532403801.285,15.137,36.621,46.387,-8.301,36.621
1532403801.289,0.488,25.879,50.293,-2.930,67.871
1532403801.293,22.949,21.973,49.805,-9.766,27.344
1532403801.297,21.484,25.879,53.711,2.441,37.109
1532403801.301,21.973,41.504,49.316,17.090,76.660
1532403801.305,23.926,41.504,51.758,11.719,36.621
1532403801.309,17.090,33.203,54.688,0.977,36.621
1532403801.313,25.391,32.227,57.617,14.160,56.152
1532403801.316,55.664,20.996,62.500,20.996,22.461
1532403801.320,41.504,30.762,50.781,7.812,49.316
1532403801.324,34.668,45.898,42.969,-1.465,36.621
1532403801.328,47.852,42.969,44.922,-15.137,18.555
1532403801.332,17.090,35.156,47.363,-11.230,45.898
1532403801.336,20.996,28.320,57.617,28.809,37.109
1532403801.340,53.711,32.715,52.246,15.137,62.988
1532403801.344,54.199,34.180,49.316,2.441,35.645
1532403801.348,38.574,36.133,54.688,20.996,21.484
1532403801.352,32.227,31.738,53.711,1.465,62.012
1532403801.356,52.246,38.574,52.734,-7.324,51.270
1532403801.359,42.969,37.598,52.246,8.789,27.832
1532403801.363,28.809,34.180,46.387,-2.930,28.320
1532403801.367,30.762,29.785,51.270,1.465,40.039
1532403801.371,30.762,37.598,54.199,-22.461,33.203
1532403801.375,24.902,38.574,48.828,-23.438,30.273
1532403801.379,38.086,38.086,50.781,19.043,26.855
1532403801.383,29.297,40.527,47.852,-25.391,5.371
1532403801.387,32.715,36.621,44.434,-13.184,13.184
1532403801.391,43.945,33.203,44.434,14.160,41.016
1532403801.395,35.156,36.621,45.410,-2.930,47.852
1532403801.399,44.434,38.086,47.852,-3.906,42.480
1532403801.402,47.363,37.598,46.387,-20.020,36.133
1532403801.406,27.832,41.992,40.527,-67.383,41.504
1532403801.410,30.273,38.574,43.945,-15.137,32.227
1532403801.414,48.828,40.039,50.293,48.828,33.691
1532403801.418,25.879,39.062,50.781,29.785,41.992
1532403801.422,13.672,30.273,49.805,14.160,59.570
1532403801.426,29.297,31.738,48.828,7.324,40.039
1532403801.430,33.691,38.086,45.410,-1.465,12.207
1532403801.434,23.438,25.391,51.270,1.465,56.152
1532403801.438,11.230,21.973,56.152,-1.465,73.242
1532403801.441,6.348,42.480,43.945,-18.066,66.895
1532403801.445,18.555,37.598,45.898,2.930,67.383
1532403801.449,28.809,32.715,51.758,-0.977,51.270
1532403801.453,28.320,37.598,51.270,0.488,57.129
1532403801.457,29.297,25.879,49.316,5.859,57.129
1532403801.461,18.555,26.367,41.504,-16.113,65.430
1532403801.465,23.926,23.926,44.434,-4.395,62.500
1532403801.469,19.531,17.578,51.270,19.043,47.852
1532403801.473,16.602,32.715,43.457,12.695,74.707
1532403801.477,28.809,40.527,44.922,2.930,73.242
1532403801.481,10.254,39.062,46.387,-9.277,56.152
1532403801.484,17.578,32.715,43.457,-3.906,44.434
1532403801.488,16.113,24.414,45.898,9.277,47.363
1532403801.492,9.766,19.531,44.922,14.160,23.926
1532403801.496,24.414,43.457,34.668,-16.602,16.113
1532403801.500,-0.977,39.551,33.691,-18.066,63.965
1532403801.504,-6.836,26.855,38.086,2.930,56.641
1532403801.508,19.043,38.574,37.598,1.953,23.438
1532403801.512,20.020,41.992,38.086,7.812,45.410
1532403801.516,17.578,30.762,41.016,1.953,62.500
1532403801.520,28.809,22.949,45.898,2.441,82.520
1532403801.523,17.578,32.227,41.016,-7.812,83.008
1532403801.527,0.488,28.320,41.992,-7.812,31.250
1532403801.531,31.738,25.879,39.062,-2.441,18.066
1532403801.535,29.297,27.344,41.016,-13.184,47.852
1532403801.539,19.531,18.066,45.898,5.371,54.199
1532403801.543,27.832,22.461,41.016,12.207,12.695
1532403801.547,19.531,25.391,38.574,-10.742,4.883
1532403801.551,6.348,31.738,40.039,-4.883,16.602
1532403801.555,26.855,36.621,39.551,11.230,13.184
1532403801.559,39.062,32.227,34.668,-11.230,19.531
1532403801.563,31.738,32.227,40.039,-13.672,11.719
1532403801.566,-2.441,28.809,41.992,-4.883,-5.859
1532403801.570,-8.301,32.227,35.645,-18.066,10.254
1532403801.574,15.625,34.668,35.645,-8.301,23.926
1532403801.578,31.250,30.273,34.668,-10.742,24.902
1532403801.582,37.109,31.738,32.715,-23.438,8.301
1532403801.586,21.484,24.414,43.945,-6.836,6.836
1532403801.590,33.203,25.879,44.434,3.418,2.930
1532403801.594,35.156,29.297,36.621,7.812,24.414
1532403801.598,33.203,24.902,40.527,18.066,52.734
1532403801.602,36.621,32.715,38.574,1.465,35.645
1532403801.606,6.836,28.320,38.086,-23.438,18.066
1532403801.609,-4.395,12.207,43.945,-16.113,10.254
1532403801.613,21.973,29.297,42.480,-5.859,28.320
1532403801.617,42.969,46.875,40.527,-9.277,54.199
1532403801.621,41.504,32.227,41.016,6.836,37.598
1532403801.625,21.973,34.180,38.086,-2.930,11.230
1532403801.629,6.348,28.809,39.062,-18.555,39.551
1532403801.633,3.906,25.879,33.691,-28.809,56.152
1532403801.637,8.301,34.668,32.715,-20.020,47.363
1532403801.641,19.043,40.527,41.016,6.348,5.859
1532403801.645,13.672,41.016,38.574,-2.441,-13.184
1532403801.648,12.207,28.320,33.691,-17.090,13.672
1532403801.652,34.668,20.508,40.527,-1.465,21.484
1532403801.656,42.969,33.691,42.480,-1.465,6.348
1532403801.660,22.461,38.574,30.762,-40.039,10.254
1532403801.664,-4.883,35.156,28.320,-54.688,15.137
1532403801.668,2.930,24.902,43.945,-3.906,-4.883
1532403801.672,24.902,20.020,47.852,14.648,6.836
1532403801.676,32.715,35.645,35.645,-33.691,29.785
1532403801.680,20.996,41.504,34.668,-26.367,39.062
1532403801.684,25.879,25.391,45.410,20.020,35.645
1532403801.688,34.180,18.066,42.969,7.324,39.062
1532403801.691,36.621,28.809,41.992,1.465,53.223
1532403801.695,41.992,30.762,49.805,12.695,48.828
1532403801.699,22.949,37.109,43.457,-9.277,29.297
1532403801.703,33.691,32.715,42.480,-20.508,36.621
1532403801.707,33.691,29.297,41.992,-13.672,21.484
1532403801.711,32.715,33.203,42.969,6.836,-0.488
1532403801.715,46.387,37.109,40.039,-29.297,32.227
1532403801.719,29.297,21.973,39.551,-49.805,40.039
1532403801.723,37.598,21.973,41.016,-8.789,9.766
1532403801.727,48.828,34.668,41.016,-1.953,7.812
1532403801.731,42.969,26.367,48.828,14.160,21.973
1532403801.734,48.828,27.832,49.316,11.719,30.762
1532403801.738,53.223,26.855,44.922,-3.418,36.133
1532403801.742,20.020,23.926,45.898,-10.254,27.344
1532403801.746,5.371,27.344,44.434,-0.488,30.762
1532403801.750,61.035,40.039,38.086,3.906,22.949
1532403801.754,70.312,37.109,44.434,0.488,22.949
1532403801.758,48.828,21.973,45.410,0.000,23.926
1532403801.762,36.133,36.621,38.086,-23.438,16.602
1532403801.766,20.020,42.969,37.109,-40.039,18.555
1532403801.770,31.250,27.832,41.992,-5.371,19.531
1532403801.773,59.082,27.832,43.945,12.695,16.113
1532403801.777,44.434,32.715,40.039,-1.953,8.301
1532403801.781,15.625,17.090,41.992,-6.836,33.691
1532403801.785,27.832,12.207,42.969,2.930,55.664
1532403801.789,58.594,37.109,37.598,2.930,50.781
1532403801.793,43.457,33.203,36.133,-16.113,41.992
1532403801.797,18.555,26.367,39.551,-0.488,37.109
1532403801.801,1.953,31.738,38.574,-0.977,30.273
1532403801.805,8.789,35.156,37.109,-24.414,23.926
1532403801.809,34.180,25.879,41.016,-8.301,12.207
1532403801.813,14.160,13.184,41.992,3.418,21.484
1532403801.816,20.996,32.715,37.598,-17.578,49.805
1532403801.820,-4.883,31.250,40.527,-26.367,47.363
1532403801.824,0.000,20.508,40.039,-8.301,26.367
1532403801.828,58.105,30.273,41.016,-2.930,17.090
1532403801.832,47.363,36.133,38.086,-10.742,38.574
1532403801.836,4.395,31.738,30.273,-44.434,59.082
1532403801.840,6.348,25.391,30.762,-41.504,74.219
1532403801.844,46.875,25.391,39.062,-25.391,32.227
1532403801.848,38.086,22.461,41.992,-22.461,5.371
1532403801.852,4.883,10.254,42.969,-4.395,49.316
1532403801.856,-1.465,20.020,44.434,-22.461,49.805
1532403801.859,6.836,33.203,36.621,-37.598,44.434
1532403801.863,36.621,20.020,38.574,-26.855,33.203
1532403801.867,52.734,15.137,47.363,-12.207,29.297
1532403801.871,16.602,24.902,40.527,-27.344,63.965
1532403801.875,12.695,16.602,39.062,-29.785,53.711
1532403801.879,25.879,10.254,39.062,-24.414,49.805
1532403801.883,19.043,34.668,33.203,-41.016,45.898
1532403801.887,73.730,34.180,37.598,-21.484,22.949
1532403801.891,74.219,29.297,44.434,-0.977,5.859
1532403801.895,60.059,24.902,42.969,-13.184,23.438
1532403801.898,58.105,16.113,42.480,-3.418,35.156
1532403801.902,49.805,16.113,42.480,8.789,33.691
1532403801.906,35.156,19.531,41.504,3.906,-3.906
1532403801.910,50.781,25.391,41.016,-3.906,-25.391
1532403801.914,56.641,33.203,32.227,-13.184,27.832
1532403801.918,25.391,25.879,32.227,0.488,42.969
1532403801.922,31.738,19.531,41.016,0.000,29.297
1532403801.926,19.043,14.648,50.781,-21.973,27.344
1532403801.930,21.484,16.602,47.363,-13.672,48.828
1532403801.934,30.273,22.949,39.551,18.555,67.871
1532403801.938,22.949,12.207,43.457,15.137,24.902
1532403801.941,22.461,15.137,41.992,-1.465,5.371
1532403801.945,46.387,29.785,37.109,-11.230,17.578
1532403801.949,55.176,34.668,33.691,-12.695,22.461
1532403801.953,14.160,21.973,36.621,-15.137,40.527
1532403801.957,-2.441,16.113,37.109,-22.461,21.484
1532403801.961,28.809,23.926,38.086,-11.230,12.207
1532403801.965,31.250,23.438,41.504,-3.418,23.926
1532403801.969,36.133,18.555,45.410,-8.789,26.855
1532403801.973,34.668,11.230,48.828,-6.348,29.297
1532403801.977,11.719,11.230,44.434,-15.137,32.715
1532403801.981,32.715,23.438,39.062,-21.484,32.227
1532403801.984,29.785,23.926,37.598,-5.371,26.855
1532403801.988,33.691,13.672,41.504,5.859,21.973
1532403801.992,28.809,13.184,41.504,-0.488,43.945
1532403801.996,8.789,22.461,35.645,-12.695,58.594
1532403802.000,18.066,23.926,40.527,0.488,48.340
1532403802.004,29.297,27.344,41.016,-2.441,45.410
1532403802.008,29.785,25.879,37.109,-10.742,39.551
1532403802.012,22.949,17.578,39.551,-10.254,38.574
1532403802.016,22.461,27.344,39.062,-7.324,31.250
1532403802.020,36.621,18.555,43.945,13.672,33.691
1532403802.023,9.277,5.371,48.340,8.789,23.926
1532403802.027,-22.461,21.484,40.039,-8.301,5.859
1532403802.031,31.250,29.297,35.645,1.953,41.992
1532403802.035,62.500,34.180,32.227,6.348,70.312
1532403802.039,22.461,28.809,31.738,-10.742,53.223
1532403802.043,16.113,17.090,35.645,-10.742,22.461
1532403802.047,11.719,26.855,27.344,-20.020,20.020
1532403802.051,1.953,26.855,35.645,-10.742,46.387
1532403802.055,38.574,21.484,45.898,6.348,36.621
1532403802.059,34.180,19.531,41.504,-2.441,38.574
1532403802.063,11.719,15.137,41.016,-3.906,35.645
1532403802.066,7.324,23.438,34.668,-24.414,50.781
1532403802.070,14.648,34.180,34.180,-16.602,76.660
1532403802.074,30.273,25.391,40.039,7.324,51.758
1532403802.078,29.785,30.762,39.551,-0.488,41.016
1532403802.082,20.996,22.461,33.203,-23.438,22.461
1532403802.086,18.555,16.602,31.738,-13.184,8.301
1532403802.090,5.371,15.625,41.504,21.973,47.363
1532403802.094,-4.883,10.254,42.480,9.277,40.527
1532403802.098,5.371,19.043,34.180,-8.301,36.621
1532403802.102,31.250,31.738,30.273,-9.766,41.504
1532403802.106,45.410,30.762,30.762,-9.766,18.066
1532403802.109,14.648,17.578,36.621,-10.742,25.879
1532403802.113,5.371,27.344,34.180,-19.043,65.918
1532403802.117,8.789,29.785,31.738,-2.441,75.684
1532403802.121,9.277,23.926,38.086,6.836,49.316
1532403802.125,-5.859,16.602,41.016,-12.695,-12.207
1532403802.129,-15.625,20.996,40.039,-28.320,-11.719
1532403802.133,25.391,33.691,39.551,-8.789,16.113
1532403802.137,33.691,29.785,41.992,15.625,16.602
1532403802.141,28.809,25.391,41.992,9.277,27.344
1532403802.145,9.766,17.578,39.551,-1.465,14.160
1532403802.148,19.043,27.344,39.062,6.348,46.875
1532403802.152,23.438,27.832,40.039,-0.977,71.777
1532403802.156,4.395,21.973,40.039,-1.465,44.922
1532403802.160,-8.789,25.879,37.109,-0.977,21.973
1532403802.164,5.859,28.809,37.598,-17.090,31.250
1532403802.168,20.508,31.250,41.504,-20.508,46.875
1532403802.172,19.531,21.484,43.945,-3.418,20.996
1532403802.176,13.184,26.855,41.016,2.930,23.926
1532403802.180,-1.953,35.156,39.062,-6.836,49.805
1532403802.184,1.953,25.391,41.504,-6.836,14.160
1532403802.188,-2.441,20.020,36.133,-23.926,1.465
1532403802.191,12.207,16.113,38.086,-7.324,8.789
1532403802.195,13.184,17.090,43.457,16.602,24.414
1532403802.199,3.906,17.090,43.945,-1.953,52.246
1532403802.203,19.531,26.367,41.992,-6.836,57.617
1532403802.207,16.113,21.973,39.551,1.465,37.598
1532403802.211,13.672,20.508,39.551,6.348,26.855
1532403802.215,4.883,32.715,35.156,-1.953,30.273
1532403802.219,9.277,28.809,36.133,-8.789,24.902
1532403802.223,25.391,25.391,41.016,-1.465,13.672
1532403802.227,19.531,30.273,40.039,-8.789,-12.695
1532403802.230,27.832,27.344,40.527,-5.371,-1.953
1532403802.234,19.531,28.320,40.039,-7.324,29.785
1532403802.238,9.277,24.902,41.504,-13.672,44.922
1532403802.242,-11.230,20.996,39.551,-10.254,34.668
1532403802.246,8.301,27.344,36.621,-14.648,43.457
1532403802.250,31.738,29.297,40.527,-12.695,63.965
1532403802.254,8.789,35.156,40.527,-15.625,71.289
1532403802.258,17.090,33.691,41.504,-18.555,43.945
1532403802.262,18.555,20.508,47.852,0.488,27.344
1532403802.266,-1.953,36.133,42.480,-20.996,13.672
1532403802.270,-4.883,41.016,39.062,-21.973,18.066
1532403802.273,20.996,20.020,47.852,13.184,39.551
1532403802.277,27.344,22.949,45.410,2.441,24.414
1532403802.281,14.648,19.531,42.969,-1.953,34.180
1532403802.285,19.043,22.461,40.527,-22.461,44.922
1532403802.289,22.949,21.484,38.086,-26.367,55.176
1532403802.293,17.090,19.043,46.875,10.254,38.574
1532403802.297,16.113,27.344,45.898,5.859,30.762
1532403802.301,20.508,29.297,39.551,-8.789,30.273
1532403802.305,12.207,15.625,41.504,0.488,9.277
1532403802.309,16.602,11.719,40.039,-5.859,2.930
1532403802.313,30.273,20.020,44.922,-8.789,36.621
1532403802.316,18.066,18.066,45.898,2.930,36.133
1532403802.320,26.855,22.949,43.457,5.371,18.555
1532403802.324,23.438,22.949,47.363,-4.883,4.883
1532403802.328,2.930,21.973,42.969,-23.926,6.348
1532403802.332,13.672,29.785,40.527,-15.625,27.832
1532403802.336,-1.465,20.996,40.527,-12.207,34.180
1532403802.340,1.953,18.555,39.062,-20.508,37.598
1532403802.344,22.461,22.461,43.457,1.465,43.945
1532403802.348,23.438,26.367,42.969,-6.836,29.297
1532403802.352,3.418,36.621,39.551,-19.531,44.434
1532403802.355,11.719,32.715,43.457,0.488,51.758
1532403802.359,45.898,18.066,46.875,12.695,12.695
1532403802.363,23.438,25.391,46.875,-8.301,29.785
1532403802.367,-1.465,20.508,45.898,-21.484,55.664
1532403802.371,2.441,13.184,43.945,-3.418,43.457
1532403802.375,10.254,30.762,40.527,-7.812,38.574
1532403802.379,25.879,21.973,46.387,-12.207,40.527
1532403802.383,32.715,14.648,42.969,-10.742,46.387
1532403802.387,25.391,23.438,37.109,-13.184,46.387
1532403802.391,17.578,22.949,37.109,-11.719,41.016
1532403802.395,34.668,29.297,33.203,-24.902,44.434
1532403802.398,18.066,39.062,33.691,-25.879,41.992
1532403802.402,14.160,21.973,41.504,0.488,20.508
1532403802.406,40.039,20.508,41.504,-5.371,31.738
1532403802.410,52.734,28.320,40.039,-7.812,34.668
1532403802.414,24.902,28.809,36.621,-24.902,49.316
1532403802.418,21.484,10.742,41.992,-24.414,52.734
1532403802.422,25.879,19.043,41.992,-4.883,33.691
1532403802.426,15.137,45.898,37.109,-7.324,25.391
1532403802.430,29.297,30.273,46.875,9.277,18.066
1532403802.434,39.551,23.926,47.363,3.906,19.531
1532403802.438,41.992,29.297,43.945,-5.371,27.344
1532403802.441,26.367,32.715,37.598,-20.508,17.090
1532403802.445,24.902,22.949,37.109,-24.902,16.113
1532403802.449,39.551,26.367,41.016,-12.695,15.137
1532403802.453,52.246,30.762,41.016,-16.113,22.949
1532403802.457,51.758,24.414,40.527,-10.742,53.223
1532403802.461,53.223,23.926,40.039,-3.906,57.129
1532403802.465,58.105,30.762,40.527,-1.465,14.160
1532403802.469,66.406,30.762,38.086,-8.789,13.672
1532403802.473,58.594,30.762,36.133,-8.789,55.176
1532403802.477,43.945,26.367,38.086,-0.488,42.969
1532403802.480,33.691,26.367,42.480,8.301,31.250
1532403802.484,3.906,22.949,40.527,-19.531,20.508
1532403802.488,25.879,24.902,32.227,-38.086,16.602
1532403802.492,52.734,34.180,35.156,-8.301,16.113
1532403802.496,37.109,24.414,40.527,0.977,-4.395
1532403802.500,42.480,26.367,40.527,-8.789,19.043
1532403802.504,32.715,26.855,37.109,-20.508,42.969
1532403802.508,7.324,24.902,38.574,-20.996,10.254
1532403802.512,22.949,26.855,41.504,-4.883,13.672
1532403802.516,25.391,28.320,36.133,-15.625,38.574
1532403802.520,3.906,23.438,35.156,-26.855,31.738
1532403802.523,33.691,25.879,40.039,-0.488,46.875
1532403802.527,52.734,29.297,41.016,19.531,39.062
1532403802.531,35.156,30.762,34.668,10.742,32.227
1532403802.535,28.320,20.996,41.504,7.812,36.133
1532403802.539,41.016,20.996,46.387,15.137,22.461
1532403802.543,38.086,35.645,38.574,5.859,32.715
1532403802.547,33.203,31.250,39.551,1.465,18.066
1532403802.551,27.832,23.926,41.992,7.812,26.367
1532403802.555,1.465,22.461,43.457,-5.371,59.082
1532403802.559,23.438,8.789,49.805,-14.648,48.828
1532403802.563,26.855,15.137,43.457,-20.508,21.973
1532403802.566,-0.977,36.621,31.738,-29.785,21.484
1532403802.570,6.348,30.762,35.156,-36.621,50.293
1532403802.574,7.324,30.273,34.668,-28.320,53.711
1532403802.578,24.902,31.738,34.180,-13.184,43.945
1532403802.582,63.965,27.832,37.598,-11.230,41.992
1532403802.586,59.570,18.555,36.133,-12.695,31.250
1532403802.590,52.734,34.668,26.367,-37.109,16.113
1532403802.594,64.941,34.668,31.250,-32.227,27.344
1532403802.598,53.223,28.320,39.062,-21.484,34.180
1532403802.602,43.945,37.109,31.738,-27.344,43.457
1532403802.605,26.855,20.020,33.691,-19.531,12.695
1532403802.609,34.668,15.137,43.457,4.395,-0.977
1532403802.613,40.527,12.207,48.828,10.742,27.344
1532403802.617,23.926,12.207,49.805,4.395,38.086
1532403802.621,28.809,26.367,46.875,9.277,67.383
1532403802.625,22.949,21.484,49.805,25.879,46.387
1532403802.629,11.230,19.531,46.875,35.645,30.762
1532403802.633,0.000,16.113,46.387,16.602,57.129
1532403802.637,8.301,26.367,45.898,7.324,53.711
1532403802.641,36.621,35.156,40.527,3.906,24.902
1532403802.645,20.996,21.484,42.480,-11.719,-12.695
1532403802.648,15.137,18.555,40.039,-16.602,-9.277
1532403802.652,32.715,29.785,34.668,-5.859,40.039
1532403802.656,20.996,20.508,37.109,-8.789,54.688
1532403802.660,36.621,17.090,41.016,-15.137,35.645
1532403802.664,51.270,33.691,35.645,-11.719,11.719
1532403802.668,39.551,16.602,36.133,6.836,7.324
1532403802.672,18.066,12.695,32.715,-8.789,47.363
1532403802.676,22.461,28.809,29.297,-17.578,30.273
1532403802.680,51.758,27.344,43.945,13.184,40.527
1532403802.684,43.457,19.043,47.363,-1.465,55.664
1532403802.688,20.996,18.555,45.898,-16.602,-3.906
1532403802.691,6.348,10.254,49.316,-10.254,-2.930
1532403802.695,35.156,17.090,49.316,0.977,66.895
1532403802.699,51.270,33.691,46.875,15.137,74.707
1532403802.703,39.062,31.250,45.410,10.254,52.246
1532403802.707,11.230,25.879,42.480,-17.578,41.504
1532403802.711,21.973,29.785,37.598,-25.391,15.625
1532403802.715,34.180,31.738,40.527,-1.465,30.273
1532403802.719,12.695,9.766,45.410,-11.719,59.082
1532403802.723,34.180,13.184,48.340,-13.672,46.387
1532403802.727,54.688,41.992,41.992,-14.648,42.969
1532403802.730,17.578,27.344,40.039,-16.602,44.922
1532403802.734,8.789,18.555,41.504,1.953,23.926
1532403802.738,13.184,24.902,38.574,-1.465,48.828
1532403802.742,4.883,18.555,42.969,-16.602,58.105
1532403802.746,21.973,35.645,36.621,-31.738,15.625
1532403802.750,40.039,35.645,36.133,-14.648,28.809
1532403802.754,34.180,15.137,45.898,0.977,47.852
1532403802.758,23.438,20.508,42.480,-2.930,51.270
1532403802.762,29.785,22.461,43.457,8.301,44.922
1532403802.766,10.254,27.832,40.039,-4.883,31.738
1532403802.770,36.621,20.508,44.434,-2.930,32.715
1532403802.773,37.598,17.090,41.504,-7.812,31.738
1532403802.777,24.902,25.879,33.691,-18.555,6.836
1532403802.781,26.367,33.203,35.156,-8.789,15.137
1532403802.785,-7.812,34.668,36.133,-21.484,18.555
1532403802.789,-26.367,19.531,42.969,-24.414,19.043
1532403802.793,27.344,21.484,42.480,3.418,41.992
1532403802.797,56.641,31.250,35.645,-2.441,35.156
1532403802.801,31.250,27.832,32.227,-18.066,46.875
1532403802.805,4.395,23.438,32.715,-23.926,26.367
1532403802.809,-14.160,16.113,36.621,-25.391,6.348
1532403802.813,-5.371,17.090,35.645,-22.461,17.578
1532403802.816,2.930,25.391,34.668,-14.648,28.320
1532403802.820,9.766,16.113,40.527,-6.836,63.965
1532403802.824,14.160,15.137,42.480,-1.465,57.617
1532403802.828,-21.973,10.254,41.504,-8.789,18.066
1532403802.832,-19.043,17.090,33.203,-30.273,40.527
1532403802.836,42.480,36.133,30.762,-12.695,54.688
1532403802.840,57.617,31.250,41.016,8.301,49.316
1532403802.844,35.645,30.273,38.086,7.324,27.832
1532403802.848,0.000,20.020,38.574,9.277,6.836
1532403802.852,4.883,19.531,40.039,-8.789,39.062
1532403802.855,44.434,33.691,36.133,-3.418,53.223
1532403802.859,41.992,35.645,32.227,-1.465,56.152
1532403802.863,48.828,28.320,38.086,-11.719,51.270
1532403802.867,36.133,34.180,35.156,-14.648,34.668
1532403802.871,0.488,26.367,37.598,5.859,44.922
1532403802.875,30.762,22.461,43.457,22.949,42.969
1532403802.879,47.363,28.809,34.180,6.348,23.926
1532403802.883,38.574,26.855,33.691,-6.348,26.855
1532403802.887,23.926,21.973,38.086,-0.977,27.832
1532403802.891,32.227,23.438,38.574,7.812,36.133
1532403802.895,36.133,29.297,39.551,3.906,48.340
1532403802.898,19.531,24.414,35.645,-18.066,50.293
1532403802.902,10.254,34.668,26.367,-32.715,48.828
1532403802.906,-0.977,30.762,29.297,-36.621,29.785
1532403802.910,22.461,18.555,32.715,-23.438,17.578
1532403802.914,43.457,13.184,39.551,1.465,35.156
1532403802.918,36.133,10.742,40.527,2.441,62.988
1532403802.922,22.949,21.484,41.992,22.461,64.453
1532403802.926,39.551,32.715,41.992,5.859,15.625
1532403802.930,45.410,29.297,41.016,-7.812,18.555
1532403802.934,28.320,33.691,36.621,-7.812,38.574
1532403802.937,22.949,31.250,27.832,-35.645,34.180
1532403802.941,13.184,16.113,27.344,-44.434,52.246
1532403802.945,9.277,14.648,29.297,-14.160,31.738
1532403802.949,45.898,21.484,32.227,8.789,23.926
1532403802.953,52.734,36.133,29.297,-19.043,38.086
1532403802.957,62.012,32.715,30.273,-24.414,48.828
1532403802.961,34.668,22.949,32.715,5.371,54.688
1532403802.965,19.531,35.156,29.297,-8.789,37.109
1532403802.969,36.621,26.855,30.273,-31.250,29.785
1532403802.973,50.781,14.648,38.086,-6.348,21.973
1532403802.977,53.223,26.367,37.109,0.977,26.855
1532403802.980,49.316,16.602,40.527,-11.230,45.898
1532403802.984,40.039,24.902,40.039,-12.695,41.504
1532403802.988,18.555,33.203,33.691,-19.531,44.922
1532403802.992,39.551,22.461,35.156,-20.508,38.086
1532403802.996,79.590,26.367,33.203,-0.977,51.758
1532403803.000,58.105,27.344,35.645,12.207,36.621
1532403803.004,8.301,31.738,32.227,0.488,28.809
1532403803.008,34.668,30.762,33.203,-10.254,43.945
1532403803.012,57.129,25.879,38.574,-22.461,29.785
1532403803.016,38.574,19.531,38.086,-10.742,18.555
1532403803.020,41.016,31.738,31.250,17.090,5.371
1532403803.023,34.668,39.062,31.738,9.277,5.371
1532403803.027,40.527,29.785,38.086,0.977,2.930
1532403803.031,47.363,27.832,39.062,13.184,17.578
1532403803.035,35.645,24.902,36.621,-3.418,35.645
1532403803.039,16.602,31.250,33.203,4.395,38.574
1532403803.043,29.297,37.109,35.645,15.625,34.668
1532403803.047,3.418,28.809,40.527,1.465,29.297
1532403803.051,-16.113,24.414,40.039,-4.395,75.684
1532403803.055,36.133,33.691,31.738,-25.391,53.223
1532403803.059,5.859,27.832,35.156,-26.367,39.551
1532403803.062,9.766,18.066,41.016,6.348,37.109
1532403803.066,13.672,31.250,32.227,-5.371,1.465
1532403803.070,28.809,33.691,29.297,-2.441,20.996
1532403803.074,5.371,28.809,29.785,3.906,33.691
1532403803.078,20.996,30.762,21.484,1.953,58.105
1532403803.082,104.004,36.621,21.973,20.996,69.824
1532403803.086,75.684,28.320,39.062,12.207,79.102
1532403803.090,58.105,29.785,40.527,-9.766,95.215
1532403803.094,22.461,32.715,32.715,0.488,54.199
1532403803.098,-49.805,25.879,30.762,-21.484,54.688
1532403803.102,-32.715,19.531,38.574,-22.949,41.504
1532403803.105,38.086,7.324,47.852,29.785,26.367
1532403803.109,50.781,10.254,47.852,22.949,41.992
1532403803.113,25.391,-5.859,46.875,22.949,20.508
1532403803.117,26.855,-4.395,42.969,8.789,32.715
1532403803.121,33.691,10.742,43.945,-0.977,61.035
1532403803.125,0.488,-2.441,45.410,19.043,24.902
1532403803.129,15.625,-10.742,43.945,13.184,10.254
1532403803.133,62.500,-8.301,48.340,-8.301,20.020
1532403803.137,76.660,-0.488,55.176,4.883,40.527
1532403803.141,97.168,-9.766,61.035,19.531,33.691
1532403803.145,98.145,-23.438,61.523,4.395,2.441
1532403803.148,61.523,-17.090,57.129,-6.348,7.812
1532403803.152,54.688,-25.391,59.082,-11.230,20.996
1532403803.156,89.844,-33.203,61.035,11.719,51.270
1532403803.160,113.770,-12.207,58.105,12.207,50.781
1532403803.164,117.676,-19.531,59.082,22.949,15.137
1532403803.168,90.820,-15.625,52.246,9.766,1.953
1532403803.172,107.422,-14.648,52.734,7.324,11.719
1532403803.176,112.793,-36.621,68.848,56.641,-3.418
1532403803.180,109.375,-28.809,63.965,35.645,3.906
1532403803.184,130.371,-21.484,60.059,46.387,12.207
1532403803.187,89.355,-43.457,73.730,67.871,8.301
1532403803.191,83.984,-38.574,73.242,68.848,7.324
1532403803.195,106.445,-50.293,73.242,64.453,18.555
1532403803.199,92.285,-35.156,69.336,32.715,38.574
1532403803.203,81.543,-14.160,64.453,55.176,18.555
1532403803.207,87.402,-24.902,67.383,84.961,1.953
1532403803.211,93.262,-28.320,69.336,86.914,11.719
1532403803.215,100.098,-31.738,71.289,78.613,24.414
1532403803.219,84.473,-24.902,71.289,80.078,52.246
1532403803.223,50.293,-36.133,69.824,76.172,49.805
1532403803.227,57.129,-36.133,71.777,63.477,23.438
1532403803.230,90.820,-19.043,66.895,50.781,14.160
1532403803.234,76.660,-15.137,57.617,33.203,37.598
1532403803.238,53.711,-24.414,56.152,53.223,64.453
1532403803.242,72.754,-24.414,56.152,61.035,10.742
1532403803.246,60.059,-22.461,55.176,27.344,-15.137
1532403803.250,45.898,-12.695,61.035,57.129,24.414
1532403803.254,74.707,-12.695,63.965,76.660,32.715
1532403803.258,63.477,-24.902,59.082,48.340,33.203
1532403803.262,33.203,-32.715,61.035,40.039,45.898
1532403803.266,36.621,-19.043,51.758,33.203,50.293
1532403803.270,55.664,-0.977,48.340,32.715,46.875
1532403803.273,72.266,-5.859,57.617,42.480,44.922
1532403803.277,69.824,-3.418,50.293,17.090,38.086
1532403803.281,51.270,-6.348,46.387,6.836,22.461
1532403803.285,34.180,-14.648,50.293,22.461,2.441
1532403803.289,44.922,4.883,43.945,0.977,21.484
1532403803.293,72.266,6.836,43.457,20.996,32.227
1532403803.297,76.660,0.977,41.992,16.602,36.133
1532403803.301,54.199,10.254,41.016,-5.859,31.738
1532403803.305,55.176,-6.348,45.410,17.090,11.719
1532403803.309,61.523,-8.301,40.039,13.672,5.859
1532403803.312,49.316,9.277,35.156,11.719,24.414
1532403803.316,46.387,2.930,46.387,25.879,36.621
1532403803.320,22.461,3.418,45.898,15.625,35.156
1532403803.324,12.207,7.324,43.457,11.230,31.738
1532403803.328,3.418,0.977,47.363,1.953,11.719
1532403803.332,4.395,-2.441,41.992,1.465,25.391
1532403803.336,22.461,-7.324,43.457,23.438,37.598
1532403803.340,19.531,-5.371,38.574,25.391,36.621
1532403803.344,0.488,12.695,30.273,6.836,15.137
1532403803.348,8.789,10.742,29.785,7.812,-21.973
1532403803.352,22.461,11.719,26.367,-9.766,12.207
1532403803.355,16.602,5.371,32.227,-5.859,28.320
1532403803.359,24.902,-0.488,37.109,8.301,27.344
1532403803.363,-9.277,19.043,25.879,-33.203,40.039
1532403803.367,-17.578,13.184,26.367,-21.484,20.508
1532403803.371,26.855,13.672,32.227,13.184,28.320
1532403803.375,47.363,23.926,31.738,17.090,32.715
1532403803.379,31.250,15.625,30.762,4.883,31.738
1532403803.383,-43.457,12.207,34.668,-19.531,36.133
1532403803.387,0.488,15.137,32.715,-14.160,13.672
1532403803.391,58.594,10.742,33.203,9.766,-10.254
1532403803.395,25.879,14.648,33.691,0.977,8.301
1532403803.398,30.762,25.879,27.344,-4.883,25.391
1532403803.402,6.836,7.324,30.273,8.789,27.832
1532403803.406,38.574,9.277,32.715,7.324,-5.859
1532403803.410,13.672,-2.441,33.203,-2.930,-10.254
1532403803.414,-59.082,-24.902,28.809,-1.953,33.691
1532403803.418,9.766,15.137,25.879,-6.348,32.227
1532403803.422,58.594,37.598,21.484,-13.672,21.973
1532403803.426,48.340,26.367,20.996,1.465,29.785
1532403803.430,32.227,14.160,24.414,-0.977,41.504
1532403803.434,-9.277,13.672,22.949,-20.508,37.109
1532403803.437,-30.273,11.230,26.855,-8.789,50.781
1532403803.441,16.113,6.348,29.297,5.859,45.898
1532403803.445,36.133,26.855,19.531,-12.695,19.531
1532403803.449,33.203,26.855,14.648,-26.367,25.391
1532403803.453,29.297,17.090,20.020,-4.883,49.316
1532403803.457,30.762,12.695,27.344,-1.465,38.086
1532403803.461,32.715,9.277,27.832,-18.555,35.645
1532403803.465,38.574,22.461,17.578,-27.832,43.945
1532403803.469,39.062,22.461,17.578,-12.207,50.293
1532403803.473,35.645,15.137,24.414,-1.953,67.871
1532403803.477,37.109,15.625,24.902,-15.137,35.156
1532403803.480,18.066,4.395,31.738,21.484,13.672
1532403803.484,35.156,-5.371,38.574,53.223,45.898
1532403803.488,42.480,23.926,24.414,-10.742,55.176
1532403803.492,15.137,26.855,19.043,-36.621,32.715
1532403803.496,34.180,26.855,20.996,-24.414,43.457
1532403803.500,25.391,54.199,9.766,-51.270,61.523
1532403803.504,-38.574,53.223,4.883,-76.660,32.715
1532403803.508,-44.922,39.551,5.859,-92.285,29.297
1532403803.512,-11.230,51.270,-2.441,-105.469,58.105
1532403803.516,-10.254,42.969,0.977,-106.934,41.992
1532403803.520,-14.648,51.270,-0.488,-99.121,29.297
1532403803.523,-5.371,62.012,-8.789,-99.609,48.828
1532403803.527,-8.789,58.594,-9.766,-98.145,34.180
1532403803.531,-44.922,63.477,-10.254,-109.863,32.715
1532403803.535,-47.363,64.941,-12.695,-128.418,55.176
1532403803.539,-4.395,78.125,-18.066,-132.812,50.781
1532403803.543,-27.832,83.008,-25.879,-156.250,56.152
1532403803.547,-84.961,68.359,-24.414,-151.855,25.879
1532403803.551,-57.129,63.965,-21.973,-123.047,38.086
1532403803.555,-2.441,77.637,-25.391,-121.582,41.016
1532403803.559,-3.906,77.148,-26.367,-132.324,10.254
1532403803.562,-57.129,83.496,-33.203,-156.738,5.859
1532403803.566,-49.805,90.820,-35.645,-164.062,-2.930
1532403803.570,2.441,75.684,-26.855,-128.906,27.344
1532403803.574,-0.488,70.801,-25.391,-99.121,31.738
1532403803.578,0.488,73.242,-19.531,-88.867,8.301
1532403803.582,2.441,64.453,-16.602,-80.566,10.254
1532403803.586,-17.578,59.082,-19.043,-91.309,19.043
1532403803.590,-90.820,40.527,-18.555,-118.652,18.555
1532403803.594,-57.617,46.875,-20.508,-118.164,19.531
1532403803.598,36.621,67.871,-16.113,-84.473,39.062
1532403803.602,40.039,48.340,-5.371,-51.270,50.781
1532403803.605,33.691,44.922,-5.371,-50.293,17.090
1532403803.609,20.996,45.898,-4.395,-42.480,5.371
1532403803.613,19.531,39.062,-2.930,-39.062,22.461
1532403803.617,28.320,44.922,-1.953,-39.551,24.414
1532403803.621,10.742,49.805,0.488,-30.762,25.391
1532403803.625,20.020,43.457,-1.953,-39.062,11.230
1532403803.629,38.086,44.434,-6.348,-52.246,-4.883
1532403803.633,0.000,45.410,-1.465,-50.781,24.414
1532403803.637,-8.301,29.785,5.859,-46.875,43.457
1532403803.641,-4.395,30.273,3.906,-50.781,28.809
1532403803.644,-18.555,57.617,-7.324,-79.590,18.555
1532403803.648,7.324,46.875,-0.488,-79.590,22.461
1532403803.652,20.508,30.762,8.301,-42.969,30.762
1532403803.656,18.555,32.227,10.254,-4.883,26.367
1532403803.660,-2.930,34.668,7.324,-22.461,26.855
1532403803.664,3.418,33.691,4.883,-39.062,30.762
1532403803.668,36.621,35.645,12.207,-12.695,51.758
1532403803.672,30.273,40.039,11.230,-11.719,55.664
1532403803.676,25.391,27.344,8.301,-31.738,37.598
1532403803.680,33.691,32.715,4.883,-45.410,41.504
1532403803.684,27.344,32.227,14.648,-13.184,26.367
1532403803.687,21.484,32.715,18.066,-27.832,8.789
1532403803.691,5.859,32.227,17.578,-29.785,0.977
1532403803.695,20.020,26.855,22.461,-4.883,15.137
1532403803.699,51.758,30.762,20.020,-5.859,26.855
1532403803.703,63.965,23.438,30.762,6.836,44.922
1532403803.707,65.918,29.297,25.391,-7.324,38.574
1532403803.711,37.598,37.598,14.160,-20.996,23.438
1532403803.715,50.781,43.945,15.137,-25.391,22.949
1532403803.719,39.062,42.480,15.625,-28.320,29.785
1532403803.723,29.785,35.645,17.090,-19.531,25.879
1532403803.727,53.223,38.574,14.160,-20.508,12.695
1532403803.730,35.645,42.969,8.301,-41.504,21.484
1532403803.734,23.438,43.945,4.883,-54.199,31.250
1532403803.738,29.785,38.574,8.789,-30.762,30.273
1532403803.742,35.156,46.387,10.254,-17.578,18.066
1532403803.746,22.949,42.969,12.695,-16.602,33.203
1532403803.750,30.762,34.668,17.578,-15.137,57.129
1532403803.754,27.832,61.035,13.184,-32.227,53.223
1532403803.758,-7.812,30.762,19.531,-24.902,30.762
1532403803.762,32.715,22.461,18.066,-10.742,40.039
1532403803.766,74.707,55.664,12.695,-15.625,11.230
1532403803.769,47.363,41.016,21.484,-10.254,-2.930
1532403803.773,17.090,32.715,22.949,-7.324,35.156
1532403803.777,13.672,24.902,22.949,-22.949,34.180
1532403803.781,22.461,21.973,25.879,-22.461,43.457
1532403803.785,20.020,41.016,24.902,-11.719,71.289
1532403803.789,14.648,35.645,27.344,-24.414,61.523
1532403803.793,41.016,27.832,25.879,-27.832,27.832
1532403803.797,57.617,40.039,22.461,-24.414,21.484
1532403803.801,40.527,39.062,20.996,-24.414,36.133
1532403803.805,8.301,18.066,21.484,-11.230,42.969
1532403803.809,21.973,17.578,24.902,-3.906,32.227
1532403803.812,26.855,38.086,22.461,-16.113,15.625
1532403803.816,23.926,37.598,26.855,-5.371,36.621
1532403803.820,60.059,37.598,23.926,3.418,59.570
1532403803.824,67.383,33.691,26.367,3.418,26.855
1532403803.828,48.828,24.902,28.809,-6.836,22.461
1532403803.832,41.992,21.484,32.227,3.418,56.641
1532403803.836,35.645,32.715,33.203,10.254,51.270
1532403803.840,46.387,36.621,28.809,-5.859,50.293
1532403803.844,39.062,31.250,31.738,-3.418,54.688
1532403803.848,16.602,25.879,31.738,-15.137,45.898
1532403803.852,14.648,22.949,26.367,-20.020,47.363
1532403803.855,23.438,26.855,28.809,-6.348,55.664
1532403803.859,17.578,32.227,32.227,-14.160,37.109
1532403803.863,-1.953,31.738,30.762,-21.484,13.672
1532403803.867,23.438,23.438,35.645,-16.602,-2.930
1532403803.871,53.223,32.227,32.227,-25.391,4.883
1532403803.875,44.434,34.180,24.902,-26.855,51.270
1532403803.879,28.809,20.996,31.250,-5.371,39.551
1532403803.883,22.949,19.043,27.344,-19.043,28.809
1532403803.887,16.602,28.320,17.578,-48.340,75.195
1532403803.891,13.672,20.020,20.508,-35.645,65.430
1532403803.894,45.410,27.344,22.461,-10.742,60.059
1532403803.898,57.129,32.227,26.367,-4.883,41.504
1532403803.902,40.527,20.996,24.414,-20.508,29.785
1532403803.906,21.484,29.297,22.949,-21.484,30.762
1532403803.910,10.254,42.480,26.367,-16.113,40.039
1532403803.914,38.574,30.273,28.809,-19.531,55.176
1532403803.918,47.852,20.020,28.320,-14.160,38.574
1532403803.922,14.160,15.137,33.691,1.465,50.781
1532403803.926,17.578,36.621,26.367,-13.672,35.645
1532403803.930,13.672,37.598,17.578,-53.711,26.367
1532403803.934,8.301,28.320,17.578,-54.688,41.504
1532403803.937,21.484,18.555,32.227,-11.230,40.039
1532403803.941,11.230,11.230,41.016,-2.930,51.758
1532403803.945,33.203,31.738,26.855,-24.902,61.523
1532403803.949,36.133,25.879,22.461,-15.625,59.570
1532403803.953,48.340,23.438,26.855,-2.930,46.875
1532403803.957,41.016,24.902,30.762,-5.371,40.039
1532403803.961,7.812,9.277,39.551,-9.766,51.270
1532403803.965,39.062,29.785,36.621,-22.461,48.828
1532403803.969,60.059,41.992,33.691,-36.133,42.969
1532403803.973,42.969,27.344,34.668,-30.762,53.711
1532403803.977,30.762,37.109,28.320,-23.926,41.016
1532403803.980,52.734,32.227,29.785,-20.508,48.340
1532403803.984,32.227,27.832,27.832,-34.668,41.016
1532403803.988,18.066,28.809,30.762,-28.809,34.668
1532403803.992,49.316,36.133,34.180,-29.297,49.316
1532403803.996,60.059,41.504,26.367,-41.016,46.875
1532403804.000,52.246,28.809,25.879,-25.879,41.016
1532403804.004,11.230,3.906,36.621,-9.766,41.016
1532403804.008,-13.184,6.836,38.086,-13.184,13.672
1532403804.012,0.000,22.461,27.832,-30.273,4.883
1532403804.016,21.484,36.133,24.902,-25.879,50.781
1532403804.019,25.879,37.109,32.715,-30.762,72.266
1532403804.023,-5.371,27.344,32.227,-42.969,58.594
1532403804.027,-38.086,13.184,28.809,-33.203,22.949
1532403804.031,-36.133,15.625,31.250,-31.738,35.645
1532403804.035,7.324,25.391,32.715,-40.039,55.176
1532403804.039,50.781,31.250,32.715,-12.695,40.039
1532403804.043,62.988,29.297,41.016,17.090,52.246
1532403804.047,39.551,34.180,34.668,-21.973,17.090
1532403804.051,-13.184,47.363,15.625,-60.059,17.578
1532403804.055,6.836,29.785,26.367,-34.180,73.730
1532403804.059,57.617,16.602,37.109,-7.812,69.824
1532403804.062,59.082,22.949,31.738,-4.883,42.969
1532403804.066,45.410,23.438,31.250,-20.508,10.254
1532403804.070,27.832,24.902,24.414,-37.109,13.184
1532403804.074,-11.719,11.719,35.156,-23.926,23.438
1532403804.078,30.762,26.855,33.203,-21.973,-3.418
1532403804.082,69.336,37.109,23.926,-38.086,34.668
1532403804.086,48.340,22.461,24.902,-44.922,59.082
1532403804.090,6.836,5.859,28.809,-25.391,20.996
1532403804.094,13.184,15.625,32.227,-25.879,10.742
1532403804.098,30.762,33.691,25.879,-45.410,17.090
1532403804.102,36.133,25.391,25.879,-34.180,59.570
1532403804.105,83.008,29.785,31.738,-14.648,30.762
1532403804.109,71.777,36.621,28.809,-22.949,-18.555
1532403804.113,38.574,29.297,24.902,-22.461,24.902
1532403804.117,47.852,21.484,27.832,-11.230,37.109
1532403804.121,50.781,25.391,28.809,-12.207,64.453
1532403804.125,45.898,28.320,30.762,-3.906,61.035
1532403804.129,45.410,27.344,30.762,-0.977,27.832
1532403804.133,25.391,27.832,28.320,-16.113,25.879
1532403804.137,17.090,31.738,25.391,-25.391,38.086
1532403804.141,27.344,30.273,27.344,-11.230,56.152
1532403804.144,21.484,35.645,29.297,-9.277,33.691
1532403804.148,18.555,29.297,29.297,-23.438,12.695
1532403804.152,5.859,35.645,23.438,-39.062,50.293
1532403804.156,16.602,29.785,26.855,-33.691,62.988
1532403804.160,64.453,29.785,33.203,-30.273,44.922
1532403804.164,64.941,39.551,31.250,-47.363,53.223
1532403804.168,42.969,25.879,31.250,-37.598,65.430
1532403804.172,20.996,27.832,30.273,-39.062,54.688
1532403804.176,3.906,32.227,19.531,-54.688,51.270
1532403804.180,18.555,36.621,16.113,-42.480,40.527
1532403804.184,43.457,38.574,28.320,-3.418,31.250
1532403804.187,41.016,29.297,35.645,0.000,44.922
1532403804.191,28.320,38.574,29.297,-19.531,60.547
1532403804.195,21.484,19.531,29.785,-15.137,39.551
1532403804.199,0.000,13.184,27.832,-6.836,35.156
1532403804.203,17.578,34.668,24.414,-6.348,49.805
1532403804.207,43.945,32.227,29.785,-5.859,24.414
1532403804.211,28.809,30.762,36.133,5.371,11.719
1532403804.215,18.555,23.438,41.016,-4.395,26.855
1532403804.219,6.348,31.250,34.180,-21.973,47.363
1532403804.223,49.316,38.086,34.180,-3.418,42.480
1532403804.227,83.008,28.320,41.992,12.695,28.320
1532403804.230,80.566,30.762,41.016,7.324,28.809
1532403804.234,59.570,31.250,35.156,-12.207,20.020
1532403804.238,20.020,27.832,34.180,-15.137,21.973
1532403804.242,22.461,27.832,34.668,-18.555,40.527
1532403804.246,68.359,21.973,32.227,-8.789,32.227
1532403804.250,91.309,35.645,31.738,6.836,37.109
1532403804.254,79.590,48.340,32.715,3.418,48.828
1532403804.258,50.781,36.133,37.109,1.953,53.711
1532403804.262,40.527,23.438,38.574,-0.488,63.965
1532403804.266,33.691,35.156,36.621,-14.648,32.227
1532403804.269,3.906,41.504,32.715,-36.621,4.883
1532403804.273,35.156,35.645,32.227,-14.160,36.133
1532403804.277,41.504,34.668,38.086,-1.953,30.762
1532403804.281,23.926,22.949,41.504,-4.883,27.344
1532403804.285,32.227,30.273,36.133,1.465,25.879
1532403804.289,37.598,45.410,30.762,-0.977,16.602
1532403804.293,19.531,42.480,30.762,-0.977,41.504
1532403804.297,0.977,32.227,33.691,8.789,56.152
1532403804.301,21.484,32.715,39.062,10.254,68.848
1532403804.305,15.137,30.273,41.992,6.348,75.195
1532403804.309,7.324,29.785,33.203,-14.160,71.777
1532403804.312,21.484,33.691,31.738,-23.438,62.500
1532403804.316,17.090,28.809,37.598,7.324,52.246
1532403804.320,16.602,23.926,41.504,10.254,73.242
1532403804.324,17.578,22.949,40.039,1.953,66.895
1532403804.328,19.531,23.926,41.504,12.207,36.133
1532403804.332,22.461,35.645,36.133,5.859,36.133
1532403804.336,8.789,40.527,28.809,-20.996,25.391
1532403804.340,12.695,36.133,27.344,-19.043,52.246
1532403804.344,23.438,28.809,27.344,3.418,40.039
1532403804.348,16.113,29.297,31.738,-10.254,1.465
1532403804.351,-2.441,16.602,39.551,3.906,22.461
1532403804.355,22.949,26.855,30.762,10.742,22.461
1532403804.359,44.922,37.598,29.297,1.953,41.992
1532403804.363,23.926,28.320,38.574,14.160,25.879
1532403804.367,20.020,22.949,36.133,3.906,10.254
1532403804.371,20.508,25.879,35.645,-9.766,28.320
1532403804.375,-1.465,30.762,30.762,-15.625,29.785
1532403804.379,13.184,28.320,28.320,-30.762,32.715
1532403804.383,1.953,25.879,36.621,-21.484,32.715
1532403804.387,-6.836,20.996,38.574,-6.348,1.465
1532403804.391,12.207,15.625,37.109,-0.488,2.441
1532403804.394,21.973,17.090,37.598,11.719,15.625
1532403804.398,44.922,39.062,28.809,-5.859,18.555
1532403804.402,34.180,33.203,31.738,-0.488,33.203
1532403804.406,20.020,29.785,40.039,23.438,32.227
1532403804.410,21.484,28.809,43.457,23.438,55.176
1532403804.414,-10.742,26.855,34.668,-11.230,66.406
1532403804.418,-13.184,34.180,24.902,-33.691,40.527
1532403804.422,18.066,19.043,35.645,9.277,39.062
1532403804.426,16.113,23.438,41.992,17.090,20.020
1532403804.430,4.395,12.207,40.527,17.578,-6.348
1532403804.434,37.598,17.090,35.156,25.391,49.805
1532403804.437,61.523,42.480,33.691,13.184,79.102
1532403804.441,43.945,31.738,38.574,-13.672,56.152
1532403804.445,27.832,30.273,36.133,-22.461,30.762
1532403804.449,8.789,31.250,33.691,3.906,35.645
1532403804.453,14.648,27.832,34.180,7.324,41.992
1532403804.457,20.508,9.277,43.457,4.883,45.898
1532403804.461,2.441,20.996,36.621,-22.949,56.152
1532403804.465,-7.812,44.434,28.320,-23.926,27.832
1532403804.469,26.855,17.090,44.922,4.395,19.043
1532403804.473,35.645,19.043,43.457,-1.465,44.922
1532403804.476,5.859,30.273,36.133,-9.766,47.852
1532403804.480,-19.043,9.277,41.504,-3.906,32.227
1532403804.484,6.836,21.973,45.410,2.441,33.203
1532403804.488,11.230,24.902,47.363,1.465,34.668
1532403804.492,12.207,19.531,47.363,14.648,35.156
1532403804.496,33.691,41.016,37.109,-7.324,48.340
1532403804.500,37.109,34.180,37.598,-11.719,47.852
1532403804.504,40.039,26.855,44.434,-6.836,45.410
1532403804.508,7.812,20.996,38.086,-12.207,38.086
1532403804.512,-11.230,23.438,36.621,9.277,22.461
1532403804.516,-14.160,23.438,41.992,4.395,46.875
1532403804.519,6.348,35.645,34.668,-4.395,61.035
1532403804.523,28.320,31.250,29.785,-20.996,13.672
1532403804.527,44.434,24.414,32.715,-19.043,-15.625
1532403804.531,43.457,38.574,31.250,-7.324,17.090
1532403804.535,44.922,45.410,34.180,-2.930,43.457
1532403804.539,54.199,40.527,41.992,5.859,47.363
1532403804.543,-4.395,26.367,40.527,-30.273,18.555
1532403804.547,-21.973,24.414,34.668,-42.969,14.160
1532403804.551,36.621,37.598,32.715,-0.977,46.875
1532403804.555,46.387,33.691,34.668,18.066,38.086
1532403804.559,35.645,20.508,41.992,31.738,0.977
1532403804.562,46.875,26.855,44.922,22.949,2.441
1532403804.566,36.133,24.414,41.504,12.695,-4.395
1532403804.570,30.762,15.137,41.992,-4.883,-8.789
1532403804.574,19.531,23.438,38.574,-23.438,1.953
1532403804.578,8.789,38.086,36.133,-10.742,11.719
1532403804.582,7.324,21.484,42.480,-1.465,10.742
1532403804.586,11.230,33.203,40.039,-17.090,-14.160
1532403804.590,-13.184,40.527,38.574,-30.273,-13.672
1532403804.594,2.930,13.184,45.898,-6.348,17.090
1532403804.598,43.457,15.625,46.387,15.137,20.996
1532403804.601,55.664,22.949,39.551,8.301,38.574
1532403804.605,44.434,28.809,39.062,-0.488,47.852
1532403804.609,20.020,42.969,33.691,-8.789,15.137
1532403804.613,27.832,25.391,34.668,-13.672,7.324
1532403804.617,38.574,28.320,35.156,-27.344,25.879
1532403804.621,41.992,39.551,36.133,-9.766,31.738
1532403804.625,40.527,19.043,39.062,2.441,18.066
1532403804.629,16.113,30.762,37.598,-15.625,-2.930
1532403804.633,34.668,37.598,38.086,-1.953,14.648
1532403804.637,34.180,41.016,34.180,2.441,27.344
1532403804.641,14.160,39.062,34.180,-7.812,42.969
1532403804.644,42.969,18.066,47.363,13.672,47.852
1532403804.648,23.438,19.043,59.570,14.648,36.621
1532403804.652,15.625,28.809,46.875,-5.371,46.387
1532403804.656,58.105,42.969,28.320,-8.301,34.668
1532403804.660,29.785,32.715,33.203,-14.648,15.137
1532403804.664,3.906,23.926,42.969,-11.230,19.531
1532403804.668,39.551,26.367,42.969,-3.906,3.906
1532403804.672,66.895,46.875,34.180,-23.438,16.602
1532403804.676,52.734,39.062,41.016,-1.953,41.504
1532403804.680,58.105,31.250,48.828,17.090,36.133
1532403804.684,62.500,38.574,46.387,10.742,51.758
1532403804.687,33.691,36.133,42.480,9.766,49.316
1532403804.691,53.711,39.062,40.527,7.812,43.945
1532403804.695,53.223,44.922,41.992,3.906,58.594
1532403804.699,18.066,37.109,36.621,-13.184,68.848
1532403804.703,-5.371,22.461,41.992,2.441,58.594
1532403804.707,-14.648,27.832,44.434,-13.184,31.738
1532403804.711,18.066,33.691,44.434,-5.859,25.879
1532403804.715,27.832,22.949,48.828,23.926,74.219
1532403804.719,45.410,27.832,46.387,2.930,84.473
1532403804.723,36.133,33.203,44.922,-0.977,57.129
1532403804.726,24.414,39.062,38.574,17.090,36.621
1532403804.730,49.805,43.945,41.016,15.625,41.016
1532403804.734,49.316,38.574,42.969,18.555,79.590
1532403804.738,41.504,33.203,43.945,22.461,67.383
1532403804.742,37.109,31.250,36.133,-5.371,53.223
1532403804.746,-4.395,26.367,34.668,-5.371,49.805
1532403804.750,-11.719,27.832,45.410,0.488,36.621
1532403804.754,39.551,31.738,43.457,-4.883,59.570
1532403804.758,30.762,27.344,38.086,5.371,40.039
1532403804.762,48.828,31.738,34.668,-4.395,27.832
1532403804.766,48.340,30.762,34.180,-8.301,30.762
1532403804.769,52.734,41.016,40.039,-12.695,28.809
1532403804.773,44.922,31.250,45.410,-5.859,49.805
1532403804.777,3.418,19.043,37.598,-13.184,43.945
1532403804.781,17.090,36.621,34.668,-8.789,20.508
1532403804.785,52.246,23.438,45.898,2.930,30.762
1532403804.789,63.477,30.762,41.016,-9.766,48.828
1532403804.793,53.711,46.875,28.809,10.742,38.086
1532403804.797,30.762,38.574,33.691,-5.859,23.926
1532403804.801,-17.090,18.066,39.551,-16.113,-1.465
1532403804.805,-13.672,12.695,38.574,5.859,-2.441
1532403804.809,41.992,44.434,31.250,-14.648,4.395
1532403804.812,83.008,45.898,37.109,-20.508,20.020
1532403804.816,75.684,43.457,41.016,-1.465,42.480
1532403804.820,46.387,42.480,38.574,-0.488,33.203
1532403804.824,53.223,29.297,44.434,2.441,13.672
1532403804.828,54.688,41.992,42.480,-2.930,24.902
1532403804.832,20.020,21.484,43.457,-9.277,39.062
1532403804.836,38.574,14.160,40.527,-14.648,46.387
1532403804.840,41.016,49.805,31.250,-4.395,37.598
1532403804.844,20.020,33.203,38.574,0.000,6.836
1532403804.848,27.832,25.879,38.574,-31.738,-8.789
1532403804.851,41.992,47.363,37.109,-38.086,37.109
1532403804.855,59.570,41.992,43.945,10.742,29.297
1532403804.859,17.578,20.020,43.945,17.578,26.855
1532403804.863,11.230,49.805,30.762,-29.297,44.434
1532403804.867,45.410,48.340,34.668,-12.207,20.020
1532403804.871,44.434,21.973,43.945,5.371,55.664
1532403804.875,32.227,38.086,35.156,-9.766,54.199
1532403804.879,47.363,32.715,39.551,13.672,48.340
1532403804.883,36.133,12.207,45.898,19.043,52.246
1532403804.887,16.113,22.949,41.016,-8.789,26.367
1532403804.891,53.711,56.641,32.715,-29.297,29.785
1532403804.894,16.602,42.480,39.551,-10.742,41.992
1532403804.898,6.348,37.109,34.668,-11.230,43.945
1532403804.902,69.336,52.734,23.438,-18.066,30.273
1532403804.906,49.805,37.109,34.668,-16.113,11.230
1532403804.910,23.438,38.086,33.203,-36.133,23.926
1532403804.914,20.020,35.645,30.273,-5.859,16.113
1532403804.918,39.062,37.598,36.621,12.207,14.648
1532403804.922,45.410,55.176,38.574,-8.301,35.156
1532403804.926,29.297,50.781,36.621,-24.902,9.766
1532403804.930,40.039,29.785,39.062,-13.672,3.906
1532403804.934,41.504,28.320,42.969,16.113,25.391
1532403804.937,34.668,44.922,36.621,16.602,42.969
1532403804.941,44.434,33.691,37.598,21.973,34.180
1532403804.945,47.363,28.809,38.574,14.648,3.418
1532403804.949,37.598,35.156,36.133,0.488,-7.812
1532403804.953,35.156,38.574,28.320,-8.301,13.672
1532403804.957,28.320,49.316,28.320,-3.418,66.406
1532403804.961,9.277,31.738,37.109,4.883,84.473
1532403804.965,-1.465,26.855,38.086,-1.953,45.898
1532403804.969,-20.996,44.434,34.180,-9.766,37.598
1532403804.973,22.461,36.621,36.621,-21.484,52.734
1532403804.976,75.684,25.391,36.621,-2.930,44.922
1532403804.980,29.297,27.832,33.203,-9.277,36.621
1532403804.984,-30.762,33.203,36.133,-22.949,12.695
1532403804.988,13.184,37.598,36.621,-8.789,38.574
1532403804.992,47.363,39.551,39.062,-2.441,53.711
1532403804.996,40.527,30.273,34.668,-15.625,31.738
1532403805.000,36.621,18.555,32.227,-8.301,43.945
1532403805.004,34.180,11.719,40.039,4.395,40.039
1532403805.008,27.832,31.250,36.621,-12.207,-5.859
1532403805.012,26.855,32.227,32.715,-30.273,4.395
1532403805.016,41.992,30.273,38.086,-12.207,13.672
1532403805.019,53.223,45.898,35.156,-2.930,4.395
1532403805.023,28.320,33.203,32.227,-24.902,39.551
1532403805.027,14.648,33.691,36.133,-4.883,48.340
1532403805.031,29.785,29.297,32.715,3.418,19.043
1532403805.035,22.949,28.809,32.227,3.418,0.977
1532403805.039,34.668,43.945,34.668,-0.977,7.812
1532403805.043,46.875,39.551,41.016,7.812,32.715
1532403805.047,34.180,24.414,41.992,-9.766,35.156
1532403805.051,-0.977,32.715,31.250,-38.574,10.254
1532403805.055,-11.719,36.133,32.715,2.930,20.508
1532403805.058,41.504,23.438,41.016,20.020,47.852
1532403805.062,50.293,24.902,40.039,-10.742,38.086
1532403805.066,41.504,38.086,33.203,-11.719,27.344
1532403805.070,50.781,34.668,30.762,16.602,53.223
1532403805.074,26.367,29.297,36.621,11.719,42.480
1532403805.078,21.484,40.527,32.227,-15.137,18.066
1532403805.082,10.254,25.879,30.762,-6.836,31.738
1532403805.086,6.836,19.043,40.039,-19.531,34.668
1532403805.090,2.930,41.504,32.227,-43.945,21.484
1532403805.094,14.160,29.297,30.762,2.441,5.859
1532403805.098,28.320,19.531,38.086,5.371,14.648
1532403805.101,31.250,33.691,40.039,-9.277,49.316
1532403805.105,34.180,38.086,40.039,-4.395,52.246
1532403805.109,23.926,41.016,33.691,-1.953,43.945
1532403805.113,5.859,14.160,44.434,6.348,40.527
1532403805.117,8.301,20.996,43.945,2.930,43.457
1532403805.121,-18.555,38.574,32.715,-16.602,45.898
1532403805.125,-18.066,24.902,35.645,-26.855,16.113
1532403805.129,38.574,45.898,34.668,-24.902,9.277
1532403805.133,47.363,36.133,37.598,-22.949,37.598
1532403805.137,45.410,23.926,36.133,-23.926,52.246
1532403805.141,39.062,27.832,32.227,-11.719,56.641
1532403805.144,41.504,37.109,32.227,3.906,34.180
1532403805.148,12.207,30.762,40.039,0.488,28.809
1532403805.152,26.367,21.484,41.504,1.465,51.758
1532403805.156,58.105,40.039,30.273,-11.230,60.059
1532403805.160,12.695,27.832,33.203,-17.090,43.945
1532403805.164,11.719,23.926,35.645,-9.766,22.949
1532403805.168,34.180,41.016,33.691,-16.113,20.508
1532403805.172,28.809,40.039,34.668,-12.695,29.785
1532403805.176,41.992,34.180,38.086,-1.465,43.457
1532403805.180,38.086,30.762,39.551,5.859,46.387
1532403805.183,5.859,20.020,44.434,-7.812,20.508
1532403805.187,-8.789,18.555,44.434,-18.555,18.555
1532403805.191,45.410,39.551,37.109,-5.371,27.832
1532403805.195,54.688,43.945,36.621,-9.277,42.969
1532403805.199,53.223,38.086,40.527,-6.836,53.711
1532403805.203,59.082,42.480,34.180,-9.766,34.668
1532403805.207,17.090,33.691,28.809,-16.602,59.570
1532403805.211,13.672,42.480,37.109,-18.066,72.266
1532403805.215,9.766,38.574,40.039,-21.484,37.598
1532403805.219,33.691,31.250,38.574,-20.996,33.203
1532403805.223,55.176,45.410,34.180,-9.277,23.926
1532403805.226,9.277,18.066,38.086,-14.160,-13.184
1532403805.230,2.930,22.461,42.480,-12.695,20.508
1532403805.234,15.137,41.992,36.621,-8.301,48.828
1532403805.238,46.875,36.621,43.457,0.488,29.785
1532403805.242,67.383,43.945,39.062,-1.465,51.270
1532403805.246,29.785,33.691,34.180,-25.879,30.762
1532403805.250,24.902,24.902,32.227,-32.715,39.062
1532403805.254,57.129,33.691,33.691,13.184,73.730
1532403805.258,28.809,33.691,40.527,14.160,47.852
1532403805.262,20.020,35.156,37.598,0.488,24.902
1532403805.266,44.922,33.203,38.086,3.418,8.789
1532403805.269,34.180,34.180,40.039,0.488,-4.395
1532403805.273,19.043,28.809,41.992,-1.953,46.875
1532403805.277,28.809,36.133,41.504,-7.324,63.477
1532403805.281,37.598,48.340,39.551,-7.812,36.133
1532403805.285,9.766,30.762,45.898,-8.301,29.297
1532403805.289,-5.859,29.297,44.434,-4.395,26.855
1532403805.293,25.391,45.410,34.668,-20.508,7.324
1532403805.297,42.969,47.363,35.645,-22.461,13.672
1532403805.301,4.395,28.320,45.410,-4.883,41.016
1532403805.305,10.742,17.090,48.828,-2.441,42.480
1532403805.308,59.082,40.039,30.273,-35.156,33.691
1532403805.312,25.391,34.668,38.086,-8.301,32.227
1532403805.316,26.367,24.902,45.410,15.625,38.574
1532403805.320,16.113,26.855,36.621,-3.906,62.988
1532403805.324,-2.930,22.949,41.992,-4.883,56.152
1532403805.328,41.016,30.273,41.504,-11.719,35.645
1532403805.332,44.922,43.945,35.156,-16.602,45.410
1532403805.336,22.461,30.762,38.086,-45.410,38.574
1532403805.340,24.902,31.738,38.574,-37.109,53.223
1532403805.344,26.367,30.762,46.387,-2.441,43.457
1532403805.348,39.062,29.785,42.969,-23.926,37.598
1532403805.351,34.180,39.551,33.691,-50.781,53.223
1532403805.355,46.387,40.039,35.645,-44.434,69.824
1532403805.359,58.105,46.387,32.715,-32.715,73.730
1532403805.363,29.785,38.574,33.691,-20.996,34.668
1532403805.367,40.039,35.645,41.016,-10.254,14.648
1532403805.371,35.645,36.621,44.434,-1.465,26.367
1532403805.375,16.113,19.043,47.852,4.395,46.875
1532403805.379,13.672,24.902,41.992,-4.883,39.062
1532403805.383,15.625,43.945,36.621,-16.602,14.648
1532403805.387,10.742,36.621,40.527,-7.812,17.090
1532403805.391,9.766,26.367,42.969,8.301,47.363
1532403805.394,17.090,30.273,35.645,0.000,46.875
1532403805.398,6.836,36.133,36.133,-16.602,35.645
1532403805.402,2.930,31.250,41.504,-9.277,53.711
1532403805.406,14.160,30.762,41.992,-7.812,30.273
1532403805.410,9.277,41.992,38.574,-11.719,0.977
1532403805.414,4.883,38.574,33.691,-19.531,20.996
1532403805.418,-1.953,29.297,33.691,-15.625,18.555
1532403805.422,-0.977,36.621,34.180,-0.977,33.203
1532403805.426,13.672,43.945,30.273,-22.949,54.199
1532403805.430,-17.090,27.344,31.250,-15.625,32.227
1532403805.433,-26.855,33.203,34.180,-20.508,33.203
1532403805.437,25.879,38.574,31.250,-11.719,41.992
1532403805.441,35.156,32.227,34.180,9.766,51.270
1532403805.445,24.902,36.133,34.668,4.883,56.641
1532403805.449,33.691,28.809,38.086,16.602,48.828
1532403805.453,0.488,24.902,42.969,7.324,47.363
1532403805.457,-8.301,24.414,41.016,-5.371,65.430
1532403805.461,-0.488,34.668,32.227,-12.207,42.480
1532403805.465,9.766,44.922,31.738,-26.367,7.812
1532403805.469,14.160,42.480,36.133,-35.156,-16.602
1532403805.473,-3.418,36.133,35.645,-4.395,2.930
1532403805.476,5.371,32.227,37.598,13.184,38.574
1532403805.480,-22.949,28.809,40.039,5.371,47.363
1532403805.484,6.836,27.344,48.340,10.742,35.645
1532403805.488,51.758,35.156,42.480,-13.672,35.645
1532403805.492,9.766,35.156,33.203,-15.625,53.223
1532403805.496,-10.742,35.156,34.668,-3.418,28.809
1532403805.500,13.672,39.551,35.645,9.277,11.230
1532403805.504,15.137,38.574,40.039,15.137,19.043
1532403805.508,24.902,41.016,41.504,-7.324,11.719
1532403805.512,-15.625,36.621,26.855,-35.645,7.324
1532403805.516,-11.230,30.762,28.809,-14.160,17.090
1532403805.519,36.621,41.504,41.504,10.254,33.691
1532403805.523,18.555,30.762,40.039,8.301,54.199
1532403805.527,28.320,34.668,38.086,-3.418,44.434
1532403805.531,24.902,36.621,41.992,7.324,29.297
1532403805.535,21.973,28.320,44.434,31.250,17.090
1532403805.539,-8.789,34.180,40.039,-3.418,30.273
1532403805.543,-7.812,29.297,37.109,-1.465,41.504
1532403805.547,47.363,33.691,40.039,37.598,19.531
1532403805.551,51.270,42.480,38.574,27.832,33.203
1532403805.555,17.090,33.203,37.109,14.160,53.711
1532403805.558,12.695,34.668,39.551,0.977,46.387
1532403805.562,22.949,45.898,32.227,-21.973,60.547
1532403805.566,21.973,42.480,33.203,-9.766,38.086
1532403805.570,20.508,37.598,37.598,-9.766,20.020
1532403805.574,21.484,31.250,38.574,-14.160,20.020
1532403805.578,7.812,28.809,38.574,-12.207,10.254
1532403805.582,-51.758,20.996,34.668,-23.926,23.926
1532403805.586,-20.508,35.156,33.203,-24.902,28.809
1532403805.590,44.434,44.434,38.574,-9.277,25.879
1532403805.594,43.457,32.227,39.551,-2.930,1.465
1532403805.598,43.457,39.551,36.133,-5.859,-0.977
1532403805.601,12.695,29.785,39.062,1.953,14.160
1532403805.605,3.906,15.137,45.410,2.441,12.207
1532403805.609,25.391,32.227,40.527,-7.812,-10.254
1532403805.613,36.133,31.738,34.668,2.930,3.906
1532403805.617,31.738,37.598,32.715,4.883,33.691
1532403805.621,7.812,41.992,28.809,9.277,29.297
1532403805.625,-0.977,32.715,32.715,9.277,21.973
1532403805.629,21.484,40.039,34.668,-4.883,20.996
1532403805.633,32.227,33.691,33.691,-7.324,26.855
1532403805.637,17.578,32.715,31.250,-7.324,26.855
1532403805.641,8.789,35.645,30.762,-5.859,42.480
1532403805.644,21.973,37.109,37.598,-2.930,32.227
1532403805.648,16.602,33.203,38.086,1.465,3.418
1532403805.652,15.625,33.203,30.762,5.371,28.809
1532403805.656,43.945,43.945,27.832,4.395,48.828
1532403805.660,39.551,41.016,32.715,11.719,57.617
1532403805.664,26.367,33.203,33.203,11.230,28.809
1532403805.668,1.953,29.785,30.273,-5.371,19.531
1532403805.672,21.484,41.016,26.367,-8.789,43.945
1532403805.676,46.875,44.922,25.879,0.000,50.781
1532403805.680,45.410,33.691,32.227,5.859,43.945
1532403805.683,32.227,23.926,34.180,1.465,37.598
1532403805.687,-23.926,11.719,34.180,-21.484,20.508
1532403805.691,-32.227,20.020,34.180,-19.531,40.039
1532403805.695,34.180,39.551,35.645,-1.465,42.480
1532403805.699,49.805,37.109,34.668,-6.348,47.852
1532403805.703,33.691,31.738,37.598,-12.207,51.758
1532403805.707,20.996,35.156,38.086,-17.578,44.434
1532403805.711,23.926,30.762,38.574,-12.695,45.410
1532403805.715,37.109,29.297,45.410,-10.254,22.461
1532403805.719,15.137,41.016,36.133,-36.133,34.180
1532403805.723,20.508,37.109,34.180,-17.578,46.387
1532403805.726,34.668,32.227,34.180,-9.766,38.086
1532403805.730,20.508,24.902,32.227,-23.926,31.738
1532403805.734,41.504,22.461,34.668,-4.395,40.039
1532403805.738,41.016,36.621,33.203,-6.348,34.180
1532403805.742,33.203,36.621,33.203,-23.438,31.738
1532403805.746,36.621,28.809,39.062,-20.508,35.645
1532403805.750,36.133,30.273,41.504,-10.254,40.527
1532403805.754,29.785,31.738,40.527,-2.441,68.848
1532403805.758,14.648,26.855,38.574,-10.742,72.754
1532403805.762,13.672,22.461,40.039,-30.762,58.105
1532403805.765,37.109,37.109,39.551,-33.691,44.922
1532403805.769,33.691,41.992,35.156,-11.230,32.715
1532403805.773,12.695,38.574,35.645,-12.207,49.316
1532403805.777,20.020,35.645,37.598,-30.273,35.156
1532403805.781,12.207,31.250,29.785,-38.086,23.926
1532403805.785,18.066,30.762,33.203,-31.250,21.973
1532403805.789,22.461,28.320,37.598,-29.297,5.859
1532403805.793,18.066,40.527,35.645,-32.227,32.227
1532403805.797,23.438,32.715,36.621,-19.043,46.875
1532403805.801,20.996,33.691,29.785,-19.043,39.551
1532403805.805,1.465,38.574,33.203,-36.133,52.246
1532403805.808,21.973,27.344,38.574,-18.555,40.527
1532403805.812,43.945,32.227,39.062,-11.230,21.973
1532403805.816,19.531,33.203,36.133,-22.949,4.395
1532403805.820,7.812,31.250,35.156,-12.695,36.621
1532403805.824,22.949,27.832,36.621,-6.348,30.762
1532403805.828,41.016,29.785,31.738,-15.137,2.930
1532403805.832,33.203,22.949,34.668,-11.230,26.855
1532403805.836,23.926,31.738,35.645,-3.906,23.926
1532403805.840,23.438,25.391,37.109,-11.230,8.301
1532403805.844,8.789,18.555,38.086,-7.812,-8.789
1532403805.848,15.137,37.109,33.203,-1.953,-7.812
1532403805.851,35.645,26.367,35.156,-15.625,13.672
1532403805.855,4.395,15.625,32.715,-18.066,28.320
1532403805.859,22.461,28.809,31.738,-7.324,33.203
1532403805.863,66.895,41.992,37.109,5.371,15.625
1532403805.867,50.293,43.945,37.598,-7.324,21.973
1532403805.871,24.902,35.156,29.297,-23.438,20.020
1532403805.875,1.953,37.598,25.391,-14.648,13.184
1532403805.879,0.488,33.203,35.156,-19.043,41.504
1532403805.883,43.945,41.992,31.250,-38.086,20.020
1532403805.887,38.086,36.133,32.227,-19.043,-23.926
1532403805.890,37.109,35.645,37.109,-9.766,-38.574
1532403805.894,54.199,48.340,40.039,-7.812,19.043
1532403805.898,50.293,35.645,42.480,-1.953,43.945
1532403805.902,42.969,34.668,38.574,-1.953,2.930
1532403805.906,29.297,38.086,35.645,-2.441,13.184
1532403805.910,41.016,41.992,37.109,-1.465,18.066
1532403805.914,25.391,32.227,38.574,-13.672,14.648
1532403805.918,7.812,23.926,42.969,-1.465,43.457
1532403805.922,15.137,53.223,34.668,-15.625,62.012
1532403805.926,24.414,54.688,29.785,-24.414,35.645
1532403805.930,36.133,36.133,37.598,-0.488,8.789
1532403805.933,30.762,39.551,33.691,-10.742,18.066
1532403805.937,-11.719,27.832,39.551,-8.789,43.945
1532403805.941,7.324,25.879,43.945,3.418,55.664
1532403805.945,21.973,24.902,46.875,18.555,24.414
1532403805.949,-9.766,31.738,44.922,6.836,41.504
1532403805.953,2.441,46.875,35.645,-18.066,41.992
1532403805.957,51.270,41.504,36.133,-14.648,47.363
1532403805.961,19.043,33.691,41.992,5.371,50.781
1532403805.965,-18.066,19.531,48.340,22.461,42.969
1532403805.969,39.551,30.762,36.133,13.672,60.547
1532403805.973,28.320,41.016,32.227,14.160,69.824
1532403805.976,28.809,41.992,41.992,14.160,53.223
1532403805.980,44.922,41.992,41.504,10.254,43.457
1532403805.984,27.832,30.762,41.992,11.230,41.016
1532403805.988,15.625,30.762,44.922,8.789,20.020
1532403805.992,28.809,41.992,39.062,4.883,24.414
1532403805.996,42.480,42.480,36.133,-0.977,36.133
1532403806.000,19.531,36.621,38.574,-14.160,45.410
1532403806.004,28.809,36.621,42.969,-8.301,26.855
1532403806.008,17.090,32.715,40.527,-11.230,16.113
1532403806.012,-29.785,30.762,33.691,-40.527,7.812
1532403806.015,-23.926,43.945,36.621,-16.602,21.973
1532403806.019,9.766,41.992,45.410,17.578,38.574
1532403806.023,31.738,32.715,41.992,8.301,41.992
1532403806.027,16.602,40.039,36.621,-10.254,34.180
1532403806.031,23.438,41.016,37.109,-9.277,54.199
1532403806.035,40.527,38.574,36.621,-15.137,87.891
1532403806.039,40.039,37.109,41.504,-2.441,40.039
1532403806.043,54.199,37.598,38.574,14.648,7.812
1532403806.047,48.340,40.039,27.832,-10.254,27.832
1532403806.051,23.926,34.668,34.180,-17.578,34.668
1532403806.055,50.293,30.273,38.574,-4.883,27.832
1532403806.058,84.473,40.039,36.621,-3.906,24.902
1532403806.062,48.828,27.344,37.598,-8.789,32.715
1532403806.066,29.297,33.691,27.344,-39.551,20.508
1532403806.070,42.480,42.969,30.762,-28.320,53.711
1532403806.074,40.527,23.438,41.016,14.160,75.684
1532403806.078,7.324,22.461,36.621,5.859,51.270
1532403806.082,31.738,32.227,35.645,7.812,31.738
1532403806.086,52.246,40.039,35.645,8.301,15.625
1532403806.090,25.391,39.551,34.668,-0.488,19.531
1532403806.094,20.508,18.555,41.016,20.020,39.062
1532403806.098,15.137,20.996,40.039,17.090,41.504
1532403806.101,-4.883,32.227,39.551,11.230,33.691
1532403806.105,13.672,37.598,39.062,12.695,33.691
1532403806.109,40.527,34.180,37.109,11.230,13.672
1532403806.113,26.855,18.555,41.016,3.906,26.367
1532403806.117,30.762,27.344,37.598,-4.395,47.363
1532403806.121,38.086,39.551,38.086,0.000,41.992
1532403806.125,49.316,39.062,34.668,-0.488,50.293
1532403806.129,47.363,33.203,36.133,-13.672,50.781
1532403806.133,20.020,26.367,35.645,-21.973,40.039
1532403806.137,11.230,26.855,28.809,-11.230,44.434
1532403806.140,46.875,42.480,37.598,-4.395,53.711
1532403806.144,53.223,43.457,32.227,-40.039,48.828
1532403806.148,18.066,29.785,23.926,-24.902,36.133
1532403806.152,32.227,25.391,38.086,29.785,26.855
1532403806.156,47.363,29.785,42.480,31.250,27.832
1532403806.160,43.457,47.363,32.227,15.625,38.574
1532403806.164,48.340,38.086,37.598,6.836,15.137
1532403806.168,58.594,35.156,38.574,-8.301,-17.090
1532403806.172,44.434,35.645,34.180,-0.977,20.508
1532403806.176,17.578,22.949,38.086,16.602,24.414
1532403806.180,28.320,25.391,39.551,11.230,10.742
1532403806.183,38.574,26.855,39.062,0.977,30.762
1532403806.187,26.855,29.297,41.504,-4.883,61.523
1532403806.191,37.109,33.203,43.945,5.371,60.547
1532403806.195,40.527,25.391,44.922,6.348,8.789
1532403806.199,60.059,30.273,37.109,-2.930,10.742
1532403806.203,75.684,46.387,31.250,-16.113,27.832
1532403806.207,57.617,58.105,30.273,-29.297,24.902
1532403806.211,34.180,39.062,32.227,-20.996,25.879
1532403806.215,55.176,37.598,33.203,-5.859,-0.977
1532403806.219,69.824,47.363,42.969,35.156,20.020
1532403806.223,40.527,38.574,51.270,35.645,51.758
1532403806.226,40.039,31.250,46.387,13.672,31.250
1532403806.230,58.105,39.551,40.527,15.625,29.297
1532403806.234,39.062,39.062,39.551,-0.977,41.016
1532403806.238,44.922,46.387,41.016,0.000,43.945
1532403806.242,40.039,53.223,39.551,3.906,36.621
1532403806.246,17.090,42.969,38.574,-24.902,22.949
1532403806.250,35.645,38.574,40.039,-21.484,31.738
1532403806.254,23.438,53.711,28.809,-8.789,35.645
1532403806.258,12.207,48.340,30.273,-23.926,24.414
1532403806.262,46.875,33.691,35.645,-14.160,25.879
1532403806.265,51.758,48.828,36.133,-0.488,5.371
1532403806.269,49.805,61.523,38.574,2.930,12.695
1532403806.273,42.480,55.176,38.086,-5.371,50.781
1532403806.277,24.414,48.828,33.203,-26.855,40.527
1532403806.281,34.180,50.781,31.250,-6.348,37.109
1532403806.285,61.035,44.922,34.668,6.836,15.625
1532403806.289,58.105,41.992,35.645,3.418,10.742
1532403806.293,51.270,31.250,42.480,15.137,41.992
1532403806.297,25.879,39.062,39.062,-19.531,45.410
1532403806.301,21.484,51.270,33.691,-31.738,20.020
1532403806.305,35.156,43.457,38.086,0.977,-4.395
1532403806.308,46.387,42.480,37.598,-11.230,-3.906
1532403806.312,38.086,49.316,34.668,-15.625,10.742
1532403806.316,19.043,47.852,36.133,-12.695,8.789
1532403806.320,20.020,48.340,34.668,-22.949,11.230
1532403806.324,37.598,37.598,33.691,-39.062,19.531
1532403806.328,0.488,32.715,34.180,-39.062,22.461
1532403806.332,-11.230,45.410,27.832,-47.852,33.203
1532403806.336,-6.348,52.734,29.297,-61.523,30.273
1532403806.340,-4.395,41.504,40.527,-17.578,29.785
1532403806.344,-13.184,31.250,39.551,-21.484,39.062
1532403806.348,-15.137,30.762,37.109,-35.645,-4.395
1532403806.351,52.734,48.828,32.715,-3.906,4.883
1532403806.355,65.430,41.992,35.645,9.766,32.227
1532403806.359,36.621,35.156,37.109,1.465,46.387
1532403806.363,-35.156,30.762,33.691,-23.438,24.414
1532403806.367,-15.625,24.902,36.133,-18.066,18.066
1532403806.371,21.973,45.410,32.227,1.953,64.453
1532403806.375,-2.930,42.480,33.691,-4.395,39.062
1532403806.379,20.020,34.668,31.250,-16.113,20.020
1532403806.383,47.363,38.086,29.297,-10.742,18.555
1532403806.387,14.648,28.809,31.738,-11.230,4.883
1532403806.390,7.812,35.645,26.855,-16.113,19.043
1532403806.394,62.988,41.016,33.691,-4.395,3.418
1532403806.398,57.617,46.387,36.621,-3.906,-17.578
1532403806.402,46.875,41.992,31.250,-14.160,25.391
1532403806.406,8.789,28.320,28.809,-16.113,34.668
1532403806.410,-9.277,26.855,30.273,-15.625,18.066
1532403806.414,7.812,31.738,37.109,-25.879,-1.465
1532403806.418,45.410,42.969,39.062,-5.371,-0.977
1532403806.422,83.984,46.387,40.527,25.391,25.391
1532403806.426,46.875,46.387,36.133,-2.930,14.160
1532403806.430,-4.395,39.551,29.297,-32.227,21.484
1532403806.433,6.348,20.996,32.227,-20.508,9.277
1532403806.437,56.641,26.855,39.062,3.418,7.812
1532403806.441,58.105,42.969,34.180,14.648,37.109
1532403806.445,37.598,51.270,34.668,22.949,5.859
1532403806.449,44.922,37.598,39.062,20.020,-5.859
1532403806.453,40.527,33.691,35.645,18.555,12.695
1532403806.457,23.438,41.016,41.504,14.648,32.715
1532403806.461,34.668,40.039,39.062,-8.301,58.594
1532403806.465,50.293,38.086,28.320,-7.324,16.602
1532403806.469,69.824,42.969,24.414,22.461,8.301
1532403806.472,61.523,38.086,30.762,41.016,38.574
1532403806.476,39.062,29.785,52.246,38.086,42.969
1532403806.480,36.621,43.457,54.199,12.207,10.254
1532403806.484,32.227,23.438,52.734,-0.488,-11.230
1532403806.488,2.441,15.625,61.523,-7.812,20.996
1532403806.492,-13.672,35.156,62.500,-27.344,28.809
1532403806.496,-21.973,25.391,64.941,-24.414,30.762
1532403806.500,-15.137,16.113,68.359,-16.113,35.645
1532403806.504,-4.395,28.809,64.453,-31.738,41.504
1532403806.508,-18.555,24.902,65.918,-28.809,55.664
1532403806.512,-19.043,18.066,71.289,-22.461,64.453
1532403806.515,-7.812,18.555,65.918,-41.016,60.059
1532403806.519,3.418,17.578,61.523,-40.039,44.922
1532403806.523,-19.043,16.602,63.965,-38.086,18.555
1532403806.527,-26.855,14.160,58.105,-43.945,-12.207
1532403806.531,-11.230,9.277,57.617,-28.320,13.184
1532403806.535,-15.625,16.602,55.664,-20.996,41.992
1532403806.539,-36.621,20.020,48.828,-27.344,25.391
1532403806.543,-7.324,9.766,51.758,-18.555,13.672
1532403806.547,26.855,16.602,58.594,11.719,9.766
1532403806.551,19.043,9.277,53.711,14.648,38.574
1532403806.555,0.488,12.695,44.922,-6.836,41.504
1532403806.558,11.719,18.555,50.293,-12.695,32.227
1532403806.562,21.484,16.602,51.758,-6.836,28.809
1532403806.566,20.020,14.648,53.223,7.812,31.250
1532403806.570,27.832,21.973,54.688,0.977,26.855
1532403806.574,58.594,36.133,52.734,14.160,10.254
1532403806.578,74.707,31.738,50.293,22.949,12.207
1532403806.582,55.176,22.461,43.457,2.930,36.133
1532403806.586,27.344,7.812,45.898,-13.672,23.438
1532403806.590,19.043,15.625,39.062,-17.578,15.137
1532403806.594,36.133,17.578,40.039,1.953,31.250
1532403806.597,29.785,9.766,45.410,0.488,33.691
1532403806.601,42.969,24.902,37.109,-8.301,56.641
1532403806.605,50.293,24.902,39.062,-3.906,64.453
1532403806.609,39.551,21.973,40.527,5.859,51.270
1532403806.613,16.113,14.648,35.645,0.977,34.180
1532403806.617,23.926,24.414,34.668,-2.930,29.785
1532403806.621,55.176,33.691,38.086,2.930,29.785
1532403806.625,57.129,29.785,39.551,1.953,22.461
1532403806.629,58.594,33.203,38.086,-16.113,4.883
1532403806.633,23.438,22.461,36.133,-8.789,24.414
1532403806.637,-0.488,27.832,26.367,-13.184,46.875
1532403806.640,39.551,33.691,-0.977,-10.254,43.945
1532403806.644,81.543,27.344,-6.348,13.184,49.805
1532403806.648,64.453,36.133,-5.371,6.348,50.781
1532403806.652,51.270,32.715,-8.789,9.766,54.199
1532403806.656,34.180,27.832,-4.883,-6.348,43.945
1532403806.660,19.043,30.273,-8.789,3.418,48.828
1532403806.664,37.109,35.645,-8.789,15.625,64.941
1532403806.668,46.387,23.438,-4.395,-1.465,52.246
1532403806.672,41.992,34.668,-7.324,-1.953,49.316
1532403806.676,53.223,42.969,-8.789,1.465,30.273
1532403806.680,55.176,33.203,-4.883,1.465,16.113
1532403806.683,37.598,29.785,3.906,-1.465,18.066
1532403806.687,33.691,25.879,9.277,-15.625,32.715
1532403806.691,42.969,37.109,6.836,-12.207,34.668
1532403806.695,33.691,40.039,9.766,-10.254,22.461
1532403806.699,34.180,28.320,12.207,-13.184,25.391
1532403806.703,48.340,29.297,11.230,9.277,57.617
1532403806.707,37.109,26.367,10.742,4.395,60.059
1532403806.711,12.207,14.160,14.160,9.277,34.180
1532403806.715,18.555,18.555,10.742,9.277,21.973
1532403806.719,33.203,29.785,12.207,-4.395,22.949
1532403806.722,37.598,32.227,14.648,5.859,21.484
1532403806.726,37.598,33.691,17.090,12.207,11.230
1532403806.730,36.621,34.668,22.949,0.000,27.344
1532403806.734,38.574,21.484,22.461,-11.719,31.738
1532403806.738,16.602,22.461,24.414,-13.672,29.785
1532403806.742,24.414,39.551,17.090,-30.762,16.602
1532403806.746,67.383,29.297,15.625,-26.855,11.719
1532403806.750,72.266,19.531,31.250,13.184,15.625
1532403806.754,55.664,36.621,25.391,-6.348,28.320
1532403806.758,40.527,38.086,19.531,-42.969,23.438
1532403806.762,19.043,34.668,18.555,-52.246,-14.648
1532403806.765,-2.441,42.480,21.484,-34.668,4.395
1532403806.769,18.066,34.180,28.320,-8.789,31.738
1532403806.773,38.574,38.574,23.926,-3.906,47.363
1532403806.777,25.391,41.504,21.484,-18.555,42.969
1532403806.781,17.578,33.203,20.508,-14.648,56.152
1532403806.785,11.230,34.180,29.785,-0.977,62.988
1532403806.789,12.207,34.668,31.250,-7.812,53.711
1532403806.793,21.484,37.109,20.996,-15.625,34.668
1532403806.797,-8.789,27.344,24.414,-12.695,30.273
1532403806.801,-2.930,34.668,25.391,-22.949,29.785
1532403806.805,18.066,41.992,24.902,-21.484,36.621
1532403806.808,8.789,29.297,26.855,-22.949,47.363
1532403806.812,15.625,28.809,24.414,-18.555,29.785
1532403806.816,23.926,34.180,22.461,-15.137,20.508
1532403806.820,32.227,36.133,23.926,-23.926,35.645
1532403806.824,4.883,33.203,27.832,-12.695,36.133
1532403806.828,-3.418,32.227,25.391,-39.551,17.578
1532403806.832,12.207,32.715,23.926,-33.203,20.020
1532403806.836,13.184,27.832,30.273,7.812,37.598
1532403806.840,17.578,43.945,29.785,-14.160,24.902
1532403806.844,16.602,40.039,25.879,-19.043,26.367
1532403806.847,36.621,27.344,26.855,2.441,54.199
1532403806.851,20.508,30.762,32.227,7.812,47.363
1532403806.855,27.832,33.203,33.691,-18.066,22.461
1532403806.859,19.043,23.926,29.785,-16.113,32.715
1532403806.863,16.602,23.926,28.320,0.000,42.969
1532403806.867,31.738,41.504,27.832,-9.766,7.812
1532403806.871,15.137,35.645,29.785,-12.695,15.137
1532403806.875,38.086,21.973,34.668,-2.930,61.523
1532403806.879,12.695,33.203,29.297,3.418,76.172
1532403806.883,9.277,29.297,26.367,0.488,49.805
1532403806.887,34.180,34.180,28.320,-8.301,51.270
1532403806.890,27.344,26.855,33.203,1.953,54.688
1532403806.894,8.789,35.645,25.391,-4.883,46.875
1532403806.898,-8.301,41.016,17.578,-36.621,51.758
1532403806.902,41.016,24.902,23.926,-25.391,59.570
1532403806.906,71.777,28.809,30.762,4.883,29.297
1532403806.910,37.109,27.344,39.551,1.953,20.020
1532403806.914,48.340,32.227,38.086,4.883,35.156
1532403806.918,33.203,22.461,27.832,-55.664,43.457
1532403806.922,8.789,22.461,21.973,-48.828,70.801
1532403806.926,12.695,35.645,31.738,24.902,49.805
1532403806.930,53.711,37.598,29.785,-19.043,31.738
1532403806.933,67.383,35.645,25.879,0.977,28.809
1532403806.937,22.949,24.414,35.645,7.812,47.852
1532403806.941,12.695,33.691,30.762,-9.277,63.965
1532403806.945,39.062,39.551,27.344,3.906,35.156
1532403806.949,41.504,34.668,29.297,-0.977,16.602
1532403806.953,-17.090,26.367,36.133,3.418,28.809
1532403806.957,-65.918,20.996,36.133,-5.859,38.574
1532403806.961,17.578,29.785,31.738,-6.348,43.457
1532403806.965,66.895,32.227,33.691,-8.301,27.832
1532403806.969,57.617,19.531,38.086,-12.695,15.137
1532403806.972,27.344,27.344,36.133,-14.648,59.570
1532403806.976,0.977,39.062,34.180,-11.719,65.430
1532403806.980,44.922,29.297,34.180,-7.812,58.105
1532403806.984,47.363,31.250,30.762,-18.066,42.480
1532403806.988,38.574,32.715,32.715,-7.324,36.621
1532403806.992,52.734,24.902,32.715,-5.371,62.500
1532403806.996,41.504,18.555,32.715,-12.695,52.246
1532403807.000,35.156,25.879,37.598,0.000,38.086
1532403807.004,16.113,31.250,33.691,-10.254,18.066
1532403807.008,1.953,16.602,41.016,-23.438,-2.441
1532403807.012,36.621,24.902,38.086,-13.672,25.879
1532403807.015,40.527,31.250,25.879,-0.488,47.852
1532403807.019,23.438,36.621,29.785,3.906,35.156
1532403807.023,26.855,30.762,35.645,4.395,37.598
1532403807.027,16.602,19.043,35.645,-0.488,24.414
1532403807.031,12.207,29.785,25.391,-22.949,19.531
1532403807.035,32.715,34.668,28.320,-10.742,25.879
1532403807.039,39.551,26.855,37.109,-7.812,49.805
1532403807.043,17.090,19.043,38.574,-9.277,46.875
1532403807.047,7.324,13.672,38.086,0.000,-17.578
1532403807.051,12.695,25.879,31.738,-8.301,-20.996
1532403807.055,25.391,35.156,27.832,-7.812,26.367
1532403807.058,43.457,25.879,28.809,-15.625,26.367
1532403807.062,34.668,18.555,37.598,1.465,25.879
1532403807.066,39.062,22.949,42.480,4.395,20.996
1532403807.070,19.531,28.320,35.156,-18.555,26.855
1532403807.074,20.508,37.109,29.297,-1.953,47.852
1532403807.078,25.879,32.227,28.809,-0.488,42.969
1532403807.082,0.977,34.180,27.832,-12.695,38.574
1532403807.086,-3.418,37.109,29.297,-18.555,8.301
