timestamps,TP9,AF7,AF8,TP10,Right AUX
1532385456.903,41.016,23.926,1.465,44.922,23.926
1532385456.907,43.945,19.043,0.000,35.645,43.457
1532385456.911,49.316,16.602,4.883,40.527,35.156
1532385456.914,42.969,20.020,7.324,41.504,48.828
1532385456.918,43.457,24.902,7.324,35.156,40.039
1532385456.922,42.480,28.809,3.418,35.645,31.250
1532385456.926,34.180,31.250,0.977,39.062,40.039
1532385456.930,39.062,24.414,0.977,34.180,25.391
1532385456.934,42.969,16.602,0.000,30.762,18.066
1532385456.938,41.016,22.949,2.441,29.297,14.648
1532385456.942,43.457,34.180,7.812,25.879,-0.488
1532385456.946,40.039,28.320,7.324,24.902,34.180
1532385456.950,40.039,19.531,2.930,29.297,48.340
1532385456.954,48.340,14.160,5.371,35.156,56.152
1532385456.957,45.410,12.695,8.301,36.133,58.594
1532385456.961,41.992,20.996,4.883,37.109,58.594
1532385456.965,46.387,28.809,2.441,38.574,50.781
1532385456.969,52.734,26.367,5.371,41.504,8.301
1532385456.973,61.035,22.461,5.371,48.340,32.715
1532385456.977,64.453,24.902,6.348,44.922,31.250
1532385456.981,50.293,18.555,10.742,42.480,20.996
1532385456.985,43.457,11.719,7.812,45.410,56.641
1532385456.989,42.969,25.879,-1.465,40.527,39.551
1532385456.993,42.480,28.320,-0.488,37.598,50.293
1532385456.997,48.828,22.461,7.324,37.598,47.363
1532385457.000,50.293,22.461,5.371,30.762,-16.113
1532385457.004,45.898,17.578,2.930,34.668,-0.488
1532385457.008,42.480,18.066,6.836,40.039,38.086
1532385457.012,44.434,20.508,5.859,38.086,20.508
1532385457.016,50.781,24.902,4.395,40.039,-7.812
1532385457.020,46.387,25.879,9.277,37.109,-0.488
1532385457.024,33.691,20.020,5.371,32.715,34.180
1532385457.028,40.039,12.695,-0.977,31.738,44.922
1532385457.032,37.109,12.695,-1.465,29.297,45.898
1532385457.036,26.855,19.043,4.395,30.762,23.926
1532385457.039,29.297,21.484,10.254,29.785,-1.465
1532385457.043,34.180,16.602,11.230,33.203,29.297
1532385457.047,39.062,18.555,12.695,37.109,12.695
1532385457.051,32.227,21.973,13.184,31.738,-2.441
1532385457.055,27.832,14.160,14.160,25.391,39.551
1532385457.059,25.879,18.066,15.625,20.508,20.508
1532385457.063,28.320,24.414,18.066,20.508,0.488
1532385457.067,24.902,16.113,19.531,20.996,19.043
1532385457.071,20.996,4.395,17.090,20.508,27.832
1532385457.075,28.809,8.301,20.508,26.855,21.973
1532385457.079,28.320,12.207,30.273,31.738,1.953
1532385457.082,28.809,12.207,27.344,26.855,15.137
1532385457.086,30.273,18.555,22.461,27.832,50.781
1532385457.090,25.391,14.648,24.414,24.902,35.645
1532385457.094,28.809,14.160,26.367,19.531,-3.418
1532385457.098,39.062,20.996,30.273,21.973,11.230
1532385457.102,32.227,20.996,33.691,28.809,61.523
1532385457.106,27.832,14.648,31.738,25.391,60.059
1532385457.110,27.344,17.090,26.367,19.043,22.461
1532385457.114,24.902,19.531,20.508,20.508,16.602
1532385457.118,27.344,18.555,23.926,18.066,-2.930
1532385457.122,33.691,20.508,28.320,19.531,-18.066
1532385457.125,33.691,19.043,26.367,21.484,1.465
1532385457.129,34.180,11.230,28.809,20.508,45.410
1532385457.133,33.691,10.742,28.809,27.344,51.758
1532385457.137,33.691,23.438,30.273,28.320,30.762
1532385457.141,29.785,30.273,30.273,22.461,38.086
1532385457.145,26.367,27.344,23.926,18.555,25.879
1532385457.149,27.344,19.043,21.484,20.020,53.223
1532385457.153,20.996,14.648,28.320,24.414,74.219
1532385457.157,28.320,12.207,29.297,20.996,25.391
1532385457.161,30.273,16.113,22.949,15.625,-7.812
1532385457.164,21.973,24.902,30.273,20.020,20.996
1532385457.168,20.020,24.414,34.668,24.414,60.059
1532385457.172,19.531,26.367,30.762,23.926,49.316
1532385457.176,24.414,20.508,30.762,19.531,27.832
1532385457.180,26.855,6.348,29.297,24.414,26.855
1532385457.184,18.066,10.254,30.762,26.855,29.785
1532385457.188,20.020,16.602,35.156,22.461,56.641
1532385457.192,26.855,14.648,35.156,23.926,62.012
1532385457.196,18.555,20.508,30.273,23.926,29.785
1532385457.200,19.531,25.391,30.762,22.461,42.969
1532385457.204,33.203,27.344,31.738,22.461,46.387
1532385457.207,37.598,30.273,34.668,29.785,30.762
1532385457.211,35.645,25.391,37.598,31.738,19.043
1532385457.215,46.875,20.508,35.645,28.809,26.855
1532385457.219,35.645,16.602,30.762,28.809,29.297
1532385457.223,17.578,6.348,27.344,28.320,32.715
1532385457.227,19.043,9.766,29.297,22.949,45.898
1532385457.231,19.043,16.113,30.762,20.020,33.203
1532385457.235,17.578,11.230,34.180,24.414,36.133
1532385457.239,20.508,7.812,33.203,20.996,5.859
1532385457.243,24.902,5.371,33.203,18.555,7.812
1532385457.247,23.926,15.625,33.691,20.020,45.898
1532385457.250,24.902,21.484,35.156,23.926,38.086
1532385457.254,36.621,16.602,40.039,28.320,31.738
1532385457.258,36.621,20.020,33.691,20.020,24.902
1532385457.262,26.855,17.578,32.715,19.531,8.301
1532385457.266,27.344,13.184,39.551,25.391,32.715
1532385457.270,23.438,21.484,34.180,20.996,52.734
1532385457.274,30.273,27.344,23.926,14.648,29.785
1532385457.278,34.180,22.461,22.949,11.230,14.648
1532385457.282,24.902,16.113,27.344,9.766,17.578
1532385457.286,28.320,19.531,23.926,6.836,23.926
1532385457.289,33.203,21.973,22.461,11.719,27.344
1532385457.293,37.109,20.996,23.438,7.812,30.762
1532385457.297,45.410,22.461,20.996,7.812,14.160
1532385457.301,46.387,25.391,26.855,20.508,8.301
1532385457.305,41.992,17.090,34.180,29.785,17.578
1532385457.309,29.297,6.836,36.133,32.227,23.438
1532385457.313,23.926,16.602,34.668,35.645,42.480
1532385457.317,23.926,26.367,32.227,35.645,7.324
1532385457.321,19.043,24.902,33.691,31.738,-2.441
1532385457.325,14.648,22.461,34.668,31.738,39.551
1532385457.329,10.742,20.508,34.180,27.832,47.363
1532385457.332,8.789,22.949,30.762,31.738,48.828
1532385457.336,10.254,18.555,29.785,32.227,36.133
1532385457.340,16.113,16.602,27.832,26.367,37.109
1532385457.344,30.762,20.508,28.809,30.273,24.902
1532385457.348,39.062,17.090,32.227,37.598,8.301
1532385457.352,35.156,16.602,28.809,36.133,46.387
1532385457.356,28.320,20.508,29.297,27.832,48.828
1532385457.360,21.973,25.391,30.762,20.020,21.973
1532385457.364,23.438,14.160,30.273,19.043,34.668
1532385457.368,26.855,12.695,32.715,21.973,42.480
1532385457.372,34.180,20.996,32.715,22.949,27.832
1532385457.375,23.926,20.508,30.762,23.926,20.020
1532385457.379,16.113,25.879,27.832,22.461,1.465
1532385457.383,23.438,26.367,27.832,25.879,18.066
1532385457.387,27.344,25.391,31.250,29.785,34.180
1532385457.391,32.227,24.414,34.180,30.273,21.973
1532385457.395,32.715,20.996,33.691,32.227,2.441
1532385457.399,22.461,18.066,25.879,23.926,4.883
1532385457.403,26.367,15.137,27.832,23.438,35.645
1532385457.407,31.738,14.160,33.691,24.902,32.227
1532385457.411,24.902,12.695,35.645,21.973,25.879
1532385457.414,29.785,20.508,32.227,26.367,31.738
1532385457.418,31.738,32.715,25.391,20.508,22.461
1532385457.422,26.855,27.832,22.949,14.648,19.043
1532385457.426,24.902,20.020,26.367,19.043,33.203
1532385457.430,27.832,19.531,33.203,20.508,27.832
1532385457.434,27.832,13.184,37.598,25.391,36.133
1532385457.438,30.273,19.043,41.504,28.809,34.180
1532385457.442,35.645,21.973,37.109,23.926,-1.953
1532385457.446,34.180,20.996,31.738,25.391,15.137
1532385457.450,36.621,30.762,35.156,27.832,39.062
1532385457.454,33.203,24.902,34.668,24.902,20.996
1532385457.457,25.879,20.508,32.227,20.996,2.930
1532385457.461,27.832,26.367,31.738,22.461,12.207
1532385457.465,33.203,22.949,34.668,22.461,35.156
1532385457.469,28.320,20.996,35.645,22.461,35.645
1532385457.473,21.484,17.090,37.109,19.531,70.312
1532385457.477,36.133,16.602,40.039,22.949,48.340
1532385457.481,32.227,20.508,37.598,25.391,-14.648
1532385457.485,16.113,21.484,30.762,21.484,-8.789
1532385457.489,20.508,24.414,29.297,24.902,42.480
1532385457.493,31.250,17.578,34.668,28.320,60.547
1532385457.496,31.738,6.836,31.250,27.344,37.598
1532385457.500,27.832,9.277,29.785,25.391,29.785
1532385457.504,33.691,20.996,40.527,28.809,45.898
1532385457.508,30.762,23.926,43.457,25.879,50.781
1532385457.512,28.320,20.508,41.992,18.066,31.738
1532385457.516,24.414,23.438,40.039,19.043,26.855
1532385457.520,31.250,20.996,41.016,23.926,9.766
1532385457.524,34.668,19.531,41.016,35.156,35.156
1532385457.528,29.785,17.578,40.039,38.086,41.992
1532385457.532,30.273,12.695,37.109,28.320,26.855
1532385457.536,29.297,13.672,35.156,23.926,32.715
1532385457.539,21.484,15.625,32.715,19.043,34.668
1532385457.543,20.508,16.602,30.762,17.090,22.949
1532385457.547,30.273,13.184,34.180,21.484,8.301
1532385457.551,29.785,14.160,34.668,20.020,16.602
1532385457.555,20.020,13.672,33.691,11.719,30.273
1532385457.559,23.926,12.695,29.785,14.160,31.738
1532385457.563,23.926,17.578,32.227,22.949,33.691
1532385457.567,27.344,12.207,35.156,21.973,40.527
1532385457.571,31.250,13.184,28.809,20.508,41.016
1532385457.575,34.180,17.578,31.250,27.832,16.113
1532385457.579,38.086,17.578,41.016,28.809,-8.789
1532385457.582,29.785,15.137,43.457,24.414,3.418
1532385457.586,15.625,10.742,37.598,23.438,15.625
1532385457.590,23.926,15.625,38.574,28.320,34.668
1532385457.594,21.484,18.555,36.621,27.344,28.320
1532385457.598,12.695,12.207,30.273,25.879,-1.465
1532385457.602,10.742,9.277,29.785,27.344,-0.488
1532385457.606,6.348,16.602,31.738,25.879,22.949
1532385457.610,9.766,16.113,33.203,26.367,38.574
1532385457.614,23.438,14.160,32.227,27.832,27.344
1532385457.618,34.668,17.090,28.320,31.738,27.344
1532385457.621,39.551,11.230,24.902,30.762,32.227
1532385457.625,39.062,10.742,29.297,22.461,1.465
1532385457.629,39.062,12.695,33.203,20.508,5.859
1532385457.633,43.457,11.230,33.203,20.996,30.762
1532385457.637,37.109,15.625,31.738,11.230,14.648
1532385457.641,27.832,17.090,30.762,7.812,1.465
1532385457.645,23.926,8.789,27.832,6.836,23.926
1532385457.649,21.484,6.836,27.344,14.160,36.133
1532385457.653,18.066,11.719,29.785,20.996,25.391
1532385457.657,11.719,15.137,28.809,13.672,22.949
1532385457.661,13.672,20.996,28.320,19.531,44.922
1532385457.664,14.160,21.484,28.320,28.320,46.387
1532385457.668,8.301,16.113,29.785,27.832,33.691
1532385457.672,6.836,6.348,36.621,33.203,43.945
1532385457.676,6.836,8.789,35.645,33.203,35.645
1532385457.680,4.395,13.184,28.320,28.809,27.344
1532385457.684,3.418,5.371,28.320,21.973,28.320
1532385457.688,10.742,8.789,28.320,17.090,20.508
1532385457.692,18.066,14.160,21.973,18.555,40.527
1532385457.696,22.461,24.902,20.020,17.578,44.434
1532385457.700,30.273,32.227,22.949,16.602,24.414
1532385457.704,32.715,24.902,20.020,16.602,12.695
1532385457.707,40.527,29.297,21.484,21.973,7.812
1532385457.711,39.062,32.715,30.273,21.973,1.465
1532385457.715,31.738,22.949,31.738,13.184,29.297
1532385457.719,40.527,28.320,29.785,11.719,44.922
1532385457.723,42.480,25.391,30.273,20.508,30.762
1532385457.727,36.133,21.973,33.203,23.926,30.762
1532385457.731,27.832,26.367,31.250,23.438,47.363
1532385457.735,14.160,21.973,24.414,25.391,56.641
1532385457.739,15.625,19.531,26.855,21.484,25.391
1532385457.743,21.973,19.043,37.109,23.438,-6.348
1532385457.746,12.207,19.043,38.574,33.691,-2.930
1532385457.750,10.742,19.043,35.645,35.645,43.945
1532385457.754,17.090,18.555,36.133,28.809,50.781
1532385457.758,14.160,20.996,33.691,24.902,40.039
1532385457.762,20.020,19.531,34.180,25.391,37.109
1532385457.766,22.461,20.996,29.785,23.438,32.227
1532385457.770,20.508,20.996,28.809,21.973,35.156
1532385457.774,24.414,21.484,34.180,21.973,41.016
1532385457.778,25.879,20.508,33.691,19.043,39.062
1532385457.782,23.926,12.695,34.180,15.137,-10.254
1532385457.786,29.785,23.926,31.250,12.207,13.184
1532385457.789,34.668,39.551,33.203,14.160,52.246
1532385457.793,24.902,32.715,40.527,10.254,51.758
1532385457.797,20.020,27.344,40.527,4.395,55.176
1532385457.801,23.926,26.855,37.109,8.789,53.223
1532385457.805,27.344,24.414,30.273,13.184,56.641
1532385457.809,26.367,19.043,33.203,16.602,65.430
1532385457.813,23.438,15.625,38.086,12.695,41.016
1532385457.817,19.043,9.277,37.109,3.418,36.621
1532385457.821,15.625,10.254,36.133,5.371,46.387
1532385457.825,11.230,16.602,32.715,8.301,46.387
1532385457.829,6.836,19.531,30.762,10.254,43.945
1532385457.832,12.207,28.320,31.738,16.113,37.598
1532385457.836,20.996,24.902,34.668,17.090,18.555
1532385457.840,20.996,24.902,37.109,18.555,29.785
1532385457.844,18.066,31.250,38.086,23.438,41.504
1532385457.848,16.602,25.391,36.621,18.555,25.391
1532385457.852,20.996,15.137,35.156,21.484,29.785
1532385457.856,22.461,13.184,36.133,20.996,25.879
1532385457.860,20.508,20.996,34.180,14.160,25.391
1532385457.864,19.531,21.484,38.574,17.578,47.363
1532385457.868,10.742,16.602,41.992,13.672,40.039
1532385457.871,13.672,11.719,41.504,8.301,30.273
1532385457.875,16.113,12.695,38.574,9.277,50.293
1532385457.879,13.672,23.926,34.180,6.348,7.324
1532385457.883,15.137,23.926,31.738,9.277,-9.277
1532385457.887,13.672,20.996,31.738,12.695,13.184
1532385457.891,20.508,24.414,31.738,12.207,29.785
1532385457.895,20.508,23.926,34.180,16.602,41.504
1532385457.899,21.484,25.879,39.062,14.648,7.324
1532385457.903,25.879,25.879,40.039,16.602,-1.953
1532385457.907,25.879,26.367,39.062,16.113,28.809
1532385457.911,23.926,23.438,37.109,8.789,39.551
1532385457.914,23.926,26.855,35.645,11.230,10.254
1532385457.918,20.996,28.320,36.133,13.672,4.883
1532385457.922,20.996,20.996,35.156,14.648,18.555
1532385457.926,19.531,20.996,35.645,13.184,31.738
1532385457.930,13.184,23.926,40.527,8.789,29.297
1532385457.934,16.113,20.020,47.852,13.672,28.320
1532385457.938,14.648,19.531,45.898,15.625,40.527
1532385457.942,10.742,23.438,38.574,8.789,41.016
1532385457.946,17.578,17.090,36.621,13.672,30.273
1532385457.950,13.672,15.625,36.133,16.602,4.883
1532385457.954,10.742,19.531,40.527,11.719,42.480
1532385457.957,19.531,22.949,42.480,10.254,73.730
1532385457.961,14.160,20.996,38.574,12.695,33.691
1532385457.965,6.836,17.578,31.250,12.207,31.250
1532385457.969,11.719,20.508,29.297,11.719,27.832
1532385457.973,12.695,24.414,35.645,13.672,19.531
1532385457.977,19.531,28.809,41.992,15.137,22.949
1532385457.981,29.297,25.879,43.945,19.043,4.883
1532385457.985,28.809,18.555,43.945,24.902,16.602
1532385457.989,27.344,17.090,43.945,27.832,28.809
1532385457.993,28.320,24.414,44.922,30.273,50.781
1532385457.996,24.414,23.926,49.316,25.391,45.898
1532385458.000,27.832,20.508,46.875,17.578,23.438
1532385458.004,27.344,24.902,40.527,22.461,47.852
1532385458.008,16.113,20.508,42.969,20.996,43.457
1532385458.012,17.090,21.484,42.969,17.578,12.695
1532385458.016,16.602,25.879,38.574,10.254,17.090
1532385458.020,12.695,27.344,40.527,6.348,20.508
1532385458.024,11.230,23.926,42.480,11.719,18.066
1532385458.028,15.625,20.508,44.434,15.137,25.391
1532385458.032,22.949,27.344,50.781,16.113,20.996
1532385458.036,21.484,30.273,45.410,14.648,-9.277
1532385458.039,16.113,29.785,36.621,5.859,-8.789
1532385458.043,15.625,24.414,38.574,1.465,25.391
1532385458.047,23.438,16.602,41.504,0.000,27.832
1532385458.051,33.203,21.973,41.504,-3.418,14.648
1532385458.055,42.480,20.508,34.180,3.418,45.410
1532385458.059,32.227,17.090,32.715,7.324,58.105
1532385458.063,20.996,26.855,40.527,17.578,40.527
1532385458.067,18.066,30.273,40.527,23.438,55.664
1532385458.071,13.184,24.902,38.574,25.879,56.152
1532385458.075,14.160,19.531,41.504,26.367,59.082
1532385458.078,9.277,24.414,39.062,24.902,54.199
1532385458.082,6.348,32.227,33.691,24.902,55.176
1532385458.086,5.859,27.832,35.645,21.973,58.105
1532385458.090,5.859,20.508,35.156,14.160,54.688
1532385458.094,3.418,16.113,31.738,13.672,46.875
1532385458.098,8.789,21.973,33.691,17.090,18.555
1532385458.102,17.090,25.879,31.738,14.648,8.301
1532385458.106,13.184,22.461,26.367,18.066,46.875
1532385458.110,14.160,21.484,24.414,20.020,42.969
1532385458.114,13.184,28.320,28.809,13.184,37.598
1532385458.118,14.648,21.973,34.668,11.719,37.109
1532385458.121,14.160,8.789,32.715,14.648,33.203
1532385458.125,11.230,19.043,28.809,12.695,32.715
1532385458.129,18.066,22.949,28.809,11.230,9.766
1532385458.133,7.324,17.578,27.832,15.625,13.184
1532385458.137,-2.441,25.391,25.391,12.695,21.484
1532385458.141,6.348,28.809,24.414,12.207,34.180
1532385458.145,8.789,25.391,26.855,14.160,10.742
1532385458.149,3.418,28.809,28.320,9.277,2.441
1532385458.153,9.766,31.250,31.738,14.160,21.973
1532385458.157,20.020,27.344,31.738,13.672,15.625
1532385458.161,20.020,28.809,23.926,9.277,16.602
1532385458.164,19.531,28.320,26.367,18.066,31.250
1532385458.168,29.785,20.996,31.738,20.508,33.203
1532385458.172,20.996,22.461,27.832,17.090,29.785
1532385458.176,13.672,27.832,24.414,13.672,1.953
1532385458.180,22.949,30.762,25.879,6.836,-34.668
1532385458.184,19.043,24.902,21.484,8.789,-10.254
1532385458.188,15.137,18.555,18.555,9.277,24.414
1532385458.192,16.602,30.273,31.738,12.207,24.902
1532385458.196,13.184,41.504,34.180,16.602,32.715
1532385458.200,16.113,39.551,27.832,8.301,6.348
1532385458.203,20.020,31.738,29.297,6.348,13.672
1532385458.207,18.555,33.203,30.762,13.184,44.434
1532385458.211,21.484,32.227,31.738,13.672,22.949
1532385458.215,16.602,23.926,31.250,13.672,21.973
1532385458.219,18.066,24.414,30.762,21.484,50.293
1532385458.223,20.020,25.391,28.320,19.043,39.062
1532385458.227,21.484,20.020,29.297,13.672,10.254
1532385458.231,20.020,19.531,32.227,13.184,5.859
1532385458.235,18.066,18.555,31.738,11.230,15.137
1532385458.239,22.461,13.184,34.668,20.020,2.930
1532385458.243,25.391,16.602,38.086,24.414,-9.766
1532385458.246,21.973,35.645,35.645,13.184,3.906
1532385458.250,19.531,41.992,34.180,11.719,22.949
1532385458.254,26.367,31.738,37.598,16.602,55.664
1532385458.258,30.762,38.086,42.969,26.367,40.527
1532385458.262,38.574,53.223,42.969,31.738,15.625
1532385458.266,47.363,58.105,43.457,38.086,16.602
1532385458.270,45.898,54.199,49.316,41.992,25.391
1532385458.274,38.574,53.223,49.805,38.086,32.227
1532385458.278,40.039,56.641,44.434,36.621,7.324
1532385458.282,41.016,47.363,40.527,38.574,17.090
1532385458.286,32.715,39.551,36.621,34.668,33.691
1532385458.289,34.180,44.922,31.250,26.855,20.996
1532385458.293,35.645,44.434,28.320,23.926,40.039
1532385458.297,33.203,37.109,26.855,20.996,26.855
1532385458.301,35.645,27.344,24.414,17.578,25.391
1532385458.305,33.691,27.344,20.996,23.438,24.414
1532385458.309,31.250,31.250,21.484,24.414,39.551
1532385458.313,26.855,34.180,18.555,16.602,61.523
1532385458.317,25.391,33.691,14.160,15.137,34.668
1532385458.321,18.555,21.973,15.625,18.066,35.645
1532385458.325,15.625,27.344,15.625,19.531,43.945
1532385458.328,18.066,31.738,19.043,18.066,32.227
1532385458.332,17.090,26.855,18.555,19.043,33.691
1532385458.336,20.996,29.785,11.719,18.555,39.551
1532385458.340,25.879,32.715,5.371,10.742,21.973
1532385458.344,21.973,30.762,3.906,6.348,13.672
1532385458.348,13.672,28.320,9.766,9.277,40.039
1532385458.352,14.648,24.414,5.859,16.113,49.805
1532385458.356,19.531,20.020,3.906,15.625,41.504
1532385458.360,25.391,18.066,11.230,13.184,20.020
1532385458.364,26.367,16.113,11.719,17.090,14.648
1532385458.368,23.438,17.578,11.230,14.160,38.086
1532385458.371,11.719,14.648,12.207,5.859,54.199
1532385458.375,7.324,16.113,9.766,6.348,26.855
1532385458.379,11.230,23.926,4.395,2.930,-7.812
1532385458.383,13.184,26.367,3.906,7.324,7.812
1532385458.387,15.625,30.762,4.883,16.113,35.645
1532385458.391,17.090,22.461,9.277,11.719,52.246
1532385458.395,6.348,16.602,14.648,12.207,37.109
1532385458.399,6.836,21.484,15.137,17.578,18.555
1532385458.403,11.230,19.043,11.719,14.160,45.410
1532385458.407,4.883,16.113,8.789,14.648,41.992
1532385458.411,9.766,16.602,9.277,16.602,40.039
1532385458.414,10.254,10.254,10.742,8.301,57.617
1532385458.418,3.418,14.160,10.254,3.906,43.945
1532385458.422,3.906,22.461,13.184,6.836,22.461
1532385458.426,1.953,17.090,9.766,3.418,10.254
1532385458.430,1.465,11.719,2.441,3.906,-1.953
1532385458.434,1.465,13.184,6.836,0.977,-0.977
1532385458.438,-0.977,17.578,10.742,0.488,-10.742
1532385458.442,1.953,13.184,11.719,3.418,-1.465
1532385458.446,1.953,4.395,10.254,2.441,12.207
1532385458.450,9.277,12.207,7.324,7.812,28.809
1532385458.453,13.672,30.273,12.207,8.301,44.434
1532385458.457,0.977,30.273,12.695,6.348,38.086
1532385458.461,5.371,19.043,9.277,8.301,46.875
1532385458.465,6.836,10.742,8.789,6.836,45.410
1532385458.469,3.906,18.066,6.348,8.789,22.461
1532385458.473,8.789,25.391,1.953,10.254,24.414
1532385458.477,6.836,16.113,2.441,4.395,23.438
1532385458.481,3.906,14.648,2.930,-1.465,3.906
1532385458.485,-0.488,20.508,0.000,-2.441,13.184
1532385458.489,5.859,16.602,6.348,3.418,50.293
1532385458.493,16.113,12.695,11.230,12.207,73.242
1532385458.496,15.137,16.602,11.719,19.043,52.246
1532385458.500,4.883,6.348,13.184,16.113,51.270
1532385458.504,10.254,3.906,16.602,16.113,57.129
1532385458.508,15.137,20.996,14.160,16.602,43.945
1532385458.512,15.137,28.320,5.371,11.719,15.137
1532385458.516,15.137,27.832,5.371,14.648,11.719
1532385458.520,18.555,24.902,6.348,8.301,25.391
1532385458.524,19.531,23.926,3.418,8.789,19.043
1532385458.528,25.879,20.508,3.906,15.137,18.066
1532385458.532,31.250,16.113,11.719,12.207,18.066
1532385458.536,17.090,17.090,17.090,13.672,45.898
1532385458.539,10.742,24.414,16.113,12.207,36.621
1532385458.543,4.395,21.484,15.137,10.742,47.363
1532385458.547,13.184,20.020,12.695,15.137,50.781
1532385458.551,23.438,29.297,16.113,19.531,47.363
1532385458.555,3.906,24.414,15.137,16.602,39.062
1532385458.559,7.324,18.555,13.672,17.578,14.648
1532385458.563,19.043,17.090,18.555,20.020,14.160
1532385458.567,20.508,18.555,20.996,14.160,26.367
1532385458.571,25.391,23.926,18.066,16.602,68.848
1532385458.575,30.273,24.414,14.648,17.090,81.055
1532385458.578,31.738,27.344,18.066,13.672,55.176
1532385458.582,33.691,29.785,17.090,16.113,35.645
1532385458.586,27.832,21.484,18.555,20.020,46.387
1532385458.590,23.438,12.207,18.066,18.066,49.316
1532385458.594,24.902,19.043,11.719,14.648,49.316
1532385458.598,13.184,26.855,14.160,8.789,31.250
1532385458.602,10.742,25.391,17.090,6.348,32.715
1532385458.606,14.648,18.555,12.695,13.184,47.852
1532385458.610,14.160,21.484,11.230,20.508,20.020
1532385458.614,15.625,27.832,13.184,20.020,4.883
1532385458.618,13.672,24.414,18.555,11.719,3.418
1532385458.621,7.812,21.484,24.902,12.695,27.344
1532385458.625,8.301,20.508,23.438,15.625,37.598
1532385458.629,17.578,20.996,16.602,19.531,15.625
1532385458.633,20.020,20.020,9.766,21.484,7.324
1532385458.637,20.996,19.043,7.324,15.137,27.832
1532385458.641,20.996,19.043,6.348,14.160,28.320
1532385458.645,15.625,22.949,4.883,10.254,2.930
1532385458.649,20.020,27.832,5.371,10.742,40.039
1532385458.653,14.648,24.902,4.395,13.672,69.336
1532385458.657,4.395,20.020,4.395,3.906,28.809
1532385458.660,12.207,23.438,8.789,15.625,15.137
1532385458.664,13.184,23.926,9.766,24.414,30.762
1532385458.668,13.672,20.508,7.324,21.973,46.387
1532385458.672,19.531,19.043,13.672,23.926,66.406
1532385458.676,24.902,23.438,14.160,18.066,37.109
1532385458.680,19.531,25.879,9.766,16.602,24.902
1532385458.684,13.672,10.742,10.254,19.043,47.852
1532385458.688,17.090,7.812,12.695,11.719,49.316
1532385458.692,19.043,25.391,14.160,5.371,41.016
1532385458.696,14.648,29.297,15.137,7.812,19.531
1532385458.700,8.789,29.297,17.090,8.789,40.039
1532385458.703,15.625,28.809,17.090,16.602,48.828
1532385458.707,15.625,27.344,17.578,24.902,41.992
1532385458.711,9.766,25.391,14.648,19.043,34.668
1532385458.715,16.113,16.602,16.113,13.184,20.508
1532385458.719,20.508,19.531,16.602,14.648,21.973
1532385458.723,9.277,18.066,14.648,13.184,21.484
1532385458.727,15.137,11.719,15.625,13.672,48.828
1532385458.731,21.973,17.090,14.648,15.137,66.406
1532385458.735,8.789,20.996,14.160,13.672,55.176
1532385458.739,14.648,20.996,16.113,8.789,14.648
1532385458.743,14.648,20.020,14.648,5.371,16.602
1532385458.746,14.160,16.602,10.254,12.695,46.387
1532385458.750,16.113,16.113,14.160,17.578,41.992
1532385458.754,17.090,16.113,22.461,20.020,37.598
1532385458.758,27.344,20.508,21.973,21.484,35.645
1532385458.762,31.738,24.902,15.137,20.020,20.020
1532385458.766,11.719,21.484,12.207,11.230,6.836
1532385458.770,-1.465,20.508,15.137,10.742,19.043
1532385458.774,11.719,20.020,17.090,14.648,48.828
1532385458.778,20.020,21.973,20.508,12.695,11.719
1532385458.782,18.555,21.973,20.996,11.719,-11.719
1532385458.785,23.926,23.438,21.973,17.090,19.043
1532385458.789,30.762,29.785,23.438,19.531,12.695
1532385458.793,32.715,24.902,18.555,11.230,33.203
1532385458.797,39.062,15.625,19.531,7.324,29.297
1532385458.801,44.922,25.391,25.879,12.695,17.578
1532385458.805,44.922,31.250,21.973,10.254,48.340
1532385458.809,38.086,19.531,20.020,7.812,23.926
1532385458.813,32.227,6.836,21.484,17.578,10.254
1532385458.817,25.879,6.836,20.508,18.555,32.227
1532385458.821,14.160,27.832,21.484,16.602,11.719
1532385458.825,19.531,35.156,20.508,22.461,-3.906
1532385458.828,18.555,24.414,21.484,28.809,15.137
1532385458.832,7.812,20.020,24.414,32.715,35.645
1532385458.836,7.324,23.438,25.879,37.598,32.227
1532385458.840,9.766,20.508,28.809,35.156,23.926
1532385458.844,10.742,17.090,28.320,26.855,36.133
1532385458.848,8.789,24.902,26.367,26.367,15.625
1532385458.852,8.789,26.367,28.809,24.902,26.855
1532385458.856,8.789,20.020,29.785,21.484,25.879
1532385458.860,8.789,21.973,29.297,16.113,10.742
1532385458.864,9.277,18.555,25.879,12.695,30.273
1532385458.868,12.207,19.043,19.531,20.508,27.832
1532385458.871,10.742,25.391,20.020,16.113,11.719
1532385458.875,11.719,20.508,25.391,19.043,27.832
1532385458.879,17.578,21.973,25.879,20.508,24.414
1532385458.883,12.207,24.414,19.531,13.672,30.762
1532385458.887,6.836,25.879,17.578,18.555,27.832
1532385458.891,9.766,21.973,24.414,16.113,29.785
1532385458.895,9.766,19.531,24.414,14.648,34.180
1532385458.899,10.254,22.461,19.531,21.484,29.297
1532385458.903,18.066,24.414,23.438,21.973,32.227
1532385458.907,30.273,23.438,31.738,25.879,33.691
1532385458.910,31.738,26.855,35.156,33.691,37.109
1532385458.914,26.855,30.273,34.668,33.203,33.691
1532385458.918,23.438,28.809,27.832,25.391,27.832
1532385458.922,19.043,29.297,19.531,19.043,50.293
1532385458.926,16.113,26.855,20.020,17.578,63.477
1532385458.930,17.090,25.879,23.438,15.137,41.992
1532385458.934,14.160,21.973,24.414,16.602,15.625
1532385458.938,15.137,20.020,23.438,13.184,9.766
1532385458.942,15.625,17.578,22.461,9.277,11.719
1532385458.946,18.555,20.996,23.438,16.602,-14.648
1532385458.950,24.902,18.066,21.484,22.461,13.184
1532385458.953,23.926,9.766,18.066,20.996,51.270
1532385458.957,24.902,18.066,13.184,17.578,46.387
1532385458.961,30.762,23.438,18.555,19.531,48.340
1532385458.965,24.414,24.902,21.973,19.043,52.246
1532385458.969,18.066,18.066,19.043,19.531,62.988
1532385458.973,24.902,16.602,20.020,17.578,81.543
1532385458.977,22.461,20.020,23.926,13.672,70.312
1532385458.981,19.043,17.578,23.438,15.137,26.855
1532385458.985,20.020,20.508,21.973,14.160,30.762
1532385458.989,22.949,24.902,22.949,13.672,29.297
1532385458.993,30.273,22.461,21.973,15.137,33.691
1532385458.996,28.320,13.184,19.043,11.719,-6.348
1532385459.000,22.461,13.184,19.531,11.719,-41.016
1532385459.004,20.508,26.367,19.043,14.648,17.578
1532385459.008,20.996,23.438,18.555,11.719,45.410
1532385459.012,19.531,16.602,21.973,11.719,57.129
1532385459.016,19.043,22.461,19.043,12.207,22.949
1532385459.020,24.414,22.461,15.137,7.324,-1.465
1532385459.024,24.414,22.461,15.625,6.348,24.414
1532385459.028,34.668,22.949,16.113,12.207,34.668
1532385459.032,34.668,25.879,11.230,13.184,4.883
1532385459.035,23.926,22.949,14.160,8.301,-18.555
1532385459.039,17.090,13.184,20.020,6.836,7.324
1532385459.043,17.578,12.695,18.555,11.230,24.414
1532385459.047,21.973,17.578,22.461,9.277,20.996
1532385459.051,20.508,15.137,19.043,9.277,21.484
1532385459.055,18.555,20.996,13.184,9.766,12.207
1532385459.059,20.020,32.715,15.625,6.836,27.832
1532385459.063,19.043,29.297,17.090,7.812,30.273
1532385459.067,10.254,21.484,18.555,10.254,8.301
1532385459.071,9.277,19.043,16.113,9.277,16.602
1532385459.075,17.578,19.531,15.137,15.137,34.668
1532385459.078,19.043,16.113,17.090,18.066,7.812
1532385459.082,14.160,17.090,16.113,2.441,-7.324
1532385459.086,9.766,19.043,11.719,1.953,16.113
1532385459.090,8.301,18.555,7.812,6.348,19.531
1532385459.094,8.301,21.484,4.395,2.930,16.113
1532385459.098,5.371,12.207,4.395,4.883,9.766
1532385459.102,0.000,10.254,13.184,5.859,56.152
1532385459.106,6.348,23.438,14.160,6.348,67.383
1532385459.110,11.230,16.602,7.812,6.348,29.297
1532385459.114,14.160,15.137,11.719,7.324,20.996
1532385459.118,17.578,24.902,11.230,4.395,13.672
1532385459.121,13.184,24.902,11.230,3.906,45.410
1532385459.125,9.766,20.508,15.625,13.672,52.734
1532385459.129,15.625,20.996,14.648,13.672,29.785
1532385459.133,16.602,19.531,17.090,7.812,22.461
1532385459.137,12.695,13.184,14.648,13.672,15.625
1532385459.141,12.207,17.578,10.742,13.184,59.570
1532385459.145,15.625,19.043,13.672,9.277,72.754
1532385459.149,15.625,18.066,13.672,18.555,42.480
1532385459.153,13.672,21.973,7.812,16.113,47.363
1532385459.157,16.113,13.672,12.207,9.277,65.918
1532385459.160,18.066,5.859,17.090,7.324,66.406
1532385459.164,15.625,16.113,16.602,7.324,27.832
1532385459.168,14.648,14.648,14.160,10.254,6.348
1532385459.172,18.555,12.207,14.648,15.137,32.715
1532385459.176,19.531,21.973,15.137,13.672,16.113
1532385459.180,24.414,19.043,11.719,12.207,-19.531
1532385459.184,27.832,15.137,14.160,15.625,14.160
1532385459.188,23.926,17.090,19.531,17.578,59.082
1532385459.192,26.367,13.184,22.461,24.414,65.430
1532385459.196,31.738,15.625,20.996,29.297,38.574
1532385459.200,26.367,19.531,22.461,21.484,46.387
1532385459.203,21.484,21.973,22.949,16.113,56.152
1532385459.207,24.414,23.926,20.996,22.461,39.062
1532385459.211,33.691,31.250,24.902,23.438,25.879
1532385459.215,32.715,30.273,26.855,25.391,31.250
1532385459.219,22.949,26.855,29.785,26.855,39.551
1532385459.223,22.949,29.785,36.133,19.531,37.598
1532385459.227,21.973,24.902,39.062,20.508,39.551
1532385459.231,25.879,21.973,37.109,25.879,30.762
1532385459.235,30.273,29.785,35.645,24.902,41.504
1532385459.239,33.203,36.133,43.457,26.855,27.344
1532385459.242,29.785,33.203,49.805,25.391,17.578
1532385459.246,20.508,23.926,42.969,20.996,35.645
1532385459.250,24.414,21.484,36.133,26.367,27.344
1532385459.254,23.926,28.809,35.156,24.902,40.039
1532385459.258,20.020,24.902,42.480,20.996,56.152
1532385459.262,21.973,6.836,48.828,21.973,42.480
1532385459.266,21.484,9.277,43.457,18.066,17.090
1532385459.270,18.555,24.902,39.551,22.461,16.602
1532385459.274,17.578,29.785,38.574,25.879,69.336
1532385459.278,20.996,31.738,44.922,21.484,53.223
1532385459.282,23.926,36.133,51.758,18.066,10.742
1532385459.285,21.973,30.273,46.875,17.578,52.734
1532385459.289,21.484,20.508,41.504,18.555,52.246
1532385459.293,25.879,19.531,42.480,19.531,54.199
1532385459.297,30.273,22.949,44.434,21.484,57.617
1532385459.301,20.996,20.996,44.434,20.508,31.250
1532385459.305,17.090,18.555,45.410,18.066,44.434
1532385459.309,12.695,21.484,43.945,16.602,46.387
1532385459.313,5.859,20.996,39.551,10.254,27.832
1532385459.317,10.254,15.625,36.621,10.742,41.992
1532385459.321,12.207,18.555,35.645,14.160,41.992
1532385459.325,19.531,26.367,34.180,20.020,37.109
1532385459.328,23.438,21.973,40.039,19.531,22.461
1532385459.332,21.973,16.113,41.504,19.531,8.301
1532385459.336,22.949,22.461,40.039,24.902,34.668
1532385459.340,18.066,20.508,40.039,20.020,42.480
1532385459.344,21.973,18.066,39.062,16.113,38.086
1532385459.348,28.320,22.949,37.598,20.508,34.180
1532385459.352,22.949,19.043,34.668,21.484,35.645
1532385459.356,19.043,13.184,40.527,20.996,41.016
1532385459.360,20.020,15.625,41.992,17.090,32.227
1532385459.364,20.508,19.531,37.109,18.555,35.156
1532385459.367,18.066,19.531,35.156,20.020,24.902
1532385459.371,24.902,28.320,38.086,14.160,20.508
1532385459.375,24.902,30.762,35.156,12.695,25.391
1532385459.379,14.160,25.879,34.180,10.254,6.836
1532385459.383,15.625,20.508,38.574,9.277,15.625
1532385459.387,20.020,14.648,41.016,7.812,18.555
1532385459.391,22.461,13.672,39.551,10.254,23.438
1532385459.395,25.879,16.602,39.062,13.184,24.902
1532385459.399,20.996,23.926,39.551,13.184,20.020
1532385459.403,13.184,29.785,41.504,17.090,35.156
1532385459.407,19.043,31.738,41.992,20.508,41.504
1532385459.410,19.043,23.926,31.250,20.020,45.898
1532385459.414,18.555,19.531,33.203,18.555,38.574
1532385459.418,27.832,28.809,43.945,20.508,5.371
1532385459.422,26.367,29.785,41.504,13.184,11.230
1532385459.426,13.672,22.461,34.180,10.254,55.664
1532385459.430,7.324,26.367,31.250,7.812,41.016
1532385459.434,8.789,29.297,38.086,4.395,46.875
1532385459.438,5.859,25.391,38.574,5.859,58.594
1532385459.442,6.348,25.879,34.180,3.906,28.809
1532385459.446,7.324,25.391,37.109,7.812,29.785
1532385459.450,8.789,23.438,37.109,6.836,52.734
1532385459.453,13.184,27.344,30.273,4.883,41.016
1532385459.457,7.324,35.156,30.762,4.883,52.734
1532385459.461,8.301,36.621,41.016,5.859,12.207
1532385459.465,17.578,32.715,34.668,7.324,-15.137
1532385459.469,19.531,24.902,31.250,8.789,14.648
1532385459.473,3.906,19.531,40.527,12.695,27.832
1532385459.477,3.906,22.949,39.551,7.812,35.645
1532385459.481,12.207,24.414,43.457,9.277,26.367
1532385459.485,19.043,20.020,45.410,14.160,14.160
1532385459.489,22.461,22.461,41.992,17.578,8.301
1532385459.492,18.066,37.109,43.945,18.555,55.176
1532385459.496,17.090,42.480,49.805,22.461,47.852
1532385459.500,18.066,39.062,47.852,23.438,0.977
1532385459.504,22.461,38.086,45.898,21.484,-6.836
1532385459.508,27.344,31.250,41.504,20.996,42.480
1532385459.512,17.090,20.996,33.203,22.461,62.500
1532385459.516,15.625,17.578,37.598,22.949,44.434
1532385459.520,21.973,23.926,42.969,17.578,36.621
1532385459.524,26.367,32.227,43.945,23.438,16.602
1532385459.528,27.832,31.250,45.898,23.926,9.277
1532385459.532,20.020,25.879,49.316,20.508,46.875
1532385459.535,19.531,23.438,54.688,22.949,52.246
1532385459.539,20.508,21.973,48.340,20.996,40.039
1532385459.543,14.160,24.902,42.969,17.578,34.180
1532385459.547,20.508,26.855,46.387,19.531,5.859
1532385459.551,33.203,25.879,44.434,20.020,6.836
1532385459.555,31.250,22.461,42.480,14.648,44.922
1532385459.559,33.203,16.602,42.969,8.301,34.668
1532385459.563,43.945,20.020,39.551,9.277,22.949
1532385459.567,41.992,21.973,33.691,13.184,21.973
1532385459.571,34.180,18.066,34.180,20.508,19.531
1532385459.575,28.809,16.113,42.480,29.785,32.715
1532385459.578,22.949,11.230,42.969,36.133,21.484
1532385459.582,22.949,13.672,38.574,30.762,25.391
1532385459.586,15.625,23.438,46.875,21.973,13.184
1532385459.590,10.254,25.391,51.758,21.484,-1.465
1532385459.594,10.742,17.578,46.875,25.391,17.090
1532385459.598,5.371,11.230,43.945,26.855,14.160
1532385459.602,11.230,12.695,41.992,23.438,4.395
1532385459.606,6.348,19.531,42.480,20.020,10.254
1532385459.610,1.953,15.625,45.410,20.508,5.859
1532385459.614,11.230,9.277,44.434,22.461,6.836
1532385459.617,21.484,11.719,44.434,18.555,12.207
1532385459.621,19.531,15.137,47.852,17.090,22.949
1532385459.625,12.695,13.184,45.410,20.020,34.668
1532385459.629,14.648,11.230,39.551,18.066,30.273
1532385459.633,12.695,6.836,43.945,21.484,32.227
1532385459.637,15.625,1.465,47.363,22.949,41.504
1532385459.641,19.531,14.648,44.434,17.578,42.969
1532385459.645,10.254,25.879,39.062,18.066,59.082
1532385459.649,10.742,24.902,36.133,17.578,52.246
1532385459.653,20.996,23.926,33.203,18.555,59.570
1532385459.657,21.973,16.602,33.691,21.484,56.152
1532385459.660,20.996,8.301,42.480,12.695,14.648
1532385459.664,21.484,12.207,49.316,21.973,-2.930
1532385459.668,20.020,16.113,47.363,30.273,44.922
1532385459.672,22.461,13.672,42.969,16.602,68.848
1532385459.676,20.996,17.090,39.551,18.066,31.738
1532385459.680,17.090,19.043,42.480,21.484,-9.277
1532385459.684,27.832,17.090,46.387,22.949,7.812
1532385459.688,27.344,22.949,44.434,28.320,41.992
1532385459.692,19.043,25.879,40.039,25.879,47.852
1532385459.696,22.461,22.461,40.527,27.832,38.086
1532385459.700,20.508,12.695,47.363,23.926,-1.465
1532385459.703,25.391,13.184,41.016,22.461,9.277
1532385459.707,22.949,20.996,36.621,24.902,57.617
1532385459.711,20.996,17.090,43.457,17.578,41.992
1532385459.715,20.020,18.066,42.969,10.742,24.414
1532385459.719,17.090,21.484,43.457,8.301,47.852
1532385459.723,24.414,24.414,41.504,8.789,37.598
1532385459.727,20.020,20.508,41.504,7.324,35.645
1532385459.731,13.184,18.555,41.504,5.371,60.059
1532385459.735,15.625,21.973,41.016,10.742,51.270
1532385459.739,22.949,18.066,43.457,16.113,28.320
1532385459.742,19.531,16.113,40.039,17.090,32.715
1532385459.746,13.184,20.020,38.574,16.602,24.902
1532385459.750,23.438,19.043,42.969,18.555,36.621
1532385459.754,21.973,18.555,45.898,20.020,26.855
1532385459.758,18.555,20.508,42.480,18.555,14.160
1532385459.762,24.902,20.020,39.551,10.742,35.156
1532385459.766,17.578,17.090,40.039,7.324,23.438
1532385459.770,6.836,16.602,40.039,6.348,23.438
1532385459.774,7.812,19.043,37.109,1.953,28.320
1532385459.778,13.184,13.184,40.527,-1.465,1.953
1532385459.782,19.043,11.230,43.945,-0.977,-9.766
1532385459.785,16.602,20.996,39.062,1.465,12.695
1532385459.789,13.672,19.043,35.645,3.906,38.574
1532385459.793,19.043,16.113,35.156,9.766,42.969
1532385459.797,19.531,20.508,37.109,6.836,30.273
1532385459.801,20.996,18.555,30.273,2.930,-6.836
1532385459.805,19.531,17.090,21.484,6.348,20.508
1532385459.809,18.066,20.020,34.180,11.230,54.199
1532385459.813,21.973,19.531,44.922,15.137,31.738
1532385459.817,22.461,15.625,44.434,13.184,-0.488
1532385459.821,15.137,17.578,41.992,14.648,12.207
1532385459.824,17.578,20.508,41.992,20.996,38.086
1532385459.828,24.902,17.578,42.969,21.973,20.508
1532385459.832,16.113,18.066,37.598,16.602,35.156
1532385459.836,10.742,16.602,32.715,9.766,43.457
1532385459.840,17.578,15.137,32.227,11.719,47.363
1532385459.844,15.625,15.625,28.809,12.207,47.363
1532385459.848,15.137,15.625,24.902,14.160,31.250
1532385459.852,25.879,19.043,33.691,20.508,36.133
1532385459.856,22.461,13.672,41.504,20.020,42.969
1532385459.860,14.160,16.113,37.598,16.113,22.461
1532385459.864,13.184,20.508,37.109,16.113,19.043
1532385459.867,14.160,18.066,38.574,16.602,34.180
1532385459.871,17.578,16.113,40.039,18.066,51.758
1532385459.875,21.484,17.578,36.621,21.973,50.781
1532385459.879,16.602,15.625,35.156,20.996,21.484
1532385459.883,13.184,9.277,39.062,19.043,5.859
1532385459.887,10.742,11.719,39.062,18.555,23.438
1532385459.891,10.254,19.531,39.062,20.508,59.082
1532385459.895,10.742,18.066,38.574,21.484,46.875
1532385459.899,7.324,13.184,36.133,14.648,2.930
1532385459.903,14.160,8.789,37.109,15.625,20.996
1532385459.907,20.508,6.348,38.574,19.043,45.410
1532385459.910,20.996,12.207,36.621,17.090,24.414
1532385459.914,22.949,20.508,26.367,18.555,17.578
1532385459.918,13.672,17.090,28.809,16.602,27.344
1532385459.922,15.137,13.672,40.527,16.602,18.066
1532385459.926,20.508,16.113,40.039,19.531,15.625
1532385459.930,22.949,16.602,31.738,14.160,34.180
1532385459.934,22.949,13.184,27.344,15.137,27.832
1532385459.938,24.414,12.695,31.250,16.602,9.766
1532385459.942,22.461,17.090,36.133,15.137,32.227
1532385459.946,15.625,20.508,34.180,19.531,41.504
1532385459.949,11.230,14.648,26.855,15.625,31.250
1532385459.953,2.930,7.324,25.879,9.277,30.273
1532385459.957,13.184,3.418,32.227,8.789,22.949
1532385459.961,13.672,7.812,23.438,3.906,12.695
1532385459.965,3.906,16.113,18.066,9.766,26.367
1532385459.969,12.695,17.090,27.344,17.090,49.316
1532385459.973,16.113,16.602,31.738,23.926,52.246
1532385459.977,20.020,15.625,31.250,28.320,21.484
1532385459.981,26.367,12.207,25.879,23.438,4.883
1532385459.985,29.785,15.625,25.391,28.320,38.086
1532385459.989,31.738,17.090,27.344,30.762,74.219
1532385459.992,29.297,13.672,29.297,28.809,62.012
1532385459.996,21.973,13.184,28.809,31.250,11.719
1532385460.000,22.461,17.090,25.879,15.625,-4.395
1532385460.004,31.250,22.949,21.973,14.648,24.414
1532385460.008,32.715,20.996,22.461,21.973,40.527
1532385460.012,32.715,17.090,23.438,19.043,25.879
1532385460.016,31.250,19.531,22.949,18.555,19.043
1532385460.020,22.461,20.020,23.438,14.160,17.090
1532385460.024,20.508,15.625,25.391,21.484,40.039
1532385460.028,27.832,13.184,26.367,24.414,54.199
1532385460.032,26.367,24.414,20.020,19.531,49.805
1532385460.035,22.461,26.367,23.438,25.391,62.988
1532385460.039,31.738,14.648,28.320,27.344,61.035
1532385460.043,31.250,17.090,25.391,24.902,51.758
1532385460.047,24.902,21.973,26.855,30.273,32.715
1532385460.051,29.297,19.043,27.344,28.809,21.973
1532385460.055,24.902,18.555,22.461,17.578,43.945
1532385460.059,18.555,13.672,21.973,14.160,38.574
1532385460.063,15.625,18.555,26.367,18.066,10.254
1532385460.067,15.137,19.531,31.250,19.043,41.504
1532385460.071,16.113,15.625,31.738,19.043,55.664
1532385460.074,12.695,22.461,29.785,18.555,53.223
1532385460.078,6.836,24.902,24.902,6.348,24.414
1532385460.082,6.836,18.555,14.160,-1.953,11.230
1532385460.086,10.742,20.996,19.043,7.324,52.246
1532385460.090,7.812,20.996,27.344,13.184,50.781
1532385460.094,10.254,18.066,27.344,9.277,50.293
1532385460.098,12.207,17.090,30.273,12.207,36.133
1532385460.102,9.277,13.184,33.203,17.090,45.898
1532385460.106,15.137,16.602,32.715,16.602,65.430
1532385460.110,23.926,25.391,30.273,16.602,44.434
1532385460.114,21.973,28.320,31.250,18.555,28.809
1532385460.117,20.020,30.762,28.320,23.926,27.832
1532385460.121,29.297,34.180,22.461,23.926,17.578
1532385460.125,31.738,25.879,21.973,22.949,39.062
1532385460.129,26.855,20.996,29.297,21.973,45.410
1532385460.133,20.020,19.531,29.297,19.043,47.363
1532385460.137,22.949,16.113,26.855,13.672,33.691
1532385460.141,31.738,20.996,34.180,10.742,11.230
1532385460.145,36.133,32.715,31.738,14.160,31.250
1532385460.149,39.551,39.062,27.344,17.578,14.160
1532385460.153,44.922,34.180,32.227,27.344,-3.906
1532385460.157,50.781,25.391,33.691,29.785,40.527
1532385460.160,49.805,24.414,30.762,25.391,33.691
1532385460.164,48.340,29.785,33.203,27.344,27.832
1532385460.168,45.898,32.715,36.133,33.203,32.715
1532385460.172,41.016,30.273,41.016,37.109,47.852
1532385460.176,34.668,24.902,40.039,34.668,44.434
1532385460.180,32.715,26.367,37.109,31.250,25.879
1532385460.184,44.434,34.668,41.504,31.738,58.105
1532385460.188,52.246,39.551,43.457,35.156,59.082
1532385460.192,41.992,31.250,38.086,30.762,40.527
1532385460.196,33.203,26.855,34.180,25.879,15.625
1532385460.199,29.785,35.156,36.621,26.367,21.973
1532385460.203,22.949,29.297,39.062,21.484,41.504
1532385460.207,24.902,22.461,45.898,25.879,33.691
1532385460.211,30.273,30.273,50.293,34.180,31.250
1532385460.215,35.156,30.273,48.340,32.227,33.203
1532385460.219,40.527,30.762,46.387,20.508,19.043
1532385460.223,38.574,44.434,38.086,18.555,48.340
1532385460.227,27.344,51.758,39.551,26.367,64.453
1532385460.231,26.855,38.574,46.875,25.391,59.570
1532385460.235,28.809,33.203,48.340,27.832,73.242
1532385460.239,31.250,40.039,44.922,33.203,48.828
1532385460.242,32.227,38.086,41.016,33.203,26.367
1532385460.246,34.668,34.668,44.922,38.574,44.434
1532385460.250,35.156,35.156,48.828,41.016,75.684
1532385460.254,35.645,32.227,52.734,37.598,59.570
1532385460.258,31.250,25.391,52.246,35.645,37.109
1532385460.262,29.785,25.391,44.922,29.297,37.109
1532385460.266,39.062,29.297,47.363,29.785,49.316
1532385460.270,27.344,27.344,50.293,34.180,51.758
1532385460.274,25.391,33.203,45.898,32.715,54.199
1532385460.278,35.645,42.480,48.340,36.133,32.227
1532385460.282,35.156,40.527,49.316,34.180,4.395
1532385460.285,30.273,28.320,40.527,23.438,48.340
1532385460.289,36.621,27.832,39.062,28.320,46.387
1532385460.293,37.109,30.762,40.527,35.645,5.859
1532385460.297,41.504,25.879,45.898,34.668,4.883
1532385460.301,48.340,31.250,53.711,29.785,0.488
1532385460.305,45.410,31.738,53.711,22.461,-4.883
1532385460.309,49.316,38.574,44.922,20.996,20.508
1532385460.313,52.734,42.480,41.016,19.531,30.273
1532385460.317,56.152,36.621,42.480,23.926,19.043
1532385460.321,51.758,34.668,45.410,34.668,22.461
1532385460.324,36.133,30.273,45.410,33.691,17.090
1532385460.328,30.273,25.391,44.434,35.156,28.809
1532385460.332,28.809,27.832,45.410,44.434,29.785
1532385460.336,32.715,32.227,44.434,45.898,11.230
1532385460.340,40.039,29.785,47.852,45.898,2.441
1532385460.344,32.715,34.180,47.852,43.945,15.137
1532385460.348,26.855,41.992,43.457,41.504,6.348
1532385460.352,26.855,37.109,42.480,39.062,-3.906
1532385460.356,27.344,32.227,37.109,33.203,20.996
1532385460.360,28.320,35.156,32.227,33.691,37.598
1532385460.364,28.809,31.738,32.227,34.180,49.805
1532385460.367,30.762,29.785,26.855,33.691,53.711
1532385460.371,22.949,29.297,24.414,30.273,56.152
1532385460.375,26.367,26.855,24.902,27.344,57.129
1532385460.379,31.250,31.250,21.484,22.461,34.668
1532385460.383,35.156,35.645,16.602,21.484,21.484
1532385460.387,36.133,38.574,15.137,27.344,14.648
1532385460.391,37.109,43.457,21.973,27.832,0.488
1532385460.395,41.016,36.621,26.367,26.367,-8.301
1532385460.399,36.133,28.320,29.785,25.391,-15.625
1532385460.403,36.621,36.133,28.320,30.273,-13.184
1532385460.407,38.086,35.156,25.879,37.598,16.113
1532385460.410,36.621,31.250,20.996,34.180,13.672
1532385460.414,36.621,33.203,15.625,32.227,7.812
1532385460.418,32.715,28.809,20.508,25.391,6.348
1532385460.422,29.297,29.297,24.414,22.949,22.461
1532385460.426,33.691,32.715,22.461,26.367,55.176
1532385460.430,39.062,30.273,19.531,27.344,43.945
1532385460.434,40.039,22.461,18.066,31.250,42.480
1532385460.438,43.457,20.996,18.555,35.156,58.594
1532385460.442,38.086,31.738,22.461,35.645,51.758
1532385460.446,28.320,37.109,17.090,30.273,28.320
1532385460.449,31.250,32.715,16.113,29.297,39.062
1532385460.453,34.668,28.809,19.043,27.344,55.176
1532385460.457,36.133,18.555,17.578,26.855,23.926
1532385460.461,38.086,20.020,16.602,26.855,4.883
1532385460.465,27.344,31.738,16.602,17.578,13.672
1532385460.469,24.414,28.320,9.766,18.066,7.812
1532385460.473,29.297,25.879,8.301,24.902,17.578
1532385460.477,37.109,31.738,10.742,25.391,40.527
1532385460.481,37.109,31.738,12.695,24.414,41.992
1532385460.485,29.297,31.738,16.113,26.367,26.367
1532385460.489,30.273,33.691,14.160,27.344,16.602
1532385460.492,38.574,32.227,16.602,30.273,30.762
1532385460.496,45.410,28.320,18.555,31.738,13.672
1532385460.500,35.156,27.344,17.090,26.855,-5.371
1532385460.504,30.762,36.621,11.719,23.438,8.789
1532385460.508,36.133,41.016,7.812,20.996,10.254
1532385460.512,33.203,31.738,10.254,20.508,-4.395
1532385460.516,31.250,24.902,15.137,25.391,5.371
1532385460.520,32.227,24.414,16.602,23.438,37.109
1532385460.524,29.297,21.484,16.113,22.461,30.273
1532385460.528,25.879,26.367,15.625,16.113,4.883
1532385460.531,26.367,28.809,15.625,15.625,19.043
1532385460.535,36.133,28.320,11.719,22.949,24.902
1532385460.539,41.016,30.273,8.301,17.578,25.879
1532385460.543,33.691,32.227,17.578,18.555,27.832
1532385460.547,33.691,27.344,17.578,27.344,13.672
1532385460.551,39.551,26.367,8.789,22.461,28.320
1532385460.555,36.133,29.785,12.695,24.414,43.457
1532385460.559,36.621,22.949,22.949,31.250,17.578
1532385460.563,41.504,24.414,25.879,31.250,20.508
1532385460.567,38.086,32.227,23.438,29.785,41.016
1532385460.571,26.855,27.344,15.137,30.273,51.758
1532385460.574,31.250,23.438,13.672,33.203,58.105
1532385460.578,37.109,30.273,18.066,29.297,57.617
1532385460.582,30.762,27.344,14.648,30.762,43.457
1532385460.586,30.762,17.090,10.742,27.832,35.156
1532385460.590,22.949,23.438,15.625,21.973,67.871
1532385460.594,37.109,36.621,20.508,29.297,61.523
1532385460.598,38.086,30.762,20.020,28.320,22.949
1532385460.602,29.297,18.555,12.695,20.508,18.066
1532385460.606,30.273,24.414,14.160,20.996,38.574
1532385460.610,15.625,24.414,20.020,23.438,59.570
1532385460.614,26.855,23.438,18.555,24.902,56.641
1532385460.617,35.645,27.832,16.113,23.926,49.316
1532385460.621,29.297,30.762,12.695,21.484,48.828
1532385460.625,33.203,26.367,9.766,25.391,22.949
1532385460.629,34.180,26.855,16.113,28.320,20.508
1532385460.633,27.344,39.062,21.973,30.273,43.945
1532385460.637,25.879,34.180,15.625,23.926,21.484
1532385460.641,23.926,20.508,17.090,20.020,16.602
1532385460.645,25.879,29.785,18.555,23.926,24.414
1532385460.649,34.668,39.551,15.137,21.484,28.320
1532385460.653,32.715,32.715,17.578,23.438,67.871
1532385460.656,29.297,22.949,17.090,32.227,64.941
1532385460.660,34.668,22.461,18.066,33.691,53.223
1532385460.664,33.691,27.344,25.391,29.785,45.410
1532385460.668,35.156,26.367,25.879,31.738,19.531
1532385460.672,33.203,22.949,26.367,28.320,24.902
1532385460.676,34.668,20.996,25.391,22.461,31.250
1532385460.680,37.598,29.297,21.484,22.461,13.184
1532385460.684,27.344,31.738,16.602,23.926,43.457
1532385460.688,26.855,25.391,21.973,25.879,51.270
1532385460.692,30.762,30.762,23.926,25.879,36.621
1532385460.696,34.180,37.109,20.508,22.949,20.508
1532385460.699,33.203,24.414,23.926,25.391,29.297
1532385460.703,34.180,16.602,25.879,28.320,37.109
1532385460.707,28.320,24.414,29.297,27.832,39.551
1532385460.711,28.320,27.832,27.832,31.738,45.410
1532385460.715,33.203,20.508,23.438,27.832,19.531
1532385460.719,31.738,13.672,23.438,18.066,15.137
1532385460.723,31.250,20.508,17.578,21.484,11.719
1532385460.727,30.762,23.926,16.602,24.414,14.160
1532385460.731,35.645,27.344,21.484,26.367,12.207
1532385460.735,30.762,31.738,22.949,33.203,18.555
1532385460.739,26.367,25.391,25.391,31.738,18.066
1532385460.742,33.691,18.066,24.902,30.273,19.531
1532385460.746,33.691,17.090,22.461,34.180,22.949
1532385460.750,38.574,24.414,19.043,31.738,-11.230
1532385460.754,33.691,28.809,22.949,35.156,11.230
1532385460.758,25.391,26.367,29.785,38.574,33.691
1532385460.762,25.879,26.855,28.320,31.738,20.996
1532385460.766,29.297,26.855,28.320,28.320,21.973
1532385460.770,37.109,30.273,25.879,24.902,20.996
1532385460.774,34.668,29.297,21.484,23.926,32.227
1532385460.778,33.691,25.879,21.973,27.344,30.273
1532385460.781,34.668,23.438,24.414,28.320,20.508
1532385460.785,39.551,25.391,23.926,24.902,34.180
1532385460.789,41.016,30.273,22.461,34.180,48.340
1532385460.793,38.574,31.250,23.926,35.645,26.367
1532385460.797,38.574,32.715,21.484,35.156,17.090
1532385460.801,43.945,28.320,19.043,42.969,39.551
1532385460.805,39.062,25.879,21.484,38.574,31.250
1532385460.809,31.250,29.297,24.902,34.668,15.625
1532385460.813,41.992,28.809,27.344,37.109,25.879
1532385460.817,38.086,28.809,25.391,30.762,17.578
1532385460.821,32.715,26.855,21.484,18.555,-5.859
1532385460.824,36.621,25.391,21.484,18.555,-3.418
1532385460.828,22.461,31.250,23.926,21.973,14.160
1532385460.832,18.555,30.762,25.879,22.949,15.137
1532385460.836,23.926,24.414,23.438,27.832,30.273
1532385460.840,23.926,24.414,18.555,30.273,41.016
1532385460.844,25.879,23.926,21.484,27.832,29.785
1532385460.848,25.391,26.367,23.438,27.344,25.391
1532385460.852,43.457,32.227,25.391,29.785,37.109
1532385460.856,46.387,31.250,26.855,35.645,49.805
1532385460.860,22.949,17.578,27.344,34.180,38.086
1532385460.864,27.344,12.695,24.902,31.738,-0.488
1532385460.867,35.645,26.855,22.949,32.715,14.160
1532385460.871,31.250,31.250,20.996,27.832,53.711
1532385460.875,34.180,27.344,22.461,31.738,41.992
1532385460.879,44.434,29.297,20.508,33.203,25.391
1532385460.883,38.086,34.180,19.531,31.250,21.484
1532385460.887,33.203,32.715,28.809,35.645,43.945
1532385460.891,37.109,34.180,32.227,35.645,47.852
1532385460.895,36.133,40.039,28.320,32.715,24.902
1532385460.899,35.156,31.738,21.484,32.227,6.836
1532385460.903,36.621,23.438,23.438,34.180,20.996
1532385460.906,40.527,30.762,30.762,36.133,43.457
1532385460.910,36.133,37.598,21.973,26.855,30.273
1532385460.914,25.879,32.715,20.508,23.926,29.297
1532385460.918,31.738,25.391,31.250,28.320,17.578
1532385460.922,38.086,36.621,30.762,30.273,0.488
1532385460.926,37.598,45.898,28.320,38.574,28.809
1532385460.930,40.039,43.945,27.344,40.039,26.855
1532385460.934,39.062,41.016,25.391,38.086,31.738
1532385460.938,41.504,36.133,29.785,41.016,33.203
1532385460.942,41.992,33.691,39.062,40.527,26.855
1532385460.946,35.645,38.086,37.109,33.203,36.133
1532385460.949,38.574,42.480,30.273,29.297,51.270
1532385460.953,45.410,37.109,35.156,33.203,50.293
1532385460.957,47.363,32.227,33.691,30.762,27.832
1532385460.961,45.410,33.691,36.621,22.949,16.113
1532385460.965,40.527,34.180,38.086,21.484,12.207
1532385460.969,38.086,33.691,30.273,25.391,54.199
1532385460.973,41.992,31.738,28.320,30.762,61.523
1532385460.977,39.551,41.016,29.785,38.574,43.945
1532385460.981,31.738,41.992,31.250,36.621,46.387
1532385460.985,35.156,32.227,31.738,32.715,45.898
1532385460.989,35.645,31.250,33.691,36.133,54.199
1532385460.992,31.738,32.715,29.297,31.738,67.871
1532385460.996,28.320,37.598,24.902,27.832,57.617
1532385461.000,29.785,36.621,30.762,30.273,22.949
1532385461.004,29.297,33.691,33.203,32.715,6.836
1532385461.008,26.855,36.621,28.809,32.715,14.160
1532385461.012,30.762,37.598,25.879,30.273,25.879
1532385461.016,25.879,34.668,29.297,30.762,41.992
1532385461.020,34.180,37.598,31.250,33.691,-0.488
1532385461.024,42.969,39.062,34.668,31.250,-3.906
1532385461.028,41.504,26.367,38.574,33.691,18.555
1532385461.031,41.992,30.273,34.668,39.062,20.508
1532385461.035,36.133,48.828,28.809,33.691,36.621
1532385461.039,37.109,45.898,26.855,33.203,28.320
1532385461.043,40.039,40.039,29.785,37.598,16.113
1532385461.047,36.133,38.574,28.320,37.598,-8.789
1532385461.051,37.109,38.086,28.320,35.156,3.906
1532385461.055,43.457,37.109,26.855,37.109,30.762
1532385461.059,46.387,36.621,23.438,38.574,29.297
1532385461.063,42.969,37.109,35.645,39.062,9.766
1532385461.067,35.645,36.133,39.551,38.574,17.578
1532385461.071,36.621,41.992,32.715,34.668,25.391
1532385461.074,37.109,38.086,34.668,34.180,10.254
1532385461.078,30.762,29.297,34.180,31.738,-3.906
1532385461.082,33.691,27.344,25.879,21.973,-5.859
1532385461.086,31.738,36.621,25.879,20.020,10.742
1532385461.090,26.855,44.922,27.832,22.461,33.691
1532385461.094,35.645,38.086,27.832,22.949,34.180
1532385461.098,41.504,35.645,21.484,16.113,22.949
1532385461.102,45.410,48.340,17.090,11.719,46.387
1532385461.106,51.270,44.922,19.043,19.043,45.410
1532385461.110,56.152,28.809,23.926,17.090,27.344
1532385461.113,58.105,30.273,25.879,13.184,27.344
1532385461.117,39.062,41.016,26.855,18.066,26.367
1532385461.121,30.762,33.691,30.762,25.391,20.996
1532385461.125,31.738,25.391,29.297,30.762,8.301
1532385461.129,28.320,32.227,27.344,35.645,8.789
1532385461.133,29.297,28.809,26.855,41.504,31.250
1532385461.137,32.715,28.320,29.785,40.039,12.695
1532385461.141,22.461,27.832,35.645,27.832,-26.367
1532385461.145,13.184,25.391,33.203,25.879,-9.766
1532385461.149,19.043,30.762,27.344,25.391,2.930
1532385461.153,15.625,29.297,22.461,20.996,7.812
1532385461.156,20.020,26.855,25.879,26.855,31.250
1532385461.160,28.320,26.367,32.227,24.902,26.855
1532385461.164,24.414,28.809,29.297,21.484,25.391
1532385461.168,27.344,27.344,26.855,22.949,32.227
1532385461.172,26.367,25.391,28.809,27.344,43.945
1532385461.176,32.715,31.250,28.809,30.273,20.020
1532385461.180,42.480,34.668,25.879,32.227,2.441
1532385461.184,33.203,34.668,26.367,36.621,22.949
1532385461.188,31.250,34.668,28.320,42.480,40.527
1532385461.192,32.715,27.832,25.391,38.574,60.547
1532385461.196,36.621,29.297,30.762,30.762,20.996
1532385461.199,33.203,39.062,31.250,29.785,4.395
1532385461.203,26.855,35.156,25.879,29.297,28.320
1532385461.207,25.391,31.250,28.809,28.809,32.715
1532385461.211,23.926,33.691,24.902,33.203,20.508
1532385461.215,29.297,26.367,20.996,34.668,13.672
1532385461.219,42.969,23.438,26.855,29.297,19.043
1532385461.223,36.133,29.785,27.832,30.762,48.340
1532385461.227,39.551,33.203,25.879,34.180,62.988
1532385461.231,44.434,32.715,25.391,22.461,32.715
1532385461.235,32.227,31.738,29.785,16.602,37.109
1532385461.238,32.227,34.180,28.809,21.484,28.809
1532385461.242,38.086,35.156,19.531,22.461,29.785
1532385461.246,39.551,28.809,20.020,20.996,31.250
1532385461.250,43.945,26.855,33.203,28.320,16.602
1532385461.254,50.293,28.320,41.992,35.645,46.875
1532385461.258,40.039,29.785,35.645,28.809,20.508
1532385461.262,26.855,25.879,27.832,18.066,-9.766
1532385461.266,32.227,30.762,27.832,23.926,36.621
1532385461.270,41.504,40.527,23.438,32.227,61.523
1532385461.274,43.457,38.574,21.484,29.297,47.363
1532385461.278,45.410,29.297,24.414,28.320,29.297
1532385461.281,41.016,19.531,24.902,23.926,14.648
1532385461.285,37.598,26.367,25.879,25.879,42.480
1532385461.289,36.133,38.574,29.785,26.855,78.125
1532385461.293,39.551,36.621,24.902,26.855,56.641
1532385461.297,43.945,27.344,20.508,26.855,23.926
1532385461.301,41.016,26.855,25.391,18.066,30.762
1532385461.305,36.133,32.715,23.438,18.066,38.574
1532385461.309,41.992,26.367,20.508,24.414,18.066
1532385461.313,46.387,20.020,20.508,24.414,23.926
1532385461.317,34.180,28.809,24.414,19.531,21.973
1532385461.321,33.203,35.156,30.273,20.020,26.367
1532385461.324,38.574,33.203,28.320,24.902,54.688
1532385461.328,34.180,31.250,24.902,26.367,27.344
1532385461.332,28.809,27.832,24.902,20.996,6.348
1532385461.336,33.691,27.832,25.391,16.113,25.879
1532385461.340,37.109,33.203,27.344,23.438,20.020
1532385461.344,40.527,31.738,31.738,30.273,21.973
1532385461.348,40.039,25.879,34.668,27.832,32.227
1532385461.352,31.738,24.902,34.180,29.785,59.570
1532385461.356,33.691,23.926,31.250,35.156,45.898
1532385461.360,34.180,22.461,29.297,31.738,26.855
1532385461.363,32.227,23.438,33.203,27.344,35.156
1532385461.367,35.645,18.555,39.062,29.785,66.406
1532385461.371,27.832,10.742,41.992,29.297,48.340
1532385461.375,19.531,21.973,40.039,25.391,26.855
1532385461.379,20.508,32.227,41.992,20.020,11.719
1532385461.383,18.066,20.508,40.039,18.555,20.508
1532385461.387,19.531,25.391,34.180,20.020,42.480
1532385461.391,19.531,38.574,39.551,20.996,19.531
1532385461.395,25.879,35.645,43.945,31.738,18.555
1532385461.399,33.203,33.203,44.922,35.156,21.484
1532385461.403,27.344,30.273,42.480,29.785,32.715
1532385461.406,26.367,23.438,42.480,37.109,55.176
1532385461.410,30.273,20.020,43.945,39.062,31.738
1532385461.414,25.879,21.484,40.039,30.762,11.719
1532385461.418,21.484,25.391,41.016,29.297,10.254
1532385461.422,22.461,24.414,48.340,28.809,14.160
1532385461.426,19.531,21.484,47.852,22.949,31.250
1532385461.430,26.367,22.949,45.410,18.555,46.875
1532385461.434,28.809,28.320,45.898,22.949,52.734
1532385461.438,23.438,29.785,45.898,21.484,24.902
1532385461.442,25.879,31.738,43.457,18.555,20.996
1532385461.446,20.508,31.250,47.363,21.484,60.547
1532385461.449,26.855,31.738,46.387,23.438,59.082
1532385461.453,30.762,28.809,41.504,20.508,61.523
1532385461.457,20.508,29.297,44.434,16.113,61.523
1532385461.461,20.020,35.645,45.898,16.113,44.922
1532385461.465,23.438,29.785,50.293,18.066,42.969
1532385461.469,21.484,19.531,54.199,22.949,33.691
1532385461.473,20.508,21.973,55.176,24.414,53.711
1532385461.477,30.762,29.297,56.152,19.531,47.363
1532385461.481,32.715,32.715,54.199,21.973,-6.836
1532385461.485,31.250,30.762,50.781,25.391,27.344
1532385461.488,26.855,28.809,51.270,24.414,65.918
1532385461.492,19.043,26.855,48.340,25.391,53.711
1532385461.496,28.320,26.855,46.387,26.855,57.617
1532385461.500,31.250,22.949,52.246,31.250,73.730
1532385461.504,29.785,24.902,55.176,26.855,60.059
1532385461.508,36.133,32.715,50.781,22.949,55.176
1532385461.512,37.598,35.156,42.480,26.367,55.664
1532385461.516,28.320,27.832,48.340,22.949,44.434
1532385461.520,24.414,20.020,58.105,19.531,52.246
1532385461.524,24.414,34.180,55.176,23.438,64.941
1532385461.528,20.508,41.504,49.805,20.020,55.176
1532385461.531,23.926,37.109,49.316,11.719,35.156
1532385461.535,27.344,33.203,50.781,14.648,44.922
1532385461.539,27.344,33.691,51.270,16.602,38.574
1532385461.543,31.250,41.504,52.734,21.484,34.180
1532385461.547,31.250,44.922,47.852,28.320,41.504
1532385461.551,26.855,39.062,45.898,24.414,16.602
1532385461.555,21.484,30.273,46.387,26.367,43.945
1532385461.559,25.391,32.227,44.922,24.902,47.363
1532385461.563,28.809,33.691,48.340,28.320,12.695
1532385461.567,26.855,35.156,54.688,33.203,26.855
1532385461.571,30.273,36.621,55.664,26.855,52.246
1532385461.574,35.156,33.691,55.176,30.762,57.617
1532385461.578,33.691,37.598,51.758,22.461,9.277
1532385461.582,26.367,38.086,49.316,15.625,5.859
1532385461.586,25.879,36.133,48.340,23.438,50.781
1532385461.590,26.855,34.668,48.340,27.832,39.062
1532385461.594,26.367,41.016,41.016,24.902,23.438
1532385461.598,31.250,44.922,32.715,20.996,20.996
1532385461.602,31.738,48.340,33.691,26.367,29.297
1532385461.606,31.250,43.457,46.875,30.273,45.410
1532385461.610,34.668,38.574,54.199,26.855,29.297
1532385461.613,35.156,44.434,53.711,25.879,24.414
1532385461.617,27.344,46.875,53.711,23.438,20.508
1532385461.621,22.461,40.527,51.758,22.461,24.414
1532385461.625,24.902,34.668,46.875,22.461,44.434
1532385461.629,24.414,42.480,42.480,24.414,36.621
1532385461.633,31.738,47.363,41.016,28.320,38.086
1532385461.637,35.156,44.434,45.410,27.344,25.391
1532385461.641,29.297,42.480,47.363,31.738,26.367
1532385461.645,26.367,41.016,43.457,35.156,52.734
1532385461.649,26.855,42.480,40.039,26.855,16.113
1532385461.653,29.297,41.504,43.945,26.367,16.602
1532385461.656,33.203,43.945,44.922,25.879,36.621
1532385461.660,30.762,46.875,41.504,17.090,-12.207
1532385461.664,29.297,43.945,42.969,15.625,5.859
1532385461.668,29.297,41.992,44.922,13.184,35.156
1532385461.672,33.203,38.574,49.805,15.137,29.785
1532385461.676,33.203,34.180,48.340,19.531,26.855
1532385461.680,20.996,32.715,42.969,18.555,17.578
1532385461.684,20.020,27.832,41.016,18.066,36.621
1532385461.688,24.902,19.531,40.039,16.602,43.945
1532385461.692,25.879,27.832,43.457,24.414,33.203
1532385461.695,30.273,37.109,44.922,27.344,7.812
1532385461.699,30.762,27.832,48.828,23.926,22.949
1532385461.703,26.367,27.344,44.922,27.832,39.551
1532385461.707,27.344,36.621,39.062,26.855,7.324
1532385461.711,28.809,27.832,41.504,22.949,29.297
1532385461.715,35.645,19.531,45.898,23.438,37.598
1532385461.719,40.527,20.996,47.852,26.367,6.348
1532385461.723,31.738,24.414,39.551,26.367,39.551
1532385461.727,26.855,22.949,38.086,23.926,53.223
1532385461.731,29.785,20.508,40.039,23.438,13.184
1532385461.735,32.715,26.367,41.016,27.832,39.551
1532385461.738,32.715,23.438,48.828,22.461,21.484
1532385461.742,33.691,21.973,49.316,20.508,-17.578
1532385461.746,35.645,21.484,41.992,28.320,20.508
1532385461.750,36.621,22.949,45.898,26.855,32.715
1532385461.754,33.203,23.926,48.340,24.414,28.809
1532385461.758,34.668,25.391,42.969,22.461,17.090
1532385461.762,36.621,28.809,39.551,20.996,24.414
1532385461.766,28.320,24.414,42.969,23.926,38.086
1532385461.770,22.461,18.555,42.969,22.461,28.320
1532385461.774,26.367,20.508,41.016,21.484,40.039
1532385461.778,29.297,21.484,43.457,22.949,18.066
1532385461.781,31.738,17.090,42.480,22.949,4.395
1532385461.785,33.691,19.531,45.898,30.762,52.246
1532385461.789,40.039,27.832,45.898,33.203,43.945
1532385461.793,43.457,29.785,41.992,35.645,32.715
1532385461.797,39.062,24.414,36.133,37.109,12.207
1532385461.801,38.574,23.926,29.785,31.250,23.926
1532385461.805,36.621,24.414,40.039,31.738,66.406
1532385461.809,35.645,26.855,45.410,29.785,48.828
1532385461.813,34.668,33.691,40.039,19.531,35.645
1532385461.817,34.180,32.715,41.504,17.090,16.602
1532385461.820,27.344,28.809,38.574,12.207,5.859
1532385461.824,31.738,26.855,36.621,3.906,21.484
1532385461.828,34.668,28.809,36.133,5.371,31.250
1532385461.832,24.414,30.273,34.180,8.789,29.297
1532385461.836,22.949,30.273,40.039,11.230,27.832
1532385461.840,26.367,27.832,45.410,18.555,41.992
1532385461.844,32.715,23.438,40.527,21.973,39.551
1532385461.848,36.621,21.484,41.016,23.926,26.367
1532385461.852,36.621,21.484,44.434,28.320,34.668
1532385461.856,40.039,20.508,38.086,28.320,21.973
1532385461.860,34.668,21.484,35.156,21.484,14.648
1532385461.863,27.344,26.855,45.410,17.090,15.625
1532385461.867,39.551,26.367,45.898,19.043,34.668
1532385461.871,40.039,26.367,39.551,22.949,9.277
1532385461.875,26.855,35.156,42.969,22.461,-0.977
1532385461.879,23.926,37.109,48.340,19.043,33.203
1532385461.883,30.273,35.156,45.410,28.320,63.477
1532385461.887,36.133,29.785,39.551,30.762,37.109
1532385461.891,29.297,23.438,39.551,20.020,29.785
1532385461.895,31.738,22.461,43.457,23.926,51.758
1532385461.899,40.039,25.391,43.457,25.879,12.207
1532385461.903,33.691,29.297,42.969,19.043,11.719
1532385461.906,36.621,26.855,45.898,20.508,16.602
1532385461.910,41.504,23.926,43.457,19.043,13.672
1532385461.914,33.691,27.344,39.062,13.672,46.387
1532385461.918,28.320,24.902,42.969,12.695,47.363
1532385461.922,21.484,20.508,46.875,20.508,61.523
1532385461.926,20.996,27.344,41.016,24.902,29.785
1532385461.930,24.414,36.621,36.621,20.996,-20.508
1532385461.934,28.809,35.156,41.016,23.438,9.277
1532385461.938,28.809,28.809,42.969,28.320,29.297
1532385461.942,34.668,32.715,42.969,33.691,26.367
1532385461.945,38.574,34.180,39.551,36.621,32.227
1532385461.949,36.621,32.227,38.086,35.645,29.297
1532385461.953,29.785,27.832,42.480,35.645,46.387
1532385461.957,28.320,22.461,43.945,28.809,22.461
1532385461.961,34.668,30.762,41.504,20.996,10.742
1532385461.965,37.109,38.574,40.039,16.113,34.668
1532385461.969,45.898,36.133,45.410,18.066,31.250
1532385461.973,51.758,31.250,41.992,17.090,32.715
1532385461.977,56.152,25.879,35.645,11.719,24.902
1532385461.981,49.805,25.879,36.133,19.043,-11.719
1532385461.985,46.875,32.715,34.668,28.809,-12.695
1532385461.988,45.410,37.598,35.156,31.250,16.602
1532385461.992,28.809,34.180,39.551,31.250,16.113
1532385461.996,26.367,20.508,42.480,30.273,-19.043
1532385462.000,32.227,18.066,41.016,22.949,-8.301
1532385462.004,17.578,29.297,41.504,21.973,23.438
1532385462.008,10.254,26.855,44.922,26.855,33.691
1532385462.012,20.996,25.879,43.945,32.715,37.109
1532385462.016,18.555,33.691,41.504,33.691,28.320
1532385462.020,17.090,36.133,39.062,27.832,56.152
1532385462.024,26.855,35.156,36.133,26.367,66.895
1532385462.028,23.926,29.785,33.691,25.879,50.781
1532385462.031,22.461,29.785,33.203,25.879,55.664
1532385462.035,27.832,30.273,34.180,21.484,17.090
1532385462.039,26.367,22.949,37.109,12.695,-21.484
1532385462.043,30.273,26.855,39.551,13.184,6.348
1532385462.047,28.320,27.344,35.645,12.207,19.531
1532385462.051,23.438,25.879,35.645,9.277,11.719
1532385462.055,24.414,32.227,38.086,10.254,9.766
1532385462.059,19.043,25.391,38.086,8.789,43.945
1532385462.063,15.625,19.043,34.668,5.371,53.223
1532385462.067,19.043,21.484,36.133,10.742,37.598
1532385462.070,20.996,26.367,37.109,18.555,27.344
1532385462.074,31.738,34.180,35.645,20.020,39.551
1532385462.078,35.645,30.762,32.227,13.672,25.879
1532385462.082,26.367,27.832,20.508,11.230,18.555
1532385462.086,30.762,30.762,22.949,15.625,59.570
1532385462.090,38.574,24.902,35.156,20.508,62.012
1532385462.094,41.992,16.113,41.016,24.902,56.152
1532385462.098,43.945,20.020,43.945,28.320,48.828
1532385462.102,34.668,29.297,40.527,26.367,58.594
1532385462.106,32.227,30.273,36.133,22.461,61.035
1532385462.110,33.203,29.785,37.598,24.902,47.363
1532385462.113,40.527,30.273,33.203,22.949,44.922
1532385462.117,40.039,24.414,28.320,19.043,33.203
1532385462.121,20.020,21.484,29.785,28.320,25.879
1532385462.125,24.902,23.926,34.668,28.809,45.410
1532385462.129,32.715,20.508,33.203,24.414,46.387
1532385462.133,31.738,19.043,29.785,26.855,28.809
1532385462.137,35.645,26.855,35.156,23.926,35.156
1532385462.141,34.668,34.668,37.598,18.555,47.852
1532385462.145,29.297,29.297,32.227,20.508,43.457
1532385462.149,41.016,20.996,29.785,18.066,36.621
1532385462.153,41.016,24.414,31.738,13.672,29.785
1532385462.156,25.391,29.785,29.785,17.090,34.668
1532385462.160,29.785,26.367,27.832,16.113,19.531
1532385462.164,33.203,25.391,29.297,13.184,18.066
1532385462.168,37.109,30.762,30.762,17.090,28.809
1532385462.172,40.527,31.250,28.320,17.578,16.113
1532385462.176,31.250,23.926,28.320,16.113,13.184
1532385462.180,37.598,21.973,29.297,11.230,11.230
1532385462.184,41.016,25.391,30.762,2.441,25.391
1532385462.188,33.203,23.438,29.297,6.348,40.527
1532385462.192,34.668,24.902,28.809,15.625,56.152
1532385462.195,34.180,29.297,30.762,16.113,30.273
1532385462.199,33.203,28.320,33.203,13.184,17.090
1532385462.203,29.297,20.996,30.762,13.184,28.320
1532385462.207,28.809,21.484,22.461,11.719,27.832
1532385462.211,30.273,23.438,21.484,10.254,24.902
1532385462.215,24.902,21.973,30.762,14.648,29.297
1532385462.219,27.344,25.391,33.691,16.113,38.574
1532385462.223,34.668,20.996,33.691,14.160,37.109
1532385462.227,24.902,15.137,33.691,13.672,12.207
1532385462.231,27.832,25.391,32.227,15.137,-9.766
1532385462.235,34.668,28.809,32.227,11.230,18.555
1532385462.238,23.926,20.996,29.785,8.789,47.363
1532385462.242,25.391,23.438,33.203,10.742,38.574
1532385462.246,37.598,26.367,37.598,16.602,15.625
1532385462.250,28.320,23.438,33.203,20.508,17.090
1532385462.254,18.066,24.414,33.691,18.066,48.340
1532385462.258,22.461,22.949,37.109,17.578,27.832
1532385462.262,25.879,25.879,33.691,18.555,-3.906
1532385462.266,34.668,26.367,29.297,14.160,1.953
1532385462.270,22.949,20.996,28.809,11.719,-2.441
1532385462.274,10.742,22.949,28.809,13.184,11.230
1532385462.277,16.602,24.414,37.109,17.578,13.672
1532385462.281,18.555,25.879,38.086,10.742,1.953
1532385462.285,20.996,31.738,30.273,8.789,2.930
1532385462.289,23.926,30.273,33.203,14.160,20.508
1532385462.293,24.414,31.738,41.992,18.066,26.855
1532385462.297,32.227,39.062,43.457,18.555,39.551
1532385462.301,22.461,29.297,43.457,16.113,42.480
1532385462.305,6.836,21.973,37.598,20.996,30.762
1532385462.309,18.555,22.949,39.062,23.438,35.645
1532385462.313,23.926,28.809,39.551,24.902,20.996
1532385462.317,25.879,31.738,36.133,18.555,29.785
1532385462.320,27.344,35.156,41.504,13.672,19.043
1532385462.324,28.320,36.133,46.387,15.137,10.742
1532385462.328,26.855,21.973,45.898,17.578,45.898
1532385462.332,23.438,12.207,41.992,15.625,51.758
1532385462.336,28.320,16.602,36.133,17.090,50.293
1532385462.340,25.391,26.367,35.156,20.020,41.504
1532385462.344,21.973,29.785,43.457,22.949,40.527
1532385462.348,21.484,22.461,43.945,22.461,29.297
1532385462.352,23.926,13.672,37.598,18.555,13.184
1532385462.356,20.020,17.090,36.621,19.043,27.344
1532385462.360,10.254,20.996,36.621,12.695,30.762
1532385462.363,8.301,20.508,34.668,6.836,24.902
1532385462.367,14.160,13.672,37.598,14.648,30.273
1532385462.371,13.672,16.602,37.598,12.695,21.973
1532385462.375,20.508,22.949,36.621,7.324,19.531
1532385462.379,28.320,20.020,35.156,14.160,39.062
1532385462.383,13.672,17.578,32.227,16.113,50.781
1532385462.387,8.301,16.602,30.273,11.719,33.203
1532385462.391,10.742,14.648,28.809,12.207,33.691
1532385462.395,12.207,13.184,29.297,15.137,34.668
1532385462.399,27.344,10.742,24.414,11.719,27.344
1532385462.402,30.762,13.184,24.902,14.648,30.762
1532385462.406,20.508,18.066,30.273,13.672,13.672
1532385462.410,14.648,17.578,32.715,6.836,23.438
1532385462.414,18.066,16.602,31.738,0.977,19.043
1532385462.418,17.090,14.160,29.785,-4.395,10.742
1532385462.422,11.230,10.254,25.391,-4.395,13.184
1532385462.426,6.348,5.371,21.973,-2.930,36.133
1532385462.430,4.883,6.348,22.461,0.977,33.691
1532385462.434,8.789,11.230,21.484,5.859,26.855
1532385462.438,13.184,12.207,20.996,2.441,19.531
1532385462.442,12.207,13.672,19.531,-3.418,4.883
1532385462.445,11.719,16.602,20.020,-1.953,7.812
1532385462.449,15.625,13.184,13.184,7.812,24.414
1532385462.453,13.672,11.719,1.465,11.230,16.113
1532385462.457,15.137,11.719,9.766,1.953,-1.953
1532385462.461,14.160,8.301,23.438,0.488,20.996
1532385462.465,13.184,14.160,24.902,4.883,50.781
1532385462.469,12.207,17.578,19.531,4.395,45.898
1532385462.473,14.160,13.184,12.207,5.371,60.547
1532385462.477,13.672,14.648,8.301,3.418,28.809
1532385462.481,9.766,17.578,10.254,5.859,11.230
1532385462.485,13.672,11.719,8.789,12.207,41.016
1532385462.488,12.695,10.254,8.301,18.555,52.734
1532385462.492,9.277,14.160,11.719,20.508,53.711
1532385462.496,7.812,9.766,14.160,18.066,37.109
1532385462.500,11.719,9.766,10.254,14.648,32.227
1532385462.504,19.043,14.160,7.812,18.555,55.176
1532385462.508,20.996,9.766,14.160,22.949,54.199
1532385462.512,11.719,7.324,16.113,15.625,21.973
1532385462.516,12.695,9.277,13.184,11.230,13.184
1532385462.520,16.602,8.789,9.766,10.742,8.301
1532385462.524,13.184,15.625,9.277,13.672,20.020
1532385462.527,9.766,15.625,11.230,10.742,24.414
1532385462.531,13.672,6.836,7.324,15.137,39.062
1532385462.535,21.973,8.301,5.371,18.555,64.941
1532385462.539,18.555,20.020,6.348,11.719,35.156
1532385462.543,12.695,20.020,4.883,11.230,30.273
1532385462.547,21.973,17.090,6.348,17.090,32.715
1532385462.551,21.973,18.555,5.859,17.090,42.480
1532385462.555,8.789,13.672,3.418,10.254,48.340
1532385462.559,11.230,9.277,7.324,13.184,33.203
1532385462.563,13.184,5.371,14.160,12.695,50.293
1532385462.567,18.066,5.859,14.160,13.184,68.359
1532385462.570,22.949,19.531,8.789,20.020,70.312
1532385462.574,27.832,19.043,4.883,19.531,39.062
1532385462.578,36.133,12.695,6.836,16.113,-2.441
1532385462.582,29.785,27.344,11.230,13.184,28.809
1532385462.586,19.531,27.344,12.207,16.602,46.387
1532385462.590,22.949,14.648,10.254,13.672,29.785
1532385462.594,23.926,20.020,7.812,2.930,11.230
1532385462.598,22.461,20.020,6.836,3.906,-1.465
1532385462.602,25.879,15.137,5.371,9.766,11.230
1532385462.606,29.785,19.531,3.906,13.184,25.879
1532385462.610,31.738,17.090,7.324,18.066,3.906
1532385462.613,34.180,18.066,8.301,15.137,3.418
1532385462.617,28.809,24.902,8.789,8.789,17.578
1532385462.621,23.438,27.832,4.883,3.418,-7.812
1532385462.625,25.879,22.949,0.488,-1.953,0.488
1532385462.629,27.344,18.066,9.766,9.277,13.184
1532385462.633,26.855,23.438,14.648,12.207,26.367
1532385462.637,23.438,24.902,9.766,8.301,35.645
1532385462.641,23.926,18.066,9.277,12.207,46.387
1532385462.645,23.438,14.648,9.766,8.789,40.039
1532385462.649,23.926,16.602,7.324,3.906,27.832
1532385462.652,22.461,19.043,-3.418,8.789,41.504
1532385462.656,20.996,17.090,-0.977,11.230,55.176
1532385462.660,25.391,14.648,11.230,9.766,20.508
1532385462.664,23.438,13.184,10.254,8.301,6.836
1532385462.668,26.367,15.137,12.207,13.184,25.391
1532385462.672,35.156,19.043,15.137,19.043,46.387
1532385462.676,27.832,16.113,12.207,20.996,65.918
1532385462.680,20.020,20.020,8.789,16.113,40.527
1532385462.684,26.855,24.414,9.277,18.555,36.621
1532385462.688,31.738,20.020,10.254,20.508,25.391
1532385462.692,34.180,22.461,9.277,17.578,49.316
1532385462.695,31.250,23.438,17.090,14.648,30.762
1532385462.699,28.809,22.461,17.578,12.207,12.207
1532385462.703,26.855,20.508,11.230,20.020,37.109
1532385462.707,27.344,16.602,15.625,19.043,39.062
1532385462.711,29.297,18.066,15.625,13.184,66.895
1532385462.715,23.438,18.066,15.137,16.602,45.410
1532385462.719,20.996,21.484,20.996,19.043,16.602
1532385462.723,24.902,33.203,24.414,20.020,29.785
1532385462.727,29.785,38.574,32.715,26.855,28.320
1532385462.731,26.367,31.250,35.156,31.738,4.883
1532385462.735,26.855,27.344,26.367,27.344,14.160
1532385462.738,29.297,25.879,24.902,20.020,4.883
1532385462.742,23.926,23.438,25.879,15.137,3.906
1532385462.746,24.902,31.738,20.508,14.648,22.949
1532385462.750,28.320,27.832,19.043,17.578,45.410
1532385462.754,28.809,28.809,16.113,16.602,53.223
1532385462.758,26.855,28.320,10.742,15.137,41.016
1532385462.762,27.832,23.926,16.113,21.973,57.129
1532385462.766,29.297,30.762,23.926,26.855,61.035
1532385462.770,27.344,26.855,31.250,25.879,29.297
1532385462.774,24.414,25.391,33.203,22.461,46.875
1532385462.777,29.297,35.156,28.320,21.973,32.715
1532385462.781,34.180,37.109,23.438,20.996,14.160
1532385462.785,27.832,30.273,25.879,17.090,22.461
1532385462.789,20.508,22.949,21.973,16.602,28.320
1532385462.793,20.996,15.137,15.625,19.531,24.902
1532385462.797,34.668,18.555,16.113,19.043,5.371
1532385462.801,27.344,28.320,21.484,21.484,-3.906
1532385462.805,7.812,28.320,20.020,19.043,-4.395
1532385462.809,12.207,31.250,17.578,19.531,22.461
1532385462.813,22.461,30.762,18.555,21.484,45.898
1532385462.817,26.367,22.949,16.113,17.578,15.625
1532385462.820,25.391,27.832,16.113,17.578,16.602
1532385462.824,29.297,21.973,16.113,18.555,46.875
1532385462.828,29.297,13.184,16.113,16.113,64.453
1532385462.832,33.203,28.320,20.996,22.461,48.828
1532385462.836,44.922,39.062,25.391,27.344,28.809
1532385462.840,37.598,30.762,25.391,25.391,4.883
1532385462.844,31.738,25.879,21.973,26.367,22.949
1532385462.848,30.273,24.414,17.578,25.391,44.922
1532385462.852,23.438,26.367,16.113,21.484,31.250
1532385462.856,20.996,27.344,17.090,18.066,26.367
1532385462.860,20.020,28.809,17.578,13.184,28.809
1532385462.863,19.043,33.691,17.090,12.207,21.484
1532385462.867,20.996,29.785,15.137,8.789,44.922
1532385462.871,27.832,26.367,16.602,10.742,64.453
1532385462.875,26.855,21.973,22.461,19.531,52.246
1532385462.879,24.902,18.066,15.625,21.484,21.973
1532385462.883,26.367,18.555,6.836,17.090,14.160
1532385462.887,32.227,25.879,20.020,20.508,31.738
1532385462.891,37.598,34.668,32.227,31.738,29.297
1532385462.895,44.434,42.480,34.668,41.504,40.527
1532385462.899,48.828,34.668,35.645,39.551,19.531
1532385462.902,43.457,21.973,33.691,33.691,12.695
1532385462.906,31.250,26.855,28.320,26.855,24.902
1532385462.910,29.297,33.691,25.879,20.020,33.203
1532385462.914,34.180,31.738,28.809,18.555,37.598
1532385462.918,28.320,30.273,26.367,11.230,18.066
1532385462.922,21.973,31.738,23.438,0.977,13.184
1532385462.926,25.391,25.879,25.879,2.441,10.254
1532385462.930,28.809,16.113,22.461,4.395,28.320
1532385462.934,38.086,16.602,20.020,4.883,21.484
1532385462.938,51.270,20.508,17.090,10.742,10.254
1532385462.942,60.059,19.531,18.066,22.949,12.207
1532385462.945,60.059,32.227,30.762,32.227,20.508
1532385462.949,56.152,46.387,36.133,43.457,55.664
1532385462.953,43.457,47.852,35.645,47.363,62.012
1532385462.957,41.504,39.551,34.668,39.551,33.691
1532385462.961,37.109,32.227,32.227,41.992,21.973
1532385462.965,21.484,29.297,33.203,36.621,31.250
1532385462.969,19.043,28.320,33.691,30.762,27.832
1532385462.973,17.090,30.762,30.762,30.273,22.461
1532385462.977,15.625,28.809,27.832,23.438,21.973
1532385462.981,21.973,20.996,29.785,21.484,17.578
1532385462.984,20.996,21.973,30.273,22.949,41.504
1532385462.988,10.742,23.438,19.531,20.996,58.105
1532385462.992,12.695,17.090,9.766,14.648,44.922
1532385462.996,21.973,20.508,17.090,18.066,18.555
1532385463.000,24.902,24.902,21.484,25.391,1.465
1532385463.004,23.926,17.578,18.066,24.414,25.391
1532385463.008,22.949,16.113,16.113,21.973,26.367
1532385463.012,19.043,5.371,16.602,19.043,7.324
1532385463.016,20.996,5.859,20.508,16.602,4.883
1532385463.020,30.762,34.668,29.785,20.996,0.000
1532385463.024,36.133,45.898,41.992,34.668,11.230
1532385463.027,45.898,52.246,47.363,43.945,21.484
1532385463.031,54.688,58.594,50.781,48.340,15.137
1532385463.035,50.293,50.781,51.758,49.316,-1.465
1532385463.039,44.922,46.387,45.410,40.527,-9.277
1532385463.043,46.387,36.133,41.992,40.527,14.648
1532385463.047,37.598,27.344,43.945,40.527,-6.348
1532385463.051,31.738,27.344,39.551,32.715,-9.766
1532385463.055,35.645,29.297,31.738,31.250,41.504
1532385463.059,27.344,27.832,33.203,26.367,25.391
1532385463.063,22.949,22.949,33.203,20.996,5.859
1532385463.067,24.902,18.555,22.949,21.484,20.996
1532385463.070,24.902,22.461,21.484,24.414,20.020
1532385463.074,32.227,40.527,41.992,34.668,35.156
1532385463.078,47.852,45.410,49.805,38.574,4.395
1532385463.082,57.617,50.293,52.246,45.898,-17.090
1532385463.086,61.523,65.430,61.523,55.176,29.785
1532385463.090,68.848,69.824,70.312,61.035,51.758
1532385463.094,72.266,65.918,78.125,71.289,35.645
1532385463.098,77.637,73.242,76.172,76.660,17.090
1532385463.102,86.914,83.008,77.148,79.590,38.574
1532385463.106,88.867,87.891,80.566,77.148,64.941
1532385463.109,91.797,84.961,86.426,78.613,37.598
1532385463.113,88.379,83.984,93.750,83.496,36.133
1532385463.117,87.402,89.844,97.168,80.566,19.531
1532385463.121,96.191,93.262,95.215,81.543,-4.883
1532385463.125,106.445,95.215,89.844,92.773,32.227
1532385463.129,105.469,100.098,94.238,95.215,24.902
1532385463.133,89.844,101.074,90.820,88.867,1.465
1532385463.137,84.473,93.262,86.914,80.566,-28.320
1532385463.141,74.219,78.613,87.402,72.754,-20.508
1532385463.145,60.547,64.453,77.148,60.059,46.875
1532385463.149,52.246,55.664,64.941,48.828,55.176
1532385463.152,45.898,48.828,54.688,45.898,36.133
1532385463.156,44.922,40.039,45.898,42.480,14.648
1532385463.160,41.504,41.016,43.945,34.180,-1.953
1532385463.164,41.504,50.781,43.457,30.762,14.648
1532385463.168,38.086,52.246,37.598,31.250,26.367
1532385463.172,40.527,37.598,31.738,28.320,26.855
1532385463.176,48.828,28.320,33.203,27.832,8.789
1532385463.180,35.645,24.414,30.273,16.602,0.977
1532385463.184,18.066,19.531,25.391,11.719,18.555
1532385463.188,20.020,16.602,21.484,15.625,26.855
1532385463.192,16.602,17.090,16.602,13.672,52.734
1532385463.195,13.672,18.066,11.230,15.137,50.781
1532385463.199,27.832,22.461,14.648,21.484,29.297
1532385463.203,29.297,20.508,28.809,28.320,29.785
1532385463.207,28.320,19.531,39.551,32.227,18.555
1532385463.211,45.410,34.668,45.410,42.480,39.062
1532385463.215,59.570,51.270,48.828,55.176,39.062
1532385463.219,65.430,62.012,60.547,59.082,9.766
1532385463.223,68.359,69.824,73.730,60.547,25.879
1532385463.227,74.219,74.707,77.637,66.895,45.410
1532385463.231,79.102,78.125,77.637,72.266,24.902
1532385463.234,83.008,79.102,80.566,76.172,13.184
1532385463.238,85.938,79.102,85.938,86.914,57.617
1532385463.242,91.309,79.102,93.262,96.680,55.664
1532385463.246,97.168,87.891,98.633,98.633,31.738
1532385463.250,97.656,96.191,95.215,96.191,23.438
1532385463.254,94.727,102.051,91.309,94.727,44.434
1532385463.258,98.633,96.680,91.797,96.680,65.918
1532385463.262,97.168,94.238,97.656,93.750,35.645
1532385463.266,96.191,99.121,103.027,93.750,31.738
1532385463.270,105.469,96.680,97.656,98.145,40.527
1532385463.274,104.492,94.238,98.145,103.027,59.570
1532385463.277,99.121,92.773,100.098,104.004,26.367
1532385463.281,96.191,94.238,100.586,94.727,14.648
1532385463.285,96.191,94.238,104.492,93.750,39.551
1532385463.289,100.098,98.145,100.586,96.191,44.922
1532385463.293,100.586,99.609,96.680,95.215,42.480
1532385463.297,104.004,100.098,98.633,96.680,-6.348
1532385463.301,104.004,102.539,99.121,97.168,-7.324
1532385463.305,101.562,97.656,96.191,96.191,14.648
1532385463.309,96.680,96.191,96.191,96.680,15.625
1532385463.313,92.773,91.309,103.027,92.773,22.949
1532385463.317,94.238,94.727,108.887,88.867,4.395
1532385463.320,95.215,98.633,105.469,84.473,-3.906
1532385463.324,95.215,95.215,100.586,83.008,29.297
1532385463.328,95.703,97.168,95.703,86.914,45.898
1532385463.332,92.773,96.191,91.309,88.379,24.902
1532385463.336,87.402,94.727,92.285,87.891,6.348
1532385463.340,86.914,94.727,93.262,83.984,32.715
1532385463.344,83.984,86.914,87.891,88.379,40.039
1532385463.348,90.332,79.590,87.402,89.844,28.809
1532385463.352,88.867,81.055,94.727,92.773,33.691
1532385463.356,76.660,78.613,89.844,88.379,29.785
1532385463.359,70.312,69.336,77.637,71.289,34.668
1532385463.363,60.059,61.035,71.777,61.035,37.109
1532385463.367,43.945,57.617,62.988,47.363,43.457
1532385463.371,38.086,49.805,55.176,38.574,37.109
1532385463.375,41.504,40.527,47.363,35.156,36.133
1532385463.379,37.598,36.621,34.668,25.391,35.645
1532385463.383,29.297,27.832,33.691,22.461,49.316
1532385463.387,30.273,27.832,34.668,24.414,45.410
1532385463.391,28.809,28.320,23.926,20.996,12.695
1532385463.395,23.438,24.414,19.531,19.043,11.230
1532385463.399,33.203,25.879,30.762,21.973,16.602
1532385463.402,42.969,29.297,36.133,35.156,26.855
1532385463.406,46.875,47.852,40.527,46.875,53.711
1532385463.410,50.781,59.082,52.246,50.293,36.621
1532385463.414,57.129,62.012,60.059,53.711,25.391
1532385463.418,70.801,67.383,68.848,61.035,51.758
1532385463.422,74.219,69.824,72.754,66.406,48.340
1532385463.426,72.754,72.266,73.242,70.312,26.367
1532385463.430,71.289,67.383,75.195,68.848,45.410
1532385463.434,72.266,66.406,73.730,63.965,46.387
1532385463.438,77.637,79.590,71.777,66.406,40.527
1532385463.442,75.684,78.613,71.289,58.594,14.648
1532385463.445,60.547,63.965,65.918,48.828,4.395
1532385463.449,41.016,47.852,59.082,41.504,36.133
1532385463.453,39.062,37.598,52.734,38.086,69.336
1532385463.457,31.250,42.969,38.086,25.391,30.762
1532385463.461,20.996,39.062,28.320,16.113,6.348
1532385463.465,22.461,28.809,28.320,17.090,47.852
1532385463.469,23.438,23.926,23.926,17.090,37.598
1532385463.473,26.855,24.414,24.414,20.996,28.320
1532385463.477,26.367,18.555,21.973,17.578,22.949
1532385463.481,21.973,8.301,13.672,12.207,39.062
1532385463.484,22.949,7.812,6.836,5.371,33.691
1532385463.488,28.809,16.113,7.324,5.859,22.461
1532385463.492,34.180,28.809,21.484,13.672,18.066
1532385463.496,32.227,31.738,39.551,21.973,36.133
1532385463.500,32.715,34.668,45.410,24.414,29.785
1532385463.504,37.109,45.410,46.387,27.832,18.555
1532385463.508,45.410,52.246,48.340,38.574,28.809
1532385463.512,56.641,53.223,53.223,48.340,42.480
1532385463.516,66.895,56.152,62.012,55.176,37.109
1532385463.520,70.801,63.477,67.383,62.500,41.016
1532385463.524,66.406,54.199,62.500,62.500,53.711
1532385463.527,49.316,46.875,49.805,53.711,22.949
1532385463.531,41.504,41.016,45.898,43.457,-1.465
1532385463.535,41.016,29.297,42.969,34.180,-14.648
1532385463.539,27.832,33.691,32.715,29.297,12.695
1532385463.543,17.090,27.344,27.832,22.949,26.855
1532385463.547,11.230,13.672,25.391,20.508,17.090
1532385463.551,10.742,13.672,21.484,14.648,18.066
1532385463.555,13.672,19.531,17.090,15.137,33.691
1532385463.559,11.230,17.090,14.160,12.695,12.695
1532385463.563,11.230,12.695,10.254,4.395,-11.719
1532385463.566,12.695,1.465,6.348,3.418,16.602
1532385463.570,13.672,-4.395,4.395,4.883,34.180
1532385463.574,17.090,6.348,5.859,4.883,40.039
1532385463.578,13.184,10.254,8.789,-4.395,27.832
1532385463.582,11.719,9.766,10.742,-7.812,14.160
1532385463.586,11.230,0.977,6.836,-2.930,7.324
1532385463.590,11.719,-14.160,5.371,-1.465,21.973
1532385463.594,8.301,-17.090,2.930,-4.395,56.641
1532385463.598,2.930,-9.277,-2.441,-7.812,37.109
1532385463.602,-2.930,-9.766,-0.488,-8.301,-15.625
1532385463.606,-5.371,-9.277,4.395,-10.742,17.090
1532385463.609,-3.418,-4.883,-2.441,-11.230,45.410
1532385463.613,0.977,0.488,-11.719,-12.695,46.875
1532385463.617,2.930,9.277,-2.441,-11.230,27.832
1532385463.621,10.742,17.090,16.113,0.488,26.855
1532385463.625,19.043,21.484,32.227,13.184,41.992
1532385463.629,19.043,23.926,39.551,15.137,27.344
1532385463.633,25.879,34.180,44.922,21.973,23.926
1532385463.637,35.645,36.133,50.781,36.133,11.719
1532385463.641,44.922,45.410,55.664,49.805,12.695
1532385463.645,48.828,58.594,61.523,58.105,25.391
1532385463.649,56.641,54.688,67.871,63.477,26.855
1532385463.652,69.336,59.570,73.242,70.312,35.156
1532385463.656,70.312,75.684,69.336,68.848,34.180
1532385463.660,71.777,70.312,66.895,67.871,32.227
1532385463.664,73.242,62.988,72.754,67.383,30.273
1532385463.668,62.012,67.383,74.707,63.477,25.391
1532385463.672,60.059,65.918,75.195,63.477,14.648
1532385463.676,66.406,66.406,77.148,64.941,22.461
1532385463.680,71.289,69.336,79.590,61.523,-1.465
1532385463.684,73.730,75.684,82.031,62.500,-10.254
1532385463.688,78.613,77.637,81.055,73.242,2.930
1532385463.691,90.332,67.383,77.637,80.566,38.086
1532385463.695,88.379,58.594,81.055,83.496,62.012
1532385463.699,81.543,60.547,81.543,85.449,30.762
1532385463.703,83.984,70.312,78.613,83.008,56.152
1532385463.707,85.938,73.242,79.102,78.613,52.734
1532385463.711,85.938,67.383,75.195,71.777,20.508
1532385463.715,79.102,61.035,63.477,60.547,9.766
1532385463.719,61.035,41.016,50.293,44.434,15.137
1532385463.723,47.363,24.902,41.992,32.715,39.062
1532385463.727,42.480,25.391,40.527,25.879,47.852
1532385463.731,32.715,19.043,38.086,22.461,36.621
1532385463.734,24.902,18.066,34.180,16.113,38.086
1532385463.738,25.391,13.672,31.738,14.648,40.039
1532385463.742,22.949,8.789,23.438,16.602,28.320
1532385463.746,22.461,12.695,21.484,14.160,10.254
1532385463.750,15.137,4.395,21.484,14.160,15.137
1532385463.754,10.742,-0.977,20.020,9.766,33.691
1532385463.758,11.719,4.395,23.438,5.859,45.898
1532385463.762,12.695,0.488,22.461,0.000,36.133
1532385463.766,7.812,-6.836,14.160,-9.766,27.344
1532385463.770,16.602,-8.789,8.301,-14.160,29.297
1532385463.774,16.113,-1.953,9.766,-16.113,43.945
1532385463.777,8.301,-1.953,9.277,-18.066,7.324
1532385463.781,2.930,-7.812,4.395,-25.391,-47.363
1532385463.785,-4.395,-0.977,6.836,-19.531,-27.832
1532385463.789,-1.465,4.883,16.602,0.000,24.414
1532385463.793,5.859,9.766,29.785,16.602,53.711
1532385463.797,15.137,16.113,41.016,25.391,19.043
1532385463.801,23.438,24.414,46.387,30.762,5.859
1532385463.805,26.855,27.832,54.199,35.645,29.785
1532385463.809,31.738,34.668,63.477,40.039,49.805
1532385463.813,42.480,41.992,65.430,49.316,44.922
1532385463.816,38.574,44.434,70.312,54.688,16.113
1532385463.820,38.086,51.270,77.637,52.734,7.324
1532385463.824,50.293,57.617,80.078,54.199,40.039
1532385463.828,60.547,57.129,82.520,62.988,35.156
1532385463.832,61.035,57.129,80.566,63.477,31.738
1532385463.836,61.035,60.059,74.707,63.477,44.434
1532385463.840,63.965,59.082,82.031,65.430,48.340
1532385463.844,67.383,62.988,90.332,62.012,32.715
1532385463.848,65.430,61.035,96.680,60.059,25.391
1532385463.852,54.199,63.965,95.703,54.199,24.902
1532385463.856,50.293,69.336,90.820,52.246,31.738
1532385463.859,59.082,65.918,84.473,57.129,56.152
1532385463.863,69.336,57.129,74.707,63.477,39.062
1532385463.867,77.148,58.594,86.914,68.848,35.156
1532385463.871,76.172,71.289,98.145,66.895,60.059
1532385463.875,72.266,74.707,93.262,68.848,64.941
1532385463.879,72.754,68.359,89.844,70.801,39.062
1532385463.883,68.359,60.547,88.379,70.312,11.719
1532385463.887,67.871,60.059,91.797,69.336,28.809
1532385463.891,69.824,66.895,87.891,62.500,64.453
1532385463.895,66.895,66.895,77.637,64.941,64.941
1532385463.899,68.848,63.965,81.055,66.406,15.625
1532385463.902,69.824,63.965,81.055,60.059,-4.883
1532385463.906,68.359,65.430,81.543,62.988,36.133
1532385463.910,70.312,63.477,81.055,63.477,35.156
1532385463.914,65.918,57.129,71.289,60.547,32.715
1532385463.918,56.641,45.410,69.336,50.781,34.668
1532385463.922,46.387,34.668,65.918,41.992,10.254
1532385463.926,42.480,37.109,49.805,35.645,47.363
1532385463.930,43.457,31.738,41.016,30.273,52.246
1532385463.934,34.180,19.531,35.645,28.320,39.551
1532385463.938,23.926,15.137,23.438,11.230,46.875
1532385463.941,23.926,15.625,24.902,9.766,41.504
1532385463.945,30.762,22.949,37.598,19.531,43.457
1532385463.949,39.062,28.320,45.410,23.438,28.320
1532385463.953,44.434,38.574,53.223,30.762,21.484
1532385463.957,52.246,47.363,56.152,36.621,41.992
1532385463.961,59.082,37.598,52.734,35.156,0.488
1532385463.965,43.945,25.879,54.688,34.668,0.000
1532385463.969,27.344,29.785,46.387,30.273,30.762
1532385463.973,28.809,28.320,40.527,28.809,32.227
1532385463.977,25.879,15.625,38.574,25.391,35.156
1532385463.981,17.578,2.441,25.879,14.648,14.648
1532385463.984,13.184,5.859,21.484,4.395,15.625
1532385463.988,12.207,5.859,25.391,-0.488,23.438
1532385463.992,7.324,-1.465,19.531,0.488,30.273
1532385463.996,3.418,2.930,16.113,-0.488,39.551
1532385464.000,9.766,-5.371,20.508,-6.348,26.367
1532385464.004,7.812,-10.254,7.324,-4.883,24.414
1532385464.008,-4.883,1.465,-3.418,-5.371,51.758
1532385464.012,-2.441,-1.465,12.695,-7.812,58.594
1532385464.016,8.301,-6.836,24.414,-3.906,23.438
1532385464.020,8.301,-2.930,17.578,-7.324,-9.277
1532385464.024,2.930,-2.930,9.277,-12.695,11.230
1532385464.027,-1.953,-6.836,4.395,-16.602,28.809
1532385464.031,-6.836,-9.277,6.348,-17.090,16.602
1532385464.035,-4.395,-13.672,10.742,-11.719,28.320
1532385464.039,-4.395,-23.438,3.418,-9.766,12.207
1532385464.043,-1.465,-15.625,-2.441,-15.625,21.484
1532385464.047,-7.324,-7.324,5.371,-14.160,41.016
1532385464.051,-7.324,-17.578,5.859,-14.160,14.160
1532385464.055,-9.277,-22.461,-5.371,-20.020,25.879
1532385464.059,-18.066,-13.672,-3.418,-15.625,29.785
1532385464.063,-19.043,-9.766,10.742,-15.625,11.719
1532385464.066,-20.020,-16.602,14.160,-16.113,49.316
1532385464.070,-14.160,-15.625,9.277,-12.695,63.477
1532385464.074,-13.184,-14.648,10.742,-13.184,67.383
1532385464.078,-14.160,-19.043,8.301,-20.508,52.246
1532385464.082,-16.113,-11.719,5.859,-17.578,34.668
1532385464.086,-12.207,-16.602,10.742,-9.766,48.340
1532385464.090,-12.695,-24.902,11.230,-10.742,53.711
1532385464.094,-19.531,-13.184,12.207,-11.230,28.809
1532385464.098,-20.996,-6.836,9.277,-15.625,11.230
1532385464.102,-21.973,-7.324,2.441,-20.508,23.438
1532385464.106,-20.508,-0.488,3.906,-12.695,46.875
1532385464.109,-11.719,0.488,6.348,-9.766,36.621
1532385464.113,-12.207,-5.859,-1.465,-10.742,7.812
1532385464.117,-15.625,-10.742,-3.418,-13.184,18.555
1532385464.121,-14.160,-13.184,4.883,-18.066,5.371
1532385464.125,-9.766,-12.695,2.930,-15.137,18.555
1532385464.129,-13.672,-11.719,0.977,-12.207,44.922
1532385464.133,-13.672,-3.418,1.953,-16.113,13.184
1532385464.137,-2.441,-4.395,6.836,-16.602,18.555
1532385464.141,-2.930,-5.859,7.324,-14.160,55.176
1532385464.145,-9.766,-1.465,-1.953,-10.254,25.391
1532385464.148,-6.348,-2.441,-1.953,-12.207,19.531
1532385464.152,-2.930,-0.977,0.000,-15.625,18.555
1532385464.156,-7.324,-1.953,-5.859,-11.230,17.578
1532385464.160,-10.254,-5.371,-5.371,-14.648,0.977
1532385464.164,-11.719,-2.930,-0.488,-21.484,-3.906
1532385464.168,-12.207,-4.883,2.930,-18.555,42.480
1532385464.172,-6.836,-2.441,4.395,-9.766,65.918
1532385464.176,-5.859,-2.441,0.977,-10.254,51.758
1532385464.180,-10.254,-9.277,3.906,-17.090,24.902
1532385464.184,-7.812,-8.301,6.836,-18.555,31.738
1532385464.188,-8.789,-2.930,4.395,-18.066,45.410
1532385464.191,-3.906,-4.883,0.977,-15.137,31.738
1532385464.195,1.953,-9.766,1.953,-11.230,6.836
1532385464.199,0.000,0.977,5.371,-14.160,6.348
1532385464.203,0.977,8.301,4.883,-11.230,24.414
1532385464.207,-2.930,3.906,4.883,-9.766,32.227
1532385464.211,-2.930,-0.977,2.441,-8.301,54.199
1532385464.215,-0.977,0.000,0.488,-6.836,52.734
1532385464.219,-3.906,0.977,2.930,-11.719,18.066
1532385464.223,-2.930,-2.930,1.953,-12.207,39.551
1532385464.227,-5.371,0.488,-1.953,-11.719,67.871
1532385464.231,0.000,5.859,0.000,-10.254,41.504
1532385464.234,4.883,3.418,4.395,-9.277,28.320
1532385464.238,-3.906,2.441,4.883,-13.672,36.133
1532385464.242,0.488,-1.465,7.324,-7.324,61.035
1532385464.246,2.930,-3.418,8.789,2.930,77.148
1532385464.250,0.977,-1.465,12.695,3.418,47.852
1532385464.254,0.977,-7.324,17.090,6.348,33.691
1532385464.258,-0.488,-3.418,14.648,6.836,31.250
1532385464.262,-9.277,3.418,7.324,-3.906,28.809
1532385464.266,-3.418,-4.883,9.766,-8.789,36.621
1532385464.270,7.324,-7.324,8.789,-3.906,52.246
1532385464.273,-2.930,-3.906,2.441,-6.836,56.641
1532385464.277,-6.348,-7.812,10.742,-11.719,37.598
1532385464.281,-3.418,-6.348,13.184,-12.207,27.344
1532385464.285,-5.859,-4.395,11.230,-9.277,36.621
1532385464.289,-5.371,-6.836,20.020,-6.348,37.109
1532385464.293,-9.766,-3.906,19.531,-2.930,30.762
1532385464.297,-11.230,1.953,16.113,-4.883,2.930
1532385464.301,-1.465,3.418,16.113,-6.348,-8.301
1532385464.305,-5.371,4.883,13.184,-0.977,36.133
1532385464.309,-12.695,-6.836,6.836,-1.465,33.203
1532385464.313,-9.766,-12.207,7.324,-1.953,25.879
1532385464.316,-9.766,-0.977,12.695,3.906,16.113
1532385464.320,0.977,6.836,17.090,6.348,17.578
1532385464.324,8.301,7.812,21.484,4.395,36.133
1532385464.328,0.977,6.348,20.996,0.000,36.621
1532385464.332,6.836,-2.930,17.090,-3.906,50.293
1532385464.336,10.742,-0.488,21.484,-2.930,26.367
1532385464.340,0.488,13.184,23.438,0.000,16.602
1532385464.344,-5.859,8.789,13.184,-1.953,24.902
1532385464.348,-5.859,-6.348,5.859,-7.324,27.344
1532385464.352,-6.836,-10.742,-3.418,-7.324,45.898
1532385464.356,-9.277,-7.324,1.953,-8.789,39.062
1532385464.359,-1.953,-5.371,15.137,-10.254,18.555
1532385464.363,-0.488,2.930,18.066,-11.719,14.160
1532385464.367,5.859,6.348,20.020,-9.277,32.715
1532385464.371,9.766,4.395,20.996,-5.859,29.785
1532385464.375,0.488,3.418,16.113,-8.301,27.344
1532385464.379,5.859,4.883,12.695,-14.648,8.789
1532385464.383,10.742,3.906,16.113,-11.230,-17.578
1532385464.387,6.348,0.977,18.066,-7.324,5.859
1532385464.391,5.371,3.906,17.578,-7.324,52.734
1532385464.395,9.766,0.977,13.672,-4.883,47.363
1532385464.398,5.371,-5.371,13.672,-9.766,23.438
1532385464.402,3.418,0.000,14.648,-12.207,41.504
1532385464.406,2.930,-1.465,14.648,-3.418,68.359
1532385464.410,2.441,-5.371,20.020,-0.977,48.340
1532385464.414,3.906,-5.371,25.391,0.488,21.484
1532385464.418,8.789,0.000,24.902,1.953,18.066
1532385464.422,12.695,-0.977,24.414,7.324,15.625
1532385464.426,15.137,-5.371,20.020,9.766,42.969
1532385464.430,9.766,7.812,17.578,1.465,49.805
1532385464.434,2.441,11.719,17.578,-2.441,24.414
1532385464.438,5.371,8.789,18.555,-2.930,26.367
1532385464.441,4.883,14.160,20.996,-5.859,32.715
1532385464.445,7.324,13.672,21.973,-6.836,48.340
1532385464.449,10.742,1.465,28.809,-2.441,27.344
1532385464.453,7.324,-0.488,27.344,0.977,15.625
1532385464.457,6.836,-0.977,24.414,-3.906,36.133
1532385464.461,0.488,-5.371,23.438,-1.953,45.410
1532385464.465,-3.418,0.488,23.438,1.953,55.176
1532385464.469,2.930,8.789,27.344,1.953,38.574
1532385464.473,1.465,10.254,28.809,1.465,19.531
1532385464.477,-1.465,6.348,20.020,2.930,34.180
1532385464.481,-0.977,10.742,12.695,2.441,10.254
1532385464.484,0.000,11.719,20.508,1.465,11.719
1532385464.488,3.418,2.930,27.344,4.395,41.504
1532385464.492,5.371,-1.465,22.949,11.230,52.734
1532385464.496,0.000,4.395,20.020,9.277,38.574
1532385464.500,2.441,15.625,23.438,3.418,9.766
1532385464.504,16.113,16.602,23.438,7.324,28.809
1532385464.508,10.254,3.906,20.996,6.836,39.551
1532385464.512,1.465,-0.977,20.020,7.812,40.527
1532385464.516,6.836,3.906,22.949,5.371,60.547
1532385464.520,6.836,4.883,24.414,2.930,48.340
1532385464.523,5.371,2.441,20.020,8.301,47.852
1532385464.527,8.301,10.254,17.578,10.254,36.133
1532385464.531,4.395,15.625,18.555,6.836,16.113
1532385464.535,-0.977,6.348,20.996,5.859,12.207
1532385464.539,10.254,3.418,21.973,4.395,22.461
1532385464.543,8.301,10.742,23.438,4.395,19.043
1532385464.547,-2.441,10.742,19.043,0.488,19.043
1532385464.551,-3.418,3.418,17.090,2.441,39.551
1532385464.555,5.859,7.812,24.414,7.812,25.879
1532385464.559,5.859,13.672,20.996,1.953,31.738
1532385464.563,5.371,4.395,12.695,5.371,39.551
1532385464.566,6.836,0.000,16.602,3.418,30.273
1532385464.570,1.953,8.301,21.484,-5.859,26.367
1532385464.574,8.789,6.348,22.461,0.977,42.480
1532385464.578,12.207,7.324,24.414,4.395,37.598
1532385464.582,5.371,16.113,21.973,3.418,12.207
1532385464.586,-0.488,15.625,14.648,4.395,52.246
1532385464.590,0.977,10.254,18.555,4.395,49.805
1532385464.594,8.789,4.883,23.438,5.371,45.898
1532385464.598,15.625,5.859,21.973,5.859,49.805
1532385464.602,12.695,13.184,22.461,5.859,52.246
1532385464.606,7.812,9.277,21.484,7.812,66.895
1532385464.609,11.719,4.883,22.949,4.883,32.227
1532385464.613,21.973,13.672,21.484,0.488,8.789
1532385464.617,29.297,12.695,25.879,0.977,6.836
1532385464.621,32.715,12.695,31.738,-3.418,15.137
1532385464.625,35.156,20.020,23.438,-6.836,25.879
1532385464.629,30.273,15.137,22.461,-2.441,21.973
1532385464.633,25.391,11.719,27.344,7.812,37.598
1532385464.637,23.926,8.301,28.320,14.648,22.949
1532385464.641,16.113,8.301,30.762,21.484,22.461
1532385464.645,11.230,13.184,26.855,23.926,43.457
1532385464.648,6.836,16.113,16.113,17.578,30.762
1532385464.652,4.883,12.695,25.391,21.484,38.086
1532385464.656,0.488,8.789,38.086,21.973,17.090
1532385464.660,0.977,9.277,38.086,7.324,-11.719
1532385464.664,4.395,6.348,35.645,3.418,12.207
1532385464.668,12.695,7.324,30.762,12.695,37.109
1532385464.672,13.184,4.883,30.273,19.531,36.133
1532385464.676,4.395,-1.953,30.273,20.508,41.016
1532385464.680,9.277,4.395,27.344,21.973,11.230
1532385464.684,11.719,12.207,30.273,20.996,5.859
1532385464.688,13.184,13.672,36.621,17.578,42.969
1532385464.691,16.113,15.625,33.203,15.137,35.645
1532385464.695,11.719,13.672,25.391,13.184,22.949
1532385464.699,12.207,13.672,35.645,15.137,24.902
1532385464.703,13.184,15.137,41.504,18.555,34.180
1532385464.707,16.602,12.207,37.598,20.020,60.059
1532385464.711,20.020,6.348,37.598,20.508,56.152
1532385464.715,20.508,8.301,35.156,21.973,36.133
1532385464.719,24.902,18.066,36.133,21.484,37.109
1532385464.723,24.902,21.973,38.086,22.461,52.246
1532385464.727,20.508,23.438,39.062,24.414,47.852
1532385464.730,21.973,21.973,38.574,17.090,27.344
1532385464.734,23.438,18.066,39.062,15.625,42.969
1532385464.738,25.391,17.578,40.527,21.973,42.969
1532385464.742,29.785,17.090,34.668,26.367,48.340
1532385464.746,29.785,18.066,34.668,23.438,41.992
1532385464.750,24.414,25.879,38.574,19.531,19.043
1532385464.754,24.414,25.879,38.574,16.602,28.320
1532385464.758,26.367,21.484,30.273,17.578,49.316
1532385464.762,23.438,22.949,27.344,22.461,64.453
1532385464.766,20.996,20.020,38.574,18.066,52.246
1532385464.770,24.902,21.973,35.156,15.137,45.898
1532385464.773,30.762,22.461,36.621,28.809,78.125
1532385464.777,29.785,15.137,46.875,23.926,48.828
1532385464.781,24.414,17.578,43.945,14.648,16.113
1532385464.785,21.973,17.090,36.621,19.531,42.480
1532385464.789,21.973,10.742,36.133,20.020,41.016
1532385464.793,28.320,13.672,33.203,19.043,39.062
1532385464.797,27.832,25.879,27.344,21.973,29.297
1532385464.801,20.508,24.414,30.273,21.973,13.184
1532385464.805,24.902,14.648,40.527,22.949,20.996
1532385464.809,26.855,17.578,44.434,20.020,47.363
1532385464.813,22.461,17.578,38.574,14.160,47.852
1532385464.816,19.531,16.113,36.621,10.254,30.762
1532385464.820,20.996,16.602,36.133,1.953,5.371
1532385464.824,20.996,14.160,30.273,1.465,-6.348
1532385464.828,25.879,12.207,30.762,7.324,36.621
1532385464.832,23.438,9.277,33.203,10.254,43.945
1532385464.836,22.461,11.719,29.785,16.113,39.062
1532385464.840,30.762,20.508,24.902,18.066,44.434
1532385464.844,21.484,16.113,28.809,15.137,41.016
1532385464.848,20.508,19.043,35.156,16.602,17.090
1532385464.852,26.367,29.297,35.645,20.508,20.996
1532385464.855,30.273,26.855,36.133,18.066,32.715
1532385464.859,28.809,22.949,34.180,8.789,24.902
1532385464.863,29.297,21.484,35.156,10.254,3.418
1532385464.867,34.180,11.230,31.250,17.578,20.508
1532385464.871,26.367,3.418,27.344,13.184,69.824
1532385464.875,21.484,12.695,32.715,12.207,60.547
1532385464.879,24.902,23.926,33.691,12.695,28.809
1532385464.883,24.902,14.160,23.438,8.301,18.555
1532385464.887,17.090,9.766,19.531,6.348,21.484
1532385464.891,15.137,30.762,28.809,4.395,27.344
1532385464.895,15.625,28.320,30.762,3.906,22.949
1532385464.898,9.766,16.602,26.367,5.859,10.254
1532385464.902,15.625,18.555,24.902,14.160,28.320
1532385464.906,20.508,13.672,17.090,20.020,43.945
1532385464.910,16.113,12.695,14.160,18.555,27.344
1532385464.914,19.043,17.090,13.184,18.555,36.621
1532385464.918,23.926,17.578,19.043,18.555,41.992
1532385464.922,24.414,9.766,28.809,19.531,16.602
1532385464.926,24.414,-1.465,29.297,20.508,18.555
1532385464.930,25.391,-4.395,24.414,17.090,25.391
1532385464.934,26.855,5.859,23.926,12.695,45.410
1532385464.938,14.648,25.879,20.508,9.277,22.461
1532385464.941,10.254,27.344,16.602,7.324,0.000
1532385464.945,15.625,21.973,15.137,7.812,4.395
1532385464.949,9.277,21.973,6.348,6.836,-24.902
1532385464.953,8.789,22.949,9.766,3.906,-28.809
1532385464.957,11.230,22.461,14.160,5.859,8.789
1532385464.961,21.973,18.555,12.207,7.324,7.324
1532385464.965,23.438,17.090,13.184,2.441,-32.715
1532385464.969,14.648,19.531,11.719,5.859,-2.930
1532385464.973,13.672,12.695,9.277,18.555,21.973
1532385464.977,12.207,0.488,10.254,19.043,15.625
1532385464.980,15.137,15.625,15.625,15.137,37.109
1532385464.984,15.137,33.691,17.578,17.090,15.625
1532385464.988,12.207,30.762,15.625,18.066,19.043
1532385464.992,12.695,23.438,11.230,16.602,49.316
1532385464.996,5.371,22.949,9.277,14.648,35.645
1532385465.000,8.301,24.902,13.672,8.301,4.395
1532385465.004,24.902,21.973,8.789,14.160,-14.160
1532385465.008,27.832,16.113,3.906,19.043,6.836
1532385465.012,14.648,14.160,4.883,13.672,26.367
1532385465.016,13.184,17.090,3.906,16.113,34.668
1532385465.020,16.113,11.719,7.812,15.625,31.250
1532385465.023,21.973,4.395,12.695,14.648,45.898
1532385465.027,28.320,20.020,14.160,18.555,59.082
1532385465.031,26.367,35.645,17.090,16.113,13.672
1532385465.035,23.438,24.902,8.789,16.113,-10.742
1532385465.039,26.367,21.973,0.488,19.531,11.719
1532385465.043,31.250,22.461,6.348,18.066,22.461
1532385465.047,26.855,22.949,5.371,14.648,32.227
1532385465.051,16.113,22.949,1.953,13.184,41.016
1532385465.055,17.090,15.137,8.301,12.207,46.875
1532385465.059,23.438,17.090,12.207,11.719,37.109
1532385465.063,18.066,17.578,6.836,11.230,26.855
1532385465.066,17.578,15.625,6.348,14.160,39.062
1532385465.070,23.438,15.137,13.184,19.043,44.922
1532385465.074,21.973,13.672,9.766,15.625,36.133
1532385465.078,20.996,8.301,9.277,18.555,26.367
1532385465.082,32.227,7.812,8.301,24.414,32.715
1532385465.086,26.367,18.066,4.395,19.531,39.551
1532385465.090,13.672,21.484,10.254,19.043,57.617
1532385465.094,16.113,27.832,9.766,18.066,50.781
1532385465.098,21.484,33.203,6.836,11.230,15.625
1532385465.102,24.902,26.855,8.789,12.695,2.930
1532385465.105,20.996,22.461,6.836,20.020,20.020
1532385465.109,22.949,22.949,4.883,20.996,32.227
1532385465.113,25.391,17.090,5.371,22.461,20.996
1532385465.117,28.809,21.484,7.324,20.508,31.250
1532385465.121,34.668,25.879,15.137,21.484,41.504
1532385465.125,26.855,25.391,10.254,24.414,27.832
1532385465.129,18.066,23.926,6.836,19.531,28.809
1532385465.133,20.996,16.602,8.789,20.508,33.691
1532385465.137,24.902,21.973,7.812,20.996,57.129
1532385465.141,26.855,27.832,11.230,20.020,41.016
1532385465.145,31.250,28.320,10.254,17.090,8.789
1532385465.148,32.715,28.809,13.672,18.555,18.555
1532385465.152,30.273,24.414,13.184,20.996,62.012
1532385465.156,32.715,21.484,6.348,17.090,60.547
1532385465.160,23.438,18.066,1.953,15.137,42.480
1532385465.164,18.555,20.508,7.324,17.090,36.621
1532385465.168,20.996,26.367,14.160,13.672,39.062
1532385465.172,17.578,17.090,13.184,13.672,63.477
1532385465.176,22.949,13.672,17.090,16.113,46.875
1532385465.180,30.762,17.090,19.531,20.020,46.387
1532385465.184,30.273,22.949,14.160,20.996,49.805
1532385465.188,25.879,34.668,12.695,17.578,47.852
1532385465.191,28.320,32.227,9.766,20.508,54.688
1532385465.195,30.762,21.973,8.301,24.414,30.762
1532385465.199,30.762,19.531,10.254,23.438,20.996
1532385465.203,25.391,21.973,5.371,19.043,40.039
1532385465.207,21.484,21.484,10.254,19.043,44.434
1532385465.211,23.926,28.320,16.602,20.996,26.367
1532385465.215,22.949,27.832,14.160,21.484,5.371
1532385465.219,20.996,13.672,19.043,20.996,7.812
1532385465.223,22.949,13.184,19.043,20.508,42.969
1532385465.227,21.973,24.902,8.789,17.578,52.246
1532385465.230,17.090,25.879,9.766,15.625,26.367
1532385465.234,15.625,15.625,14.160,16.113,35.156
1532385465.238,19.043,23.438,7.812,13.184,30.273
1532385465.242,20.508,30.273,4.395,9.277,18.555
1532385465.246,22.949,26.367,10.254,12.695,15.625
1532385465.250,23.926,28.809,10.742,11.230,7.324
1532385465.254,26.855,21.484,8.301,11.230,25.879
1532385465.258,23.926,19.043,9.277,8.789,32.715
1532385465.262,22.461,24.414,13.672,0.977,4.883
1532385465.266,26.367,26.855,12.695,1.465,3.418
1532385465.270,24.902,25.879,11.230,7.324,22.461
1532385465.273,24.414,16.602,11.719,16.602,47.852
1532385465.277,23.438,13.672,13.672,20.996,58.594
1532385465.281,25.391,25.879,13.184,18.066,48.828
1532385465.285,23.926,25.879,12.207,20.020,43.945
1532385465.289,22.949,16.113,12.695,25.879,44.922
1532385465.293,20.996,20.508,5.859,21.973,46.875
1532385465.297,26.855,30.762,11.230,20.996,26.855
1532385465.301,28.320,27.832,12.695,18.555,38.574
1532385465.305,21.973,6.348,13.672,16.602,44.922
1532385465.309,22.949,8.301,25.391,19.043,8.789
1532385465.313,22.949,26.367,23.438,20.020,7.324
1532385465.316,28.809,25.879,17.578,18.555,28.809
1532385465.320,21.484,18.066,14.160,16.113,35.156
1532385465.324,20.996,15.625,16.602,18.066,33.691
1532385465.328,20.996,20.996,18.066,19.043,25.391
1532385465.332,14.648,28.809,18.066,20.020,17.090
1532385465.336,22.949,23.926,15.625,27.344,17.578
1532385465.340,27.344,14.160,11.719,31.250,17.578
1532385465.344,27.344,17.578,14.160,27.344,32.715
1532385465.348,27.832,22.461,19.531,22.949,49.805
1532385465.352,29.297,16.602,16.602,24.414,60.547
1532385465.355,24.902,21.484,17.090,28.809,64.941
1532385465.359,21.973,24.902,20.020,23.926,42.969
1532385465.363,29.297,20.508,19.531,17.090,38.574
1532385465.367,21.484,23.438,20.508,20.020,25.391
1532385465.371,12.207,24.414,18.066,25.879,-1.953
1532385465.375,22.949,18.555,17.090,22.949,20.508
1532385465.379,28.320,26.367,20.996,21.484,18.066
1532385465.383,29.785,38.574,26.855,22.949,7.812
1532385465.387,33.203,27.832,27.344,26.855,29.785
1532385465.391,37.109,22.461,18.066,30.762,41.016
1532385465.395,39.062,25.391,19.531,33.691,41.016
1532385465.398,37.109,24.414,26.855,29.785,37.109
1532385465.402,34.180,23.438,29.785,22.949,9.277
1532385465.406,35.645,26.367,32.715,22.461,-8.301
1532385465.410,39.551,29.297,24.902,28.809,30.762
1532385465.414,39.551,29.297,23.438,30.762,50.293
1532385465.418,33.203,31.250,26.367,25.391,30.273
1532385465.422,30.762,33.203,26.855,22.949,35.645
1532385465.426,39.551,30.762,25.879,16.113,44.922
1532385465.430,42.969,26.367,25.391,17.090,20.508
1532385465.434,38.574,24.902,25.391,14.160,31.738
1532385465.437,44.922,25.391,26.855,7.324,26.855
1532385465.441,48.340,27.344,31.250,20.996,19.043
1532385465.445,49.316,33.203,25.879,34.668,38.086
1532385465.449,44.922,38.086,22.461,31.738,43.945
1532385465.453,37.598,32.715,29.785,33.691,40.039
1532385465.457,31.738,28.320,32.715,39.551,35.645
1532385465.461,20.996,29.297,32.715,30.273,23.926
1532385465.465,18.555,30.273,34.180,28.320,45.410
1532385465.469,19.531,31.250,34.180,35.156,66.895
1532385465.473,14.648,24.902,33.203,33.203,65.918
1532385465.477,12.207,26.367,33.691,27.344,62.012
1532385465.480,16.602,29.785,33.691,26.855,37.598
1532385465.484,31.738,24.414,33.691,33.203,25.879
1532385465.488,26.367,24.414,27.344,29.785,33.691
1532385465.492,15.625,31.250,22.949,21.484,44.434
1532385465.496,23.438,31.738,25.879,32.715,26.367
1532385465.500,31.738,33.203,27.832,40.039,26.367
1532385465.504,41.016,31.250,30.273,37.109,18.555
1532385465.508,36.621,33.691,35.645,41.016,11.719
1532385465.512,31.250,39.062,38.086,34.180,41.992
1532385465.516,33.691,31.738,36.133,33.691,59.082
1532385465.520,24.414,23.438,34.668,29.785,23.926
1532385465.523,29.785,21.484,31.738,30.273,19.043
1532385465.527,28.320,21.973,34.180,35.645,57.617
1532385465.531,25.391,31.250,38.086,29.785,58.105
1532385465.535,30.762,39.551,38.574,28.809,30.273
1532385465.539,27.344,39.062,32.715,28.809,18.066
1532385465.543,31.250,31.738,27.344,28.809,26.367
1532385465.547,36.621,30.762,33.203,30.762,23.926
1532385465.551,34.180,29.297,36.133,31.738,36.133
1532385465.555,29.785,25.879,33.203,31.738,42.969
1532385465.559,34.180,29.785,35.645,29.297,13.184
1532385465.562,38.086,28.809,43.457,23.926,-18.066
1532385465.566,39.062,27.832,41.992,19.531,-16.113
1532385465.570,31.250,21.484,36.133,21.973,8.789
1532385465.574,25.879,13.672,34.180,25.879,20.508
1532385465.578,22.949,22.461,31.738,25.879,13.184
1532385465.582,35.645,32.715,33.691,31.250,21.484
1532385465.586,42.969,31.250,34.180,34.180,32.227
1532385465.590,32.715,33.203,31.250,30.762,44.922
1532385465.594,37.109,28.809,32.715,32.715,52.246
1532385465.598,39.551,26.367,32.227,33.691,30.762
1532385465.602,27.832,28.320,33.203,27.344,32.227
1532385465.605,28.809,24.902,35.156,27.832,43.457
1532385465.609,35.645,24.414,32.715,32.715,43.457
1532385465.613,42.480,26.367,27.832,29.785,41.992
1532385465.617,40.039,23.926,26.855,26.855,25.879
1532385465.621,30.762,26.855,28.809,25.391,25.391
1532385465.625,27.344,36.621,26.367,26.855,28.320
1532385465.629,28.320,37.598,22.461,28.320,32.715
1532385465.633,34.668,28.809,23.438,28.809,34.668
1532385465.637,36.133,21.973,22.461,26.855,19.043
1532385465.641,42.480,27.832,15.625,24.902,25.391
1532385465.645,52.246,35.156,19.043,32.227,28.809
1532385465.648,48.828,36.621,23.926,26.367,38.574
1532385465.652,43.945,30.273,24.902,28.809,48.828
1532385465.656,42.480,26.855,23.438,30.762,32.227
1532385465.660,42.480,32.715,21.973,22.461,19.043
1532385465.664,46.387,29.297,27.344,23.926,51.270
1532385465.668,47.852,24.902,20.996,26.367,39.062
1532385465.672,41.992,29.297,11.719,19.531,17.578
1532385465.676,40.039,31.738,26.855,19.043,18.555
1532385465.680,44.434,29.785,32.227,22.949,16.602
1532385465.684,39.062,31.738,29.785,23.926,28.809
1532385465.687,28.809,33.203,31.738,26.367,18.066
1532385465.691,35.645,32.227,25.391,30.762,27.344
1532385465.695,33.691,26.367,21.973,29.297,53.223
1532385465.699,33.691,26.367,26.367,26.367,38.086
1532385465.703,44.922,32.715,24.414,30.762,29.297
1532385465.707,51.270,31.738,22.949,31.250,59.082
1532385465.711,45.898,24.902,27.832,33.691,37.109
1532385465.715,38.086,19.043,27.344,33.203,21.484
1532385465.719,37.598,25.879,25.391,31.738,27.344
1532385465.723,35.156,34.668,23.926,30.273,26.367
1532385465.727,29.785,35.156,20.020,23.926,48.828
1532385465.730,23.926,27.832,18.555,20.996,31.250
1532385465.734,20.996,22.949,21.973,20.508,8.789
1532385465.738,27.344,28.320,27.832,22.949,1.953
1532385465.742,33.203,33.203,29.785,17.090,-24.414
1532385465.746,28.809,28.320,30.273,17.090,-3.906
1532385465.750,30.273,23.438,31.250,30.762,4.395
1532385465.754,37.598,31.250,31.250,36.621,20.508
1532385465.758,32.227,29.297,28.809,32.715,56.152
1532385465.762,33.203,18.066,27.832,27.344,54.199
1532385465.766,37.109,24.902,27.832,30.762,53.223
1532385465.770,26.855,37.109,28.320,29.785,37.109
1532385465.773,26.367,37.598,30.273,24.414,35.645
1532385465.777,35.156,37.109,25.391,24.902,44.434
1532385465.781,27.344,36.621,23.926,25.879,35.156
1532385465.785,27.832,27.832,23.438,28.809,29.297
1532385465.789,30.273,19.043,24.902,29.297,16.113
1532385465.793,31.738,18.555,30.762,29.785,-3.906
1532385465.797,31.250,23.926,28.809,24.902,3.418
1532385465.801,27.344,32.227,29.297,26.855,13.184
1532385465.805,35.645,34.180,29.785,31.738,26.367
1532385465.809,29.785,29.785,22.461,22.461,44.434
1532385465.812,19.531,22.949,20.508,21.973,41.992
1532385465.816,25.879,25.879,20.996,21.973,19.531
1532385465.820,35.645,33.203,19.531,20.508,13.672
1532385465.824,33.203,28.320,20.508,25.391,26.367
1532385465.828,31.250,30.762,19.531,28.809,44.922
1532385465.832,34.668,35.156,18.066,37.598,18.555
1532385465.836,35.156,33.203,25.879,38.574,21.973
1532385465.840,38.574,24.414,29.297,33.691,25.879
1532385465.844,45.898,17.578,29.785,37.109,14.160
1532385465.848,41.016,25.391,28.809,34.668,34.668
1532385465.852,35.645,30.762,27.344,31.738,34.180
1532385465.855,30.762,23.438,25.391,27.832,51.758
1532385465.859,32.227,21.973,22.949,21.484,57.129
1532385465.863,34.668,27.832,22.949,22.949,27.344
1532385465.867,28.320,28.809,30.273,26.855,34.180
1532385465.871,26.367,28.809,34.668,26.367,39.551
1532385465.875,23.926,23.438,28.320,26.367,25.391
1532385465.879,28.320,19.531,26.855,23.438,17.090
1532385465.883,29.297,18.066,31.738,26.855,27.832
1532385465.887,29.297,25.879,30.273,31.250,52.734
1532385465.891,28.320,28.809,24.902,25.879,65.918
1532385465.895,27.344,18.555,25.391,19.531,38.574
1532385465.898,32.715,14.648,29.297,25.879,6.348
1532385465.902,36.133,22.949,31.250,31.738,20.996
1532385465.906,33.691,24.902,27.832,25.879,53.223
1532385465.910,31.250,23.438,27.344,30.762,59.082
1532385465.914,32.715,29.297,29.785,35.156,20.996
1532385465.918,29.785,28.809,27.832,22.949,10.742
1532385465.922,22.949,21.973,23.438,17.090,33.691
1532385465.926,21.484,18.066,21.484,19.531,47.852
1532385465.930,28.809,21.973,22.949,22.949,38.086
1532385465.934,30.273,26.367,26.367,22.461,35.645
1532385465.937,19.531,21.973,29.297,21.484,24.902
1532385465.941,22.949,27.344,32.227,24.902,12.695
1532385465.945,26.855,26.855,31.250,26.367,36.621
1532385465.949,17.578,11.719,27.832,21.484,28.809
1532385465.953,18.555,19.531,24.902,18.555,11.719
1532385465.957,14.648,26.855,23.438,17.090,43.945
1532385465.961,18.555,21.973,27.832,18.555,47.363
1532385465.965,29.297,23.438,35.156,22.949,49.316
1532385465.969,21.484,24.902,30.273,20.020,56.152
1532385465.973,19.531,30.273,22.949,21.484,43.457
1532385465.977,26.367,36.133,22.949,28.320,43.457
1532385465.980,26.855,29.785,25.879,28.809,33.691
1532385465.984,25.391,23.926,23.438,26.855,52.246
1532385465.988,30.273,27.344,20.508,28.320,69.824
1532385465.992,26.367,23.926,28.320,28.320,69.336
1532385465.996,21.973,15.625,29.785,21.484,42.969
1532385466.000,16.602,18.066,19.531,18.066,25.879
1532385466.004,16.113,18.066,27.832,16.602,38.086
1532385466.008,26.367,13.672,39.551,19.043,25.879
1532385466.012,24.414,19.043,32.715,26.855,33.691
1532385466.016,20.508,33.203,25.879,27.344,24.902
1532385466.019,22.461,34.668,28.320,20.508,-12.207
1532385466.023,22.949,25.391,31.738,15.137,-22.949
1532385466.027,30.762,30.273,29.785,22.461,18.555
1532385466.031,36.133,35.645,21.484,27.344,49.805
1532385466.035,31.250,16.602,21.484,24.414,37.598
1532385466.039,28.809,11.719,24.414,18.066,25.391
1532385466.043,27.344,29.297,29.297,19.043,45.898
1532385466.047,29.785,35.156,31.250,21.973,30.273
1532385466.051,29.785,28.320,28.320,19.043,16.113
1532385466.055,34.668,23.926,26.367,23.926,22.949
1532385466.059,37.109,29.785,22.949,27.344,6.348
1532385466.062,28.809,37.598,22.461,24.902,14.648
1532385466.066,24.414,31.738,21.973,22.461,3.906
1532385466.070,17.578,25.879,23.438,19.531,13.672
1532385466.074,17.578,26.367,25.879,21.973,31.738
1532385466.078,26.855,27.832,20.020,20.996,9.277
1532385466.082,28.320,28.809,23.438,23.438,2.441
1532385466.086,38.086,22.461,34.180,31.738,30.273
1532385466.090,42.480,20.996,31.250,28.320,45.410
1532385466.094,30.273,31.250,30.762,27.344,49.316
1532385466.098,25.391,36.621,36.133,21.973,31.738
1532385466.102,24.902,36.133,36.133,20.020,48.340
1532385466.105,32.227,28.809,36.133,20.508,58.105
1532385466.109,34.180,23.926,31.738,22.461,40.527
1532385466.113,22.461,31.250,35.156,22.461,33.203
1532385466.117,23.926,37.109,42.480,21.484,11.230
1532385466.121,26.367,35.645,42.480,23.926,24.902
1532385466.125,29.297,33.691,39.062,22.949,47.363
1532385466.129,33.203,28.809,40.527,26.367,31.250
1532385466.133,32.227,29.297,42.480,35.156,25.391
1532385466.137,31.250,33.203,44.922,31.250,20.508
1532385466.141,24.902,30.762,46.387,19.531,9.277
1532385466.144,23.926,31.250,49.805,20.020,38.574
1532385466.148,35.156,30.762,49.316,19.531,38.086
