timestamps,TP9,AF7,AF8,TP10,Right AUX
1532279006.606,34.668,24.902,16.602,50.781,77.148
1532279006.610,30.273,27.344,17.578,50.293,115.234
1532279006.614,22.949,26.855,19.043,48.340,-3.906
1532279006.618,19.531,26.367,20.020,46.387,-65.918
1532279006.622,16.113,24.902,20.020,42.480,42.969
1532279006.626,15.137,25.879,21.484,39.551,139.648
1532279006.630,12.207,29.297,23.438,32.227,7.812
1532279006.633,11.230,30.762,23.438,28.320,-128.906
1532279006.637,12.207,31.738,21.484,34.668,3.418
1532279006.641,13.184,32.227,20.020,38.086,127.930
1532279006.645,14.648,28.809,23.926,39.062,54.199
1532279006.649,17.578,26.855,25.391,39.062,-76.660
1532279006.653,19.531,27.344,21.973,39.062,9.277
1532279006.657,20.996,27.344,22.949,41.504,147.461
1532279006.661,19.043,27.832,23.926,43.945,88.867
1532279006.665,21.973,29.297,22.461,40.039,-26.367
1532279006.669,23.438,34.668,16.113,36.621,-29.785
1532279006.673,22.949,37.598,13.672,41.992,81.543
1532279006.676,19.531,32.715,19.043,44.922,132.324
1532279006.680,10.742,32.227,22.461,33.691,-6.348
1532279006.684,13.672,31.738,24.414,37.598,-82.520
1532279006.688,15.137,26.367,28.320,44.922,28.809
1532279006.692,11.719,27.832,24.902,28.809,123.047
1532279006.696,11.230,32.715,18.066,20.508,47.852
1532279006.700,12.695,37.598,15.625,26.855,-72.266
1532279006.704,12.207,36.133,17.578,31.250,3.906
1532279006.708,6.836,30.762,22.461,28.809,137.207
1532279006.712,4.395,28.809,22.949,22.949,76.660
1532279006.715,3.418,30.762,25.391,22.949,-55.664
1532279006.719,7.324,31.250,29.297,33.203,-23.926
1532279006.723,15.625,27.832,31.250,40.039,128.418
1532279006.727,13.184,24.902,31.250,39.551,140.625
1532279006.731,6.836,23.926,30.273,34.668,-22.949
1532279006.735,9.277,24.414,25.391,32.227,-68.848
1532279006.739,8.301,23.926,20.020,36.133,98.633
1532279006.743,12.207,23.926,22.949,42.480,144.531
1532279006.747,14.160,24.902,25.879,38.574,6.836
1532279006.751,11.230,24.414,25.879,30.273,-89.355
1532279006.755,22.949,23.438,27.832,39.062,-8.301
1532279006.758,32.715,26.367,25.391,48.340,133.789
1532279006.762,30.762,28.320,20.508,44.922,62.988
1532279006.766,24.902,26.367,22.461,44.434,-66.895
1532279006.770,28.809,26.855,20.996,45.410,-29.297
1532279006.774,32.715,26.855,20.020,49.805,102.051
1532279006.778,33.691,28.320,25.391,53.711,106.934
1532279006.782,34.668,28.320,25.879,52.246,-38.086
1532279006.786,33.203,26.855,25.879,53.711,-63.477
1532279006.790,32.227,22.461,27.832,56.152,79.102
1532279006.794,28.809,18.555,29.297,58.594,126.953
1532279006.797,29.297,20.996,28.809,59.082,-20.508
1532279006.801,35.156,19.531,26.855,65.918,-63.965
1532279006.805,36.133,19.531,26.367,68.848,90.332
1532279006.809,33.203,21.484,25.391,60.059,161.621
1532279006.813,32.715,20.508,22.461,52.734,30.762
1532279006.817,35.156,21.484,19.531,55.176,-67.871
1532279006.821,35.645,21.484,19.043,62.500,22.949
1532279006.825,38.574,21.484,19.531,62.988,152.344
1532279006.829,39.062,24.414,18.555,57.617,61.523
1532279006.833,37.598,25.391,15.137,54.688,-93.750
1532279006.837,42.969,25.391,14.648,59.082,-29.785
1532279006.840,45.410,23.926,12.695,61.035,113.281
1532279006.844,41.992,24.902,9.766,55.176,111.328
1532279006.848,38.574,27.344,12.695,53.711,-33.691
1532279006.852,41.504,27.344,12.695,57.129,-52.734
1532279006.856,42.969,27.344,10.742,60.547,73.242
1532279006.860,43.457,30.273,10.254,59.082,100.586
1532279006.864,43.945,31.738,11.719,56.152,-28.320
1532279006.868,46.387,30.762,15.137,56.641,-72.266
1532279006.872,47.363,29.297,14.648,54.199,7.812
1532279006.876,42.969,27.832,10.742,55.664,91.309
1532279006.880,42.480,28.320,11.230,56.641,36.621
1532279006.883,44.922,28.320,12.695,56.152,-69.336
1532279006.887,41.016,25.391,9.766,59.082,15.625
1532279006.891,36.621,24.902,12.695,56.641,145.996
1532279006.895,35.645,24.414,15.625,53.711,63.965
1532279006.899,31.738,25.879,12.695,52.734,-75.684
1532279006.903,32.227,28.320,13.184,55.176,-12.207
1532279006.907,32.715,29.785,16.113,56.152,111.816
1532279006.911,29.297,30.762,15.625,47.852,80.566
1532279006.915,30.273,28.320,13.184,46.875,-34.180
1532279006.919,32.227,25.879,9.277,51.270,-48.828
1532279006.922,28.809,25.879,10.742,51.270,95.215
1532279006.926,27.832,26.855,9.766,50.293,127.930
1532279006.930,30.273,28.320,9.766,46.387,-20.020
1532279006.934,30.273,24.902,10.742,45.898,-72.266
1532279006.938,29.297,24.414,9.766,47.363,47.852
1532279006.942,27.344,25.391,8.789,47.363,130.859
1532279006.946,28.320,23.926,8.789,48.828,23.926
1532279006.950,28.809,25.391,10.742,48.828,-83.008
1532279006.954,29.297,25.391,14.160,49.805,-2.441
1532279006.958,30.273,23.926,13.672,51.758,126.465
1532279006.962,34.668,25.391,13.184,50.293,77.637
1532279006.965,38.574,27.344,15.625,51.758,-60.059
1532279006.969,39.062,25.391,17.578,50.781,-64.941
1532279006.973,37.598,24.902,18.066,53.223,54.688
1532279006.977,36.621,28.320,17.090,58.105,66.895
1532279006.981,35.645,30.762,15.137,53.223,-43.945
1532279006.985,32.227,30.273,15.137,49.805,-65.430
1532279006.989,31.250,30.762,16.113,54.199,44.922
1532279006.993,30.762,26.855,14.160,52.246,128.906
1532279006.997,29.297,25.879,12.207,45.898,31.250
1532279007.001,28.320,25.879,12.207,45.898,-70.312
1532279007.005,24.414,24.414,12.207,47.363,33.203
1532279007.008,24.414,22.461,11.719,42.480,143.555
1532279007.012,25.391,23.438,12.695,36.133,55.664
1532279007.016,24.414,26.367,12.695,36.621,-63.477
1532279007.020,21.484,25.391,13.184,41.016,-15.137
1532279007.024,20.508,25.391,14.160,40.039,104.492
1532279007.028,20.996,26.855,17.090,37.598,71.289
1532279007.032,20.020,27.344,17.090,40.039,-60.059
1532279007.036,21.484,28.809,14.160,39.551,-41.504
1532279007.040,22.949,28.320,14.160,38.086,101.562
1532279007.044,20.996,26.367,17.090,38.086,132.324
1532279007.047,16.113,25.391,18.555,34.668,16.602
1532279007.051,20.020,25.391,15.625,35.156,-66.406
1532279007.055,25.879,24.902,16.113,43.457,60.059
1532279007.059,26.855,23.926,16.113,41.016,133.789
1532279007.063,28.320,23.926,14.648,37.598,3.418
1532279007.067,31.250,23.438,18.066,40.039,-72.266
1532279007.071,31.250,24.414,18.555,39.062,5.859
1532279007.075,31.250,28.809,18.066,39.551,109.863
1532279007.079,37.109,29.785,14.160,39.062,57.129
1532279007.083,37.109,28.320,11.230,37.598,-79.590
1532279007.087,26.855,28.320,14.160,34.180,-13.184
1532279007.090,22.949,28.809,16.602,28.809,94.727
1532279007.094,22.949,27.832,16.602,30.273,68.359
1532279007.098,21.973,27.344,18.066,34.180,-40.527
1532279007.102,19.531,23.438,19.531,36.621,-56.152
1532279007.106,20.508,20.020,20.996,40.039,106.445
1532279007.110,21.973,21.484,18.555,41.016,115.723
1532279007.114,20.996,23.926,14.648,41.504,-36.621
1532279007.118,19.043,25.391,12.207,44.434,-46.387
1532279007.122,14.160,23.926,12.695,46.875,68.359
1532279007.126,17.578,22.461,13.672,45.898,125.488
1532279007.130,24.414,22.461,10.254,44.922,35.156
1532279007.133,26.367,25.391,10.254,50.781,-63.965
1532279007.137,27.344,24.902,13.184,54.688,2.930
1532279007.141,25.879,21.484,12.695,51.758,112.793
1532279007.145,27.832,21.973,10.742,48.340,80.078
1532279007.149,39.551,23.926,10.742,52.734,-72.754
1532279007.153,41.504,20.996,11.230,57.129,-47.852
1532279007.157,38.086,17.578,11.230,57.617,145.508
1532279007.161,40.527,20.020,11.719,54.688,136.230
1532279007.165,40.527,20.020,10.742,49.316,-32.227
1532279007.169,41.992,18.555,10.254,45.410,-75.684
1532279007.172,47.363,19.531,12.207,48.828,72.754
1532279007.176,50.293,18.555,11.719,56.152,133.789
1532279007.180,52.734,18.066,10.254,56.641,-5.371
1532279007.184,55.664,19.043,7.812,56.641,-80.566
1532279007.188,59.082,19.531,6.836,57.617,23.438
1532279007.192,56.641,17.578,6.348,58.594,113.770
1532279007.196,53.223,16.113,4.883,60.547,50.781
1532279007.200,51.270,16.602,3.906,61.035,-65.918
1532279007.204,51.270,14.160,4.883,66.406,5.859
1532279007.208,53.711,15.137,3.418,65.430,110.352
1532279007.212,52.246,15.625,2.930,61.035,42.480
1532279007.215,49.805,14.648,7.324,61.523,-62.500
1532279007.219,45.410,15.137,7.324,59.082,-44.922
1532279007.223,43.457,16.602,2.441,56.641,99.121
1532279007.227,41.504,17.090,-0.488,52.246,107.422
1532279007.231,38.574,15.137,0.000,49.805,-50.781
1532279007.235,38.086,14.160,0.488,49.805,-81.055
1532279007.239,41.016,14.160,-0.488,49.316,26.367
1532279007.243,42.969,14.160,0.977,50.781,109.863
1532279007.247,45.410,16.113,1.953,48.340,3.906
1532279007.251,46.387,16.602,2.441,41.016,-132.812
1532279007.254,46.387,16.602,0.000,44.434,-11.230
1532279007.258,46.875,14.160,-1.953,53.711,111.816
1532279007.262,43.945,11.230,-2.441,54.199,35.156
1532279007.266,40.039,11.719,-1.953,55.176,-78.613
1532279007.270,38.086,14.160,-0.977,59.082,-30.273
1532279007.274,37.598,16.602,-3.418,62.500,108.887
1532279007.278,37.109,16.602,-4.883,62.012,90.820
1532279007.282,40.527,16.113,-4.883,59.082,-55.664
1532279007.286,41.016,15.137,-5.371,60.059,-72.754
1532279007.290,38.574,13.184,-7.324,54.199,52.246
1532279007.294,40.527,10.742,-7.812,52.734,88.379
1532279007.297,42.969,8.789,-5.371,58.594,-34.668
1532279007.301,45.410,10.254,-5.371,56.152,-73.730
1532279007.305,47.852,7.324,-6.836,57.129,59.570
1532279007.309,43.945,5.371,-8.301,53.223,124.023
1532279007.313,40.527,7.812,-9.277,49.316,1.953
1532279007.317,38.086,6.348,-9.766,49.805,-85.938
1532279007.321,31.738,6.836,-9.766,51.758,9.277
1532279007.325,30.273,8.301,-10.254,53.711,145.020
1532279007.329,31.250,8.789,-9.766,45.898,62.012
1532279007.333,28.320,7.324,-8.789,38.574,-109.863
1532279007.337,23.926,6.836,-7.324,45.410,-36.133
1532279007.340,21.484,3.906,-6.836,49.316,134.766
1532279007.344,23.438,0.488,-5.371,48.828,103.516
1532279007.348,23.438,-0.488,-4.395,47.363,-35.156
1532279007.352,20.996,0.000,-8.301,44.922,-33.691
1532279007.356,22.461,0.488,-9.277,48.828,97.656
1532279007.360,25.391,0.000,-8.301,51.758,126.465
1532279007.364,29.785,0.488,-7.812,50.781,-11.719
1532279007.368,29.785,0.977,-9.766,48.828,-76.660
1532279007.372,27.344,1.465,-11.230,50.293,49.316
1532279007.376,31.738,1.465,-11.719,50.293,133.789
1532279007.379,33.203,2.441,-13.184,43.945,32.715
1532279007.383,36.133,2.930,-12.695,46.875,-89.355
1532279007.387,39.062,3.418,-10.254,53.711,-18.066
1532279007.391,39.062,3.906,-9.766,49.805,82.520
1532279007.395,38.086,0.977,-6.348,48.828,55.664
1532279007.399,37.598,-0.488,-8.789,49.805,-29.785
1532279007.403,41.016,1.953,-13.672,53.223,-22.461
1532279007.407,43.945,2.930,-13.184,62.988,83.984
1532279007.411,42.480,1.953,-12.695,60.059,98.633
1532279007.415,40.527,1.465,-11.719,51.758,-7.324
1532279007.419,41.016,2.930,-12.207,54.688,-41.016
1532279007.422,40.527,2.930,-13.672,57.617,80.566
1532279007.426,40.527,2.441,-12.695,53.711,122.070
1532279007.430,40.039,4.883,-14.160,43.945,-39.551
1532279007.434,42.480,3.906,-15.137,41.016,-106.934
1532279007.438,46.875,2.441,-15.625,48.828,34.668
1532279007.442,43.945,1.953,-18.555,50.293,136.719
1532279007.446,45.410,2.930,-16.113,49.316,40.527
1532279007.450,48.340,2.930,-15.137,51.270,-70.801
1532279007.454,48.828,-0.977,-14.648,55.664,-1.465
1532279007.458,48.340,-0.977,-13.184,58.105,133.789
1532279007.462,47.363,-1.465,-14.648,56.152,122.070
1532279007.465,45.410,-3.418,-13.672,55.664,-28.320
1532279007.469,41.504,-1.953,-14.160,58.594,-44.434
1532279007.473,42.969,-1.465,-16.113,58.105,94.238
1532279007.477,43.457,-2.441,-17.090,56.152,101.562
1532279007.481,44.922,0.488,-17.578,53.223,-12.695
1532279007.485,44.434,0.977,-20.020,55.176,-77.148
1532279007.489,43.945,-0.488,-22.461,57.129,30.762
1532279007.493,50.781,0.488,-22.461,59.570,111.816
1532279007.497,53.711,-0.488,-18.066,64.941,5.371
1532279007.501,54.199,0.488,-17.090,67.871,-74.219
1532279007.504,53.223,1.953,-18.555,72.754,30.762
1532279007.508,50.293,-2.441,-17.578,68.848,115.723
1532279007.512,49.316,-4.395,-16.602,64.941,13.672
1532279007.516,48.340,-0.977,-18.555,64.453,-105.957
1532279007.520,52.246,0.977,-19.531,64.453,-20.508
1532279007.524,53.711,2.441,-19.531,66.406,132.812
1532279007.528,50.293,3.906,-20.020,60.059,85.938
1532279007.532,51.270,3.418,-19.043,51.270,-75.195
1532279007.536,49.805,0.488,-20.020,51.270,-59.570
1532279007.540,45.410,-1.465,-19.043,53.223,117.676
1532279007.544,43.945,2.441,-14.648,53.711,139.160
1532279007.547,42.969,2.930,-13.184,50.781,-30.762
1532279007.551,40.527,0.000,-12.207,51.270,-80.566
1532279007.555,36.133,0.977,-7.812,54.199,71.289
1532279007.559,33.691,1.465,-6.348,51.758,138.672
1532279007.563,26.855,1.465,-5.859,43.945,14.160
1532279007.567,21.484,3.418,-2.930,40.039,-88.379
1532279007.571,17.578,2.441,-1.465,40.527,2.441
1532279007.575,14.648,2.930,-1.953,40.039,130.371
1532279007.579,14.160,1.953,0.977,35.156,102.539
1532279007.583,8.789,1.465,1.953,29.297,-20.996
1532279007.586,8.789,5.371,1.465,35.645,-14.648
1532279007.590,5.371,3.906,2.930,33.691,127.441
1532279007.594,0.488,1.465,2.930,24.902,110.352
1532279007.598,-0.488,3.418,3.906,20.508,-37.598
1532279007.602,-7.324,2.930,4.883,18.555,-39.551
1532279007.606,-9.277,3.906,6.348,20.508,81.543
1532279007.610,-7.324,4.395,7.324,19.531,118.164
1532279007.614,-5.859,4.883,9.766,20.020,20.996
1532279007.618,-3.906,1.465,12.207,20.020,-36.621
1532279007.622,-6.348,0.977,11.719,17.090,60.547
1532279007.626,-8.301,3.906,11.230,20.020,149.414
1532279007.629,-4.395,5.859,10.254,15.625,30.762
1532279007.633,-5.859,9.277,5.371,6.836,-117.188
1532279007.637,-9.277,8.301,4.883,11.719,-20.508
1532279007.641,-12.207,5.859,7.812,11.719,137.695
1532279007.645,-14.648,4.395,9.766,8.301,74.219
1532279007.649,-9.277,7.324,9.277,10.254,-58.105
1532279007.653,-2.930,11.719,4.395,13.184,-16.602
1532279007.657,-3.906,9.766,4.395,15.137,129.883
1532279007.661,-10.254,5.859,7.324,10.742,107.422
1532279007.665,-7.812,4.395,4.883,11.719,-35.645
1532279007.669,-0.488,2.441,2.930,19.531,-90.332
1532279007.672,5.859,0.977,5.371,28.809,57.129
1532279007.676,13.184,0.977,4.395,35.645,160.156
1532279007.680,23.926,2.930,-0.977,34.668,-10.742
1532279007.684,24.414,3.418,-3.418,34.180,-98.633
1532279007.688,21.973,1.465,-1.953,36.621,24.902
1532279007.692,20.508,0.977,0.977,36.621,112.305
1532279007.696,19.043,-2.441,3.906,38.086,37.109
1532279007.700,28.320,-0.488,5.371,41.992,-87.891
1532279007.704,36.621,3.418,4.395,46.387,-13.184
1532279007.708,33.203,3.418,3.906,48.340,138.184
1532279007.711,24.902,0.977,4.395,40.039,81.543
1532279007.715,24.414,0.000,5.371,35.645,-45.410
1532279007.719,29.297,0.488,5.371,43.457,-45.898
1532279007.723,30.762,0.000,5.371,50.293,83.008
1532279007.727,32.227,-0.977,6.348,48.340,115.234
1532279007.731,34.668,-0.488,6.836,40.527,-19.043
1532279007.735,35.156,0.488,6.348,44.922,-67.383
1532279007.739,35.645,-1.465,6.348,51.758,55.664
1532279007.743,29.785,-4.395,6.348,51.758,125.488
1532279007.747,29.297,-3.906,8.301,52.246,19.043
1532279007.751,35.645,-1.465,9.766,49.805,-78.125
1532279007.754,35.156,-0.488,9.277,49.316,-12.695
1532279007.758,37.109,1.465,9.766,51.270,112.793
1532279007.762,37.109,1.953,5.371,47.852,56.152
1532279007.766,35.156,0.000,2.930,45.898,-65.430
1532279007.770,32.715,-0.977,4.883,43.945,-28.809
1532279007.774,36.133,0.977,8.789,49.316,112.793
1532279007.778,38.574,2.441,6.836,51.758,96.680
1532279007.782,32.227,1.953,3.418,47.363,-62.012
1532279007.786,34.180,-0.488,3.418,50.293,-45.410
1532279007.790,35.156,-0.977,5.859,53.711,75.195
1532279007.794,39.551,0.000,7.324,54.688,95.215
1532279007.797,45.898,0.977,6.348,58.594,-36.133
1532279007.801,48.828,1.953,6.836,62.500,-81.543
1532279007.805,49.316,2.930,9.277,65.430,35.156
1532279007.809,49.805,2.930,9.277,61.523,86.426
1532279007.813,44.922,2.930,7.324,50.781,-34.180
1532279007.817,41.504,5.859,5.859,50.781,-81.543
1532279007.821,43.945,4.883,6.348,55.176,34.180
1532279007.825,43.457,4.395,7.324,54.688,141.113
1532279007.829,46.387,5.859,4.395,52.246,82.031
1532279007.833,49.316,4.395,4.395,52.734,-33.691
1532279007.836,47.852,4.395,7.324,55.176,-2.930
1532279007.840,47.363,5.371,5.859,59.082,108.887
1532279007.844,49.316,7.812,6.348,57.617,80.078
1532279007.848,46.875,9.277,8.301,50.781,-91.797
1532279007.852,43.945,8.789,9.277,53.223,-90.332
1532279007.856,43.457,7.812,11.719,61.035,84.961
1532279007.860,40.527,7.324,11.719,61.035,113.281
1532279007.864,40.039,6.348,10.254,57.129,-22.949
1532279007.868,40.039,5.859,11.230,51.270,-75.195
1532279007.872,38.574,7.812,10.254,49.316,43.457
1532279007.876,35.645,7.812,7.324,54.199,132.812
1532279007.879,34.668,7.812,7.812,53.223,31.738
1532279007.883,39.062,11.230,9.277,53.223,-76.660
1532279007.887,42.969,15.137,11.230,58.105,12.207
1532279007.891,44.434,17.090,12.695,58.105,129.883
1532279007.895,41.992,17.090,17.090,54.688,82.031
1532279007.899,42.480,18.066,17.578,51.758,-58.105
1532279007.903,41.992,19.043,16.602,54.199,-45.898
1532279007.907,41.992,19.531,16.113,58.105,78.613
1532279007.911,44.922,19.531,18.066,53.223,55.664
1532279007.915,51.758,20.020,18.555,54.199,-31.738
1532279007.918,56.152,22.949,19.043,64.941,-48.828
1532279007.922,57.617,25.879,21.484,73.242,54.688
1532279007.926,58.594,27.344,23.438,75.195,105.957
1532279007.930,54.688,27.344,24.902,69.824,-26.855
1532279007.934,53.711,26.855,25.391,69.336,-93.262
1532279007.938,56.152,25.879,28.320,73.730,35.645
1532279007.942,57.129,28.320,31.738,78.613,142.578
1532279007.946,59.570,31.250,33.691,82.520,55.176
1532279007.950,62.500,35.645,34.668,78.613,-99.609
1532279007.954,62.988,39.062,37.598,81.543,-56.641
1532279007.958,66.895,42.480,40.039,92.773,123.535
1532279007.961,71.777,47.852,41.992,94.727,107.910
1532279007.965,72.754,49.805,45.410,91.309,-52.734
1532279007.969,72.754,47.852,47.363,93.750,-56.152
1532279007.973,74.707,50.293,46.875,99.121,93.262
1532279007.977,79.102,53.711,46.875,101.074,97.656
1532279007.981,84.473,58.594,48.828,96.191,-60.547
1532279007.985,88.867,62.500,53.223,96.680,-83.984
1532279007.989,89.355,63.477,55.176,97.168,45.410
1532279007.993,89.355,65.918,56.641,91.797,122.070
1532279007.997,88.379,69.824,61.523,95.703,27.344
1532279008.001,89.355,73.242,64.941,99.609,-77.148
1532279008.004,85.938,75.195,65.430,98.633,11.719
1532279008.008,81.055,77.637,65.918,95.215,122.559
1532279008.012,82.031,79.102,67.383,95.703,47.363
1532279008.016,82.520,79.590,69.336,97.656,-62.500
1532279008.020,85.938,81.543,69.824,99.609,2.930
1532279008.024,89.355,83.496,69.824,103.516,154.785
1532279008.028,86.426,82.031,68.848,102.539,113.281
1532279008.032,85.938,81.055,67.383,99.121,-51.758
1532279008.036,86.914,82.031,63.477,102.051,-37.109
1532279008.040,86.426,80.566,53.223,103.027,83.984
1532279008.043,88.867,83.008,50.293,103.027,86.426
1532279008.047,92.773,83.008,47.363,101.562,-33.203
1532279008.051,92.285,80.078,35.645,96.191,-95.215
1532279008.055,89.844,76.660,28.320,97.168,25.879
1532279008.059,84.961,72.754,24.902,100.098,131.348
1532279008.063,83.496,70.801,18.066,98.633,40.039
1532279008.067,83.984,69.336,10.254,99.609,-69.336
1532279008.071,80.566,67.383,6.348,96.680,-10.742
1532279008.075,81.055,66.406,3.906,95.215,120.117
1532279008.079,79.102,68.359,0.977,91.309,41.504
1532279008.083,72.754,68.359,-1.953,85.449,-70.801
1532279008.086,73.242,65.918,-1.953,89.844,-6.836
1532279008.090,75.195,65.918,2.441,93.750,100.586
1532279008.094,74.707,66.406,3.906,90.332,87.402
1532279008.098,73.242,64.453,6.348,87.402,-39.062
1532279008.102,72.266,62.500,10.742,85.938,-52.734
1532279008.106,71.777,60.547,15.625,85.938,84.473
1532279008.110,67.383,61.035,22.461,81.055,136.719
1532279008.114,63.477,62.500,27.344,77.148,12.207
1532279008.118,62.012,62.012,30.273,74.219,-81.055
1532279008.122,60.059,59.570,34.180,69.336,32.715
1532279008.126,58.105,59.082,36.621,70.801,130.371
1532279008.129,58.594,58.594,38.086,66.406,0.488
1532279008.133,61.035,57.129,39.551,66.406,-102.051
1532279008.137,56.641,56.152,37.109,74.219,18.555
1532279008.141,52.734,51.758,37.598,72.266,137.207
1532279008.145,53.223,51.270,41.016,67.871,61.035
1532279008.149,51.270,54.199,40.527,65.918,-72.266
1532279008.153,48.340,51.758,41.992,68.848,-40.039
1532279008.157,49.805,49.316,42.480,70.801,85.938
1532279008.161,56.152,52.246,45.898,71.777,104.004
1532279008.165,60.547,54.199,48.340,72.754,-20.020
1532279008.168,60.059,55.664,48.340,69.336,-73.730
1532279008.172,58.105,55.664,47.363,69.336,64.941
1532279008.176,60.547,56.641,47.852,73.730,124.512
1532279008.180,64.453,57.617,49.316,65.918,5.371
1532279008.184,66.895,57.129,46.875,63.965,-73.730
1532279008.188,70.312,58.105,44.922,65.430,15.625
1532279008.192,71.777,57.617,44.922,58.105,108.887
1532279008.196,68.848,57.129,44.922,63.965,31.738
1532279008.200,63.477,55.664,44.434,72.754,-86.914
1532279008.204,57.617,54.688,45.410,77.148,-14.160
1532279008.208,54.199,53.223,46.875,80.566,127.930
1532279008.211,53.223,51.270,46.387,78.125,70.801
1532279008.215,51.270,50.293,43.457,78.125,-75.684
1532279008.219,50.293,51.270,43.457,82.031,-51.758
1532279008.223,46.387,50.781,45.898,81.543,95.215
1532279008.227,46.387,49.316,46.387,77.148,110.352
1532279008.231,50.781,50.293,44.922,65.430,-40.527
1532279008.235,50.293,52.246,44.922,62.500,-82.520
1532279008.239,49.805,52.734,43.457,68.359,52.246
1532279008.243,48.828,51.270,41.504,68.359,135.742
1532279008.247,45.410,49.316,41.992,65.918,35.156
1532279008.251,41.504,45.898,39.062,61.035,-68.359
1532279008.254,37.598,44.434,37.109,56.152,25.391
1532279008.258,40.039,47.363,36.133,58.594,144.043
1532279008.262,41.016,47.852,36.133,56.641,66.406
1532279008.266,38.574,49.316,35.645,50.293,-69.824
1532279008.270,39.062,50.293,33.691,49.316,-33.203
1532279008.274,38.086,48.828,32.715,52.246,117.188
1532279008.278,37.598,46.875,31.738,52.246,106.934
1532279008.282,36.621,42.969,28.320,47.852,-64.453
1532279008.286,36.133,44.922,26.367,49.316,-78.613
1532279008.290,37.598,45.898,26.855,52.246,69.336
1532279008.293,33.203,41.016,23.926,52.734,121.582
1532279008.297,30.762,40.527,20.508,50.781,-16.602
1532279008.301,34.180,38.574,19.043,50.293,-83.984
1532279008.305,34.180,36.621,15.137,52.246,58.105
1532279008.309,31.250,38.086,15.625,47.363,132.324
1532279008.313,33.203,39.062,18.555,45.898,25.391
1532279008.317,36.621,41.016,19.531,49.316,-94.727
1532279008.321,38.086,43.457,19.531,51.758,2.930
1532279008.325,37.598,44.434,20.020,55.664,144.043
1532279008.329,34.180,44.434,21.484,49.805,68.359
1532279008.333,32.715,44.922,21.484,43.945,-70.312
1532279008.336,34.180,43.945,20.508,50.781,-18.555
1532279008.340,34.668,42.480,17.578,55.664,107.422
1532279008.344,35.156,43.457,17.090,55.664,77.637
1532279008.348,37.109,44.434,18.555,55.176,-47.363
1532279008.352,34.180,42.480,17.090,52.246,-28.320
1532279008.356,35.156,40.527,15.137,53.711,106.934
1532279008.360,34.668,40.039,17.578,55.664,115.723
1532279008.364,33.203,40.039,16.113,53.223,-0.977
1532279008.368,39.062,42.480,14.648,52.734,-64.453
1532279008.372,44.434,43.457,19.043,59.082,31.250
1532279008.375,45.898,40.527,20.996,65.430,128.906
1532279008.379,45.410,41.016,21.484,62.500,34.668
1532279008.383,40.527,41.504,17.578,56.152,-58.105
1532279008.387,40.039,41.504,15.137,60.547,16.113
1532279008.391,48.340,44.434,18.555,66.895,122.070
1532279008.395,52.734,45.410,18.555,66.406,87.891
1532279008.399,52.246,44.434,17.090,66.895,-47.363
1532279008.403,51.270,44.434,19.531,66.406,-35.156
1532279008.407,51.270,43.457,19.043,68.848,92.285
1532279008.411,52.246,42.480,17.090,64.453,50.293
1532279008.415,53.711,46.387,17.090,58.105,-58.594
1532279008.418,50.781,47.852,17.578,63.477,-58.105
1532279008.422,52.246,46.875,20.020,66.406,67.871
1532279008.426,55.664,46.875,20.508,63.965,140.625
1532279008.430,51.270,48.340,19.531,56.641,8.789
1532279008.434,48.340,49.316,20.508,57.129,-77.637
1532279008.438,48.340,46.875,20.508,60.059,53.223
1532279008.442,50.781,46.875,18.066,60.059,170.410
1532279008.446,54.688,50.293,18.066,62.012,75.684
1532279008.450,53.711,51.270,17.578,60.059,-58.594
1532279008.454,51.758,51.270,17.578,58.105,-7.812
1532279008.458,49.805,51.270,20.996,59.082,123.535
1532279008.461,48.340,50.293,24.902,53.223,78.613
1532279008.465,41.504,47.363,22.949,46.875,-47.363
1532279008.469,35.156,46.387,21.484,40.039,-57.129
1532279008.473,35.156,45.410,22.949,36.621,81.055
1532279008.477,34.668,41.992,23.438,42.969,111.328
1532279008.481,34.668,44.922,22.949,44.922,-39.551
1532279008.485,32.715,46.387,21.484,44.434,-65.430
1532279008.489,28.809,44.922,20.020,42.969,68.359
1532279008.493,24.414,45.898,18.555,39.551,132.324
1532279008.497,20.996,42.969,20.020,36.621,29.785
1532279008.500,21.484,41.504,19.531,34.668,-51.270
1532279008.504,23.438,41.016,20.508,37.598,30.273
1532279008.508,18.555,39.551,16.602,34.668,125.488
1532279008.512,12.695,36.621,12.695,23.438,30.762
1532279008.516,12.695,34.180,11.230,25.879,-83.008
1532279008.520,14.160,33.203,9.277,31.738,-15.625
1532279008.524,17.578,32.715,9.277,34.180,136.719
1532279008.528,20.996,34.180,8.301,36.133,120.605
1532279008.532,24.902,32.715,7.324,36.133,-41.504
1532279008.536,22.461,31.738,4.883,36.133,-45.898
1532279008.540,18.066,28.809,2.441,35.645,74.219
1532279008.543,17.090,23.926,0.000,31.738,87.891
1532279008.547,14.160,23.438,-1.465,27.344,-34.180
1532279008.551,13.184,22.461,0.000,24.902,-95.215
1532279008.555,12.207,21.484,-1.465,30.273,27.832
1532279008.559,12.695,20.996,-1.953,32.227,119.629
1532279008.563,14.160,22.949,-2.930,29.785,42.480
1532279008.567,16.113,23.438,-4.395,29.785,-45.410
1532279008.571,16.113,20.020,-4.395,27.832,24.414
1532279008.575,10.742,21.484,-6.348,28.320,131.836
1532279008.579,14.648,26.367,-6.836,26.855,80.566
1532279008.583,16.113,27.344,-7.812,21.484,-58.594
1532279008.586,20.020,24.902,-11.719,23.926,-36.621
1532279008.590,25.879,22.461,-11.230,28.809,95.703
1532279008.594,13.184,21.484,-9.277,24.414,89.844
1532279008.598,6.348,19.531,-6.836,21.973,-31.738
1532279008.602,10.742,17.090,-1.953,23.926,-51.270
1532279008.606,15.625,18.555,-2.930,32.715,94.727
1532279008.610,18.555,19.043,-4.395,30.273,111.816
1532279008.614,19.531,19.043,-1.953,24.902,-19.531
1532279008.618,21.484,17.090,-1.953,35.156,-75.684
1532279008.622,21.973,17.090,-0.977,39.062,41.016
1532279008.625,25.879,18.066,-0.488,39.062,139.648
1532279008.629,23.926,16.602,1.953,33.203,27.344
1532279008.633,18.555,13.184,4.395,30.762,-69.824
1532279008.637,18.066,11.230,0.000,34.668,-2.441
1532279008.641,18.555,10.742,-1.465,38.086,97.656
1532279008.645,21.973,12.695,-0.488,41.992,53.711
1532279008.649,20.996,13.184,-0.488,38.086,-82.520
1532279008.653,22.461,15.137,2.441,36.133,-59.570
1532279008.657,23.926,16.602,2.930,41.504,129.395
1532279008.661,21.973,18.066,0.488,44.922,103.516
1532279008.665,20.996,18.555,0.488,41.992,-41.016
1532279008.668,22.461,18.066,0.488,39.551,-69.824
1532279008.672,24.414,16.113,-1.953,40.039,50.781
1532279008.676,18.555,16.113,-1.465,39.551,147.949
1532279008.680,18.066,18.066,0.000,39.062,10.742
1532279008.684,22.461,18.555,1.465,39.551,-69.824
1532279008.688,23.926,18.555,1.465,40.527,39.062
1532279008.692,29.297,19.043,0.000,39.551,118.164
1532279008.696,30.762,20.508,-1.953,40.039,44.922
1532279008.700,27.344,22.461,0.977,37.598,-74.219
1532279008.704,29.297,22.461,1.953,37.109,-6.836
1532279008.707,32.227,23.926,0.977,41.504,114.746
1532279008.711,31.738,25.879,1.953,39.551,64.941
1532279008.715,29.297,25.879,1.953,37.109,-43.945
1532279008.719,29.785,26.367,3.418,42.480,-11.719
1532279008.723,31.250,25.879,3.906,44.922,131.348
1532279008.727,30.273,25.391,1.953,40.039,115.234
1532279008.731,31.738,27.344,0.488,38.086,-47.363
1532279008.735,35.156,24.902,-0.488,44.922,-86.426
1532279008.739,34.668,21.484,-2.441,48.828,68.359
1532279008.743,32.227,21.484,-1.465,44.434,158.203
1532279008.747,29.785,20.996,-0.977,40.527,32.227
1532279008.750,31.250,18.066,0.000,39.551,-100.586
1532279008.754,24.414,13.672,0.000,35.156,-30.762
1532279008.758,19.531,15.137,-0.977,36.621,122.070
1532279008.762,23.926,17.578,0.000,39.551,71.289
1532279008.766,22.461,16.602,1.465,39.062,-84.473
1532279008.770,19.531,15.137,3.906,39.551,-29.785
1532279008.774,22.949,15.137,4.883,43.457,143.066
1532279008.778,24.902,17.578,4.883,41.992,116.211
1532279008.782,21.973,20.020,4.395,35.156,-52.734
1532279008.786,24.902,18.555,2.930,37.109,-55.664
1532279008.790,23.438,19.531,3.418,34.668,73.730
1532279008.793,18.066,22.461,4.883,27.344,92.773
1532279008.797,12.207,19.531,2.930,28.320,-24.902
1532279008.801,12.695,20.996,4.883,30.762,-77.148
1532279008.805,18.555,26.367,11.230,35.156,68.848
1532279008.809,21.973,29.297,14.160,38.086,119.629
1532279008.813,18.555,31.250,14.648,35.645,9.766
1532279008.817,15.137,33.203,14.648,31.250,-67.871
1532279008.821,11.719,33.691,15.137,27.832,7.812
1532279008.825,9.766,30.762,16.113,28.809,115.234
1532279008.829,9.277,31.738,17.578,23.438,36.133
1532279008.832,12.695,35.645,20.020,20.996,-81.543
1532279008.836,15.137,37.109,20.020,30.762,-31.738
1532279008.840,9.766,36.133,19.531,35.156,99.609
1532279008.844,9.766,37.598,19.043,31.250,89.355
1532279008.848,6.836,37.109,20.508,27.344,-36.133
1532279008.852,3.418,36.621,21.484,27.344,-55.176
1532279008.856,-1.465,35.156,20.020,24.902,85.938
1532279008.860,-7.812,31.738,24.414,17.090,123.535
1532279008.864,-9.277,32.227,27.344,13.672,-14.160
1532279008.868,-6.836,32.227,27.832,18.066,-73.730
1532279008.872,-3.418,35.156,28.809,16.602,46.875
1532279008.875,-5.859,41.504,28.809,11.719,140.625
1532279008.879,-7.812,43.945,29.297,8.301,39.551
1532279008.883,-10.254,41.992,29.297,8.301,-66.895
1532279008.887,-19.043,39.551,29.297,6.836,-0.977
1532279008.891,-20.996,38.086,29.297,4.883,110.840
1532279008.895,-18.555,38.574,31.250,4.395,67.383
1532279008.899,-14.648,40.527,32.715,3.418,-44.922
1532279008.903,-9.766,41.992,31.250,9.277,7.812
1532279008.907,-8.301,41.992,31.738,13.672,116.211
1532279008.911,-13.184,42.969,33.691,5.371,97.168
1532279008.915,-16.602,43.945,35.156,4.883,-16.113
1532279008.918,-12.207,43.945,35.156,9.277,-63.477
1532279008.922,-8.789,46.387,34.180,10.742,44.434
1532279008.926,-8.301,49.316,33.203,13.184,96.191
1532279008.930,-10.254,47.363,34.668,2.441,-32.227
1532279008.934,-14.648,45.898,34.668,-5.859,-77.637
1532279008.938,-16.602,45.898,32.227,0.488,57.129
1532279008.942,-16.602,44.922,34.180,5.371,153.809
1532279008.946,-19.043,44.434,36.133,5.859,67.871
1532279008.950,-19.531,43.457,35.156,8.301,-78.613
1532279008.954,-17.578,45.898,36.621,15.137,-1.953
1532279008.957,-20.508,46.875,39.551,16.113,139.648
1532279008.961,-21.973,46.387,38.574,13.184,82.031
1532279008.965,-21.973,44.922,37.109,10.254,-53.223
1532279008.969,-19.531,42.969,39.551,10.742,-37.598
1532279008.973,-16.602,44.434,38.086,10.742,94.238
1532279008.977,-12.695,49.805,36.133,9.277,119.629
1532279008.981,-10.742,52.734,33.691,6.836,7.324
1532279008.985,-8.301,52.734,33.203,6.348,-44.922
1532279008.989,-7.324,54.688,35.645,8.789,49.316
1532279008.993,-6.348,55.664,36.621,13.672,116.211
1532279008.997,-2.930,53.223,37.109,14.160,22.949
1532279009.000,4.395,51.270,37.598,19.043,-56.152
1532279009.004,16.113,53.711,35.645,29.297,29.297
1532279009.008,19.531,56.152,36.133,27.832,114.746
1532279009.012,18.066,52.246,37.109,24.902,20.996
1532279009.016,19.531,50.781,36.621,30.273,-64.453
1532279009.020,26.855,54.688,34.668,39.062,13.184
1532279009.024,34.668,58.105,28.809,42.969,132.324
1532279009.028,32.227,58.594,26.367,39.551,78.613
1532279009.032,29.297,54.688,27.344,31.738,-103.027
1532279009.036,31.250,48.828,27.344,32.715,-68.359
1532279009.039,33.691,48.828,23.926,42.969,98.145
1532279009.043,40.039,50.781,22.949,51.758,131.836
1532279009.047,45.410,50.781,25.879,56.641,-8.301
1532279009.051,39.062,52.246,22.949,53.223,-97.168
1532279009.055,36.621,50.293,16.602,54.199,20.508
1532279009.059,38.574,47.852,13.672,57.617,143.066
1532279009.063,37.109,47.363,16.113,50.781,38.574
1532279009.067,37.109,46.387,20.508,52.734,-92.773
1532279009.071,38.574,49.316,22.461,56.152,-31.738
1532279009.075,41.016,49.316,20.508,61.523,102.051
1532279009.079,46.875,46.387,20.996,66.895,78.613
1532279009.082,50.781,46.875,21.973,67.383,-57.129
1532279009.086,45.898,48.828,21.973,71.777,-20.996
1532279009.090,51.270,48.828,20.508,74.219,119.629
1532279009.094,53.711,48.340,17.090,70.312,108.398
1532279009.098,51.758,45.898,16.113,66.406,-44.434
1532279009.102,53.223,44.434,17.578,64.941,-66.406
1532279009.106,55.176,45.410,20.996,66.895,81.543
1532279009.110,58.105,47.852,20.020,63.477,91.797
1532279009.114,55.176,47.363,18.555,59.570,-58.594
1532279009.118,54.688,44.434,19.531,66.406,-83.008
1532279009.122,59.570,45.410,20.996,70.801,50.293
1532279009.125,63.477,45.898,21.484,69.336,143.066
1532279009.129,66.406,46.387,20.020,64.453,36.133
1532279009.133,71.777,48.828,18.066,62.500,-67.383
1532279009.137,68.359,45.898,17.578,60.059,18.066
1532279009.141,60.059,43.457,16.602,62.988,116.211
1532279009.145,52.246,43.457,17.578,64.453,70.801
1532279009.149,46.387,43.457,19.531,62.500,-89.844
1532279009.153,42.969,43.457,20.996,66.895,-51.758
1532279009.157,42.480,43.457,21.973,68.359,117.188
1532279009.161,40.527,44.922,21.484,61.523,87.402
1532279009.164,39.551,45.410,23.438,62.500,-51.758
1532279009.168,39.551,46.875,26.367,68.848,-80.566
1532279009.172,35.156,47.852,24.902,63.477,26.855
1532279009.176,33.203,46.875,27.344,58.105,119.141
1532279009.180,34.180,47.852,30.762,57.129,31.250
1532279009.184,38.574,49.805,33.203,61.523,-81.055
1532279009.188,38.574,49.316,34.668,65.430,8.789
1532279009.192,34.668,50.781,34.180,61.523,104.980
1532279009.196,32.715,53.223,37.598,54.688,39.551
1532279009.200,32.715,52.246,37.109,50.293,-45.898
1532279009.204,32.227,52.246,33.691,48.828,-4.395
1532279009.207,28.809,55.664,33.203,42.969,92.773
1532279009.211,25.391,58.594,30.273,30.762,50.781
1532279009.215,26.367,60.059,25.391,23.438,-62.500
1532279009.219,22.949,60.059,24.902,23.926,-48.828
1532279009.223,11.719,60.547,26.855,22.461,80.078
1532279009.227,6.348,60.547,23.438,17.090,113.281
1532279009.231,5.859,60.547,21.973,15.137,-21.973
1532279009.235,10.742,58.105,23.438,18.066,-62.988
1532279009.239,15.625,58.594,20.020,15.625,71.777
1532279009.243,11.719,62.988,16.602,12.207,142.578
1532279009.247,11.719,63.477,14.648,10.742,12.695
1532279009.250,10.254,61.523,15.625,13.184,-81.543
1532279009.254,0.000,56.152,20.020,14.648,21.973
1532279009.258,0.000,53.711,21.484,13.672,123.047
1532279009.262,8.301,55.176,20.020,17.578,54.688
1532279009.266,11.719,58.594,20.020,21.484,-69.336
1532279009.270,11.230,56.641,19.531,18.066,-34.180
1532279009.274,13.672,51.758,17.578,18.555,104.980
1532279009.278,13.184,51.758,18.555,22.461,108.887
1532279009.282,11.230,55.176,19.043,19.531,-28.320
1532279009.286,8.789,55.664,17.578,16.602,-53.223
1532279009.289,5.371,55.664,12.207,13.672,74.707
1532279009.293,6.348,54.199,11.719,14.648,123.535
1532279009.297,12.695,53.223,14.648,16.602,-2.930
1532279009.301,11.719,55.664,16.113,17.090,-83.496
1532279009.305,7.812,54.199,14.648,19.043,51.270
1532279009.309,12.207,53.711,17.578,15.625,129.395
1532279009.313,8.789,53.223,22.949,7.812,13.184
1532279009.317,-1.465,49.316,21.484,6.836,-85.449
1532279009.321,-3.418,45.410,20.020,10.254,-4.395
1532279009.325,-4.883,41.992,20.020,9.277,133.301
1532279009.329,-5.371,41.992,19.043,7.812,70.312
1532279009.332,-0.488,43.945,20.996,11.719,-75.195
1532279009.336,1.953,41.992,22.461,12.695,-42.969
1532279009.340,-1.465,38.574,22.461,14.160,99.609
1532279009.344,-4.883,38.086,23.926,13.184,90.820
1532279009.348,-9.766,36.621,24.414,6.836,-47.363
1532279009.352,-15.137,34.180,23.926,0.977,-99.609
1532279009.356,-7.812,31.738,25.879,8.789,44.434
1532279009.360,0.488,30.762,25.879,17.090,138.672
1532279009.364,0.000,33.203,25.391,13.184,-8.301
1532279009.368,1.953,36.621,25.879,14.160,-96.680
1532279009.372,2.441,35.645,24.902,18.555,22.949
1532279009.375,-2.441,32.715,25.879,15.137,141.113
1532279009.379,-5.371,29.297,24.414,10.742,63.477
1532279009.383,-3.906,29.785,20.996,10.742,-69.824
1532279009.387,-1.953,30.273,22.461,15.625,3.418
1532279009.391,1.465,29.785,24.414,20.508,136.230
1532279009.395,7.324,30.762,24.414,15.137,71.289
1532279009.399,5.371,31.250,24.902,10.254,-60.547
1532279009.403,-2.441,30.273,25.879,10.254,-35.645
1532279009.407,1.953,30.273,26.855,15.625,106.934
1532279009.411,6.348,33.203,27.832,16.602,71.289
1532279009.414,2.441,34.180,29.297,14.160,-70.312
1532279009.418,-0.488,33.203,31.250,17.578,-59.082
1532279009.422,0.977,33.691,30.762,20.996,85.449
1532279009.426,-0.488,34.668,30.273,22.949,128.418
1532279009.430,-6.836,30.762,30.273,20.508,15.625
1532279009.434,-10.254,27.832,32.227,22.461,-48.828
1532279009.438,-7.812,26.855,34.180,24.902,44.434
1532279009.442,-7.324,30.762,33.691,20.020,130.859
1532279009.446,-6.348,33.691,33.691,16.113,57.617
1532279009.450,-1.465,33.691,33.691,20.020,-86.914
1532279009.454,-1.953,32.227,32.715,23.926,-37.109
1532279009.457,-5.859,30.762,35.156,23.438,142.090
1532279009.461,-7.812,31.250,38.086,20.996,98.633
1532279009.465,-3.418,31.250,36.621,22.949,-38.086
1532279009.469,0.488,33.203,35.645,25.391,-50.293
1532279009.473,0.488,33.691,36.133,25.879,70.312
1532279009.477,2.930,32.715,36.621,30.273,113.281
1532279009.481,0.000,33.203,35.645,31.250,-10.254
1532279009.485,0.000,34.180,33.691,28.809,-75.684
1532279009.489,4.883,37.598,32.715,31.250,31.738
1532279009.493,4.883,37.109,29.297,29.297,115.723
1532279009.496,6.836,36.133,27.832,27.344,8.301
1532279009.500,6.836,36.621,28.809,26.367,-69.336
1532279009.504,7.324,35.645,27.832,26.855,57.617
1532279009.508,10.254,37.109,26.855,27.832,141.113
1532279009.512,4.395,35.645,27.832,21.973,50.293
1532279009.516,-1.465,30.762,28.809,18.555,-55.664
1532279009.520,1.465,30.273,27.344,22.949,-13.672
1532279009.524,4.395,29.297,24.414,28.320,120.117
1532279009.528,9.766,30.762,26.855,24.902,80.078
1532279009.532,11.719,33.203,22.461,19.531,-70.801
1532279009.536,12.207,35.645,14.648,25.879,-53.223
1532279009.539,11.230,36.133,14.648,23.926,90.820
1532279009.543,2.930,30.762,19.043,18.066,125.000
1532279009.547,0.000,29.785,22.949,19.043,-3.906
1532279009.551,-0.977,29.297,22.949,14.160,-83.984
1532279009.555,1.953,29.785,24.902,19.531,14.160
1532279009.559,9.277,31.250,24.902,27.832,125.977
1532279009.563,8.789,30.273,20.508,24.902,47.363
1532279009.567,8.301,30.273,18.555,23.926,-65.430
1532279009.571,11.719,30.273,16.113,22.461,22.461
1532279009.575,14.648,31.250,16.602,23.438,139.160
1532279009.579,12.695,34.180,15.137,21.484,61.523
1532279009.582,16.113,36.621,16.113,24.902,-54.199
1532279009.586,19.531,35.645,17.578,29.785,-1.953
1532279009.590,12.207,33.691,17.578,21.973,106.445
1532279009.594,12.695,34.668,20.508,20.996,97.168
1532279009.598,20.020,37.109,20.996,25.391,-20.020
1532279009.602,21.484,38.086,20.020,26.855,-43.945
1532279009.606,20.508,37.598,20.020,31.738,100.586
1532279009.610,21.973,39.062,20.508,32.227,159.180
1532279009.614,18.066,38.574,19.531,26.855,19.043
1532279009.618,20.020,40.039,16.602,29.297,-72.266
1532279009.621,22.949,42.969,16.113,35.645,29.785
1532279009.625,16.602,40.527,17.578,32.715,131.836
1532279009.629,14.648,40.527,19.531,25.391,36.621
1532279009.633,18.555,40.527,21.973,26.855,-73.730
1532279009.637,17.578,38.574,22.461,35.156,4.395
1532279009.641,17.578,36.621,25.391,36.133,132.324
1532279009.645,22.949,35.645,27.344,33.691,101.562
1532279009.649,24.414,39.062,24.902,30.273,-56.641
1532279009.653,23.926,41.016,25.879,31.250,-75.684
1532279009.657,20.996,40.527,24.902,32.227,74.219
1532279009.661,20.508,39.062,22.949,32.227,102.539
1532279009.664,24.414,40.527,21.484,36.621,-40.039
1532279009.668,23.438,41.992,20.020,35.645,-78.125
1532279009.672,18.066,41.992,20.508,32.227,47.852
1532279009.676,19.043,41.992,20.508,35.156,136.230
1532279009.680,24.902,40.527,20.508,33.691,39.551
1532279009.684,22.461,40.039,22.461,31.250,-57.129
1532279009.688,24.902,41.016,20.996,36.133,43.945
1532279009.692,31.250,42.969,21.484,35.156,137.207
1532279009.696,31.738,42.969,23.926,38.086,46.387
1532279009.700,28.809,41.992,26.367,43.945,-67.383
1532279009.704,24.902,40.527,27.344,44.922,10.742
1532279009.707,24.414,41.504,24.902,43.945,125.000
1532279009.711,20.996,41.992,26.367,40.039,91.309
1532279009.715,17.578,41.504,27.832,36.621,-42.480
1532279009.719,19.531,41.504,27.832,39.551,-51.758
1532279009.723,17.578,43.457,23.926,39.062,101.562
1532279009.727,15.137,43.945,22.949,32.715,144.531
1532279009.731,20.508,45.410,26.367,29.297,-21.973
1532279009.735,19.531,47.852,27.344,30.273,-100.098
1532279009.739,15.137,46.387,27.344,33.203,68.848
1532279009.743,19.043,45.410,28.809,35.645,136.719
1532279009.746,20.996,46.387,31.250,36.621,8.301
1532279009.750,22.949,45.410,31.738,37.109,-103.027
1532279009.754,25.391,44.434,30.273,41.504,3.418
1532279009.758,23.438,46.387,28.809,44.922,122.559
1532279009.762,20.508,48.340,28.809,40.039,31.738
1532279009.766,18.555,46.875,28.320,34.668,-81.055
1532279009.770,17.090,46.875,29.297,35.645,-41.504
1532279009.774,16.602,48.340,30.273,31.738,69.824
1532279009.778,24.902,50.293,28.809,32.227,75.684
1532279009.782,26.855,50.781,25.879,33.203,-22.461
1532279009.786,22.461,50.293,21.484,28.320,-18.066
1532279009.789,24.414,49.805,23.438,31.738,91.309
1532279009.793,23.926,49.316,26.855,35.645,111.816
1532279009.797,23.926,49.805,28.320,35.156,-11.230
1532279009.801,25.879,49.316,29.297,37.598,-85.449
1532279009.805,30.273,49.316,26.367,42.480,42.969
1532279009.809,27.344,46.875,24.902,44.434,146.484
1532279009.813,19.043,41.504,28.320,41.992,27.832
1532279009.817,15.625,37.109,29.785,41.504,-83.008
1532279009.821,18.066,34.180,29.785,45.898,3.418
1532279009.825,23.926,35.156,25.391,46.875,144.043
1532279009.828,27.832,40.527,21.484,39.551,86.426
1532279009.832,27.344,43.457,20.996,28.809,-95.215
1532279009.836,24.902,42.480,18.555,34.668,-47.363
1532279009.840,29.297,41.992,20.996,47.363,105.469
1532279009.844,36.133,43.457,25.879,48.828,93.262
1532279009.848,35.645,41.992,24.414,44.434,-53.223
1532279009.852,33.691,41.992,21.973,46.387,-77.637
1532279009.856,35.645,41.016,20.020,48.340,58.105
1532279009.860,36.621,40.527,20.020,46.875,108.398
1532279009.864,39.062,41.016,22.461,48.828,-3.418
1532279009.868,45.410,39.062,23.926,51.270,-85.449
1532279009.871,45.898,39.062,23.926,47.852,-10.742
1532279009.875,43.457,39.551,23.438,49.316,97.168
1532279009.879,43.945,38.574,21.484,52.734,38.086
1532279009.883,45.898,35.645,21.973,52.246,-103.516
1532279009.887,47.852,32.715,21.484,52.734,-39.551
1532279009.891,47.363,35.645,18.555,51.758,98.145
1532279009.895,44.434,36.133,19.043,49.805,57.129
1532279009.899,40.039,32.715,20.508,46.875,-55.176
1532279009.903,37.598,31.250,21.484,46.875,-12.207
1532279009.907,37.598,32.227,22.949,48.828,112.793
1532279009.911,40.527,34.668,20.996,44.434,89.844
1532279009.914,43.945,33.203,18.555,41.504,-62.988
1532279009.918,48.828,33.203,18.066,50.781,-62.500
1532279009.922,51.758,33.203,17.090,56.641,86.914
1532279009.926,54.199,33.203,20.508,55.664,136.230
1532279009.930,54.688,34.180,22.461,51.758,16.602
1532279009.934,52.246,34.180,21.973,50.293,-76.172
1532279009.938,48.340,32.715,21.973,49.805,25.879
1532279009.942,44.434,30.762,20.996,45.410,129.395
1532279009.946,41.504,31.738,20.508,41.504,58.105
1532279009.950,41.016,32.715,20.996,35.156,-78.613
1532279009.953,47.363,31.738,21.484,38.574,-20.996
1532279009.957,50.293,32.715,19.531,45.410,107.422
1532279009.961,52.246,33.691,20.508,48.828,57.617
1532279009.965,57.129,36.621,23.926,53.711,-40.039
1532279009.969,58.105,39.551,23.438,52.734,-63.477
1532279009.973,57.617,40.527,22.461,54.199,39.062
1532279009.977,57.617,41.992,26.855,59.570,88.867
1532279009.981,53.711,42.969,28.320,55.664,-25.391
1532279009.985,50.781,41.016,26.855,51.758,-68.359
1532279009.989,52.246,40.527,28.320,53.711,47.363
1532279009.993,45.410,41.504,27.832,50.293,124.023
1532279009.996,42.480,43.945,30.273,47.852,15.137
1532279010.000,50.293,46.387,34.180,53.223,-75.684
1532279010.004,51.758,46.875,33.203,59.082,39.551
1532279010.008,52.734,46.875,32.227,62.012,148.438
1532279010.012,52.734,45.410,33.203,58.105,30.273
1532279010.016,51.270,45.898,35.156,61.035,-81.055
1532279010.020,50.293,45.898,34.180,67.871,-14.160
1532279010.024,48.828,44.922,33.203,66.406,123.535
1532279010.028,46.875,43.457,35.156,61.035,83.496
1532279010.032,42.969,41.016,34.180,57.129,-64.941
1532279010.036,35.645,38.574,30.273,53.223,-47.363
1532279010.039,33.203,36.621,30.273,55.176,104.492
1532279010.043,36.621,35.645,30.273,56.152,122.559
1532279010.047,40.527,37.598,30.762,57.129,-20.996
1532279010.051,45.410,41.016,34.180,58.105,-93.750
1532279010.055,44.434,38.574,33.203,57.129,25.879
1532279010.059,42.480,37.109,28.320,56.152,136.719
1532279010.063,38.574,38.086,28.320,51.758,32.227
1532279010.067,35.156,36.133,27.344,46.387,-70.312
1532279010.071,31.250,32.715,26.367,46.387,8.789
1532279010.075,30.762,32.227,27.832,47.363,125.488
1532279010.078,32.715,33.203,27.344,43.945,67.383
1532279010.082,29.785,35.156,26.367,38.086,-51.270
1532279010.086,24.902,30.273,26.367,37.598,-19.531
1532279010.090,22.949,28.320,27.832,36.621,93.750
1532279010.094,27.832,33.691,26.367,37.109,92.285
1532279010.098,35.645,35.156,22.949,34.180,-31.250
1532279010.102,39.062,32.715,21.484,29.785,-52.734
1532279010.106,40.527,33.203,21.484,36.133,77.148
1532279010.110,39.062,34.180,21.484,36.133,108.398
1532279010.114,33.203,33.691,23.438,34.180,-20.996
1532279010.118,27.344,30.273,21.973,42.969,-82.031
1532279010.121,23.926,27.832,21.484,53.711,54.199
1532279010.125,22.461,27.344,23.926,54.199,123.535
1532279010.129,23.438,27.344,23.926,49.316,25.391
1532279010.133,22.949,27.832,22.949,51.270,-70.801
1532279010.137,24.414,28.809,21.484,55.176,-16.113
1532279010.141,28.320,31.250,20.996,58.105,99.121
1532279010.145,32.227,33.203,17.578,56.641,41.016
1532279010.149,35.156,32.227,17.578,47.363,-84.473
1532279010.153,31.738,30.273,18.555,40.039,-48.828
1532279010.157,23.926,28.320,18.555,45.410,126.465
1532279010.160,14.648,28.320,19.531,45.410,152.344
1532279010.164,7.324,29.297,20.996,42.480,-36.133
1532279010.168,7.324,28.809,20.508,45.410,-104.492
1532279010.172,8.789,26.855,22.949,50.293,81.055
1532279010.176,7.324,26.367,23.438,49.316,155.273
1532279010.180,12.695,29.297,21.484,43.945,16.113
1532279010.184,20.508,31.250,23.926,51.270,-61.035
1532279010.188,20.508,29.297,23.438,52.734,33.203
1532279010.192,21.484,28.809,21.484,43.457,111.816
1532279010.196,25.879,33.203,23.438,43.457,26.855
1532279010.200,22.461,35.645,26.855,41.992,-71.777
1532279010.203,19.043,33.203,24.902,40.039,-6.836
1532279010.207,18.555,30.762,23.926,38.086,129.395
1532279010.211,14.648,31.738,26.855,36.133,95.215
1532279010.215,11.230,31.738,29.297,35.645,-62.012
1532279010.219,15.137,30.273,27.344,36.133,-52.246
1532279010.223,16.113,27.832,24.414,37.109,108.887
1532279010.227,11.719,28.320,22.461,34.180,113.281
1532279010.231,14.160,28.320,24.414,34.180,-58.105
1532279010.235,16.602,28.809,24.902,33.203,-101.074
1532279010.239,15.137,29.785,24.414,33.691,62.988
1532279010.243,14.160,27.344,26.855,37.109,146.484
1532279010.246,16.113,28.320,27.344,38.574,7.324
1532279010.250,17.578,28.809,26.855,34.668,-117.676
1532279010.254,16.602,27.344,25.879,34.668,5.371
1532279010.258,15.137,28.809,25.391,39.551,144.531
1532279010.262,15.625,31.738,24.414,38.086,56.641
1532279010.266,20.508,31.250,26.367,41.504,-77.637
1532279010.270,21.484,31.738,26.855,44.922,-26.855
1532279010.274,21.484,32.227,25.391,43.945,136.719
1532279010.278,20.508,31.738,25.391,43.945,109.863
1532279010.282,20.996,31.250,26.855,44.434,-45.898
1532279010.285,26.855,30.762,27.344,50.781,-51.758
1532279010.289,30.762,32.715,27.344,47.852,75.195
1532279010.293,31.738,35.156,25.879,37.109,108.887
1532279010.297,32.715,35.645,24.414,41.016,-20.508
1532279010.301,30.762,35.156,25.879,46.387,-59.082
1532279010.305,32.715,37.598,26.367,47.852,56.152
1532279010.309,34.180,40.039,24.902,43.945,141.113
1532279010.313,32.227,40.039,25.391,42.969,33.691
1532279010.317,31.738,40.039,27.344,45.898,-66.406
1532279010.321,32.715,39.551,28.809,47.852,27.832
1532279010.325,28.320,38.574,30.273,47.852,117.676
1532279010.328,23.438,37.109,32.715,39.551,40.039
1532279010.332,24.902,37.598,34.180,36.621,-82.031
1532279010.336,26.367,40.527,35.645,41.016,-23.926
1532279010.340,23.438,40.527,34.668,38.574,113.770
1532279010.344,23.438,40.527,32.715,33.691,120.117
1532279010.348,21.973,42.480,32.227,30.273,-48.340
1532279010.352,22.461,43.457,34.668,31.250,-84.473
1532279010.356,23.926,44.922,36.621,37.598,96.191
1532279010.360,24.414,46.875,35.645,40.039,146.484
1532279010.364,23.926,44.922,37.109,38.574,-2.930
1532279010.368,23.926,42.969,38.574,41.016,-81.543
1532279010.371,26.367,44.922,38.086,45.410,44.922
1532279010.375,23.438,45.898,37.598,43.457,133.789
1532279010.379,16.113,43.457,39.062,36.133,63.965
1532279010.383,16.602,44.434,40.527,32.715,-35.645
1532279010.387,15.625,43.457,39.062,33.203,16.602
1532279010.391,14.648,42.480,38.574,28.320,121.582
1532279010.395,12.695,43.457,39.062,24.902,61.523
1532279010.399,6.836,45.898,39.551,25.391,-52.246
1532279010.403,2.441,45.410,41.016,24.414,-30.273
1532279010.407,1.465,42.480,40.527,27.832,106.934
1532279010.410,-2.441,41.992,39.062,19.531,106.445
1532279010.414,-7.324,41.504,41.016,10.254,-20.508
1532279010.418,-1.953,41.992,41.504,15.625,-40.527
1532279010.422,-2.930,39.551,41.016,18.555,67.383
1532279010.426,-18.555,38.086,45.410,13.672,126.465
1532279010.430,-20.996,40.039,45.410,3.906,-0.977
1532279010.434,-20.508,39.551,42.969,2.930,-92.773
1532279010.438,-22.949,38.086,41.992,6.348,18.066
1532279010.442,-24.414,37.109,41.992,1.465,117.676
1532279010.446,-25.879,37.109,42.480,-2.441,16.113
1532279010.450,-21.484,43.457,38.086,-5.859,-93.262
1532279010.453,-15.137,48.828,36.621,-7.324,-4.883
1532279010.457,-14.648,46.387,39.551,-3.418,130.859
1532279010.461,-16.602,43.945,41.992,-3.418,97.656
1532279010.465,-13.184,42.969,42.480,0.000,-44.434
1532279010.469,-8.789,40.039,42.480,8.789,-50.293
1532279010.473,-9.277,40.039,42.969,7.812,78.125
1532279010.477,-8.789,41.504,41.504,10.254,87.402
1532279010.481,-8.301,41.504,41.504,13.184,-50.781
1532279010.485,-12.207,37.598,43.945,15.625,-70.312
1532279010.489,-14.648,32.715,45.410,20.020,42.969
1532279010.492,-11.230,32.715,45.410,20.996,118.164
1532279010.496,-6.836,36.133,43.945,20.020,12.695
1532279010.500,-5.859,39.551,39.551,14.160,-84.473
1532279010.504,-1.953,40.527,35.645,18.066,7.812
1532279010.508,-4.395,40.039,37.598,20.020,107.910
1532279010.512,-6.836,40.039,41.016,16.602,41.504
1532279010.516,-1.953,41.504,40.039,19.531,-89.844
1532279010.520,2.930,43.457,32.715,17.578,-9.277
1532279010.524,2.930,44.434,25.391,14.648,124.512
1532279010.528,1.465,48.828,27.832,14.160,77.637
1532279010.532,3.906,46.387,34.180,13.672,-54.199
1532279010.535,6.836,40.527,35.645,17.090,-55.176
1532279010.539,3.418,40.039,34.668,22.461,97.168
1532279010.543,2.930,40.039,38.574,23.926,133.789
1532279010.547,9.766,40.039,39.551,24.902,-18.066
1532279010.551,11.230,43.945,35.156,25.391,-83.496
1532279010.555,14.648,48.828,29.297,26.367,63.965
1532279010.559,15.137,45.410,29.785,28.809,162.598
1532279010.563,4.883,36.133,34.668,23.438,33.203
1532279010.567,3.418,34.180,31.250,20.508,-73.242
1532279010.571,8.301,35.645,28.809,23.926,-17.578
1532279010.575,7.324,33.203,30.762,25.391,123.535
1532279010.578,9.277,31.250,33.203,27.832,80.078
1532279010.582,9.766,31.738,33.203,27.832,-98.633
1532279010.586,10.254,34.180,32.227,29.785,-23.438
1532279010.590,13.184,34.180,31.738,31.738,143.555
1532279010.594,12.207,32.715,33.203,32.227,112.305
1532279010.598,15.625,30.273,34.668,37.598,-27.344
1532279010.602,17.578,30.273,32.715,37.109,-55.664
1532279010.606,14.160,33.691,29.785,33.691,78.613
1532279010.610,14.160,34.668,27.344,33.203,122.070
1532279010.614,18.555,34.668,29.297,35.156,-15.137
1532279010.617,20.508,32.715,30.273,38.574,-82.031
1532279010.621,21.973,33.203,29.785,39.062,42.969
1532279010.625,20.996,34.180,30.762,42.480,154.297
1532279010.629,19.531,34.668,28.809,34.668,23.926
1532279010.633,20.508,35.645,27.344,29.785,-114.258
1532279010.637,18.555,35.645,29.785,36.621,0.977
1532279010.641,15.137,36.133,33.203,39.062,127.441
1532279010.645,19.531,36.621,35.645,39.062,71.777
1532279010.649,19.531,34.668,34.668,36.621,-79.590
1532279010.653,16.113,33.691,32.715,36.621,-59.570
1532279010.657,18.066,34.668,35.156,40.527,83.984
1532279010.660,18.066,33.691,36.621,38.574,76.660
1532279010.664,16.113,34.180,34.668,38.574,-37.109
1532279010.668,16.113,36.133,35.156,37.598,-47.852
1532279010.672,16.113,35.645,34.668,34.668,53.711
1532279010.676,13.672,34.668,33.203,34.668,112.305
1532279010.680,13.184,35.156,35.645,29.785,-0.488
1532279010.684,17.090,36.133,39.062,31.250,-76.172
1532279010.688,12.695,32.715,37.109,32.715,4.883
1532279010.692,6.348,31.738,37.109,29.785,101.074
1532279010.696,7.324,31.738,37.109,28.320,61.523
1532279010.700,10.742,30.273,34.180,27.832,-63.477
1532279010.703,11.719,30.762,35.645,29.297,-18.555
1532279010.707,7.812,28.809,39.551,30.762,99.609
1532279010.711,5.371,28.809,38.574,18.555,52.246
1532279010.715,7.324,31.250,36.133,13.672,-75.684
1532279010.719,6.836,28.809,35.645,24.902,-66.895
1532279010.723,7.324,31.250,36.133,30.762,79.102
1532279010.727,7.812,32.715,36.621,24.902,138.184
1532279010.731,4.395,30.762,38.086,21.973,12.695
1532279010.735,6.836,31.738,41.016,29.297,-43.945
1532279010.739,10.742,30.273,40.527,32.715,75.195
1532279010.742,6.836,29.785,40.527,32.715,153.809
1532279010.746,1.465,30.273,42.480,27.832,21.484
1532279010.750,5.859,28.809,41.504,25.391,-75.195
1532279010.754,10.254,27.832,39.551,30.762,28.809
1532279010.758,9.277,26.367,39.551,36.133,120.117
1532279010.762,5.859,27.832,41.016,31.738,57.617
1532279010.766,3.906,29.297,42.969,28.809,-49.316
1532279010.770,8.301,30.762,42.969,32.227,-49.316
1532279010.774,11.719,31.250,41.504,34.180,71.777
1532279010.778,8.301,29.297,41.992,33.691,96.191
1532279010.782,2.441,29.297,43.945,32.715,-58.594
1532279010.785,7.324,28.320,43.457,41.016,-65.430
1532279010.789,14.648,28.809,43.457,41.504,84.473
1532279010.793,8.789,28.320,43.457,32.227,119.141
1532279010.797,8.789,27.832,42.969,31.250,-10.254
1532279010.801,14.648,29.297,41.504,31.250,-67.871
1532279010.805,13.184,31.250,40.039,34.668,58.594
1532279010.809,9.277,31.250,40.527,35.645,118.164
1532279010.813,7.812,27.832,41.016,27.832,-13.184
1532279010.817,8.789,25.879,41.016,29.297,-83.984
1532279010.821,12.207,23.926,41.504,34.180,14.648
1532279010.825,13.672,20.996,39.551,35.645,124.023
1532279010.828,13.672,21.484,39.551,32.715,49.316
1532279010.832,13.672,21.484,39.062,28.320,-85.938
1532279010.836,13.184,21.973,38.086,33.203,-15.137
1532279010.840,10.742,20.508,40.527,35.645,122.559
1532279010.844,8.301,19.531,39.551,33.203,96.191
1532279010.848,9.277,23.438,36.133,30.273,-55.664
1532279010.852,13.184,26.855,34.668,30.762,-86.426
1532279010.856,13.672,26.855,35.645,38.574,51.270
1532279010.860,10.254,24.902,38.574,39.551,122.070
1532279010.864,7.324,23.926,37.598,37.109,15.625
1532279010.867,9.277,22.949,34.668,37.109,-69.336
1532279010.871,13.184,20.508,33.691,39.551,41.992
1532279010.875,14.648,18.555,33.203,41.992,147.461
1532279010.879,20.508,19.043,36.133,39.062,38.086
1532279010.883,20.508,19.531,37.598,36.621,-81.055
1532279010.887,18.066,16.113,36.621,36.133,-6.836
1532279010.891,19.043,17.090,36.133,32.227,110.352
1532279010.895,21.973,19.043,33.203,31.250,65.430
1532279010.899,24.414,18.066,30.762,37.109,-44.434
1532279010.903,16.113,18.555,31.738,35.645,-15.137
1532279010.907,10.254,19.043,34.180,33.691,113.281
1532279010.910,17.090,20.508,36.621,34.668,124.512
1532279010.914,18.555,20.020,37.598,37.109,-45.898
1532279010.918,17.090,19.043,38.086,42.480,-67.871
1532279010.922,20.996,17.090,40.039,50.781,97.656
1532279010.926,25.879,17.090,38.574,56.641,137.695
1532279010.930,31.250,20.996,36.133,52.734,-24.414
1532279010.934,33.203,22.949,37.109,54.688,-110.352
1532279010.938,35.156,24.414,37.109,57.129,-0.488
1532279010.942,32.715,25.391,35.645,47.363,126.465
1532279010.946,29.297,25.391,32.227,41.992,65.918
1532279010.949,29.785,25.391,30.273,39.551,-77.637
1532279010.953,25.879,25.391,30.762,36.133,-27.344
1532279010.957,21.484,23.926,28.320,34.668,116.211
1532279010.961,24.414,22.461,28.809,33.691,71.777
1532279010.965,21.973,23.926,30.273,31.250,-49.316
1532279010.969,18.555,25.391,31.250,33.691,-6.348
1532279010.973,22.949,25.879,30.273,40.527,107.422
1532279010.977,24.902,25.879,30.762,40.527,115.234
1532279010.981,28.809,26.367,33.691,43.945,-38.086
1532279010.985,32.715,26.367,33.203,49.805,-89.355
1532279010.989,39.062,26.855,33.691,50.781,53.711
1532279010.992,42.969,27.344,35.156,50.293,130.371
1532279010.996,38.086,25.391,33.203,47.363,15.137
1532279011.000,35.156,22.949,32.715,47.363,-70.801
1532279011.004,35.156,20.020,34.668,52.734,36.133
1532279011.008,36.133,19.531,35.156,55.664,145.996
1532279011.012,40.039,19.043,37.598,55.664,62.988
1532279011.016,46.875,20.996,35.156,60.059,-67.871
1532279011.020,49.805,24.902,30.762,65.430,-15.625
1532279011.024,42.969,25.391,33.203,61.035,114.746
1532279011.028,36.133,26.855,33.203,51.758,98.633
1532279011.032,39.062,28.320,28.320,46.875,-60.059
1532279011.035,41.016,28.320,24.414,47.852,-68.359
1532279011.039,41.992,27.344,22.949,53.711,91.309
1532279011.043,40.039,25.879,23.926,50.781,153.320
1532279011.047,39.551,27.344,25.391,45.898,27.344
1532279011.051,41.992,30.762,23.926,47.363,-105.469
1532279011.055,39.551,27.832,24.902,51.270,16.602
1532279011.059,35.645,22.461,28.809,49.316,122.070
1532279011.063,40.039,22.461,29.785,46.875,3.906
1532279011.067,40.039,22.949,28.809,46.387,-95.215
1532279011.071,38.574,25.879,28.809,45.410,8.301
1532279011.074,36.621,28.320,28.320,42.969,130.371
1532279011.078,38.574,27.344,27.344,36.133,51.758
1532279011.082,43.457,28.809,29.297,29.297,-70.312
1532279011.086,42.969,29.297,29.297,28.320,-17.090
1532279011.090,44.434,28.809,27.344,33.203,111.328
1532279011.094,41.016,28.320,26.855,35.645,88.867
1532279011.098,36.133,24.902,29.785,43.457,-43.457
1532279011.102,30.762,23.438,31.250,49.316,-55.176
1532279011.106,27.344,24.414,31.250,56.641,76.660
1532279011.110,29.785,23.438,31.250,58.105,116.699
1532279011.114,30.273,24.414,29.785,55.664,-2.930
1532279011.117,31.738,23.926,28.320,58.105,-58.594
1532279011.121,37.598,22.461,27.344,59.570,51.270
1532279011.125,38.086,23.438,23.926,58.105,123.535
1532279011.129,36.621,25.391,23.926,50.781,19.531
1532279011.133,38.574,27.832,26.367,47.852,-114.258
1532279011.137,35.645,25.391,24.414,53.223,-5.859
1532279011.141,32.715,24.414,24.414,54.688,140.137
1532279011.145,32.227,26.855,27.344,52.246,77.148
1532279011.149,32.227,26.367,32.227,47.363,-65.430
1532279011.153,29.297,25.879,33.203,44.922,-49.805
1532279011.157,25.879,25.879,33.203,48.340,97.656
1532279011.160,23.926,22.461,32.227,46.875,107.422
1532279011.164,23.438,22.461,30.762,44.434,-28.809
1532279011.168,22.949,25.879,30.273,41.016,-71.777
1532279011.172,20.508,27.832,25.879,37.109,59.082
1532279011.176,19.043,31.250,26.855,34.180,136.719
1532279011.180,23.926,30.273,31.738,35.156,12.207
1532279011.184,24.414,30.762,32.227,39.062,-83.984
1532279011.188,14.160,31.250,35.156,30.762,20.020
1532279011.192,11.230,31.250,34.668,19.043,100.098
1532279011.196,14.648,35.645,30.273,20.020,25.879
1532279011.199,9.766,36.133,29.297,20.508,-42.480
1532279011.203,9.766,34.668,33.203,24.414,16.113
1532279011.207,14.648,35.645,34.668,28.809,134.766
1532279011.211,11.719,34.180,35.645,25.879,91.797
1532279011.215,9.277,29.297,37.598,24.902,-68.848
1532279011.219,9.277,28.809,39.062,23.926,-59.082
1532279011.223,13.184,31.250,39.551,29.297,90.332
1532279011.227,16.602,31.738,41.504,32.227,101.562
1532279011.231,17.578,31.250,41.504,22.461,-56.152
1532279011.235,13.672,32.227,41.016,16.602,-83.496
1532279011.239,19.043,34.180,37.109,25.879,73.730
1532279011.242,26.367,35.156,34.180,32.227,132.324
1532279011.246,20.996,35.645,36.621,24.414,15.137
1532279011.250,16.602,34.180,38.574,20.508,-57.617
1532279011.254,13.184,30.273,40.039,23.438,33.691
1532279011.258,8.789,31.738,38.574,24.414,153.320
1532279011.262,14.648,31.738,38.086,26.367,68.359
1532279011.266,18.555,32.715,40.527,27.832,-87.891
1532279011.270,9.766,33.691,43.457,23.438,-53.711
1532279011.274,10.254,31.738,42.969,22.461,86.914
1532279011.278,18.066,31.738,42.969,30.762,84.961
1532279011.281,25.391,30.762,41.992,38.574,-38.086
1532279011.285,25.879,34.180,40.527,40.039,-30.273
1532279011.289,20.996,38.574,41.992,41.504,110.840
1532279011.293,19.043,39.062,42.480,43.457,149.414
1532279011.297,20.996,35.645,40.039,36.621,-27.344
1532279011.301,23.438,33.691,37.598,36.621,-98.145
1532279011.305,20.996,37.598,38.086,39.551,48.828
1532279011.309,13.184,39.062,38.574,30.273,118.652
1532279011.313,8.301,35.156,41.016,24.414,-4.395
1532279011.317,15.137,32.715,41.504,26.367,-98.145
1532279011.321,16.602,36.133,38.574,34.180,-3.906
1532279011.324,17.578,41.016,38.086,38.574,124.023
1532279011.328,16.602,41.016,40.039,28.320,45.410
1532279011.332,11.719,40.527,41.016,24.414,-118.164
1532279011.336,14.160,45.898,41.992,32.227,-45.898
1532279011.340,13.672,43.945,38.086,33.203,114.258
1532279011.344,12.695,34.180,34.668,29.297,106.934
1532279011.348,11.230,31.250,33.203,20.996,-23.438
1532279011.352,10.254,35.156,35.645,28.809,-62.988
1532279011.356,13.184,41.992,37.598,40.527,63.965
1532279011.360,9.277,36.621,36.133,30.762,123.047
1532279011.364,5.859,29.297,36.621,26.367,18.555
1532279011.367,11.719,36.133,36.621,33.691,-58.105
1532279011.371,20.020,43.945,36.621,36.133,35.645
1532279011.375,17.090,39.062,34.668,31.738,145.020
1532279011.379,10.254,37.598,35.645,26.367,63.965
1532279011.383,8.301,35.645,36.621,26.367,-56.641
1532279011.387,9.277,31.738,36.133,34.668,-9.277
1532279011.391,9.766,32.715,35.645,39.062,99.121
1532279011.395,2.441,33.691,33.691,26.855,80.078
1532279011.399,-0.488,40.039,30.762,18.066,-52.246
1532279011.403,0.977,43.945,28.320,20.020,-54.688
1532279011.406,2.930,44.434,24.902,20.508,91.797
1532279011.410,5.371,45.898,23.926,17.578,85.938
1532279011.414,7.324,45.898,23.438,20.508,-68.848
1532279011.418,1.953,43.457,23.438,20.020,-76.172
1532279011.422,-2.930,41.992,25.879,20.508,70.312
1532279011.426,4.883,42.969,26.367,20.996,130.859
1532279011.430,9.277,44.922,24.414,19.043,8.789
1532279011.434,9.277,42.969,24.414,23.438,-71.289
1532279011.438,7.812,41.992,25.391,23.926,19.043
1532279011.442,9.277,43.457,25.391,29.785,112.305
1532279011.446,6.836,42.969,25.879,24.414,59.570
1532279011.449,2.930,39.062,26.367,16.602,-57.617
1532279011.453,9.766,40.527,26.855,29.297,-18.555
1532279011.457,14.160,42.969,23.926,26.367,111.816
1532279011.461,8.301,41.504,21.973,13.184,80.566
1532279011.465,8.301,44.434,20.508,18.555,-44.434
1532279011.469,8.301,45.410,18.555,17.578,-47.852
1532279011.473,11.719,42.969,20.996,15.625,61.035
1532279011.477,17.090,42.969,22.461,26.855,87.891
1532279011.481,15.137,42.480,20.508,24.414,-10.742
1532279011.485,18.066,41.992,19.531,21.973,-12.695
1532279011.489,20.996,41.992,20.508,33.203,95.703
1532279011.492,18.066,40.039,21.484,36.133,144.043
1532279011.496,14.648,38.086,24.414,30.762,28.320
1532279011.500,14.160,38.574,23.926,35.156,-66.406
1532279011.504,16.113,38.574,21.484,35.645,13.672
1532279011.508,21.484,41.016,17.578,30.273,85.449
1532279011.512,21.484,42.480,15.625,27.832,25.391
1532279011.516,16.602,39.551,18.555,26.855,-82.031
1532279011.520,9.766,36.621,21.484,26.367,-31.738
1532279011.524,9.277,35.645,21.484,29.297,138.184
1532279011.528,12.207,35.645,19.531,28.320,110.352
1532279011.531,14.648,34.180,20.996,25.391,-50.781
1532279011.535,21.973,35.156,21.484,35.156,-66.895
1532279011.539,22.949,38.086,20.508,39.551,56.152
1532279011.543,21.973,40.527,20.996,32.715,105.957
1532279011.547,19.043,41.504,19.043,31.738,-14.160
1532279011.551,20.020,41.016,18.066,32.227,-54.688
1532279011.555,21.973,40.527,20.508,39.062,63.965
1532279011.559,20.020,39.062,21.484,41.992,139.648
1532279011.563,16.113,36.133,22.461,31.738,41.016
1532279011.567,14.160,34.180,22.461,32.227,-55.664
1532279011.571,17.090,35.156,21.484,35.156,-19.531
1532279011.574,20.996,37.109,20.996,35.645,112.793
1532279011.578,22.461,37.109,21.973,39.551,88.379
1532279011.582,21.484,34.668,22.949,32.715,-54.688
1532279011.586,15.625,32.227,27.344,23.438,-10.742
1532279011.590,11.719,28.809,27.344,24.902,91.797
1532279011.594,12.695,28.320,26.855,23.438,67.383
1532279011.598,13.184,28.809,29.297,28.809,-54.199
1532279011.602,17.090,27.344,32.715,37.598,-70.312
1532279011.606,20.020,24.902,35.156,38.086,75.195
1532279011.610,21.484,25.391,35.156,29.785,97.168
1532279011.613,24.414,29.785,31.250,25.391,-15.625
1532279011.617,23.438,29.297,26.855,28.809,-55.664
1532279011.621,19.043,27.832,30.273,27.344,39.551
1532279011.625,24.414,29.297,31.738,29.297,127.930
1532279011.629,31.250,31.250,30.762,31.738,16.602
1532279011.633,30.273,29.297,30.762,29.297,-83.984
1532279011.637,27.832,27.344,31.738,29.785,16.113
1532279011.641,23.926,26.367,31.738,32.227,100.586
1532279011.645,22.461,27.344,29.785,27.344,50.781
1532279011.649,21.973,28.809,29.785,19.043,-73.242
1532279011.653,21.973,30.273,29.785,19.043,-77.637
1532279011.656,27.344,31.738,29.785,33.691,76.660
1532279011.660,28.320,29.785,29.785,39.062,109.863
1532279011.664,24.414,28.809,28.320,36.621,-34.668
1532279011.668,21.484,27.344,30.273,33.691,-61.523
1532279011.672,14.648,26.367,30.273,22.461,95.215
1532279011.676,13.184,25.391,26.855,11.719,131.348
1532279011.680,15.625,23.926,26.855,4.395,25.879
1532279011.684,22.461,25.879,26.855,9.766,-41.504
1532279011.688,27.832,26.367,25.879,15.625,40.039
1532279011.692,25.879,23.438,27.832,12.695,130.859
1532279011.696,17.578,21.973,26.855,10.742,56.641
1532279011.699,15.137,22.949,25.879,10.254,-64.941
1532279011.703,20.996,22.461,25.879,15.625,-24.414
1532279011.707,24.414,21.484,22.461,18.555,98.145
1532279011.711,28.320,20.020,22.461,17.090,80.566
1532279011.715,20.508,20.996,24.414,8.789,-32.715
1532279011.719,18.555,25.391,28.320,4.883,-17.090
1532279011.723,20.020,23.926,28.809,9.766,119.141
1532279011.727,19.531,18.555,31.250,9.766,125.488
1532279011.731,16.602,16.602,29.785,7.812,-27.344
1532279011.735,20.020,20.020,26.367,12.695,-87.891
1532279011.738,23.926,23.438,26.367,14.160,52.246
1532279011.742,20.508,20.020,24.414,6.836,130.859
1532279011.746,24.414,17.090,27.344,0.000,22.461
1532279011.750,20.020,16.602,27.832,-1.465,-93.750
1532279011.754,15.137,14.648,24.414,-0.977,10.742
1532279011.758,18.066,15.625,24.414,2.930,159.668
1532279011.762,21.484,17.578,22.949,-0.488,62.012
1532279011.766,23.926,18.555,21.484,-2.930,-83.496
1532279011.770,21.973,20.020,23.438,-3.906,-42.969
1532279011.774,18.066,18.555,25.391,-9.766,74.707
1532279011.778,19.531,18.555,22.949,-7.812,83.984
1532279011.781,24.414,20.508,20.996,-8.789,-38.574
1532279011.785,23.926,20.020,19.043,-12.207,-45.898
1532279011.789,22.461,17.578,18.066,-10.254,85.449
1532279011.793,23.438,18.555,19.531,-28.809,89.844
1532279011.797,20.508,21.484,17.578,-67.383,-39.551
1532279011.801,17.090,20.020,16.602,-82.520,-82.031
1532279011.805,18.066,19.531,20.020,-81.543,50.781
1532279011.809,17.578,21.973,21.973,-91.797,124.023
1532279011.813,14.648,21.484,20.020,-107.422,15.137
1532279011.817,10.254,17.090,20.508,-119.141,-69.824
1532279011.821,13.184,16.113,19.043,-118.164,-13.184
1532279011.824,22.461,20.020,16.113,-112.305,97.656
1532279011.828,22.949,21.484,17.090,-120.117,39.551
1532279011.832,19.531,21.973,14.160,-129.395,-125.977
1532279011.836,15.137,20.508,14.648,-128.418,-60.547
1532279011.840,11.719,16.602,15.625,-128.418,107.910
1532279011.844,15.625,18.555,14.160,-125.000,93.262
1532279011.848,17.578,17.578,15.625,-124.512,-36.133
1532279011.852,20.996,15.625,13.672,-127.930,-75.195
1532279011.856,30.762,16.113,12.695,-125.488,67.871
1532279011.860,32.227,18.555,13.184,-128.418,126.465
1532279011.863,20.996,21.484,12.695,-139.160,-19.531
1532279011.867,16.602,21.484,16.602,-139.160,-80.078
1532279011.871,13.672,19.531,18.066,-133.789,39.062
1532279011.875,12.695,18.555,12.695,-134.766,115.723
1532279011.879,16.602,19.043,11.719,-136.230,28.809
1532279011.883,11.230,17.578,13.184,-137.207,-104.004
1532279011.887,10.742,17.090,15.137,-132.324,-41.016
1532279011.891,14.160,17.090,16.602,-128.906,83.984
1532279011.895,16.113,19.531,15.625,-131.348,43.457
1532279011.899,18.066,19.531,18.555,-119.629,-80.566
1532279011.903,19.043,18.555,20.020,-108.887,-51.758
1532279011.906,19.531,17.578,19.043,-105.957,106.934
1532279011.910,18.066,15.625,21.484,-111.816,102.539
1532279011.914,15.137,14.160,19.043,-116.699,-32.227
1532279011.918,17.090,15.625,18.555,-108.398,-43.457
1532279011.922,19.043,20.020,18.555,-102.051,60.059
1532279011.926,16.113,20.996,12.695,-104.492,111.328
1532279011.930,18.066,23.926,10.254,-117.188,7.324
1532279011.934,17.090,26.367,12.207,-122.559,-85.938
1532279011.938,9.277,23.438,13.184,-120.605,40.527
1532279011.942,3.906,21.484,14.648,-124.023,156.738
1532279011.946,4.883,22.461,17.578,-119.629,68.359
1532279011.949,9.277,21.484,17.578,-118.652,-67.871
1532279011.953,8.789,19.531,14.648,-112.793,-7.324
1532279011.957,2.441,17.578,15.625,-112.305,133.301
1532279011.961,-1.953,16.113,18.066,-113.770,81.543
1532279011.965,5.859,18.555,18.066,-104.492,-71.289
1532279011.969,15.625,21.484,16.113,-97.656,-45.898
1532279011.973,21.973,24.414,14.160,-94.238,106.934
1532279011.977,16.602,25.879,13.184,-88.379,115.723
1532279011.981,15.625,24.902,16.113,-89.844,-28.809
1532279011.985,21.484,25.391,18.066,-100.586,-63.477
1532279011.988,17.578,25.879,14.160,-105.957,61.523
1532279011.992,23.926,27.832,11.719,-106.934,141.113
1532279011.996,29.785,29.297,16.602,-109.863,33.691
1532279012.000,21.973,28.320,19.531,-108.887,-56.152
1532279012.004,20.996,28.320,16.113,-105.469,42.969
1532279012.008,22.461,28.320,14.648,-109.375,129.883
1532279012.012,16.113,27.344,17.578,-112.793,54.199
1532279012.016,18.555,26.367,18.066,-106.445,-62.988
1532279012.020,26.855,26.367,18.555,-96.680,-5.859
1532279012.024,30.273,27.832,18.066,-89.355,130.371
1532279012.028,29.297,24.414,20.020,-90.332,106.934
1532279012.031,26.367,22.461,18.555,-100.098,-41.016
1532279012.035,25.391,25.391,17.578,-96.680,-52.734
1532279012.039,24.902,24.902,19.531,-85.449,82.031
1532279012.043,24.414,24.414,16.602,-88.379,112.793
1532279012.047,28.320,24.902,15.137,-96.680,-12.695
1532279012.051,31.738,27.344,17.090,-99.609,-72.266
1532279012.055,28.809,29.785,13.672,-104.004,51.270
1532279012.059,31.250,29.785,11.719,-102.051,133.789
1532279012.063,37.109,30.762,14.160,-92.773,31.738
1532279012.067,31.738,30.273,15.137,-86.914,-62.988
1532279012.070,22.949,27.832,19.531,-89.355,-5.371
1532279012.074,16.113,25.391,20.996,-91.797,107.422
1532279012.078,11.230,24.414,19.531,-88.867,72.754
1532279012.082,12.695,25.879,19.043,-89.844,-58.105
1532279012.086,13.672,24.414,19.531,-88.867,-32.715
1532279012.090,7.324,23.926,21.484,-85.938,110.840
1532279012.094,8.301,21.484,20.996,-85.449,100.098
1532279012.098,21.484,22.461,21.973,-83.984,-61.035
1532279012.102,21.484,22.949,24.414,-82.520,-60.059
1532279012.106,15.625,18.066,24.414,-84.473,93.750
1532279012.110,18.066,19.531,23.926,-85.449,133.301
1532279012.113,21.484,21.973,21.484,-84.473,3.906
1532279012.117,22.949,20.996,18.555,-82.520,-93.262
1532279012.121,21.973,20.020,20.020,-82.031,17.090
1532279012.125,19.043,18.555,20.020,-81.543,133.301
1532279012.129,21.484,20.020,17.090,-89.355,26.367
1532279012.133,23.438,22.949,18.066,-89.844,-94.727
1532279012.137,23.438,23.438,16.602,-86.426,17.090
1532279012.141,22.461,20.508,19.043,-86.914,149.414
1532279012.145,22.461,17.578,23.438,-81.055,83.496
1532279012.149,26.855,15.625,24.414,-80.078,-45.410
1532279012.153,27.344,17.578,25.391,-82.520,-27.344
1532279012.156,28.809,19.531,26.367,-74.707,105.957
1532279012.160,31.738,18.066,27.344,-74.219,120.605
1532279012.164,26.855,18.066,22.949,-82.031,-20.020
1532279012.168,29.297,21.973,18.555,-81.055,-63.477
1532279012.172,27.832,24.414,17.090,-84.473,63.477
1532279012.176,18.066,22.949,20.020,-85.938,131.836
1532279012.180,15.625,23.438,20.996,-83.984,-4.883
1532279012.184,21.484,24.414,17.578,-80.566,-91.797
1532279012.188,22.461,26.367,13.672,-79.590,32.227
1532279012.192,20.508,29.297,14.648,-85.938,126.953
1532279012.195,15.137,26.367,20.020,-85.449,58.105
1532279012.199,8.301,24.414,21.973,-83.984,-61.035
1532279012.203,17.090,26.855,18.066,-84.961,-11.719
1532279012.207,22.461,29.297,15.625,-83.496,147.949
1532279012.211,17.090,30.273,13.672,-87.402,79.102
1532279012.215,13.184,28.809,13.184,-85.938,-61.035
1532279012.219,13.184,26.855,17.578,-75.684,-16.113
1532279012.223,21.484,26.855,18.066,-69.824,116.699
1532279012.227,27.344,28.320,18.066,-70.312,123.535
1532279012.231,24.902,29.785,18.066,-74.707,-41.504
1532279012.235,22.949,29.785,16.113,-74.707,-95.215
1532279012.238,22.461,27.832,13.184,-66.406,42.969
1532279012.242,22.461,29.297,11.719,-65.430,141.602
1532279012.246,22.949,30.273,13.184,-64.941,17.578
1532279012.250,20.508,27.344,17.578,-67.871,-105.469
1532279012.254,16.602,26.855,19.531,-69.336,3.906
1532279012.258,20.996,25.879,19.531,-62.500,115.723
1532279012.262,22.461,26.855,19.043,-61.035,54.688
1532279012.266,21.484,28.809,16.113,-63.477,-54.688
1532279012.270,19.531,27.344,16.602,-67.383,-33.691
1532279012.274,24.414,27.832,18.555,-60.059,100.098
1532279012.278,29.297,29.297,16.113,-61.523,80.566
1532279012.281,28.320,31.250,13.184,-69.824,-73.730
1532279012.285,29.785,34.668,14.648,-69.336,-79.590
1532279012.289,35.645,34.668,16.602,-66.895,83.984
1532279012.293,38.574,32.715,14.648,-63.965,124.023
1532279012.297,34.180,31.738,16.113,-61.035,-28.320
1532279012.301,33.203,29.785,18.555,-57.129,-106.934
1532279012.305,34.180,28.809,20.020,-55.664,44.434
1532279012.309,34.180,31.738,15.137,-58.105,124.512
1532279012.313,35.156,35.645,15.625,-59.082,-10.742
1532279012.317,36.621,36.621,19.043,-49.316,-91.309
1532279012.320,32.227,32.715,20.020,-45.410,4.883
1532279012.324,29.297,29.785,20.508,-46.875,129.395
1532279012.328,32.227,29.297,23.438,-44.922,67.383
1532279012.332,34.668,31.738,23.438,-49.316,-69.824
1532279012.336,30.762,33.203,18.066,-52.246,-19.531
1532279012.340,23.926,32.715,17.090,-52.734,118.164
1532279012.344,27.832,32.227,18.066,-53.711,78.613
1532279012.348,35.156,32.715,19.043,-54.199,-62.500
1532279012.352,31.250,31.250,23.438,-54.199,-94.238
1532279012.356,24.902,27.344,22.949,-51.758,58.594
1532279012.360,25.879,30.762,18.066,-55.664,140.137
1532279012.363,30.762,35.156,19.531,-54.688,0.000
1532279012.367,34.668,34.180,20.020,-51.758,-98.633
1532279012.371,32.715,32.715,17.578,-50.293,5.371
1532279012.375,33.691,33.203,15.625,-45.410,134.766
1532279012.379,37.598,33.203,17.578,-41.016,8.789
1532279012.383,39.062,32.715,17.578,-37.109,-119.629
1532279012.387,37.109,35.645,14.160,-36.621,-22.461
1532279012.391,31.738,36.621,16.113,-41.992,99.609
1532279012.395,30.762,36.133,18.066,-45.898,70.312
1532279012.399,31.250,35.156,15.137,-40.527,-61.035
1532279012.402,28.320,31.738,16.602,-35.156,-41.504
1532279012.406,20.996,28.809,18.066,-34.180,123.047
1532279012.410,15.625,30.273,19.043,-40.039,109.863
1532279012.414,13.184,32.227,17.578,-48.340,-43.945
1532279012.418,12.207,30.762,13.184,-45.410,-54.688
1532279012.422,11.230,30.762,15.137,-36.621,83.008
1532279012.426,14.160,32.227,19.531,-20.508,125.488
1532279012.430,19.043,32.227,20.996,-12.695,3.418
1532279012.434,23.438,30.762,16.602,-12.695,-74.219
1532279012.438,29.297,34.180,17.578,-5.859,44.434
1532279012.442,36.621,40.039,23.438,-3.418,156.738
1532279012.445,41.992,41.992,25.879,-3.906,59.082
1532279012.449,43.945,42.969,28.320,-3.906,-87.402
1532279012.453,42.480,43.945,26.367,-2.441,-48.828
1532279012.457,44.922,43.945,24.902,1.465,124.512
1532279012.461,49.316,41.504,24.902,-0.488,111.328
1532279012.465,44.922,40.039,26.367,-0.977,-38.086
1532279012.469,41.992,40.039,23.926,3.906,-40.527
1532279012.473,42.480,38.574,23.438,6.836,107.422
1532279012.477,42.480,39.062,28.320,5.859,125.000
1532279012.481,41.016,37.109,25.879,5.371,-39.551
1532279012.485,36.133,33.691,24.902,7.812,-78.613
1532279012.488,33.203,31.738,25.879,6.836,63.477
1532279012.492,36.133,30.762,24.414,-0.488,108.398
1532279012.496,36.133,28.809,25.391,-1.953,18.066
1532279012.500,31.250,29.785,23.438,0.000,-47.852
1532279012.504,26.855,29.785,17.578,-3.418,29.785
1532279012.508,24.414,28.320,15.137,-10.742,146.973
1532279012.512,28.320,29.297,14.160,-11.719,80.566
1532279012.516,35.645,30.273,15.137,-7.812,-54.688
1532279012.520,35.156,29.785,13.672,-5.371,-16.113
1532279012.524,34.668,28.809,13.184,-1.465,132.812
1532279012.527,34.180,31.738,15.625,-5.371,124.023
1532279012.531,29.297,30.273,19.531,-8.789,-23.926
1532279012.535,28.320,29.297,18.066,-6.348,-56.641
1532279012.539,30.762,29.785,16.602,-3.906,83.984
1532279012.543,32.715,29.297,17.578,-7.324,144.043
1532279012.547,30.762,27.344,15.137,-14.648,6.348
1532279012.551,23.438,26.367,13.672,-23.438,-102.051
1532279012.555,20.996,29.785,15.137,-24.902,9.277
1532279012.559,17.090,31.250,15.625,-21.973,100.098
1532279012.563,9.277,29.297,17.090,-26.367,5.859
1532279012.567,10.742,25.879,22.461,-25.391,-63.477
1532279012.570,14.160,21.973,23.438,-32.227,34.668
1532279012.574,8.301,24.414,18.555,-46.875,133.789
1532279012.578,6.348,29.297,13.672,-56.641,45.898
1532279012.582,9.766,27.344,14.160,-61.523,-81.055
1532279012.586,7.812,25.879,15.137,-62.500,-16.602
1532279012.590,5.371,28.809,15.625,-65.918,85.449
1532279012.594,8.789,28.809,14.648,-68.848,70.312
1532279012.598,10.742,25.879,16.113,-65.918,-41.016
1532279012.602,10.254,24.414,17.090,-62.988,-64.941
1532279012.606,9.277,24.414,14.648,-60.547,84.473
1532279012.610,7.812,25.391,16.113,-62.012,104.980
1532279012.613,7.324,21.973,18.555,-69.824,-31.250
1532279012.617,7.324,17.090,18.555,-71.289,-86.914
1532279012.621,11.230,19.531,19.043,-64.941,41.504
1532279012.625,14.160,21.973,16.113,-65.918,140.137
1532279012.629,11.719,22.461,13.184,-80.566,21.973
1532279012.633,6.836,25.879,12.207,-86.426,-107.422
1532279012.637,11.230,22.461,13.184,-75.195,5.371
1532279012.641,19.531,21.484,16.602,-67.383,138.184
1532279012.645,13.672,28.809,12.695,-72.266,48.828
1532279012.649,10.742,29.785,10.254,-79.102,-84.473
1532279012.652,15.137,30.273,12.207,-74.707,-61.035
1532279012.656,14.648,28.809,11.230,-64.453,92.285
1532279012.660,18.066,27.344,12.207,-59.570,114.746
1532279012.664,16.113,27.344,13.184,-62.988,-20.996
1532279012.668,13.184,24.414,15.137,-58.594,-54.199
1532279012.672,20.020,25.391,16.113,-50.293,35.645
1532279012.676,18.555,29.297,14.160,-42.480,112.793
1532279012.680,12.695,28.320,12.695,-41.992,9.766
1532279012.684,11.719,26.855,14.160,-41.504,-62.988
1532279012.688,11.719,28.809,15.137,-35.156,43.945
1532279012.692,13.184,32.227,12.695,-11.230,96.680
1532279012.695,16.602,33.203,10.742,55.176,19.531
1532279012.699,16.602,29.785,11.230,109.375,-55.664
1532279012.703,14.160,31.250,13.184,131.836,27.344
1532279012.707,17.578,33.203,12.695,142.578,147.949
1532279012.711,20.508,32.715,13.672,149.902,82.520
1532279012.715,22.461,33.691,15.137,157.715,-83.496
1532279012.719,22.461,31.738,13.184,172.852,-65.918
1532279012.723,19.531,31.738,10.254,184.570,88.379
1532279012.727,17.090,36.621,10.742,189.941,104.492
1532279012.731,18.066,36.621,11.719,196.289,-43.945
1532279012.734,19.043,34.668,13.672,203.613,-95.215
1532279012.738,16.602,36.133,14.160,216.309,73.242
1532279012.742,12.695,35.645,13.184,217.773,148.926
1532279012.746,9.766,34.668,13.184,213.379,18.555
1532279012.750,16.113,35.156,14.648,220.215,-83.984
1532279012.754,23.438,35.156,14.648,226.074,6.348
1532279012.758,22.461,34.668,11.719,223.633,131.348
1532279012.762,21.484,34.180,12.207,217.285,57.129
1532279012.766,20.508,35.156,13.672,214.844,-64.941
1532279012.770,20.020,34.668,13.672,214.355,-42.480
1532279012.774,25.391,32.227,13.184,208.984,83.008
1532279012.777,29.297,29.785,14.648,209.961,89.355
1532279012.781,26.367,31.250,18.066,208.496,-63.965
1532279012.785,17.090,30.273,16.113,203.125,-56.641
1532279012.789,11.230,29.785,12.695,202.148,104.980
1532279012.793,14.648,30.762,13.672,200.684,124.023
1532279012.797,14.160,31.250,13.672,200.195,-10.254
1532279012.801,12.207,32.715,11.719,215.332,-64.941
1532279012.805,16.602,34.180,10.742,232.422,56.641
1532279012.809,20.508,36.133,9.766,233.398,152.344
1532279012.813,25.879,33.203,9.766,231.445,25.391
1532279012.817,29.297,29.297,12.695,234.375,-83.008
1532279012.820,30.273,29.297,16.602,237.793,20.020
1532279012.824,28.320,31.738,16.113,234.863,146.484
1532279012.828,18.555,34.668,14.648,224.121,71.777
1532279012.832,19.531,33.203,13.672,215.332,-66.406
1532279012.836,23.926,28.809,12.207,214.355,-29.297
1532279012.840,23.926,27.832,14.648,215.332,96.680
1532279012.844,25.391,28.320,17.090,211.426,84.961
1532279012.848,23.926,29.297,19.531,204.102,-75.195
1532279012.852,22.949,29.297,19.531,200.195,-98.145
1532279012.856,22.949,28.809,16.113,197.754,83.496
1532279012.859,19.531,30.273,15.625,191.406,118.652
1532279012.863,19.043,29.297,17.090,185.547,-44.434
1532279012.867,20.020,27.344,17.578,181.152,-88.867
1532279012.871,17.090,26.367,15.625,176.758,36.133
1532279012.875,16.602,28.809,15.137,170.410,97.656
1532279012.879,20.508,32.227,14.648,169.434,31.738
1532279012.883,20.508,29.785,12.695,165.527,-49.316
1532279012.887,15.625,28.320,11.230,161.133,17.090
1532279012.891,19.043,27.832,13.184,163.574,127.930
1532279012.895,20.020,26.855,16.113,161.621,50.293
1532279012.899,16.113,24.414,20.020,154.297,-61.523
1532279012.902,20.508,22.461,21.484,153.320,-17.578
1532279012.906,25.879,23.926,19.531,159.180,119.629
1532279012.910,23.926,27.832,20.020,145.508,107.910
1532279012.914,20.020,29.785,18.555,134.766,-33.203
1532279012.918,21.484,29.785,16.602,142.578,-37.598
1532279012.922,24.414,28.809,19.531,146.973,103.027
1532279012.926,28.320,28.320,21.484,144.043,143.066
1532279012.930,32.715,28.320,19.043,133.789,-8.301
1532279012.934,35.156,29.785,18.555,131.348,-84.961
1532279012.938,28.320,31.250,18.066,134.277,26.855
1532279012.942,14.160,28.809,17.578,130.859,127.441
1532279012.945,14.648,26.855,17.578,124.023,41.016
1532279012.949,22.949,28.320,18.555,119.141,-97.168
1532279012.953,18.066,30.762,17.578,116.699,-47.363
1532279012.957,15.625,28.809,14.648,118.164,109.375
1532279012.961,20.020,26.367,15.625,115.723,87.402
1532279012.965,18.555,27.344,14.648,110.352,-45.898
1532279012.969,16.113,31.250,11.719,106.934,-58.105
1532279012.973,20.508,31.738,13.672,106.934,81.543
1532279012.977,21.484,27.344,18.555,109.863,126.465
1532279012.981,20.508,26.367,20.996,104.980,-33.691
1532279012.984,21.973,23.926,21.973,100.586,-91.309
1532279012.988,27.832,23.438,18.555,101.562,52.734
1532279012.992,36.133,29.785,13.184,100.098,137.207
1532279012.996,33.691,32.227,10.254,94.238,22.949
1532279013.000,34.180,30.762,13.672,97.168,-85.938
1532279013.004,35.156,27.832,19.531,105.957,18.066
1532279013.008,31.250,28.809,19.531,110.840,132.812
1532279013.012,24.414,31.738,16.602,102.051,21.973
1532279013.016,22.949,31.250,13.672,99.609,-86.426
1532279013.020,23.438,32.227,13.184,103.516,1.465
1532279013.024,19.531,32.715,11.230,99.121,131.348
1532279013.027,19.043,33.691,10.254,94.727,106.934
1532279013.031,18.555,32.227,12.207,95.703,-54.199
1532279013.035,20.508,27.832,16.113,97.656,-56.152
1532279013.039,18.555,24.414,17.578,96.680,115.234
1532279013.043,19.531,25.879,18.555,97.656,111.816
1532279013.047,17.578,30.762,17.578,91.797,-41.016
1532279013.051,13.184,31.250,16.602,79.590,-88.379
1532279013.055,13.672,28.320,17.578,78.613,40.527
1532279013.059,12.695,26.367,16.113,84.961,161.621
1532279013.063,15.137,23.926,18.066,82.520,64.941
1532279013.067,10.254,22.949,21.484,79.590,-66.406
1532279013.070,7.324,23.438,20.508,78.613,10.742
1532279013.074,12.207,21.973,19.043,77.637,130.371
1532279013.078,14.648,22.949,18.066,76.660,67.871
1532279013.082,19.531,26.367,15.625,80.078,-55.664
1532279013.086,24.414,25.879,13.184,85.449,-13.184
1532279013.090,27.832,27.832,15.137,86.914,119.141
1532279013.094,25.391,28.809,16.113,84.473,107.910
1532279013.098,25.879,29.297,15.137,80.566,-30.762
1532279013.102,27.344,28.320,14.160,78.613,-53.711
1532279013.106,27.344,26.855,12.695,80.566,89.844
1532279013.109,28.320,23.926,18.066,76.660,112.793
1532279013.113,22.949,21.973,20.996,71.777,-18.066
1532279013.117,22.461,22.461,20.020,77.637,-73.730
1532279013.121,22.949,23.438,20.020,80.078,36.621
1532279013.125,19.531,25.391,19.531,76.660,130.371
1532279013.129,20.508,24.414,20.996,73.730,-13.672
1532279013.133,27.832,26.855,21.484,77.148,-119.629
1532279013.137,28.320,28.809,20.020,80.078,3.906
1532279013.141,23.926,27.344,19.043,77.148,129.395
1532279013.145,20.508,29.297,18.555,74.707,64.941
1532279013.149,19.043,29.297,18.066,72.754,-76.660
1532279013.152,22.949,29.297,18.555,74.707,-53.223
1532279013.156,20.020,27.344,21.973,78.125,96.191
1532279013.160,15.137,22.949,25.391,74.707,106.445
1532279013.164,16.113,21.973,24.902,74.707,-38.086
1532279013.168,18.066,23.926,20.020,76.660,-57.617
1532279013.172,23.926,27.344,16.602,74.707,74.219
1532279013.176,26.367,27.832,16.113,72.266,134.766
1532279013.180,31.250,27.344,16.113,73.730,33.203
1532279013.184,30.762,23.438,16.113,75.195,-57.129
1532279013.188,26.855,21.484,19.043,70.801,24.414
1532279013.191,30.273,26.367,23.438,63.477,106.445
1532279013.195,25.391,29.297,23.438,64.941,14.648
1532279013.199,20.996,24.414,19.531,70.312,-76.660
1532279013.203,25.391,19.531,17.090,71.289,0.977
1532279013.207,25.879,25.391,18.555,71.289,120.117
1532279013.211,26.855,30.762,20.996,70.312,57.129
1532279013.215,30.762,32.227,18.555,67.383,-88.379
1532279013.219,32.715,31.250,16.602,65.918,-46.875
1532279013.223,28.809,31.738,17.090,65.430,105.469
1532279013.227,27.832,31.250,18.066,63.965,108.887
1532279013.231,28.320,28.320,19.043,63.477,-34.668
1532279013.234,23.926,25.879,20.508,62.988,-65.430
1532279013.238,20.996,27.344,25.879,64.453,61.523
1532279013.242,20.996,30.273,26.367,63.477,108.887
1532279013.246,20.996,28.320,23.438,62.500,-3.418
1532279013.250,19.531,26.367,22.461,58.105,-91.797
1532279013.254,23.926,28.809,22.461,58.105,-24.414
1532279013.258,26.367,26.367,22.949,63.477,107.910
1532279013.262,21.973,21.973,22.949,57.129,56.152
1532279013.266,20.020,22.461,23.438,54.688,-66.406
1532279013.270,23.926,23.438,23.926,64.941,-16.602
1532279013.274,28.320,25.879,24.902,70.312,103.516
1532279013.277,23.926,26.855,26.367,69.336,102.539
1532279013.281,20.508,26.855,25.879,67.871,-38.086
1532279013.285,23.438,27.832,25.879,70.801,-64.453
1532279013.289,24.414,26.855,26.855,70.312,73.242
1532279013.293,27.832,26.855,26.855,70.801,109.863
1532279013.297,30.762,26.367,26.367,77.637,-21.484
1532279013.301,26.367,25.391,25.879,79.102,-75.684
1532279013.305,23.926,28.320,23.438,77.637,31.250
1532279013.309,21.484,29.785,23.926,71.777,109.375
1532279013.313,19.043,31.738,26.855,62.988,17.090
1532279013.316,20.020,31.738,25.879,62.988,-71.777
1532279013.320,16.113,29.785,23.926,69.336,23.926
1532279013.324,20.020,29.297,24.414,74.219,134.766
1532279013.328,23.438,29.785,24.902,73.730,63.965
1532279013.332,20.020,29.785,24.414,67.871,-90.332
1532279013.336,17.090,27.344,24.414,69.336,-42.480
1532279013.340,18.555,27.344,25.391,75.195,113.281
1532279013.344,23.438,30.273,26.855,74.219,97.168
1532279013.348,24.414,30.762,26.367,67.871,-26.367
1532279013.352,19.043,31.250,25.391,65.918,-62.988
1532279013.356,15.137,30.273,22.461,69.824,62.988
1532279013.359,15.137,28.809,20.996,71.289,106.934
1532279013.363,15.625,29.785,23.438,69.336,-15.625
1532279013.367,20.020,32.715,24.902,69.336,-76.172
1532279013.371,27.832,36.133,26.855,71.777,19.531
1532279013.375,25.391,34.180,28.320,73.242,111.328
1532279013.379,20.996,33.691,28.320,75.195,20.996
1532279013.383,24.414,34.180,29.297,74.219,-68.848
1532279013.387,26.855,32.715,24.902,72.266,20.508
1532279013.391,30.762,33.691,24.902,70.312,113.281
1532279013.395,35.645,35.156,25.391,69.336,68.359
1532279013.399,34.668,34.668,22.949,72.266,-51.758
1532279013.402,21.973,32.227,24.414,70.312,-54.688
1532279013.406,18.066,29.297,25.391,72.754,92.285
1532279013.410,24.902,31.738,27.832,70.801,98.145
1532279013.414,26.367,34.668,26.855,66.895,-30.762
1532279013.418,24.902,33.691,22.949,68.848,-69.824
1532279013.422,27.344,34.668,21.484,67.871,61.035
1532279013.426,27.832,34.180,23.438,64.941,128.418
1532279013.430,21.484,33.203,28.809,57.617,-19.043
1532279013.434,23.438,33.203,30.762,58.594,-111.328
1532279013.438,32.715,31.738,26.367,67.383,36.133
1532279013.441,33.691,33.691,20.508,65.918,149.902
1532279013.445,32.227,35.156,20.508,58.594,50.781
1532279013.449,25.391,33.691,20.996,59.570,-50.781
1532279013.453,27.344,33.691,22.461,65.918,8.789
1532279013.457,27.344,31.738,22.461,64.453,121.582
1532279013.461,22.949,32.227,20.996,61.523,86.426
1532279013.465,25.391,36.621,22.461,61.523,-43.457
1532279013.469,21.484,35.156,21.973,57.617,-35.156
1532279013.473,21.484,32.227,19.531,55.176,92.773
1532279013.477,23.926,34.180,19.043,55.664,129.883
1532279013.481,26.367,34.668,18.066,53.711,26.855
1532279013.484,30.762,35.156,20.020,59.082,-47.852
1532279013.488,26.855,35.156,20.996,62.012,57.617
1532279013.492,23.438,32.715,21.973,58.105,157.715
1532279013.496,27.344,32.227,22.949,59.082,53.223
1532279013.500,27.832,32.227,22.461,61.035,-69.824
1532279013.504,27.344,30.273,22.461,61.035,14.160
1532279013.508,28.320,26.855,23.926,62.012,124.023
1532279013.512,30.762,26.367,27.832,59.570,35.645
1532279013.516,28.320,27.344,26.855,57.129,-89.844
1532279013.520,23.438,25.391,22.949,56.641,-23.438
1532279013.523,24.414,27.832,21.484,55.664,121.582
1532279013.527,23.926,28.809,22.461,51.758,99.609
1532279013.531,21.973,26.855,21.973,46.387,-64.453
1532279013.535,22.949,27.344,21.973,48.340,-74.707
1532279013.539,23.926,26.855,21.484,57.617,75.684
1532279013.543,21.973,27.832,19.531,51.758,114.746
1532279013.547,19.043,29.297,18.066,44.922,-8.789
1532279013.551,21.973,30.762,18.555,47.363,-84.961
1532279013.555,26.855,30.762,17.090,49.805,38.086
1532279013.559,22.461,30.273,16.602,55.176,134.277
1532279013.563,26.855,30.273,17.578,54.688,40.039
1532279013.566,31.250,28.320,19.043,51.758,-65.918
1532279013.570,22.949,29.297,20.020,53.223,-12.695
1532279013.574,19.043,30.762,21.484,52.246,120.605
1532279013.578,21.973,27.832,21.973,50.781,76.172
1532279013.582,27.344,28.320,20.020,53.223,-73.242
1532279013.586,31.738,28.809,18.066,54.688,-19.531
1532279013.590,27.344,26.855,16.602,49.316,111.328
1532279013.594,25.391,26.855,18.066,48.828,96.680
1532279013.598,28.809,27.344,20.996,54.688,-42.480
1532279013.602,24.414,25.879,21.484,56.152,-62.988
1532279013.606,21.973,26.367,22.949,55.176,85.449
1532279013.609,25.391,26.855,22.461,55.664,124.512
1532279013.613,26.367,25.879,19.531,51.270,-1.953
1532279013.617,32.227,26.855,20.508,54.199,-30.762
1532279013.621,34.668,25.879,19.043,61.523,84.961
1532279013.625,31.738,25.391,18.066,59.082,163.086
1532279013.629,27.344,27.344,20.020,52.734,66.895
1532279013.633,24.902,28.809,19.043,50.781,-45.898
1532279013.637,21.973,28.320,17.090,50.781,25.391
1532279013.641,18.066,28.320,16.113,46.875,128.418
1532279013.645,20.508,27.832,16.602,44.922,68.848
1532279013.648,17.090,26.367,16.602,42.480,-56.152
1532279013.652,10.254,24.902,17.090,40.527,-30.762
1532279013.656,10.742,23.926,21.484,41.992,109.863
1532279013.660,9.277,25.879,22.461,43.945,100.586
1532279013.664,13.672,25.391,19.531,47.852,-37.109
1532279013.668,24.414,24.414,19.531,49.316,-66.406
1532279013.672,23.926,26.367,19.531,42.969,44.922
1532279013.676,22.461,27.344,19.531,41.504,113.281
1532279013.680,24.902,27.344,19.043,45.410,5.859
1532279013.684,19.043,27.832,18.066,50.781,-67.383
1532279013.688,19.531,27.832,17.578,52.246,34.180
1532279013.691,15.137,26.855,16.602,47.363,140.137
1532279013.695,15.625,24.902,15.137,45.898,59.082
1532279013.699,17.578,26.367,17.090,50.293,-80.566
1532279013.703,13.184,28.809,19.043,55.176,-24.414
1532279013.707,15.625,24.902,18.066,53.223,150.391
1532279013.711,13.184,21.484,20.020,46.875,105.957
1532279013.715,20.020,25.391,22.461,43.945,-61.035
1532279013.719,21.484,29.297,18.555,46.387,-52.734
1532279013.723,18.066,29.297,18.555,50.781,88.379
1532279013.727,19.531,30.273,21.484,51.758,134.277
1532279013.731,21.973,30.273,19.531,47.363,-7.812
1532279013.734,27.832,28.809,20.020,49.316,-65.430
1532279013.738,27.832,27.832,22.949,56.641,57.129
1532279013.742,25.879,26.367,23.926,59.082,123.535
1532279013.746,23.438,25.391,23.438,58.105,-14.648
1532279013.750,22.461,23.926,21.484,57.129,-108.887
1532279013.754,25.391,25.879,20.020,56.152,11.719
1532279013.758,30.762,27.832,20.020,56.152,126.465
1532279013.762,32.227,27.832,21.484,58.105,67.383
1532279013.766,31.250,26.855,21.484,58.105,-74.219
1532279013.770,26.855,25.391,21.973,52.246,-27.344
1532279013.773,22.461,26.367,23.438,51.270,100.098
1532279013.777,19.043,27.832,22.461,47.852,62.012
1532279013.781,20.020,25.879,21.973,42.969,-73.730
1532279013.785,19.043,25.879,19.531,51.758,-64.453
1532279013.789,19.531,27.344,17.578,53.223,79.590
1532279013.793,20.020,25.879,21.973,47.852,106.445
1532279013.797,24.414,24.414,23.926,54.688,-11.719
1532279013.801,26.855,23.926,24.902,58.594,-69.824
1532279013.805,24.414,21.973,25.391,61.035,38.086
1532279013.809,26.855,23.926,24.414,56.152,119.141
1532279013.813,21.973,25.391,23.926,45.410,0.488
1532279013.816,20.508,21.973,24.902,47.363,-106.934
1532279013.820,22.949,21.973,23.438,49.805,-38.574
1532279013.824,22.461,27.832,20.996,51.270,92.285
1532279013.828,23.926,31.250,20.020,51.758,45.410
1532279013.832,29.297,27.832,17.090,48.828,-90.332
1532279013.836,31.250,25.391,20.508,50.781,-22.461
1532279013.840,32.227,27.832,22.949,52.734,104.004
1532279013.844,33.203,27.832,22.461,54.199,98.145
1532279013.848,33.203,28.320,22.461,52.734,-37.598
1532279013.852,30.762,29.785,19.043,46.875,-87.891
1532279013.855,28.809,28.809,17.578,46.875,56.641
1532279013.859,26.367,27.832,19.043,50.781,128.906
1532279013.863,22.949,29.297,18.555,47.363,18.555
1532279013.867,21.484,32.227,19.531,41.992,-50.781
1532279013.871,23.438,32.227,19.531,45.410,37.598
1532279013.875,26.367,28.809,20.508,49.805,102.539
1532279013.879,22.949,27.832,23.926,49.316,18.066
1532279013.883,24.902,26.855,23.926,47.852,-71.289
1532279013.887,27.832,24.902,21.484,51.758,-10.254
1532279013.891,30.762,24.414,20.996,57.617,115.234
1532279013.895,38.086,24.902,24.414,54.688,79.590
1532279013.898,41.504,26.855,22.949,51.758,-63.477
1532279013.902,38.574,28.320,18.066,53.711,-49.805
1532279013.906,36.621,26.367,17.090,50.781,115.723
1532279013.910,41.992,25.879,18.555,42.480,113.770
1532279013.914,47.852,26.367,20.020,38.086,-63.477
1532279013.918,53.711,28.320,18.555,40.039,-87.402
1532279013.922,55.176,27.344,20.020,41.016,73.730
1532279013.926,58.594,26.855,20.020,40.527,130.371
1532279013.930,64.453,30.273,19.043,41.992,-1.465
1532279013.934,60.547,29.297,20.996,47.363,-93.262
1532279013.938,52.734,26.855,22.949,51.270,14.160
1532279013.941,43.945,26.367,22.949,52.246,142.578
1532279013.945,37.598,25.391,21.484,52.246,66.895
1532279013.949,30.762,25.879,19.531,45.410,-89.844
1532279013.953,29.297,26.855,20.020,40.527,-46.875
1532279013.957,30.273,27.344,22.461,44.922,120.117
1532279013.961,27.832,26.855,22.949,42.480,80.566
1532279013.965,30.762,25.391,24.414,38.574,-50.293
1532279013.969,37.109,25.879,23.926,41.992,-50.293
1532279013.973,35.645,26.367,24.414,44.434,75.684
1532279013.977,23.926,24.902,25.879,44.434,104.980
1532279013.980,20.996,24.414,23.438,41.016,-17.578
1532279013.984,20.508,26.367,22.461,39.062,-80.566
1532279013.988,26.367,28.809,21.484,44.922,14.648
1532279013.992,30.273,28.809,20.996,40.039,98.633
1532279013.996,24.902,28.809,19.043,36.133,8.301
1532279014.000,24.902,27.832,14.160,37.109,-73.242
1532279014.004,25.879,28.320,17.090,39.062,12.695
1532279014.008,23.926,28.809,19.531,42.480,123.047
1532279014.012,28.320,27.832,20.508,44.434,53.223
1532279014.016,30.762,27.832,20.996,52.246,-73.242
1532279014.020,31.738,29.297,20.996,53.223,-17.578
1532279014.023,35.156,27.832,22.461,47.363,109.863
1532279014.027,36.133,25.391,22.461,46.387,112.793
1532279014.031,35.156,26.855,20.020,43.945,-35.156
1532279014.035,31.250,28.320,18.066,43.945,-70.801
1532279014.039,32.715,26.855,20.996,50.293,101.074
1532279014.043,36.621,26.367,23.438,56.152,154.297
1532279014.047,35.156,28.320,24.414,56.152,13.672
1532279014.051,34.180,28.320,24.414,54.199,-69.824
1532279014.055,35.156,28.320,21.973,56.152,62.012
1532279014.059,33.203,32.227,20.020,53.223,166.992
1532279014.063,32.227,33.203,20.508,50.293,64.941
1532279014.066,25.879,28.809,21.484,52.734,-63.477
1532279014.070,20.996,25.391,25.391,51.758,18.066
1532279014.074,25.391,25.879,27.832,50.293,124.512
1532279014.078,31.250,25.879,26.855,53.711,36.621
1532279014.082,34.668,24.902,26.855,54.199,-62.988
1532279014.086,34.180,28.320,26.367,54.199,-2.441
1532279014.090,34.668,31.250,26.367,57.617,101.562
1532279014.094,32.715,30.273,27.344,48.340,79.102
1532279014.098,34.180,29.785,26.367,45.410,-22.949
1532279014.102,32.715,32.227,25.391,52.246,-24.902
1532279014.105,24.902,31.738,22.949,51.270,106.445
1532279014.109,26.367,29.297,23.438,49.316,149.902
1532279014.113,29.297,27.832,24.414,47.852,21.973
1532279014.117,32.227,27.344,25.391,50.293,-58.105
1532279014.121,30.273,25.391,26.855,56.641,58.105
1532279014.125,31.250,25.391,26.855,59.082,152.344
1532279014.129,42.480,27.832,25.879,54.688,28.809
1532279014.133,47.363,30.762,24.414,50.293,-112.793
1532279014.137,43.945,31.738,26.367,57.617,-18.066
1532279014.141,37.598,30.273,25.879,60.547,129.395
1532279014.145,29.785,27.344,25.879,52.246,100.586
1532279014.148,29.785,26.367,24.902,49.805,-35.645
1532279014.152,32.715,26.855,21.973,57.129,-22.461
1532279014.156,34.668,26.855,22.949,58.105,134.277
1532279014.160,29.297,27.832,23.438,48.340,144.043
1532279014.164,26.855,27.832,24.414,45.898,7.324
1532279014.168,35.156,28.320,24.902,48.340,-32.715
1532279014.172,39.551,28.809,23.926,51.270,62.988
1532279014.176,38.574,28.809,26.367,50.781,116.699
1532279014.180,36.133,29.297,25.879,47.363,10.254
1532279014.184,33.691,28.320,23.438,45.898,-73.242
1532279014.188,30.273,27.344,23.926,47.363,31.738
1532279014.191,32.227,28.320,26.855,40.527,105.957
1532279014.195,36.621,27.344,25.879,36.621,3.906
1532279014.199,34.668,25.391,24.414,43.457,-67.383
1532279014.203,32.227,26.367,26.855,48.828,-0.977
1532279014.207,27.832,23.438,28.809,55.664,106.934
1532279014.211,23.926,21.973,27.344,54.199,77.148
1532279014.215,25.879,24.902,24.902,49.316,-49.316
1532279014.219,27.344,23.926,24.414,52.246,-67.871
1532279014.223,27.832,23.438,25.879,54.199,78.125
1532279014.227,26.367,24.414,27.344,51.758,109.863
1532279014.230,25.879,23.438,28.809,49.805,-32.227
1532279014.234,29.785,22.949,27.832,50.781,-73.730
1532279014.238,30.762,22.461,26.855,51.758,56.152
1532279014.242,28.320,23.438,27.832,50.293,135.254
1532279014.246,21.484,24.902,31.250,49.805,21.973
1532279014.250,18.066,22.949,31.738,45.898,-97.168
1532279014.254,19.043,20.996,28.320,41.504,-15.625
1532279014.258,21.484,21.973,26.367,45.898,126.465
1532279014.262,21.973,22.949,25.879,44.922,67.871
1532279014.266,19.531,22.949,25.391,46.387,-72.754
1532279014.270,21.973,22.461,25.879,46.387,-41.504
1532279014.273,21.484,21.484,26.367,45.898,88.867
1532279014.277,19.043,20.996,28.320,49.316,85.449
1532279014.281,16.113,21.973,26.855,43.945,-36.621
1532279014.285,18.066,22.461,24.902,47.363,-32.227
1532279014.289,21.484,20.996,25.391,49.316,96.191
1532279014.293,17.578,18.066,27.832,42.969,142.578
1532279014.297,19.043,18.066,30.762,43.457,9.277
1532279014.301,20.996,20.508,26.855,46.387,-65.918
1532279014.305,21.484,21.484,22.949,46.875,74.707
1532279014.309,26.367,20.996,24.902,44.922,136.230
1532279014.312,27.832,19.043,25.879,41.992,-2.441
1532279014.316,29.785,20.020,26.855,47.852,-101.562
1532279014.320,29.297,24.414,25.879,52.246,-7.812
1532279014.324,25.879,22.949,25.391,53.223,153.320
1532279014.328,28.809,21.484,24.414,51.758,97.656
1532279014.332,32.227,23.926,24.414,48.340,-74.707
1532279014.336,32.227,24.902,25.879,51.758,-35.645
1532279014.340,31.738,21.973,26.855,55.664,105.957
1532279014.344,33.203,21.484,27.832,51.758,95.703
1532279014.348,33.691,23.926,28.809,49.805,-38.574
1532279014.352,28.320,21.484,27.832,52.734,-55.176
1532279014.355,29.297,18.555,25.391,55.176,100.586
1532279014.359,31.738,18.066,24.414,60.059,136.719
1532279014.363,28.809,17.578,23.926,54.688,-10.254
1532279014.367,26.855,17.090,28.320,51.270,-78.125
1532279014.371,30.273,17.090,32.715,52.734,13.672
1532279014.375,32.715,20.020,31.250,51.270,111.328
1532279014.379,30.762,22.949,26.367,49.805,42.969
1532279014.383,32.715,23.926,26.855,52.734,-40.039
1532279014.387,33.203,20.508,27.344,55.176,5.371
1532279014.391,26.855,17.578,27.832,52.246,111.816
1532279014.395,29.297,20.508,29.297,47.852,90.820
1532279014.398,32.715,20.508,28.320,46.387,-37.109
1532279014.402,33.203,19.531,27.832,48.828,-18.066
1532279014.406,40.039,22.949,27.344,53.711,115.234
1532279014.410,41.992,24.902,26.855,48.828,98.145
1532279014.414,40.039,22.949,26.367,44.434,-49.316
1532279014.418,36.621,19.043,28.320,50.293,-64.453
1532279014.422,30.762,18.555,29.785,53.223,52.246
1532279014.426,26.367,20.020,25.391,53.711,128.418
1532279014.430,25.879,20.508,23.438,46.387,13.184
1532279014.434,30.273,20.508,27.344,43.945,-89.355
1532279014.437,35.645,19.043,30.273,53.711,38.086
1532279014.441,30.273,20.508,27.832,49.805,135.254
1532279014.445,23.926,23.926,25.391,42.480,28.320
1532279014.449,28.809,26.855,24.414,43.457,-94.727
1532279014.453,30.273,27.344,23.926,46.387,-8.789
1532279014.457,29.297,26.855,24.902,49.805,130.371
1532279014.461,30.273,26.855,24.414,44.922,80.078
1532279014.465,26.367,27.832,23.926,41.504,-62.500
1532279014.469,25.391,26.855,24.902,43.457,-67.871
1532279014.473,23.438,27.344,25.391,41.504,93.262
1532279014.477,17.578,26.855,26.855,44.922,133.789
1532279014.480,18.555,23.926,29.297,44.922,-20.996
1532279014.484,21.484,22.949,29.785,40.039,-74.219
1532279014.488,21.484,23.438,27.832,42.969,52.734
1532279014.492,19.043,26.367,27.344,43.945,116.211
1532279014.496,17.090,27.832,27.832,42.969,20.996
1532279014.500,25.391,29.785,28.320,48.340,-67.871
1532279014.504,30.762,28.809,30.762,57.129,0.488
1532279014.508,25.879,26.855,30.762,54.199,113.770
1532279014.512,23.438,28.809,29.785,41.992,32.227
1532279014.516,24.902,29.785,28.809,38.574,-102.051
1532279014.520,33.691,27.344,28.320,44.922,-36.133
1532279014.523,27.344,26.367,28.320,47.363,103.516
1532279014.527,16.602,28.320,26.367,41.992,67.383
1532279014.531,24.414,30.273,26.855,42.969,-73.242
1532279014.535,27.832,28.809,28.809,49.805,-60.547
1532279014.539,28.320,26.367,28.809,51.758,89.844
1532279014.543,27.344,26.855,31.250,53.223,132.812
1532279014.547,25.391,27.832,33.691,52.734,-30.273
1532279014.551,27.832,27.832,33.691,48.828,-127.441
1532279014.555,27.344,26.367,32.715,45.410,6.836
1532279014.559,27.344,23.926,32.227,47.363,106.445
1532279014.562,28.320,23.438,30.762,43.457,28.320
1532279014.566,22.949,23.438,29.785,42.969,-63.477
1532279014.570,21.973,25.879,30.273,46.875,9.766
1532279014.574,26.855,28.809,26.855,47.852,133.789
1532279014.578,28.320,27.832,29.785,48.828,81.055
1532279014.582,26.855,24.902,31.738,45.898,-49.805
1532279014.586,22.949,22.949,29.785,50.781,-30.273
1532279014.590,24.414,23.926,30.273,58.594,107.910
1532279014.594,24.414,24.902,32.227,51.270,111.328
1532279014.598,26.367,28.320,31.738,48.828,-46.387
1532279014.602,36.133,31.250,31.250,56.641,-85.938
1532279014.605,34.668,28.809,31.738,57.617,89.355
1532279014.609,25.391,31.250,29.297,50.293,139.160
1532279014.613,21.484,31.738,28.320,38.086,-40.527
1532279014.617,24.902,26.367,30.273,42.480,-92.773
1532279014.621,27.344,27.832,30.762,53.711,40.039
1532279014.625,25.879,29.785,29.785,51.758,135.742
1532279014.629,22.949,28.320,28.809,44.434,44.922
1532279014.633,22.949,27.832,30.273,46.387,-83.496
1532279014.637,21.973,28.320,29.297,47.363,13.184
1532279014.641,25.879,29.297,27.832,46.875,122.559
1532279014.644,29.297,29.297,26.855,48.828,53.223
1532279014.648,22.461,27.832,25.391,42.480,-59.570
1532279014.652,20.996,25.391,28.320,42.480,-38.086
1532279014.656,19.531,22.949,29.785,44.922,100.586
1532279014.660,18.066,21.484,27.344,42.480,102.051
1532279014.664,22.949,21.973,26.367,44.434,-30.762
1532279014.668,25.391,24.414,26.855,49.316,-58.594
1532279014.672,24.414,23.926,28.320,51.270,52.246
1532279014.676,19.043,20.508,29.297,46.387,142.090
1532279014.680,19.043,19.043,28.809,41.016,47.363
1532279014.684,26.855,19.043,27.344,45.898,-56.641
1532279014.687,29.297,20.508,27.832,55.176,33.691
1532279014.691,22.949,20.996,30.273,44.922,128.418
1532279014.695,25.391,20.996,31.250,41.504,45.898
1532279014.699,33.691,22.461,32.227,54.688,-62.988
1532279014.703,30.762,22.949,32.227,51.758,1.465
1532279014.707,28.809,21.973,27.832,47.852,129.395
1532279014.711,29.785,21.484,27.832,45.410,74.707
1532279014.715,31.738,21.484,30.273,39.551,-81.055
1532279014.719,32.715,20.996,28.809,41.992,-30.273
1532279014.723,31.250,20.508,26.367,44.922,132.812
1532279014.727,30.762,22.461,23.926,45.410,121.094
1532279014.730,29.297,25.391,21.484,40.527,-20.996
1532279014.734,26.367,24.414,23.926,39.551,-58.594
1532279014.738,24.902,21.973,23.438,47.363,61.523
1532279014.742,26.855,20.508,22.949,48.828,110.352
1532279014.746,28.320,19.043,24.414,50.293,28.320
1532279014.750,23.926,20.508,23.926,44.434,-75.684
1532279014.754,23.438,20.508,24.902,43.457,-12.695
1532279014.758,25.879,18.555,25.879,49.805,148.926
1532279014.762,19.531,17.090,24.414,46.387,66.406
1532279014.766,14.648,17.090,25.391,41.992,-82.031
1532279014.769,15.625,16.113,26.855,42.969,-14.160
1532279014.773,20.508,16.602,27.344,49.316,119.141
1532279014.777,23.926,19.531,27.344,54.199,120.605
1532279014.781,25.391,18.555,27.344,50.781,-44.922
1532279014.785,30.762,20.508,29.297,54.199,-61.523
1532279014.789,40.039,24.414,29.297,56.641,76.172
1532279014.793,38.574,23.926,27.344,47.363,74.707
1532279014.797,30.762,20.020,27.344,46.387,-23.926
1532279014.801,26.367,18.555,27.832,53.223,-56.152
1532279014.805,20.996,20.020,27.832,51.758,70.801
1532279014.809,23.926,20.020,27.344,50.293,151.855
1532279014.812,27.344,21.484,26.367,50.293,25.879
1532279014.816,24.902,22.949,24.414,43.945,-84.961
1532279014.820,22.461,21.973,25.879,44.922,5.859
1532279014.824,23.438,21.973,27.344,46.387,138.672
1532279014.828,28.809,21.484,26.367,44.922,72.754
1532279014.832,26.367,20.996,28.320,43.457,-102.051
1532279014.836,22.461,19.531,28.809,46.875,-62.988
1532279014.840,24.414,17.090,27.832,56.152,122.559
1532279014.844,22.949,20.020,28.320,58.105,121.582
1532279014.848,20.508,22.461,28.320,54.688,-46.387
1532279014.852,20.996,22.461,29.297,54.199,-81.543
1532279014.855,15.137,20.020,25.879,54.199,71.777
1532279014.859,15.625,19.043,23.926,52.734,140.625
1532279014.863,19.043,20.508,27.344,47.852,17.578
1532279014.867,19.531,22.461,28.320,45.410,-69.824
1532279014.871,22.949,21.973,25.879,50.781,20.020
1532279014.875,26.367,21.973,24.902,52.734,125.977
1532279014.879,27.344,22.949,28.320,54.199,45.410
1532279014.883,30.762,22.461,27.344,52.246,-74.219
1532279014.887,33.203,21.484,23.926,51.758,14.648
1532279014.891,30.273,21.973,22.461,47.363,121.094
1532279014.894,24.902,24.414,25.391,38.086,51.758
1532279014.898,22.949,24.414,26.855,37.598,-62.500
1532279014.902,23.438,21.973,23.926,38.086,-50.293
1532279014.906,24.902,21.484,21.484,38.574,119.629
1532279014.910,29.297,25.879,21.973,38.086,115.723
1532279014.914,32.715,26.855,23.926,35.156,-42.480
1532279014.918,40.527,26.367,24.414,36.621,-49.805
1532279014.922,53.711,25.879,24.902,43.457,68.848
1532279014.926,60.547,26.855,22.949,50.781,110.840
1532279014.930,57.129,28.320,22.949,49.805,-18.066
1532279014.934,43.457,24.414,25.391,48.828,-101.074
1532279014.937,33.691,22.461,27.344,53.711,29.297
1532279014.941,26.855,21.484,27.832,59.570,137.207
1532279014.945,10.254,20.508,26.855,57.617,48.828
1532279014.949,4.395,21.973,29.297,51.270,-75.195
1532279014.953,9.766,21.973,31.738,50.293,-5.859
1532279014.957,14.160,26.367,32.227,55.176,104.492
1532279014.961,22.949,26.855,33.691,56.152,49.316
1532279014.965,25.391,22.949,30.273,51.270,-47.852
1532279014.969,24.902,25.391,28.809,50.781,-70.312
1532279014.973,28.809,24.902,29.785,51.270,53.711
1532279014.976,35.156,22.949,28.809,48.340,113.770
1532279014.980,36.133,24.414,28.320,47.363,-14.160
1532279014.984,33.203,23.926,25.391,47.852,-68.359
1532279014.988,31.250,21.484,25.879,45.410,39.551
1532279014.992,30.762,20.996,25.391,39.551,131.836
1532279014.996,36.621,21.484,24.414,45.410,23.438
1532279015.000,33.203,20.508,23.926,49.805,-62.988
1532279015.004,24.414,20.020,25.879,45.898,39.551
1532279015.008,24.902,23.438,28.809,46.875,117.676
1532279015.012,29.297,23.926,26.855,48.828,41.016
1532279015.016,27.832,22.461,25.391,53.223,-75.195
1532279015.019,24.902,20.020,27.832,53.711,-23.926
1532279015.023,21.484,20.020,28.320,48.828,104.004
1532279015.027,21.973,20.996,29.297,50.293,83.496
1532279015.031,27.344,21.484,33.203,42.480,-79.102
1532279015.035,23.438,19.043,30.273,37.598,-76.660
1532279015.039,21.484,18.555,26.367,42.480,116.211
1532279015.043,25.391,20.508,26.367,41.504,125.977
1532279015.047,23.926,19.531,23.926,39.551,-20.508
1532279015.051,23.926,19.043,22.461,39.062,-83.008
1532279015.055,29.297,20.508,23.438,41.992,31.738
1532279015.059,33.203,25.391,21.484,41.504,136.230
1532279015.062,24.902,24.414,22.949,35.156,32.715
1532279015.066,21.484,20.996,22.949,30.762,-71.777
1532279015.070,27.344,20.996,20.996,32.715,9.277
1532279015.074,26.367,21.484,23.438,34.668,133.789
1532279015.078,24.902,20.996,24.414,34.668,72.754
1532279015.082,23.926,21.484,24.414,34.180,-68.848
1532279015.086,20.996,22.949,23.926,39.551,-27.832
1532279015.090,24.902,22.461,22.461,38.086,107.910
1532279015.094,30.762,23.438,22.461,33.203,83.496
1532279015.098,30.273,24.414,23.438,36.133,-26.367
1532279015.101,29.785,24.902,23.926,38.086,-57.129
1532279015.105,26.855,24.414,24.414,38.574,73.242
1532279015.109,23.438,26.367,25.879,36.133,126.465
1532279015.113,20.996,27.344,25.879,31.738,-8.789
1532279015.117,24.414,27.832,21.484,36.133,-87.891
1532279015.121,28.320,27.344,20.508,42.480,29.297
1532279015.125,24.902,26.367,23.438,43.945,136.230
1532279015.129,23.438,24.902,28.809,40.527,37.109
1532279015.133,22.461,22.949,28.320,38.574,-53.223
1532279015.137,23.926,24.902,24.414,42.480,11.719
1532279015.141,23.926,30.273,24.414,40.527,125.000
1532279015.144,22.949,30.762,22.949,37.109,82.031
1532279015.148,20.996,28.809,24.902,34.180,-48.828
1532279015.152,15.625,26.855,28.809,27.832,-37.598
1532279015.156,18.066,24.414,26.367,32.227,105.469
1532279015.160,23.926,25.879,22.949,36.621,119.141
1532279015.164,25.391,27.832,24.902,32.227,-25.879
1532279015.168,25.879,25.879,27.344,36.621,-41.504
1532279015.172,28.320,23.926,27.832,41.504,71.289
1532279015.176,35.645,25.391,25.879,45.898,119.141
1532279015.180,37.598,27.344,22.461,47.852,16.602
1532279015.184,31.738,27.344,24.414,40.039,-61.523
1532279015.187,22.949,25.879,28.809,40.527,18.066
1532279015.191,25.391,26.367,30.762,47.363,106.445
1532279015.195,23.438,26.367,28.809,39.062,37.598
1532279015.199,16.602,25.879,26.855,32.227,-74.707
1532279015.203,22.949,28.320,27.832,37.598,-15.137
1532279015.207,27.344,25.879,27.832,40.527,115.723
1532279015.211,21.484,24.902,31.738,35.645,81.055
1532279015.215,20.020,28.320,31.738,33.203,-75.195
1532279015.219,25.391,27.832,28.809,39.551,-41.016
1532279015.223,24.902,27.832,28.809,41.504,98.145
1532279015.226,21.484,29.785,27.832,39.062,114.258
1532279015.230,16.113,27.344,27.832,36.133,-11.719
1532279015.234,14.648,29.297,26.367,35.156,-74.219
1532279015.238,16.602,30.762,24.902,38.086,62.988
1532279015.242,19.043,31.250,26.367,40.039,132.812
1532279015.246,19.531,31.250,24.414,35.645,14.648
1532279015.250,20.020,31.250,23.926,32.715,-65.430
1532279015.254,20.508,31.250,25.391,39.551,4.883
1532279015.258,21.973,29.297,26.855,47.363,96.680
1532279015.262,26.855,29.785,25.879,42.480,29.297
1532279015.266,23.438,27.832,21.484,37.598,-60.547
1532279015.269,20.020,27.344,20.508,36.621,-18.066
1532279015.273,16.113,27.832,20.996,33.203,91.797
1532279015.277,12.695,28.809,20.020,35.645,100.098
1532279015.281,21.973,27.344,21.973,42.480,-56.641
1532279015.285,26.855,25.879,23.438,42.480,-66.406
1532279015.289,25.391,28.809,21.973,43.945,79.102
1532279015.293,20.996,28.320,19.531,39.551,100.586
1532279015.297,16.113,25.879,20.996,36.133,-12.207
1532279015.301,19.531,25.879,21.973,41.504,-70.312
1532279015.305,24.414,25.391,21.484,43.945,47.852
1532279015.309,23.926,26.855,22.949,44.434,108.398
1532279015.312,22.461,27.832,23.926,34.180,-40.039
1532279015.316,22.949,28.320,21.973,33.203,-114.746
1532279015.320,21.973,28.320,20.508,44.434,21.973
1532279015.324,24.414,28.809,25.391,46.387,138.672
1532279015.328,27.344,28.809,28.320,43.457,68.848
1532279015.332,20.020,25.879,25.391,39.551,-60.059
1532279015.336,18.555,26.367,23.438,40.039,-29.297
1532279015.340,21.973,26.855,21.973,41.504,109.375
1532279015.344,19.531,24.414,23.438,41.504,96.680
1532279015.348,20.508,25.391,24.902,41.992,-59.570
1532279015.351,21.484,28.809,23.438,37.109,-80.078
1532279015.355,22.949,29.297,23.438,37.109,50.293
1532279015.359,22.461,26.367,22.461,37.598,118.652
1532279015.363,24.902,29.297,25.391,36.621,3.906
1532279015.367,26.367,30.762,25.879,39.551,-77.148
1532279015.371,23.438,27.832,20.020,34.180,0.977
1532279015.375,19.043,26.367,20.508,31.738,99.121
1532279015.379,15.137,26.367,23.926,28.809,45.898
1532279015.383,17.578,25.879,23.926,26.855,-66.895
1532279015.387,18.066,25.391,22.461,31.250,2.930
1532279015.391,16.602,24.902,21.484,29.785,112.305
1532279015.394,15.625,23.438,23.926,25.391,49.316
1532279015.398,17.090,23.438,22.461,30.762,-54.688
1532279015.402,20.508,23.926,18.066,36.133,-27.832
1532279015.406,20.508,24.902,19.531,32.715,120.605
1532279015.410,18.066,24.902,18.066,27.832,115.723
1532279015.414,19.531,23.926,18.066,25.391,-43.457
1532279015.418,20.996,24.902,18.066,27.832,-49.805
1532279015.422,17.578,22.949,17.578,29.297,88.867
1532279015.426,20.508,19.531,21.484,31.738,158.203
1532279015.430,18.066,21.973,25.391,28.809,34.180
1532279015.433,12.695,24.414,24.902,26.855,-79.102
1532279015.437,16.602,22.949,21.973,36.133,18.066
1532279015.441,17.090,24.414,20.996,36.621,127.930
1532279015.445,16.602,23.926,21.484,36.133,41.504
1532279015.449,20.996,23.926,22.461,36.621,-83.496
1532279015.453,20.020,25.391,23.926,34.180,-34.180
1532279015.457,16.602,23.926,22.461,37.109,95.703
1532279015.461,17.578,22.949,24.902,37.598,83.496
1532279015.465,20.996,22.949,24.902,34.180,-62.988
1532279015.469,20.020,21.484,20.996,35.156,-73.242
1532279015.473,22.461,23.926,19.043,38.086,89.355
1532279015.476,21.484,22.461,21.973,37.109,127.441
1532279015.480,17.578,20.020,22.461,34.668,-20.996
1532279015.484,20.020,21.973,21.973,36.621,-98.633
1532279015.488,19.531,22.461,20.996,37.598,38.086
1532279015.492,16.602,23.926,20.020,31.738,102.539
1532279015.496,16.113,25.879,21.484,27.832,-3.906
1532279015.500,22.949,24.902,18.555,35.645,-48.828
1532279015.504,23.926,24.414,17.578,41.016,55.176
1532279015.508,21.973,24.902,17.578,41.504,144.531
1532279015.512,23.926,23.926,16.602,41.016,46.387
1532279015.516,22.461,25.391,18.066,45.410,-91.309
1532279015.519,23.438,27.832,15.625,50.293,-13.184
1532279015.523,23.926,28.809,12.207,51.270,141.113
1532279015.527,24.414,27.832,12.695,50.293,103.516
1532279015.531,26.367,29.785,14.648,47.852,-59.082
1532279015.535,25.879,29.297,12.207,46.387,-67.383
1532279015.539,27.832,27.344,9.766,50.293,75.195
1532279015.543,27.344,26.855,9.277,48.828,106.445
1532279015.547,26.855,27.832,6.836,45.898,-8.301
1532279015.551,32.227,31.250,5.859,44.922,-90.820
1532279015.555,35.156,32.227,3.906,45.898,13.672
1532279015.558,37.109,32.227,2.930,52.246,137.207
1532279015.562,36.621,32.227,3.906,52.246,48.828
1532279015.566,24.902,32.227,2.930,48.828,-60.059
1532279015.570,14.160,29.785,3.418,43.945,21.484
1532279015.574,10.254,29.785,3.906,39.062,135.742
1532279015.578,15.137,30.273,0.000,35.156,58.105
1532279015.582,20.996,28.320,0.488,34.668,-65.918
1532279015.586,23.926,27.344,3.418,39.551,-12.207
1532279015.590,29.785,30.762,1.953,36.621,86.914
1532279015.594,30.273,30.762,3.906,35.645,58.594
1532279015.598,32.715,28.320,7.812,46.387,-47.363
1532279015.601,38.086,27.832,7.324,50.293,-62.012
1532279015.605,38.086,27.344,3.418,51.270,76.660
1532279015.609,32.715,26.855,2.441,46.875,110.840
1532279015.613,31.738,28.809,2.930,41.504,-11.719
1532279015.617,32.227,29.297,4.883,44.434,-81.055
1532279015.621,26.855,26.367,6.836,46.875,41.016
1532279015.625,25.391,23.438,7.324,44.922,140.625
1532279015.629,23.438,22.461,6.348,39.551,20.020
1532279015.633,20.508,25.391,5.859,31.738,-94.727
1532279015.637,17.578,25.879,4.395,31.250,-17.578
1532279015.641,18.555,26.367,5.371,34.668,140.137
1532279015.644,16.113,26.367,5.371,36.133,114.258
1532279015.648,15.625,25.879,1.465,31.738,-45.898
1532279015.652,21.973,24.902,1.465,33.203,-38.086
1532279015.656,23.926,23.438,2.930,38.086,108.887
1532279015.660,24.902,26.367,2.930,37.598,104.004
1532279015.664,25.879,27.344,3.418,38.086,-31.250
1532279015.668,30.273,27.832,4.395,42.480,-46.875
1532279015.672,35.156,27.832,5.371,43.945,30.762
1532279015.676,35.645,28.809,4.395,43.457,97.656
1532279015.680,31.250,27.832,4.883,41.504,-0.488
1532279015.683,29.297,26.855,5.371,38.086,-76.660
