timestamps,TP9,AF7,AF8,TP10,Right AUX
1532384993.719,27.832,31.738,73.730,15.137,44.434
1532384993.723,31.738,33.691,70.801,13.672,20.996
1532384993.727,27.832,40.527,65.430,9.277,47.852
1532384993.730,30.273,39.062,67.871,9.766,52.734
1532384993.734,33.203,42.480,73.730,11.719,14.648
1532384993.738,34.180,43.457,68.848,10.254,17.578
1532384993.742,31.250,38.086,71.289,11.230,46.875
1532384993.746,17.578,38.086,84.473,8.789,45.898
1532384993.750,13.672,36.133,84.473,-0.488,29.785
1532384993.754,21.973,36.621,80.078,0.000,-4.395
1532384993.758,23.438,40.039,71.289,3.418,6.348
1532384993.762,26.367,32.227,67.871,10.254,52.734
1532384993.766,33.691,36.621,81.055,21.484,56.641
1532384993.770,28.320,43.457,87.402,18.555,10.742
1532384993.773,15.625,31.738,73.242,6.836,11.719
1532384993.777,14.648,33.691,68.848,7.324,54.688
1532384993.781,20.996,40.527,71.777,11.719,37.598
1532384993.785,14.160,38.574,75.195,3.906,2.930
1532384993.789,8.789,36.133,81.055,2.441,22.461
1532384993.793,19.043,36.621,83.496,12.695,37.109
1532384993.797,20.996,38.086,80.078,11.719,3.418
1532384993.801,20.020,38.086,71.289,9.277,-1.953
1532384993.805,25.391,40.039,82.031,15.137,15.625
1532384993.809,33.203,46.875,75.684,24.414,19.531
1532384993.813,31.738,38.086,69.336,22.461,3.906
1532384993.816,21.973,36.133,81.055,13.184,-9.766
1532384993.820,21.973,45.410,74.219,9.277,1.465
1532384993.824,26.367,46.875,66.895,8.789,21.484
1532384993.828,24.414,40.527,71.289,12.207,61.035
1532384993.832,20.508,33.691,77.637,15.137,36.621
1532384993.836,22.461,40.039,75.195,10.254,-4.395
1532384993.840,22.461,49.316,62.012,12.695,-0.977
1532384993.844,19.531,43.945,54.688,12.207,17.090
1532384993.848,21.973,41.504,72.754,9.766,31.738
1532384993.852,24.414,45.898,80.566,12.695,-1.465
1532384993.855,34.180,57.129,76.172,20.508,-3.906
1532384993.859,32.715,58.105,76.172,19.531,13.184
1532384993.863,24.414,41.016,62.988,15.625,22.949
1532384993.867,31.738,37.109,59.082,16.113,27.832
1532384993.871,30.762,44.922,74.707,12.695,8.789
1532384993.875,24.902,46.387,76.172,10.742,11.230
1532384993.879,26.855,43.945,63.477,12.695,31.250
1532384993.883,37.109,41.992,64.941,14.648,17.578
1532384993.887,34.668,36.133,67.383,18.555,0.977
1532384993.891,24.902,38.086,73.242,20.996,31.250
1532384993.895,28.320,46.387,80.078,19.531,43.457
1532384993.898,29.297,47.852,75.684,25.879,13.672
1532384993.902,23.926,45.410,79.590,23.926,24.902
1532384993.906,32.227,48.828,86.426,24.902,60.059
1532384993.910,38.574,49.805,88.867,32.715,51.758
1532384993.914,28.809,36.621,75.684,20.996,23.438
1532384993.918,22.949,33.691,65.430,16.113,20.020
1532384993.922,24.902,38.086,65.430,15.625,35.645
1532384993.926,23.926,36.621,74.219,11.719,49.805
1532384993.930,26.855,41.504,82.031,18.066,37.109
1532384993.934,32.227,39.551,72.754,21.973,13.672
1532384993.938,26.367,36.133,71.777,16.113,29.785
1532384993.941,26.855,37.598,83.496,16.113,65.430
1532384993.945,26.855,37.109,80.078,18.066,45.898
1532384993.949,32.227,39.551,79.590,26.855,8.301
1532384993.953,41.504,39.062,80.078,27.832,-2.441
1532384993.957,31.250,37.598,77.148,16.602,-14.648
1532384993.961,21.973,41.504,73.242,17.090,5.371
1532384993.965,20.996,35.156,71.777,20.020,32.227
1532384993.969,20.996,30.273,77.148,16.113,5.371
1532384993.973,21.484,39.551,75.195,10.742,7.812
1532384993.977,24.902,45.898,68.359,15.625,29.785
1532384993.980,31.250,39.062,65.918,22.949,30.762
1532384993.984,31.738,35.156,73.730,27.832,30.762
1532384993.988,24.902,38.574,83.496,27.344,39.062
1532384993.992,23.438,37.109,83.496,22.461,36.621
1532384993.996,19.043,30.273,71.289,13.672,2.441
1532384994.000,19.043,32.227,74.707,18.555,-0.488
1532384994.004,23.438,35.156,86.426,21.973,37.598
1532384994.008,18.555,26.367,76.172,9.277,37.109
1532384994.012,21.484,24.902,66.406,10.254,17.090
1532384994.016,18.555,27.344,67.871,15.625,15.625
1532384994.020,22.461,34.668,71.777,14.160,27.832
1532384994.023,24.414,42.969,74.707,14.160,31.250
1532384994.027,23.926,36.621,72.266,16.602,36.621
1532384994.031,22.949,30.762,70.312,13.184,48.828
1532384994.035,18.066,33.203,68.848,8.789,32.227
1532384994.039,24.902,29.297,59.082,14.648,26.367
1532384994.043,23.926,29.297,61.035,17.090,57.129
1532384994.047,18.066,32.715,67.871,8.789,56.152
1532384994.051,29.297,37.109,73.242,12.695,40.527
1532384994.055,29.297,36.621,77.148,14.160,29.785
1532384994.059,20.020,27.344,65.918,7.812,36.133
1532384994.062,22.949,23.926,64.941,11.230,38.574
1532384994.066,20.996,22.461,68.848,9.766,32.227
1532384994.070,20.996,18.555,65.430,14.160,18.555
1532384994.074,21.973,27.344,59.082,16.113,22.949
1532384994.078,15.625,33.203,59.570,7.324,38.574
1532384994.082,8.789,30.762,63.965,4.883,26.855
1532384994.086,10.254,35.156,51.758,4.883,21.973
1532384994.090,12.695,31.250,44.922,8.789,39.551
1532384994.094,17.578,29.297,67.383,5.371,35.645
1532384994.098,19.531,23.926,74.707,-2.930,15.625
1532384994.102,27.832,26.367,73.730,1.465,-23.438
1532384994.105,31.738,37.598,70.312,2.930,21.973
1532384994.109,23.926,36.621,59.570,5.371,82.031
1532384994.113,28.809,31.738,53.711,6.348,36.133
1532384994.117,30.273,22.949,49.316,2.930,17.090
1532384994.121,19.531,24.414,44.434,-0.977,21.973
1532384994.125,16.602,30.762,46.387,-4.395,20.508
1532384994.129,22.949,34.180,48.340,-3.418,42.480
1532384994.133,18.555,34.180,54.688,0.977,29.297
1532384994.137,13.672,36.133,63.965,4.883,-3.906
1532384994.141,18.555,40.527,66.895,9.277,13.672
1532384994.145,23.438,34.180,50.781,7.812,36.621
1532384994.148,21.973,31.738,49.805,4.883,25.879
1532384994.152,18.066,33.691,59.570,10.742,-2.930
1532384994.156,12.207,25.879,50.293,2.930,0.000
1532384994.160,12.695,23.926,51.758,0.977,25.879
1532384994.164,19.531,20.996,57.617,3.906,35.645
1532384994.168,21.973,27.344,57.129,11.719,19.043
1532384994.172,29.297,34.180,62.500,16.602,14.648
1532384994.176,30.762,29.297,67.871,14.160,26.855
1532384994.180,28.320,38.086,64.941,15.137,48.828
1532384994.184,26.855,40.527,59.570,13.672,49.316
1532384994.187,18.066,32.227,54.199,5.371,33.203
1532384994.191,23.926,41.016,68.359,11.230,9.766
1532384994.195,28.809,40.527,70.312,9.277,-7.324
1532384994.199,10.742,31.250,57.617,-7.324,-2.930
1532384994.203,7.812,28.809,56.152,-0.977,-9.766
1532384994.207,13.672,35.645,54.688,7.324,12.695
1532384994.211,16.113,36.621,46.875,11.719,28.809
1532384994.215,20.996,31.250,46.875,14.160,6.348
1532384994.219,18.555,30.273,55.664,13.184,6.348
1532384994.223,11.230,32.227,65.430,11.230,9.766
1532384994.227,12.207,41.504,72.266,8.301,49.805
1532384994.230,18.555,40.527,62.012,7.324,69.336
1532384994.234,19.043,31.250,68.848,12.207,3.906
1532384994.238,20.996,30.762,82.520,20.996,-2.441
1532384994.242,20.020,30.762,73.242,20.020,35.156
1532384994.246,17.090,37.598,60.547,11.719,32.227
1532384994.250,12.695,45.410,58.594,10.742,39.062
1532384994.254,17.578,41.992,55.176,10.254,24.902
1532384994.258,23.926,41.016,48.340,7.324,1.465
1532384994.262,26.855,41.992,59.082,7.324,14.648
1532384994.266,28.809,39.062,66.895,4.395,17.090
1532384994.269,37.109,38.574,60.059,4.883,20.996
1532384994.273,47.363,39.551,62.988,3.418,25.879
1532384994.277,44.434,37.598,61.035,7.812,29.785
1532384994.281,38.086,32.227,54.688,13.672,40.527
1532384994.285,37.109,31.250,72.266,21.973,57.129
1532384994.289,38.574,37.598,66.895,29.785,68.848
1532384994.293,23.438,39.551,51.270,16.602,48.828
1532384994.297,11.719,36.133,59.082,14.160,40.039
1532384994.301,16.602,36.621,62.012,21.484,17.578
1532384994.305,7.324,36.133,59.570,8.789,2.930
1532384994.309,7.324,37.598,55.664,12.207,51.758
1532384994.312,16.602,40.039,57.617,16.602,56.641
1532384994.316,18.066,37.598,68.848,5.371,8.301
1532384994.320,13.184,28.809,59.570,5.371,-1.953
1532384994.324,15.137,24.414,48.340,10.254,32.227
1532384994.328,15.137,29.785,62.012,9.766,47.852
1532384994.332,15.625,34.180,68.359,4.883,25.391
1532384994.336,19.043,40.039,64.941,8.301,13.672
1532384994.340,11.230,35.645,54.199,0.488,27.832
1532384994.344,6.836,29.297,53.711,7.324,38.574
1532384994.348,8.301,28.809,63.477,17.090,40.039
1532384994.352,13.672,32.715,61.035,17.090,9.766
1532384994.355,13.672,37.598,41.504,16.113,-4.883
1532384994.359,17.090,33.203,37.598,10.254,49.316
1532384994.363,16.113,24.414,48.828,10.742,38.574
1532384994.367,28.809,25.391,58.594,9.766,6.836
1532384994.371,24.902,28.809,64.941,12.207,9.766
1532384994.375,2.930,26.855,59.082,12.207,30.762
1532384994.379,12.207,33.203,60.547,17.090,39.062
1532384994.383,18.555,37.598,69.336,21.973,1.465
1532384994.387,20.508,41.504,60.547,20.996,-21.973
1532384994.391,27.344,42.480,58.105,26.367,-5.859
1532384994.394,39.062,42.969,73.730,30.762,9.766
1532384994.398,35.156,39.551,71.289,19.043,29.785
1532384994.402,23.438,33.203,58.594,9.766,18.066
1532384994.406,17.578,34.180,53.223,6.836,14.160
1532384994.410,15.137,32.227,54.688,5.371,29.297
1532384994.414,20.508,33.203,56.641,6.836,9.766
1532384994.418,25.879,32.715,53.223,12.207,-0.488
1532384994.422,20.020,25.879,63.965,14.648,-7.812
1532384994.426,31.250,26.367,74.219,14.160,17.090
1532384994.430,32.715,30.273,62.012,17.578,20.020
1532384994.434,15.137,39.062,63.477,8.789,-15.625
1532384994.437,15.625,40.527,68.848,0.000,-1.465
1532384994.441,22.949,41.016,66.895,10.254,29.297
1532384994.445,16.602,42.969,62.012,6.348,22.461
1532384994.449,5.371,36.621,49.316,-4.883,29.785
1532384994.453,20.020,29.785,46.387,1.465,21.973
1532384994.457,28.809,29.297,46.387,5.371,0.000
1532384994.461,26.855,29.785,48.340,10.742,31.738
1532384994.465,28.320,26.855,58.105,13.672,47.852
1532384994.469,35.645,33.203,61.035,9.277,32.227
1532384994.473,35.645,41.504,66.406,9.766,16.602
1532384994.476,27.344,41.992,68.359,8.789,15.625
1532384994.480,25.391,39.062,56.641,9.766,45.410
1532384994.484,29.785,32.715,47.852,5.859,51.758
1532384994.488,40.039,35.156,56.152,11.719,37.109
1532384994.492,43.945,37.109,62.500,14.160,17.578
1532384994.496,40.039,35.156,53.711,5.859,-21.973
1532384994.500,35.645,42.480,41.504,8.301,-9.277
1532384994.504,34.180,37.598,58.105,11.230,18.066
1532384994.508,32.715,28.320,70.801,12.695,15.137
1532384994.512,29.297,31.738,56.152,12.207,22.949
1532384994.516,26.855,40.527,58.105,8.789,30.762
1532384994.519,21.973,40.039,60.547,0.488,14.648
1532384994.523,21.973,27.344,51.758,2.441,19.531
1532384994.527,25.879,27.344,55.176,7.812,39.062
1532384994.531,30.273,39.551,66.406,15.137,60.059
1532384994.535,30.762,41.992,60.547,19.043,45.410
1532384994.539,22.461,36.133,50.781,10.742,34.180
1532384994.543,19.043,35.645,61.523,15.625,34.180
1532384994.547,25.879,39.062,62.500,24.414,41.992
1532384994.551,22.949,41.016,60.547,23.926,27.832
1532384994.555,18.066,38.086,62.988,14.648,-7.812
1532384994.559,17.090,30.273,59.570,7.324,-17.090
1532384994.562,14.648,29.297,57.129,13.184,24.414
1532384994.566,13.672,32.715,49.316,19.531,40.039
1532384994.570,11.719,33.203,40.039,18.066,11.230
1532384994.574,12.695,26.855,49.805,14.160,44.922
1532384994.578,17.090,28.809,52.734,14.648,51.270
1532384994.582,25.879,39.551,62.500,20.996,21.484
1532384994.586,28.809,34.668,81.055,21.973,25.391
1532384994.590,25.391,26.855,65.918,18.555,51.270
1532384994.594,23.926,30.762,54.688,11.719,52.246
1532384994.598,19.043,26.855,53.223,1.953,27.344
1532384994.601,18.066,23.438,47.852,5.859,31.738
1532384994.605,18.066,27.832,45.410,9.766,39.551
1532384994.609,15.625,30.762,46.387,8.789,55.664
1532384994.613,21.484,30.762,47.852,13.672,30.273
1532384994.617,25.391,30.762,47.852,13.184,-5.859
1532384994.621,20.996,32.227,47.363,16.602,29.297
1532384994.625,20.996,35.645,52.734,23.438,71.289
1532384994.629,20.020,42.480,56.641,20.996,55.664
1532384994.633,27.832,47.363,66.895,20.020,5.859
1532384994.637,26.367,38.574,65.918,14.648,-18.066
1532384994.641,12.695,31.250,45.410,9.277,23.926
1532384994.644,18.066,35.645,41.992,17.090,57.617
1532384994.648,19.043,36.621,54.688,17.578,44.922
1532384994.652,19.531,34.668,60.059,20.020,18.555
1532384994.656,24.414,36.621,59.082,22.461,19.531
1532384994.660,26.367,36.133,66.406,18.555,31.738
1532384994.664,25.391,35.645,66.895,18.555,51.270
1532384994.668,23.926,37.598,57.617,18.555,31.738
1532384994.672,25.879,38.574,59.082,16.602,-14.648
1532384994.676,26.855,45.410,49.316,15.625,17.090
1532384994.680,24.902,47.363,45.898,18.555,54.199
1532384994.684,25.879,46.875,61.523,23.926,26.855
1532384994.687,25.391,43.945,62.012,21.973,12.207
1532384994.691,20.020,34.180,53.711,17.578,30.273
1532384994.695,20.020,34.180,53.223,18.555,7.324
1532384994.699,22.949,40.039,58.105,19.043,-26.367
1532384994.703,28.320,34.180,55.176,20.996,14.160
1532384994.707,26.855,31.250,50.293,16.113,54.688
1532384994.711,20.996,31.738,57.129,15.625,42.480
1532384994.715,22.949,27.832,50.781,16.113,25.391
1532384994.719,20.508,36.621,35.156,10.742,8.301
1532384994.723,21.484,39.551,41.504,7.812,21.973
1532384994.726,30.273,37.109,53.223,9.766,32.715
1532384994.730,28.809,39.062,54.199,10.254,34.180
1532384994.734,27.832,47.363,64.941,10.742,33.203
1532384994.738,31.738,43.457,61.523,10.742,12.695
1532384994.742,22.461,25.879,45.898,5.371,30.273
1532384994.746,14.648,27.832,43.945,4.395,37.598
1532384994.750,19.531,30.762,32.227,7.324,16.113
1532384994.754,21.973,27.832,15.137,9.766,29.785
1532384994.758,18.555,33.691,8.301,13.184,50.293
1532384994.762,18.066,37.109,-11.719,15.625,69.336
1532384994.766,18.066,30.273,-22.461,14.160,54.199
1532384994.769,18.066,20.020,-17.578,15.137,7.324
1532384994.773,15.137,24.414,-19.043,15.137,13.184
1532384994.777,5.859,31.250,-20.996,8.789,20.996
1532384994.781,8.789,36.133,-24.414,10.254,31.738
1532384994.785,18.555,37.598,-30.762,19.043,28.320
1532384994.789,9.766,27.832,-55.664,18.555,19.043
1532384994.793,4.883,21.484,-82.520,13.672,17.578
1532384994.797,7.324,27.832,-91.797,14.160,25.879
1532384994.801,13.672,35.156,-83.008,13.184,46.875
1532384994.805,14.648,32.715,-86.426,13.184,29.785
1532384994.808,11.719,29.297,-104.004,13.184,25.879
1532384994.812,15.137,30.273,-99.121,7.812,32.715
1532384994.816,18.555,36.621,-94.238,1.953,-7.812
1532384994.820,23.438,38.086,-100.098,4.883,-7.812
1532384994.824,28.809,35.645,-98.633,16.113,36.133
1532384994.828,28.809,36.621,-110.840,14.648,56.152
1532384994.832,22.949,31.738,-123.047,3.906,56.152
1532384994.836,24.414,31.738,-111.816,1.465,21.484
1532384994.840,26.855,38.086,-94.727,9.277,5.859
1532384994.844,26.855,36.133,-86.914,13.184,34.180
1532384994.848,29.785,33.203,-87.891,14.160,47.363
1532384994.851,36.133,35.645,-83.984,13.672,28.320
1532384994.855,39.551,32.715,-76.660,12.695,19.043
1532384994.859,41.016,33.203,-77.148,12.207,40.527
1532384994.863,37.598,38.086,-83.984,10.254,56.641
1532384994.867,30.762,42.480,-79.590,19.043,21.484
1532384994.871,25.879,40.527,-62.012,21.973,-18.555
1532384994.875,16.113,32.715,-47.852,8.789,-15.137
1532384994.879,10.742,28.320,-55.176,1.953,10.254
1532384994.883,14.160,23.926,-55.664,10.742,19.043
1532384994.887,8.789,29.297,-42.969,10.742,7.324
1532384994.891,3.906,39.062,-41.504,7.324,12.207
1532384994.894,6.836,36.621,-39.062,12.207,10.742
1532384994.898,9.766,30.273,-40.039,11.719,24.902
1532384994.902,23.926,28.320,-36.621,10.254,21.484
1532384994.906,37.109,34.180,-28.320,24.902,23.926
1532384994.910,29.785,34.668,-32.715,33.691,22.461
1532384994.914,19.531,33.691,-27.832,14.160,0.488
1532384994.918,22.949,30.762,-25.879,10.742,-11.719
1532384994.922,26.855,30.273,-26.855,21.484,0.488
1532384994.926,36.621,38.574,-29.785,24.414,23.438
1532384994.930,41.504,35.156,-28.809,29.297,30.273
1532384994.933,29.297,21.484,-25.391,26.855,-20.508
1532384994.937,22.461,19.043,-27.344,22.949,-25.879
1532384994.941,25.391,26.367,-14.648,19.531,19.043
1532384994.945,30.273,34.180,-1.465,24.902,43.945
1532384994.949,32.715,39.062,-2.930,31.250,55.176
1532384994.953,31.738,35.156,-13.184,28.809,42.480
1532384994.957,25.879,26.367,-31.738,26.367,34.180
1532384994.961,22.949,24.902,-39.062,20.508,45.898
1532384994.965,26.855,31.250,-34.668,21.973,41.504
1532384994.969,26.367,31.250,-38.574,21.973,10.742
1532384994.973,27.832,24.902,-37.598,17.578,20.508
1532384994.976,31.738,25.391,-32.715,15.137,22.949
1532384994.980,28.809,31.738,-39.062,17.090,17.578
1532384994.984,21.484,29.785,-43.945,14.160,22.461
1532384994.988,18.066,26.855,-41.504,8.301,19.531
1532384994.992,19.531,27.344,-40.527,9.766,20.508
1532384994.996,28.320,32.227,-43.457,17.578,35.156
1532384995.000,36.621,36.621,-37.109,21.973,57.129
1532384995.004,26.367,29.297,-33.203,10.742,20.508
1532384995.008,23.438,31.738,-46.387,5.371,12.695
1532384995.012,32.227,34.668,-62.012,6.836,45.898
1532384995.015,32.715,22.949,-74.219,-2.441,10.254
1532384995.019,30.273,16.113,-76.660,-5.371,-7.812
1532384995.023,27.344,18.066,-71.289,5.859,13.184
1532384995.027,20.996,24.902,-71.289,9.766,54.688
1532384995.031,12.207,29.297,-69.336,8.789,61.035
1532384995.035,19.043,34.180,-64.941,14.648,19.043
1532384995.039,17.090,35.156,-62.988,17.578,40.527
1532384995.043,2.930,28.320,-71.777,11.230,59.570
1532384995.047,5.859,31.738,-84.473,15.137,27.344
1532384995.051,-0.488,25.879,-80.078,10.254,5.371
1532384995.055,-0.977,23.926,-74.707,4.883,20.020
1532384995.058,10.254,29.785,-81.543,11.719,37.109
1532384995.062,14.648,31.738,-80.566,10.742,27.832
1532384995.066,15.625,29.297,-81.543,10.742,28.809
1532384995.070,19.531,31.250,-78.125,11.230,35.156
1532384995.074,21.484,42.969,-79.590,8.301,45.898
1532384995.078,20.020,44.922,-87.402,10.254,62.500
1532384995.082,20.996,41.016,-83.984,16.602,40.039
1532384995.086,32.227,46.387,-73.730,21.973,9.766
1532384995.090,30.762,41.992,-71.777,16.602,6.836
1532384995.094,20.508,29.785,-83.008,4.395,12.695
1532384995.098,20.020,31.250,-90.332,2.441,27.832
1532384995.101,15.625,33.691,-89.355,10.742,30.273
1532384995.105,12.207,31.738,-88.379,10.742,29.297
1532384995.109,16.602,38.574,-89.355,7.812,39.062
1532384995.113,25.391,40.039,-82.520,11.230,27.832
1532384995.117,28.320,38.574,-87.402,17.578,32.715
1532384995.121,32.227,38.574,-95.215,20.020,36.133
1532384995.125,38.086,38.086,-82.031,20.508,53.223
1532384995.129,30.762,41.992,-72.266,25.391,70.801
1532384995.133,28.320,41.016,-76.172,21.973,22.949
1532384995.137,32.227,41.504,-82.031,24.414,-10.742
1532384995.140,34.668,39.062,-76.660,28.320,16.113
1532384995.144,27.344,39.062,-77.637,9.277,26.855
1532384995.148,20.020,41.992,-94.727,6.348,37.109
1532384995.152,22.461,39.551,-94.727,13.184,32.715
1532384995.156,24.902,36.133,-81.055,12.695,20.996
1532384995.160,28.320,30.273,-79.102,14.160,15.137
1532384995.164,28.809,30.273,-73.730,14.160,23.926
1532384995.168,31.738,39.062,-77.637,17.090,39.062
1532384995.172,34.668,45.410,-87.402,18.066,57.617
1532384995.176,35.645,43.945,-77.148,15.625,30.762
1532384995.180,27.832,42.480,-68.359,16.113,5.859
1532384995.183,24.414,43.457,-68.848,20.508,26.367
1532384995.187,37.109,40.039,-66.895,27.344,62.988
1532384995.191,31.738,40.039,-60.059,23.926,59.082
1532384995.195,32.227,46.875,-55.176,26.855,10.254
1532384995.199,35.645,39.062,-58.105,27.832,9.277
1532384995.203,26.367,32.227,-65.918,17.090,26.855
1532384995.207,22.949,28.809,-70.801,13.184,40.039
1532384995.211,18.555,31.738,-73.730,10.254,56.152
1532384995.215,27.832,39.062,-68.848,6.836,53.711
1532384995.219,27.344,31.250,-67.871,9.766,29.297
1532384995.223,18.555,32.227,-62.988,12.207,9.766
1532384995.226,22.461,37.598,-57.617,11.230,55.176
1532384995.230,21.484,35.645,-54.688,12.695,55.176
1532384995.234,20.996,37.109,-49.316,12.695,22.949
1532384995.238,33.691,45.898,-47.363,22.949,10.742
1532384995.242,42.969,46.875,-53.223,28.320,49.316
1532384995.246,35.156,40.039,-60.059,18.066,77.148
1532384995.250,35.156,44.922,-56.152,16.113,22.949
1532384995.254,37.109,45.410,-59.082,8.301,-2.930
1532384995.258,29.297,40.527,-62.500,8.789,27.832
1532384995.262,28.320,36.621,-58.594,15.625,42.480
1532384995.265,30.762,36.133,-52.734,18.066,35.645
1532384995.269,32.227,41.504,-51.270,22.949,59.082
1532384995.273,39.551,36.621,-57.129,22.949,48.828
1532384995.277,41.504,25.879,-50.293,20.996,37.109
1532384995.281,34.668,34.180,-35.645,20.996,43.945
1532384995.285,36.621,49.316,-35.645,24.414,0.977
1532384995.289,44.922,56.641,-35.645,34.180,-7.812
1532384995.293,37.598,47.852,-44.922,28.809,40.039
1532384995.297,35.645,36.133,-56.641,23.438,52.246
1532384995.301,33.203,32.715,-52.734,23.926,24.414
1532384995.305,28.809,35.645,-44.434,17.090,11.719
1532384995.308,36.133,43.945,-35.156,18.555,37.109
1532384995.312,27.832,42.480,-39.551,21.484,52.734
1532384995.316,19.531,38.086,-43.945,20.508,12.207
1532384995.320,24.902,34.668,-48.828,20.996,1.465
1532384995.324,24.902,31.738,-50.293,22.461,43.457
1532384995.328,21.484,33.691,-41.992,22.461,42.969
1532384995.332,22.461,44.434,-39.551,19.531,12.207
1532384995.336,28.320,50.781,-35.156,20.020,-24.414
1532384995.340,38.086,56.152,-32.227,27.832,1.953
1532384995.344,36.133,51.758,-40.527,21.973,49.316
1532384995.347,27.832,40.527,-44.434,17.090,35.156
1532384995.351,34.668,37.109,-38.574,23.926,18.555
1532384995.355,39.062,35.645,-43.945,26.367,39.062
1532384995.359,26.367,33.203,-35.645,25.879,51.758
1532384995.363,26.855,32.227,-29.785,23.438,45.898
1532384995.367,32.715,30.273,-36.133,26.367,13.184
1532384995.371,35.156,33.203,-33.691,25.879,30.273
1532384995.375,36.621,38.086,-31.738,24.414,63.477
1532384995.379,34.180,36.621,-33.203,24.414,42.480
1532384995.383,33.691,34.180,-36.133,22.949,23.438
1532384995.387,31.738,33.691,-41.016,25.391,20.020
1532384995.390,37.109,39.062,-31.738,33.203,70.312
1532384995.394,38.086,43.945,-33.691,26.367,64.941
1532384995.398,25.879,41.504,-39.062,14.648,22.949
1532384995.402,12.207,36.621,-25.879,14.648,31.250
1532384995.406,6.348,32.227,-30.762,11.230,37.109
1532384995.410,7.812,27.344,-34.180,11.719,30.762
1532384995.414,4.395,25.391,-27.832,7.812,32.715
1532384995.418,4.883,31.250,-30.273,3.418,23.438
1532384995.422,11.719,34.668,-39.062,8.789,27.832
1532384995.426,12.207,34.668,-48.828,13.672,52.734
1532384995.430,21.484,38.086,-47.363,16.602,63.477
1532384995.433,20.508,34.668,-43.945,15.137,46.387
1532384995.437,15.625,26.367,-40.527,8.789,44.922
1532384995.441,17.090,25.879,-28.320,7.812,46.387
1532384995.445,24.414,30.273,-21.484,17.090,57.129
1532384995.449,25.879,29.785,-31.250,21.484,68.359
1532384995.453,10.254,26.855,-35.645,13.184,30.273
1532384995.457,10.742,27.832,-30.273,12.207,10.254
1532384995.461,17.090,25.391,-28.809,16.602,18.066
1532384995.465,18.555,23.438,-41.992,12.207,46.387
1532384995.469,18.066,21.973,-52.246,7.324,35.156
1532384995.472,14.648,20.020,-38.086,7.812,17.090
1532384995.476,15.625,22.949,-20.996,1.953,5.859
1532384995.480,20.508,29.785,-25.879,2.441,-6.836
1532384995.484,18.555,29.297,-33.691,4.883,8.301
1532384995.488,17.578,29.297,-33.203,7.812,15.625
1532384995.492,17.090,32.715,-32.715,5.859,35.156
1532384995.496,8.789,29.785,-24.902,4.883,44.922
1532384995.500,12.695,41.016,-23.438,19.043,15.137
1532384995.504,15.625,39.551,-37.598,20.508,10.742
1532384995.508,11.719,31.738,-33.691,13.672,27.344
1532384995.512,17.578,34.180,-12.695,17.090,32.715
1532384995.515,15.625,24.414,-14.648,21.973,14.648
1532384995.519,3.906,27.832,-18.066,13.672,17.090
1532384995.523,10.742,34.180,-8.789,2.930,35.645
1532384995.527,19.043,38.574,-18.555,12.207,54.199
1532384995.531,12.207,42.480,-20.020,16.602,51.270
1532384995.535,20.996,40.039,-14.648,15.137,-0.977
1532384995.539,31.738,42.480,-20.020,20.996,-14.648
1532384995.543,33.691,41.992,-13.672,28.809,19.531
1532384995.547,39.062,44.922,-2.441,31.738,21.973
1532384995.551,44.922,44.434,-11.719,32.715,17.578
1532384995.554,36.621,29.785,-19.043,22.949,1.953
1532384995.558,33.691,35.156,-11.719,18.066,7.324
1532384995.562,32.227,39.551,-3.418,21.484,12.207
1532384995.566,39.551,42.969,-9.277,18.066,-0.977
1532384995.570,36.133,47.363,-16.113,14.160,14.648
1532384995.574,25.879,39.062,-11.230,15.625,-1.465
1532384995.578,27.832,36.133,-19.531,11.230,-11.230
1532384995.582,26.367,41.992,-19.531,10.254,27.344
1532384995.586,25.879,41.504,-8.301,11.230,19.531
1532384995.590,30.762,41.504,0.488,18.066,40.039
1532384995.594,42.969,49.316,-6.348,26.855,69.336
1532384995.597,40.039,42.969,-12.695,22.949,66.406
1532384995.601,33.691,37.598,-12.207,21.484,47.852
1532384995.605,27.832,38.574,-14.648,16.602,36.133
1532384995.609,25.879,41.992,-9.766,11.719,45.410
1532384995.613,31.738,48.340,-5.371,18.555,53.711
1532384995.617,25.391,41.992,-8.301,14.160,36.133
1532384995.621,22.461,33.691,-11.230,14.160,28.320
1532384995.625,17.578,37.598,-10.254,22.461,78.125
1532384995.629,18.555,41.504,-5.371,23.438,65.430
1532384995.633,35.645,42.969,3.418,30.273,20.996
1532384995.637,36.133,41.504,-10.254,33.691,14.648
1532384995.640,37.598,42.969,-8.789,39.062,27.832
1532384995.644,45.898,40.527,-2.441,48.828,57.617
1532384995.648,35.156,29.297,-5.859,41.992,59.082
1532384995.652,33.691,33.691,0.977,35.156,21.973
1532384995.656,34.668,43.457,0.000,25.391,20.020
1532384995.660,28.320,43.945,1.953,20.996,52.734
1532384995.664,24.902,43.457,0.977,20.020,37.598
1532384995.668,27.832,44.434,-13.184,16.113,8.301
1532384995.672,33.691,46.875,-25.879,19.043,26.367
1532384995.676,40.527,47.852,-15.625,16.602,32.227
1532384995.679,45.410,42.969,3.906,18.066,24.902
1532384995.683,37.109,41.016,7.324,26.367,37.109
1532384995.687,32.227,44.434,3.906,28.320,25.879
1532384995.691,35.156,47.363,4.395,31.250,32.715
1532384995.695,32.715,38.574,-3.906,27.832,25.879
1532384995.699,28.320,25.879,-7.324,21.973,20.020
1532384995.703,26.855,30.762,-6.348,18.555,25.879
1532384995.707,28.320,41.504,-13.184,20.508,6.348
1532384995.711,26.367,38.086,-14.648,24.902,28.320
1532384995.715,24.414,35.156,-9.277,23.926,6.836
1532384995.719,25.879,37.598,-11.719,18.555,3.418
1532384995.722,24.414,39.551,-7.324,19.043,48.828
1532384995.726,30.273,33.691,-3.418,29.785,56.641
1532384995.730,27.832,32.227,-11.719,25.391,62.988
1532384995.734,22.949,37.598,-7.812,18.555,37.598
1532384995.738,32.715,42.969,-4.883,23.926,56.152
1532384995.742,30.762,44.922,-19.531,19.531,63.477
1532384995.746,22.949,36.133,-17.090,13.184,39.551
1532384995.750,17.578,27.344,-11.230,7.812,36.621
1532384995.754,21.484,30.762,-18.066,4.883,19.043
1532384995.758,37.109,33.203,-13.184,10.742,-0.488
1532384995.761,45.898,33.691,-18.555,15.137,13.184
1532384995.765,52.734,42.969,-26.855,15.625,11.719
1532384995.769,59.082,47.852,-21.484,20.996,18.555
1532384995.773,52.246,41.992,-18.555,20.508,11.230
1532384995.777,51.758,39.551,-9.766,20.020,15.625
1532384995.781,43.945,44.434,-1.465,19.531,38.086
1532384995.785,25.879,44.922,-1.465,24.414,31.250
1532384995.789,29.297,39.551,-0.488,35.156,42.480
1532384995.793,33.203,30.273,-2.441,31.250,36.621
1532384995.797,20.996,29.785,-15.625,26.855,40.527
1532384995.801,14.648,30.762,-26.855,27.832,51.270
1532384995.804,23.926,32.227,-25.391,28.809,29.785
1532384995.808,27.832,32.715,-20.996,27.344,61.035
1532384995.812,35.645,29.785,-6.836,23.926,79.590
1532384995.816,38.086,31.250,9.277,16.602,7.812
1532384995.820,29.785,42.969,3.418,11.230,-1.465
1532384995.824,29.297,44.922,-7.324,16.113,28.320
1532384995.828,27.344,33.203,-11.719,17.578,59.570
1532384995.832,23.926,33.203,-19.043,15.137,55.664
1532384995.836,28.320,35.156,-24.414,15.625,21.973
1532384995.840,31.738,32.715,-16.113,12.207,21.973
1532384995.844,36.133,41.016,-4.883,19.531,37.598
1532384995.847,35.645,42.480,-13.184,20.996,43.945
1532384995.851,21.973,32.715,-7.812,13.672,12.207
1532384995.855,21.973,32.715,6.836,11.719,19.531
1532384995.859,29.297,37.598,10.254,19.043,49.805
1532384995.863,23.438,39.551,5.371,23.438,70.312
1532384995.867,17.578,33.203,-6.348,15.137,39.551
1532384995.871,22.461,36.621,-8.789,15.625,25.391
1532384995.875,23.438,41.992,-10.742,15.625,41.992
1532384995.879,25.391,38.086,-16.602,19.043,22.461
1532384995.883,28.320,22.949,-8.301,21.484,17.090
1532384995.886,25.879,15.137,2.441,20.508,23.926
1532384995.890,24.902,29.785,6.836,27.344,51.270
1532384995.894,20.020,42.480,3.906,19.531,69.336
1532384995.898,24.902,49.805,-5.371,13.672,54.688
1532384995.902,36.621,53.223,-2.930,17.090,47.363
1532384995.906,28.809,44.434,-0.977,10.742,47.852
1532384995.910,22.949,36.133,-6.348,5.859,50.781
1532384995.914,27.832,39.551,-8.789,6.348,52.246
1532384995.918,29.785,41.016,-6.836,13.184,2.441
1532384995.922,33.203,33.691,-2.930,20.996,23.926
1532384995.926,37.109,30.273,-10.254,20.996,40.527
1532384995.929,34.180,34.668,-7.324,15.625,39.062
1532384995.933,26.855,35.645,4.883,14.648,32.227
1532384995.937,26.367,32.715,4.883,19.043,22.949
1532384995.941,30.762,32.715,2.930,21.484,43.945
1532384995.945,33.203,37.109,1.953,23.926,56.152
1532384995.949,37.598,41.016,7.812,32.227,29.785
1532384995.953,28.809,37.598,2.930,24.414,20.508
1532384995.957,20.996,33.203,-2.441,13.672,34.668
1532384995.961,22.461,33.691,2.441,19.531,53.711
1532384995.965,25.391,39.062,6.836,20.996,39.062
1532384995.969,32.227,38.574,-2.441,24.414,1.953
1532384995.972,29.297,42.480,7.812,28.809,20.996
1532384995.976,20.020,44.922,22.461,19.531,16.113
1532384995.980,26.855,38.574,16.113,14.160,18.555
1532384995.984,41.504,43.945,9.766,24.414,24.902
1532384995.988,41.016,44.922,6.836,26.367,15.137
1532384995.992,43.945,38.086,6.836,26.367,24.902
1532384995.996,62.500,43.945,15.625,34.668,23.926
1532384996.000,59.082,43.945,18.066,33.203,20.020
1532384996.004,41.992,35.156,0.488,25.391,22.461
1532384996.008,41.504,38.574,-1.465,25.391,57.617
1532384996.011,38.574,34.180,16.113,21.973,71.289
1532384996.015,33.203,32.715,21.973,21.484,33.203
1532384996.019,33.691,39.551,10.254,17.090,7.324
1532384996.023,30.762,44.434,6.348,13.672,11.719
1532384996.027,33.691,41.504,9.766,16.602,29.785
1532384996.031,34.180,30.762,10.742,21.484,28.809
1532384996.035,27.832,36.133,19.043,18.066,-6.348
1532384996.039,20.996,45.898,17.090,12.695,36.133
1532384996.043,21.484,38.086,12.207,16.602,78.613
1532384996.047,30.762,36.133,22.461,19.531,36.621
1532384996.051,31.738,41.016,19.043,21.484,18.066
1532384996.054,18.555,28.809,10.254,15.137,23.926
1532384996.058,13.672,22.949,10.254,14.648,42.969
1532384996.062,18.066,34.668,9.277,20.996,49.805
1532384996.066,16.113,30.273,14.648,19.531,29.785
1532384996.070,11.719,19.531,21.973,18.066,37.598
1532384996.074,17.578,27.344,25.391,21.484,32.227
1532384996.078,12.695,33.691,26.367,25.391,41.504
1532384996.082,14.160,34.180,15.137,24.902,46.387
1532384996.086,19.531,30.762,10.742,20.508,46.875
1532384996.090,21.484,28.809,24.414,21.484,55.176
1532384996.093,20.508,36.133,30.762,20.020,56.641
1532384996.097,20.508,43.945,32.715,19.043,26.367
1532384996.101,26.367,38.086,20.508,20.508,21.973
1532384996.105,24.902,30.273,6.836,19.531,54.688
1532384996.109,30.273,32.227,11.230,16.602,59.082
1532384996.113,37.109,36.621,16.602,17.578,40.039
1532384996.117,31.250,31.738,22.949,23.438,17.578
1532384996.121,33.691,32.715,14.160,23.926,29.297
1532384996.125,29.297,40.039,14.160,25.879,53.223
1532384996.129,26.367,44.434,21.973,29.297,49.805
1532384996.133,32.715,34.180,20.996,30.273,18.066
1532384996.136,32.715,28.809,20.996,32.715,-3.418
1532384996.140,34.180,36.621,21.484,32.715,28.809
1532384996.144,30.273,41.504,25.391,35.156,38.086
1532384996.148,29.297,46.387,36.133,38.086,22.949
1532384996.152,27.832,44.922,34.180,29.785,5.859
1532384996.156,27.344,39.551,25.391,17.578,-10.742
1532384996.160,34.180,34.180,34.668,24.414,39.551
1532384996.164,39.551,39.062,37.109,35.156,55.176
1532384996.168,34.180,43.457,35.156,31.250,42.969
1532384996.172,32.715,40.527,31.250,29.785,39.062
1532384996.176,26.367,36.621,34.668,28.320,52.246
1532384996.179,16.113,35.645,36.133,25.391,65.430
1532384996.183,27.344,38.086,30.273,27.344,73.730
1532384996.187,32.715,37.109,27.832,25.879,64.453
1532384996.191,26.855,35.645,26.855,27.832,63.965
1532384996.195,32.227,38.574,33.691,33.691,12.695
1532384996.199,26.855,39.551,39.062,33.203,-37.109
1532384996.203,25.391,39.551,28.809,31.738,20.996
1532384996.207,36.133,40.527,22.949,30.762,37.598
1532384996.211,39.062,43.457,31.738,31.738,36.133
1532384996.215,44.922,44.922,35.645,32.715,35.645
1532384996.218,41.016,44.922,32.227,31.738,27.832
1532384996.222,30.273,44.434,26.367,33.691,42.480
1532384996.226,34.668,44.434,18.555,35.156,63.965
1532384996.230,31.738,40.527,30.762,27.832,73.242
1532384996.234,32.227,39.551,36.133,19.531,22.949
1532384996.238,47.363,45.898,34.180,23.926,1.953
1532384996.242,41.504,39.062,39.551,25.391,56.641
1532384996.246,32.715,27.832,35.645,25.879,56.152
1532384996.250,28.809,30.273,25.879,25.879,23.926
1532384996.254,24.902,38.086,25.879,22.949,28.320
1532384996.258,27.344,41.016,20.508,22.949,35.156
1532384996.261,29.785,39.551,25.391,22.949,37.598
1532384996.265,33.203,38.086,31.738,24.414,16.113
1532384996.269,31.250,32.227,23.438,18.066,13.184
1532384996.273,25.391,29.297,26.855,14.160,11.719
1532384996.277,24.902,27.344,30.762,15.625,-18.066
1532384996.281,25.879,26.855,39.062,24.902,12.207
1532384996.285,21.484,37.109,30.273,22.949,28.809
1532384996.289,14.648,32.715,23.438,11.719,21.484
1532384996.293,17.578,27.344,33.203,14.648,29.297
1532384996.297,18.066,28.320,30.762,14.648,29.297
1532384996.300,22.461,28.320,21.973,17.090,22.461
1532384996.304,22.461,32.715,20.508,20.996,40.527
1532384996.308,22.461,37.598,18.555,16.113,43.945
1532384996.312,23.438,36.621,19.043,14.648,29.297
1532384996.316,23.926,28.320,22.949,12.207,3.418
1532384996.320,31.250,29.785,21.484,15.625,-4.883
1532384996.324,33.203,32.715,25.879,17.090,47.852
1532384996.328,38.574,29.785,32.227,16.602,71.289
1532384996.332,28.809,20.020,28.809,8.301,39.062
1532384996.336,15.625,24.414,26.855,4.395,7.812
1532384996.340,21.973,33.691,25.391,9.766,24.414
1532384996.343,20.508,32.227,27.832,10.742,47.363
1532384996.347,17.090,29.297,27.832,11.719,31.738
1532384996.351,20.508,26.367,21.484,8.301,11.230
1532384996.355,26.367,29.297,25.391,9.277,10.742
1532384996.359,24.414,27.344,26.367,10.254,29.785
1532384996.363,18.555,27.832,23.438,7.324,56.152
1532384996.367,19.531,32.227,27.344,7.812,42.969
1532384996.371,25.879,35.645,26.855,12.207,18.066
1532384996.375,28.320,35.645,27.344,17.578,10.742
1532384996.379,16.113,22.949,33.203,12.695,42.969
1532384996.383,3.418,17.090,24.902,4.395,30.273
1532384996.386,6.348,22.949,18.555,5.859,-9.766
1532384996.390,7.812,24.902,14.648,11.719,32.227
1532384996.394,9.277,22.949,12.207,8.789,46.875
1532384996.398,13.672,17.090,21.484,9.277,41.016
1532384996.402,14.160,19.043,25.879,19.531,38.574
1532384996.406,23.926,27.344,29.297,22.461,22.461
1532384996.410,24.902,27.344,32.715,15.625,39.062
1532384996.414,25.391,24.902,29.297,20.020,25.879
1532384996.418,25.879,31.250,26.367,18.066,10.742
1532384996.422,16.602,31.738,21.484,10.254,29.785
1532384996.425,19.043,29.785,28.320,15.137,25.391
1532384996.429,21.973,29.785,27.344,13.672,29.785
1532384996.433,20.996,21.484,17.578,8.789,1.465
1532384996.437,21.484,17.578,21.484,4.395,-22.949
1532384996.441,20.508,24.902,14.648,6.836,19.531
1532384996.445,20.508,30.762,20.020,10.254,31.738
1532384996.449,25.391,32.227,30.273,12.695,42.480
1532384996.453,27.344,28.320,31.250,17.578,16.602
1532384996.457,20.508,29.785,24.414,14.160,9.277
1532384996.461,20.508,36.621,22.461,16.113,81.543
1532384996.465,19.043,32.227,24.902,19.531,64.453
1532384996.468,18.066,26.367,25.879,15.625,9.766
1532384996.472,16.113,23.926,27.832,9.766,20.020
1532384996.476,14.160,22.461,20.020,9.766,-0.488
1532384996.480,21.484,22.949,20.996,17.090,20.508
1532384996.484,24.902,20.508,24.902,22.949,34.668
1532384996.488,28.320,28.320,25.391,25.879,22.461
1532384996.492,26.367,33.691,20.020,23.438,17.578
1532384996.496,24.414,23.926,21.973,14.648,22.949
1532384996.500,33.691,19.043,23.438,15.625,43.457
1532384996.504,44.434,30.762,14.648,10.254,40.039
1532384996.507,49.805,39.551,18.555,5.859,41.016
1532384996.511,49.316,37.109,17.578,13.672,39.551
1532384996.515,46.387,37.109,14.648,16.602,6.348
1532384996.519,43.457,39.551,15.137,18.066,4.395
1532384996.523,34.668,36.621,18.066,18.066,32.715
1532384996.527,34.668,40.039,32.715,27.344,47.852
1532384996.531,33.203,38.574,37.109,36.133,44.922
1532384996.535,20.020,25.879,26.367,30.273,32.227
1532384996.539,16.113,23.926,12.695,26.855,36.621
1532384996.543,18.555,24.414,12.695,23.926,40.039
1532384996.547,20.996,29.297,23.926,25.879,33.691
1532384996.550,18.555,30.762,22.461,26.367,8.301
1532384996.554,20.996,31.738,15.625,25.391,-0.977
1532384996.558,20.996,36.133,21.484,17.090,28.320
1532384996.562,18.066,38.086,18.066,9.277,42.480
1532384996.566,25.391,36.133,20.996,20.020,36.133
1532384996.570,33.203,41.992,26.855,34.668,14.160
1532384996.574,23.926,40.527,18.066,28.320,23.926
1532384996.578,12.695,32.227,18.555,12.207,46.875
1532384996.582,11.230,33.203,28.809,15.137,41.992
1532384996.586,20.020,34.180,25.879,18.066,44.434
1532384996.590,22.461,31.250,20.020,14.648,47.852
1532384996.593,19.043,34.668,17.090,17.090,39.551
1532384996.597,22.949,35.645,19.043,21.973,34.668
1532384996.601,27.832,38.086,28.320,20.996,28.809
1532384996.605,24.902,38.574,20.508,22.949,39.551
1532384996.609,32.715,33.203,23.438,31.250,73.242
1532384996.613,41.992,33.203,40.039,31.738,41.992
1532384996.617,36.133,38.574,40.039,24.414,9.277
1532384996.621,33.203,44.434,28.320,22.949,33.203
1532384996.625,35.645,49.316,35.156,26.855,30.273
1532384996.629,36.133,45.410,38.574,25.879,46.875
1532384996.632,27.344,39.551,32.227,18.066,21.484
1532384996.636,33.203,41.992,33.203,15.137,13.672
1532384996.640,41.992,40.039,27.344,21.484,46.875
1532384996.644,37.109,43.457,15.137,23.926,39.551
1532384996.648,41.504,47.852,25.391,26.367,55.664
1532384996.652,43.945,46.387,33.203,28.809,32.227
1532384996.656,43.457,48.340,29.297,28.320,9.766
1532384996.660,40.527,49.316,36.133,27.832,45.898
1532384996.664,44.434,46.875,38.574,32.715,51.758
1532384996.668,50.293,52.734,38.086,39.551,27.344
1532384996.672,38.086,48.340,21.484,30.762,29.785
1532384996.675,27.344,29.297,18.066,18.555,32.715
1532384996.679,25.879,26.367,32.715,18.066,18.066
1532384996.683,31.738,40.527,30.762,16.113,29.297
1532384996.687,30.273,42.969,27.832,15.137,41.016
1532384996.691,24.902,39.062,21.973,14.160,11.719
1532384996.695,26.367,36.133,19.531,11.230,41.504
1532384996.699,22.949,32.227,26.367,17.578,48.340
1532384996.703,25.391,26.855,28.809,20.996,0.977
1532384996.707,27.832,29.297,21.973,22.949,34.180
1532384996.711,22.461,32.227,19.531,22.949,85.449
1532384996.715,23.438,25.879,30.273,15.137,50.293
1532384996.718,33.203,35.156,30.273,13.672,3.906
1532384996.722,31.738,39.062,24.414,11.719,19.043
1532384996.726,21.973,26.855,25.879,3.418,37.109
1532384996.730,22.461,30.273,22.949,5.371,46.387
1532384996.734,24.902,33.691,20.996,10.742,41.992
1532384996.738,30.762,36.621,23.926,14.648,29.297
1532384996.742,31.250,40.039,18.555,9.766,49.316
1532384996.746,32.227,33.691,17.578,9.277,51.270
1532384996.750,33.691,31.250,27.344,16.602,45.898
1532384996.754,34.668,35.156,34.180,15.137,21.484
1532384996.757,32.715,37.598,26.367,16.602,4.883
1532384996.761,34.668,32.227,14.160,20.508,34.668
1532384996.765,42.969,43.457,18.066,27.344,36.133
1532384996.769,36.133,47.363,21.484,28.809,18.066
1532384996.773,25.879,36.133,24.414,21.973,30.762
1532384996.777,23.926,33.203,31.250,17.090,29.785
1532384996.781,27.344,30.273,30.762,14.160,24.902
1532384996.785,32.227,27.832,28.320,13.672,31.250
1532384996.789,29.785,28.809,29.785,13.672,19.043
1532384996.793,26.855,31.250,26.367,19.043,23.926
1532384996.797,31.250,34.668,26.855,21.973,27.832
1532384996.800,24.902,33.203,23.438,20.996,22.461
1532384996.804,24.902,32.715,13.672,21.484,5.371
1532384996.808,31.250,32.227,14.160,26.367,13.184
1532384996.812,30.762,36.621,28.809,28.320,20.508
1532384996.816,42.480,45.410,38.574,32.715,17.578
1532384996.820,41.016,38.574,31.738,32.715,26.367
1532384996.824,26.855,28.320,26.855,20.508,30.273
1532384996.828,25.879,29.785,30.762,22.949,33.691
1532384996.832,28.809,32.715,27.344,27.344,17.090
1532384996.836,27.344,35.156,25.879,20.508,-0.488
1532384996.839,27.344,41.992,25.879,19.531,-8.789
1532384996.843,31.738,42.480,23.438,29.785,28.809
1532384996.847,31.738,36.133,31.738,33.203,55.176
1532384996.851,30.273,40.527,34.180,29.785,22.461
1532384996.855,33.203,44.434,28.320,29.297,10.742
1532384996.859,30.762,38.574,30.273,22.949,35.156
1532384996.863,33.691,43.457,38.086,27.344,30.762
1532384996.867,41.504,49.316,32.715,35.645,29.785
1532384996.871,32.715,38.086,17.090,24.902,32.715
1532384996.875,24.414,32.715,20.020,18.555,31.738
1532384996.879,25.879,34.668,19.531,18.555,60.059
1532384996.882,26.855,39.062,17.090,25.879,44.434
1532384996.886,25.391,40.527,24.902,29.785,2.441
1532384996.890,29.785,33.691,32.227,27.344,27.344
1532384996.894,37.109,33.203,30.762,24.902,36.621
1532384996.898,38.086,39.062,20.020,16.602,13.672
1532384996.902,20.996,39.062,8.789,7.324,30.762
1532384996.906,6.836,40.527,10.742,3.418,47.363
1532384996.910,7.324,44.922,18.555,2.930,33.203
1532384996.914,13.672,43.945,17.090,8.301,14.160
1532384996.918,17.578,40.039,17.578,12.695,9.766
1532384996.922,15.137,35.645,23.438,7.324,24.414
1532384996.925,16.113,37.598,18.555,9.766,41.016
1532384996.929,19.531,38.086,11.230,16.113,27.344
1532384996.933,18.555,38.574,22.949,14.648,0.977
1532384996.937,21.484,41.992,34.668,16.602,-15.137
1532384996.941,22.461,32.715,28.809,14.160,40.527
1532384996.945,17.578,22.461,24.414,10.742,61.035
1532384996.949,15.137,26.367,14.648,13.672,45.410
1532384996.953,17.578,33.203,5.859,13.672,32.227
1532384996.957,24.902,36.621,11.719,16.602,39.062
1532384996.961,27.344,37.598,10.742,19.043,72.754
1532384996.964,25.391,32.715,19.043,15.625,60.547
1532384996.968,35.645,31.250,17.578,15.625,38.574
1532384996.972,31.250,37.598,12.207,11.719,48.828
1532384996.976,23.926,44.434,34.668,11.230,39.551
1532384996.980,30.273,42.480,36.133,21.973,35.156
1532384996.984,22.949,25.879,23.926,14.160,40.039
1532384996.988,21.973,23.926,18.066,16.602,37.109
1532384996.992,27.832,34.180,12.695,21.973,39.551
1532384996.996,20.508,34.180,20.996,18.555,39.062
1532384997.000,16.602,30.762,16.113,18.555,47.852
1532384997.004,22.461,37.598,11.230,19.043,33.203
1532384997.007,22.461,37.109,19.531,20.020,44.922
1532384997.011,25.879,31.738,22.461,21.973,77.637
1532384997.015,29.785,39.062,15.137,28.809,34.180
1532384997.019,28.320,35.156,14.160,26.855,0.977
1532384997.023,29.785,24.414,20.020,23.438,25.391
1532384997.027,30.273,37.109,29.297,30.762,56.641
1532384997.031,27.832,41.992,34.180,32.715,69.336
1532384997.035,20.508,34.180,29.297,14.160,44.922
1532384997.039,20.020,31.250,28.320,5.371,27.344
1532384997.043,24.414,30.762,23.926,19.043,54.199
1532384997.046,24.414,33.203,15.137,22.949,45.410
1532384997.050,28.320,31.738,8.789,22.949,31.250
1532384997.054,25.879,31.738,15.625,24.902,41.992
1532384997.058,21.973,34.668,36.133,25.879,45.410
1532384997.062,24.902,37.109,30.273,26.367,41.016
1532384997.066,20.996,33.691,12.695,21.484,9.766
1532384997.070,18.066,25.879,22.461,20.996,18.555
1532384997.074,20.508,27.832,30.273,20.020,29.297
1532384997.078,20.508,36.133,23.438,15.137,21.484
1532384997.082,27.344,43.945,23.438,26.367,28.809
1532384997.086,33.691,47.363,22.461,29.297,17.090
1532384997.089,28.320,38.086,21.484,13.184,38.086
1532384997.093,32.715,32.227,21.484,15.137,41.992
1532384997.097,36.621,32.715,18.066,21.484,30.273
1532384997.101,30.762,30.762,26.367,19.531,3.418
1532384997.105,28.320,30.273,30.762,21.973,25.879
1532384997.109,27.344,29.297,27.344,23.438,58.105
1532384997.113,23.438,29.297,16.602,21.484,38.574
1532384997.117,23.438,31.738,21.484,19.531,-7.812
1532384997.121,21.973,28.809,28.809,10.742,-11.719
1532384997.125,26.855,33.691,30.273,16.602,29.297
1532384997.129,27.344,41.504,37.598,21.973,42.480
1532384997.132,16.113,32.227,23.438,11.230,18.555
1532384997.136,18.066,30.273,14.648,13.672,6.836
1532384997.140,23.926,37.598,23.926,17.090,44.434
1532384997.144,26.855,37.109,23.438,20.996,68.359
1532384997.148,29.297,36.621,22.461,23.926,42.969
1532384997.152,25.391,38.574,30.273,19.043,10.254
1532384997.156,21.484,34.180,30.273,13.672,20.996
1532384997.160,23.438,31.250,30.762,9.766,34.180
1532384997.164,21.973,32.227,27.344,9.277,14.648
1532384997.168,23.926,29.297,17.090,9.277,29.785
1532384997.171,28.809,33.203,25.391,15.137,30.762
1532384997.175,28.320,37.598,25.879,20.996,14.160
1532384997.179,24.902,31.738,13.184,14.160,38.086
1532384997.183,22.461,23.926,17.578,10.254,21.973
1532384997.187,31.250,22.461,27.344,19.043,37.109
1532384997.191,29.785,28.320,27.832,22.461,44.434
1532384997.195,24.414,32.227,29.785,12.695,25.391
1532384997.199,22.949,29.297,29.297,8.301,20.508
1532384997.203,19.043,29.297,26.367,8.301,-4.395
1532384997.207,23.438,28.320,21.484,10.254,10.254
1532384997.211,21.973,27.344,20.996,16.602,53.711
1532384997.214,12.695,24.902,25.391,13.184,13.184
1532384997.218,21.973,23.438,16.113,20.020,-32.227
1532384997.222,23.926,26.855,19.531,25.879,-14.648
1532384997.226,14.160,24.902,28.320,16.113,23.438
1532384997.230,6.836,20.996,27.344,7.324,45.898
1532384997.234,4.395,22.949,21.484,4.395,25.879
1532384997.238,14.648,19.531,16.113,13.184,14.160
1532384997.242,18.555,17.090,20.996,19.043,23.438
1532384997.246,12.695,25.879,27.832,14.648,35.156
1532384997.250,18.555,29.297,20.020,8.789,35.645
1532384997.254,21.973,26.367,12.207,9.766,24.902
1532384997.257,15.625,26.855,13.672,6.836,2.930
1532384997.261,18.066,30.273,10.742,3.418,11.230
1532384997.265,24.902,33.691,19.531,9.766,31.738
1532384997.269,33.691,31.250,31.738,12.695,36.133
1532384997.273,30.273,22.461,21.973,-3.418,42.969
1532384997.277,25.879,24.414,16.113,-8.789,55.664
1532384997.281,31.250,30.762,15.137,-1.465,70.312
1532384997.285,36.133,34.180,15.625,-0.488,54.688
1532384997.289,34.668,32.227,16.602,4.395,50.781
1532384997.293,30.273,28.320,8.301,9.766,53.223
1532384997.296,25.391,32.227,-6.348,17.090,59.570
1532384997.300,23.438,28.320,6.348,20.996,39.551
1532384997.304,22.461,14.648,32.227,22.461,16.113
1532384997.308,21.484,21.973,39.062,35.645,60.059
1532384997.312,12.695,30.762,35.645,30.273,59.082
1532384997.316,0.977,23.926,31.250,15.137,38.574
1532384997.320,4.883,26.855,21.484,13.672,42.969
1532384997.324,13.184,29.297,16.113,16.113,47.852
1532384997.328,16.113,29.297,12.207,22.461,42.969
1532384997.332,18.555,32.227,2.930,20.508,27.344
1532384997.336,16.602,28.809,3.906,12.695,23.926
1532384997.339,18.066,21.484,13.184,16.113,45.410
1532384997.343,17.578,19.531,20.020,19.531,60.059
1532384997.347,20.020,25.391,20.020,16.113,51.270
1532384997.351,20.996,21.484,23.438,19.531,34.668
1532384997.355,18.066,23.438,29.785,26.367,17.578
1532384997.359,26.367,41.016,27.344,35.156,40.039
1532384997.363,30.762,40.039,23.926,33.691,50.781
1532384997.367,24.414,21.484,18.555,24.414,49.316
1532384997.371,23.926,18.555,11.230,20.996,55.664
1532384997.375,26.855,22.949,16.602,19.531,41.016
1532384997.378,20.508,28.320,18.066,20.996,48.828
1532384997.382,17.578,33.203,11.719,19.531,19.531
1532384997.386,22.461,30.273,16.113,20.020,-9.277
1532384997.390,24.902,24.414,18.066,22.949,24.902
1532384997.394,23.438,29.297,13.672,21.484,41.992
1532384997.398,28.809,37.109,7.324,23.926,5.371
1532384997.402,33.203,27.832,17.090,24.414,0.488
1532384997.406,31.250,28.809,22.949,21.484,38.086
1532384997.410,26.855,34.668,16.113,19.531,37.109
1532384997.414,22.949,30.762,16.602,11.719,17.090
1532384997.418,21.973,27.832,13.672,7.324,12.695
1532384997.421,20.020,26.855,5.859,7.812,18.555
1532384997.425,22.461,24.902,10.742,12.695,35.156
1532384997.429,24.902,20.996,14.648,17.578,63.965
1532384997.433,23.438,24.414,12.207,20.508,48.340
1532384997.437,22.461,20.996,19.531,20.508,23.438
1532384997.441,19.043,20.996,16.602,19.531,34.668
1532384997.445,23.926,33.691,17.578,20.020,43.457
1532384997.449,25.879,40.527,31.250,20.020,48.828
1532384997.453,18.066,36.621,19.043,12.207,1.953
1532384997.457,18.555,27.344,6.348,0.977,-12.695
1532384997.461,22.461,23.926,4.395,1.465,13.672
1532384997.464,19.531,27.344,11.719,10.742,30.273
1532384997.468,19.043,31.250,20.996,13.184,36.133
1532384997.472,32.715,29.297,14.160,12.695,15.625
1532384997.476,22.949,29.297,17.578,15.137,18.555
1532384997.480,17.578,27.344,18.066,19.043,39.062
1532384997.484,27.832,24.902,10.742,22.461,39.551
1532384997.488,20.996,28.809,23.438,19.531,22.949
1532384997.492,25.391,33.203,32.227,20.020,13.672
1532384997.496,30.273,33.203,20.508,15.137,-14.648
1532384997.500,21.973,28.320,7.324,6.348,-5.371
1532384997.503,17.578,32.715,7.812,5.371,45.898
1532384997.507,20.020,32.715,17.090,3.418,44.434
1532384997.511,21.484,28.320,12.207,2.441,28.320
1532384997.515,21.973,27.344,6.836,0.488,1.465
1532384997.519,19.531,29.785,5.371,-2.930,-23.926
1532384997.523,11.230,34.668,11.719,5.859,6.348
1532384997.527,16.113,38.086,20.508,16.113,29.297
1532384997.531,18.066,35.645,18.066,4.883,24.902
1532384997.535,14.648,31.250,7.812,0.488,10.742
1532384997.539,14.160,28.809,8.789,10.742,32.715
1532384997.543,17.578,24.414,24.414,15.625,52.734
1532384997.546,17.578,27.832,31.738,17.090,23.438
1532384997.550,16.602,27.344,20.508,15.137,10.742
1532384997.554,17.090,22.949,6.348,10.254,27.832
1532384997.558,9.766,31.250,8.301,8.789,41.016
1532384997.562,7.324,31.250,18.066,13.184,73.242
1532384997.566,9.277,25.391,16.113,12.207,45.898
1532384997.570,7.324,31.250,-0.977,6.836,20.508
1532384997.574,6.836,34.668,-7.812,8.789,41.016
1532384997.578,9.277,31.250,12.207,10.254,34.180
1532384997.582,9.277,27.832,22.461,10.254,34.668
1532384997.585,6.836,34.180,14.648,11.719,27.344
1532384997.589,4.395,30.273,16.113,11.230,37.109
1532384997.593,7.324,25.391,13.672,8.301,27.832
1532384997.597,12.695,32.715,18.066,7.324,-13.672
1532384997.601,22.461,31.738,16.113,10.254,7.812
1532384997.605,20.020,25.391,-4.395,5.859,38.086
1532384997.609,5.859,27.832,-2.930,4.883,72.266
1532384997.613,10.742,35.156,9.277,10.742,53.711
1532384997.617,8.301,36.621,-0.977,8.301,25.391
1532384997.621,8.301,33.203,-8.789,9.277,40.039
1532384997.625,12.695,32.227,7.812,10.742,31.738
1532384997.628,16.602,31.250,22.949,13.184,44.922
1532384997.632,20.996,32.715,21.484,17.090,34.180
1532384997.636,17.090,30.273,14.648,12.695,33.691
1532384997.640,16.602,23.438,20.508,17.578,53.223
1532384997.644,22.949,30.273,32.715,28.809,30.273
1532384997.648,29.297,41.992,24.414,30.273,25.391
1532384997.652,19.043,33.691,8.301,19.043,-8.789
1532384997.656,9.277,21.973,8.789,17.090,-43.945
1532384997.660,17.578,18.555,12.695,18.555,-4.395
1532384997.664,13.184,24.414,16.113,18.555,57.617
1532384997.668,17.578,30.762,19.531,26.367,46.387
1532384997.671,24.414,23.438,20.508,26.855,20.508
1532384997.675,19.531,24.414,19.531,24.414,40.527
1532384997.679,21.484,33.691,14.648,25.879,47.363
1532384997.683,27.344,34.180,12.695,24.414,35.645
1532384997.687,23.438,28.320,10.742,21.973,13.184
1532384997.691,13.672,23.438,21.484,19.043,26.367
1532384997.695,14.648,24.902,19.531,15.625,17.090
1532384997.699,26.367,30.762,14.648,20.020,7.812
1532384997.703,24.902,28.320,18.555,19.043,48.828
1532384997.707,15.625,20.508,12.207,17.578,46.875
1532384997.710,20.020,22.949,14.648,20.020,55.176
1532384997.714,29.297,28.320,14.160,17.578,62.500
1532384997.718,17.090,23.438,15.625,11.719,39.551
1532384997.722,12.207,25.391,16.602,15.137,55.176
1532384997.726,25.879,28.809,9.277,19.531,58.105
1532384997.730,23.438,30.762,11.719,14.160,47.852
1532384997.734,18.555,33.203,7.812,9.766,42.969
1532384997.738,26.855,32.715,11.230,11.230,46.875
1532384997.742,32.227,35.156,28.320,20.996,59.570
1532384997.746,27.832,27.832,26.855,19.531,55.664
1532384997.750,20.020,25.879,16.602,14.160,24.902
1532384997.753,16.113,31.250,15.625,12.695,21.484
1532384997.757,19.531,28.809,9.277,16.602,48.340
1532384997.761,24.414,25.879,7.812,24.414,52.734
1532384997.765,21.973,31.738,15.625,18.555,35.156
1532384997.769,16.602,32.227,19.531,13.672,29.785
1532384997.773,12.695,23.926,25.879,13.184,26.855
1532384997.777,13.672,22.949,23.438,11.719,12.695
1532384997.781,23.926,32.715,14.648,18.066,22.949
1532384997.785,24.902,38.574,20.508,15.137,18.555
1532384997.789,24.414,35.156,25.391,15.137,8.301
1532384997.792,23.438,35.645,17.090,28.809,25.391
1532384997.796,17.578,34.668,1.465,21.973,28.320
1532384997.800,17.578,28.320,10.254,10.742,20.020
1532384997.804,19.043,23.438,21.484,14.648,43.945
1532384997.808,15.137,24.902,15.137,12.695,48.340
1532384997.812,24.902,28.809,16.113,15.137,39.551
1532384997.816,29.785,28.809,21.484,16.113,-7.324
1532384997.820,24.902,28.320,20.996,15.625,2.441
1532384997.824,21.484,31.250,16.602,20.508,45.898
1532384997.828,23.438,35.156,7.812,20.996,42.480
1532384997.832,29.297,34.180,5.371,21.484,50.293
1532384997.835,28.320,31.738,14.160,18.066,26.367
1532384997.839,31.738,26.855,19.043,14.648,35.645
1532384997.843,41.016,30.273,20.020,17.578,38.574
1532384997.847,39.062,36.621,25.879,20.996,33.203
1532384997.851,23.926,33.691,16.113,13.672,31.250
1532384997.855,17.090,27.832,9.277,11.719,26.367
1532384997.859,19.531,27.344,9.766,14.648,56.641
1532384997.863,27.344,29.785,6.348,20.996,39.551
1532384997.867,32.715,27.344,7.812,24.414,10.254
1532384997.871,30.273,29.785,0.977,26.367,30.762
1532384997.875,26.855,36.133,13.672,26.367,23.926
1532384997.878,25.391,35.645,32.227,23.438,22.461
1532384997.882,21.484,32.715,24.902,18.555,48.828
1532384997.886,19.043,29.785,23.438,15.137,26.367
1532384997.890,16.602,31.738,23.926,17.578,17.090
1532384997.894,22.949,34.180,23.926,19.043,45.898
1532384997.898,25.391,24.902,25.879,18.066,66.406
1532384997.902,18.555,22.949,18.066,11.719,64.941
1532384997.906,28.809,38.086,16.113,17.090,59.082
1532384997.910,32.715,43.945,21.973,23.926,70.801
1532384997.914,19.531,36.133,18.066,10.254,35.156
1532384997.917,17.578,27.832,13.184,2.441,0.977
1532384997.921,22.461,28.320,11.230,9.766,35.156
1532384997.925,22.949,36.133,14.160,11.230,38.086
1532384997.929,17.090,39.551,11.230,7.324,49.316
1532384997.933,16.602,35.156,11.719,7.324,65.430
1532384997.937,23.438,29.297,14.160,8.789,54.688
1532384997.941,18.555,25.879,11.230,16.602,48.828
1532384997.945,15.625,33.203,6.836,18.555,27.832
1532384997.949,23.926,38.086,20.996,17.578,19.531
1532384997.953,25.391,40.039,39.551,19.043,20.996
1532384997.957,20.020,40.039,20.996,12.207,22.461
1532384997.960,15.625,35.156,1.953,9.766,20.020
1532384997.964,14.160,35.645,5.371,8.789,43.945
1532384997.968,17.090,37.598,6.836,16.113,59.570
1532384997.972,15.137,35.645,9.277,21.484,20.996
1532384997.976,25.879,36.133,16.602,23.926,14.648
1532384997.980,29.297,36.133,13.184,28.320,33.691
1532384997.984,24.902,28.809,16.602,26.367,34.668
1532384997.988,32.227,24.902,19.043,23.438,50.781
1532384997.992,28.809,30.762,10.742,21.484,35.645
1532384997.996,26.367,37.598,12.207,25.879,32.227
1532384998.000,24.902,39.551,14.160,20.996,23.438
1532384998.003,20.020,35.645,9.277,16.602,14.648
1532384998.007,24.902,34.668,4.395,25.391,31.250
1532384998.011,23.438,33.691,6.836,22.949,25.879
1532384998.015,11.230,23.926,10.742,7.812,9.277
1532384998.019,12.207,24.902,8.789,12.207,8.301
1532384998.023,23.926,31.738,-2.441,24.902,31.738
1532384998.027,22.949,24.414,4.883,20.020,17.090
1532384998.031,15.137,28.320,10.254,19.531,25.391
1532384998.035,21.484,41.016,5.371,23.438,39.062
1532384998.039,23.438,38.574,10.742,23.438,25.391
1532384998.042,25.879,35.645,2.441,20.508,22.949
1532384998.046,26.855,32.227,2.441,21.973,33.203
1532384998.050,25.879,34.180,9.277,20.996,24.414
1532384998.054,29.297,40.527,6.348,18.555,6.836
1532384998.058,36.133,47.363,20.996,24.902,15.625
1532384998.062,42.969,47.363,20.508,30.762,23.438
1532384998.066,34.668,32.227,3.906,20.508,17.090
1532384998.070,29.297,26.367,-11.230,10.254,34.180
1532384998.074,35.156,37.598,-9.766,4.883,42.480
1532384998.078,45.898,38.574,2.930,5.859,45.898
1532384998.082,47.363,34.180,8.789,2.930,41.504
1532384998.085,38.086,37.109,6.836,4.395,35.645
1532384998.089,39.062,40.039,2.930,13.184,45.410
1532384998.093,35.645,37.109,13.672,27.344,35.156
1532384998.097,23.438,39.062,18.066,34.180,47.852
1532384998.101,26.855,47.363,15.625,34.668,47.852
1532384998.105,27.344,41.992,5.371,31.250,22.461
1532384998.109,18.555,30.762,-8.301,26.367,32.227
1532384998.113,14.160,25.879,-8.301,24.902,27.344
1532384998.117,5.859,25.879,4.883,21.973,-5.859
1532384998.121,8.301,29.297,10.254,19.531,25.879
1532384998.124,12.207,31.738,6.348,18.555,46.387
1532384998.128,20.020,33.203,10.254,23.438,40.039
1532384998.132,17.578,28.320,14.160,23.438,37.598
1532384998.136,12.207,26.367,6.348,16.113,-13.672
1532384998.140,23.926,25.391,7.812,20.020,6.836
1532384998.144,26.367,26.855,5.859,23.438,63.477
1532384998.148,20.508,31.738,-4.395,21.484,33.203
1532384998.152,19.531,37.598,14.648,27.832,-3.418
1532384998.156,15.137,32.227,30.273,17.578,12.207
1532384998.160,11.719,19.043,20.508,6.348,16.602
1532384998.164,16.113,20.508,15.625,6.348,16.602
1532384998.167,17.090,27.344,24.902,8.301,19.043
1532384998.171,22.461,32.227,29.785,14.160,2.441
1532384998.175,26.855,33.203,17.090,16.602,19.531
1532384998.179,27.344,29.785,16.113,20.020,48.828
1532384998.183,27.344,31.738,28.809,20.508,20.020
1532384998.187,19.043,30.762,31.250,14.648,35.156
1532384998.191,23.438,27.344,33.691,13.672,42.969
1532384998.195,35.645,35.645,31.250,20.996,22.949
1532384998.199,29.297,39.551,31.250,25.879,21.973
1532384998.203,24.414,34.668,36.133,24.902,29.785
1532384998.207,27.832,36.133,36.621,25.391,24.414
1532384998.210,35.645,38.086,30.273,27.344,34.180
1532384998.214,31.250,36.621,25.391,30.273,41.992
1532384998.218,26.855,28.809,35.645,31.250,29.785
1532384998.222,30.762,20.020,41.504,30.273,33.691
1532384998.226,31.250,25.391,38.574,31.738,50.781
1532384998.230,29.297,32.227,40.527,29.297,41.016
1532384998.234,28.320,34.180,39.062,23.926,20.508
1532384998.238,30.762,36.133,44.922,24.902,3.906
1532384998.242,36.621,37.598,49.805,34.180,23.438
1532384998.246,42.480,40.527,40.527,39.062,53.711
1532384998.249,38.574,38.574,36.621,32.227,33.203
1532384998.253,34.668,31.250,41.016,31.250,18.066
1532384998.257,35.156,27.344,39.551,30.762,35.645
1532384998.261,31.738,27.344,37.598,27.344,58.105
1532384998.265,28.809,29.785,45.898,29.785,53.223
1532384998.269,29.297,31.738,52.734,27.344,24.902
1532384998.273,30.273,32.227,50.293,23.438,11.719
1532384998.277,30.762,32.227,46.875,25.879,20.996
1532384998.281,40.039,31.738,41.992,31.250,38.086
1532384998.285,36.621,31.250,40.039,29.297,24.414
1532384998.289,31.738,34.668,40.039,26.855,13.672
1532384998.292,41.016,41.016,38.086,33.691,25.391
1532384998.296,39.551,44.922,45.410,34.668,24.902
1532384998.300,30.273,35.645,43.457,28.809,25.879
1532384998.304,38.086,30.273,45.410,23.438,19.531
1532384998.308,42.480,29.785,49.316,20.996,33.691
1532384998.312,31.738,26.367,45.410,22.461,41.504
1532384998.316,31.738,32.715,45.898,19.531,2.441
1532384998.320,35.156,37.109,49.316,25.391,-0.977
1532384998.324,42.969,32.715,55.176,33.203,31.738
1532384998.328,44.434,31.738,48.828,32.715,17.578
1532384998.331,48.340,40.039,47.852,37.598,9.277
1532384998.335,51.758,40.039,39.062,39.551,7.324
1532384998.339,39.551,30.273,35.645,31.250,-11.230
1532384998.343,29.785,33.203,51.758,22.949,12.695
1532384998.347,23.438,34.180,54.199,22.949,32.715
1532384998.351,26.367,33.203,53.223,29.785,27.344
1532384998.355,35.645,44.922,47.852,29.297,10.254
1532384998.359,39.062,41.992,46.875,29.297,22.949
1532384998.363,44.434,28.320,45.898,33.691,37.109
1532384998.367,38.574,36.133,34.180,36.621,3.418
1532384998.371,30.762,41.504,37.598,28.809,-11.719
1532384998.374,36.133,39.551,57.617,25.879,8.301
1532384998.378,42.480,44.434,61.523,33.691,42.480
1532384998.382,38.574,37.598,55.176,30.273,17.578
1532384998.386,30.273,22.949,50.293,24.902,-11.719
1532384998.390,30.273,20.020,44.434,22.461,6.836
1532384998.394,32.227,37.598,43.945,23.438,14.648
1532384998.398,30.762,47.363,38.086,22.949,25.391
1532384998.402,23.926,41.992,37.109,23.438,42.969
1532384998.406,23.438,41.504,37.598,27.344,13.184
1532384998.410,32.227,39.062,33.691,27.832,2.441
1532384998.414,32.715,31.738,55.664,25.879,-9.277
1532384998.417,32.715,31.250,65.430,27.344,-37.109
1532384998.421,43.457,46.387,54.688,39.551,-0.977
1532384998.425,47.852,49.316,53.223,43.945,30.273
1532384998.429,38.086,32.715,47.363,35.156,34.180
1532384998.433,31.250,34.180,47.363,28.320,1.465
1532384998.437,33.203,38.086,48.340,27.344,-7.324
1532384998.441,43.945,28.320,39.062,33.691,38.574
1532384998.445,36.621,23.926,36.133,32.715,21.484
1532384998.449,20.020,37.598,41.016,30.762,15.137
1532384998.453,23.438,45.898,43.945,31.250,15.625
1532384998.456,27.832,39.062,46.875,32.715,7.324
1532384998.460,26.367,38.086,42.969,35.156,21.484
1532384998.464,29.297,38.086,31.250,32.715,10.254
1532384998.468,41.016,41.016,30.762,30.762,0.977
1532384998.472,40.527,47.363,41.504,31.250,16.602
1532384998.476,34.668,41.016,37.109,22.461,11.719
1532384998.480,33.203,34.668,31.250,20.996,14.160
1532384998.484,34.668,30.762,32.715,25.391,17.090
1532384998.488,33.691,33.203,32.715,26.367,31.250
1532384998.492,29.785,38.574,39.551,23.926,59.570
1532384998.496,30.273,41.016,33.203,22.949,44.434
1532384998.499,30.273,45.410,24.414,25.391,30.273
1532384998.503,36.621,40.527,27.832,27.344,44.922
1532384998.507,37.598,33.691,21.484,26.855,68.359
1532384998.511,38.574,35.156,22.461,29.297,44.434
1532384998.515,40.039,38.574,42.480,37.109,12.695
1532384998.519,31.250,39.062,38.574,29.785,20.508
1532384998.523,26.855,34.668,23.438,23.926,35.156
1532384998.527,27.832,28.809,27.344,29.297,54.688
1532384998.531,28.320,31.738,28.809,33.203,45.898
1532384998.535,36.133,36.133,19.043,29.297,-20.508
1532384998.538,36.133,40.527,16.602,31.738,-24.902
1532384998.542,31.738,37.109,20.996,35.156,20.508
1532384998.546,34.180,28.320,19.531,34.668,32.227
1532384998.550,38.086,29.785,20.508,30.273,24.902
1532384998.554,35.645,33.691,21.973,28.320,5.371
1532384998.558,36.621,33.691,20.508,32.715,36.621
1532384998.562,35.645,32.715,24.902,29.297,62.012
1532384998.566,46.387,26.855,31.738,40.039,10.254
1532384998.570,39.062,14.160,25.391,40.039,-7.812
1532384998.574,21.484,20.508,12.695,19.531,13.672
1532384998.578,21.973,35.156,3.906,17.090,31.250
1532384998.581,22.461,31.738,8.789,19.043,27.832
1532384998.585,26.855,28.809,13.672,21.484,25.879
1532384998.589,28.320,27.344,8.301,27.832,47.363
1532384998.593,30.273,20.996,9.766,32.227,32.715
1532384998.597,39.062,24.902,17.578,32.227,10.742
1532384998.601,39.551,31.738,20.508,34.668,8.789
1532384998.605,31.250,25.879,15.137,34.668,30.273
1532384998.609,43.945,32.715,18.555,40.039,58.105
1532384998.613,49.805,39.062,15.625,39.062,54.199
1532384998.617,29.785,25.879,10.254,25.391,35.645
1532384998.621,31.738,25.391,6.836,27.344,38.574
1532384998.624,37.598,26.855,3.418,32.715,26.367
1532384998.628,31.738,25.879,-3.418,36.133,42.969
1532384998.632,33.691,20.996,0.000,36.133,-0.977
1532384998.636,36.133,18.066,9.277,32.227,-43.457
1532384998.640,37.109,19.043,7.812,32.715,-11.719
1532384998.644,37.598,12.695,11.719,33.203,12.695
1532384998.648,29.297,20.020,7.812,23.926,37.109
1532384998.652,20.996,34.668,-3.418,10.742,7.324
1532384998.656,25.879,32.227,-3.418,13.672,-4.395
1532384998.660,34.668,33.691,8.789,26.367,36.621
1532384998.663,44.922,32.227,17.578,39.551,29.785
1532384998.667,38.574,23.926,-3.418,34.180,13.672
1532384998.671,25.879,17.578,-12.207,22.461,26.367
1532384998.675,31.250,16.113,1.953,24.414,11.719
1532384998.679,38.086,23.926,0.000,33.691,22.949
1532384998.683,36.621,28.320,-10.254,37.598,24.902
1532384998.687,33.691,22.461,-8.789,36.621,17.090
1532384998.691,31.250,20.996,0.488,30.273,46.387
1532384998.695,35.645,21.484,-1.953,30.273,63.477
1532384998.699,40.527,18.555,-2.930,31.250,69.824
1532384998.703,50.781,26.367,8.301,36.621,54.199
1532384998.706,51.270,25.879,-0.488,43.457,41.504
1532384998.710,44.922,22.461,-15.625,36.133,33.691
1532384998.714,45.898,26.367,-15.137,29.297,24.902
1532384998.718,45.410,24.414,-18.066,32.227,23.926
1532384998.722,47.363,20.020,-19.531,34.180,38.086
1532384998.726,41.992,20.508,-11.719,33.203,52.734
1532384998.730,41.016,22.949,-9.766,37.109,62.988
1532384998.734,43.945,21.973,-12.207,35.645,10.742
1532384998.738,43.945,19.531,-25.879,33.203,-3.906
1532384998.742,41.504,15.625,-39.551,31.250,53.223
1532384998.746,41.504,17.090,-29.785,29.785,55.176
1532384998.749,53.223,26.855,-16.113,41.016,41.992
1532384998.753,52.246,25.391,-20.996,33.203,28.809
1532384998.757,41.992,24.902,-41.016,17.090,8.301
1532384998.761,46.875,26.367,-43.457,22.461,29.785
1532384998.765,45.410,21.484,-31.250,29.785,48.340
1532384998.769,42.969,22.461,-37.598,34.668,12.207
1532384998.773,49.805,20.996,-51.270,39.062,-8.789
1532384998.777,55.664,14.648,-40.527,47.852,38.574
1532384998.781,57.617,15.137,-28.320,47.852,60.547
1532384998.785,51.270,13.184,-37.109,47.852,38.086
1532384998.788,52.246,19.531,-36.621,54.199,38.574
1532384998.792,57.129,29.785,-33.691,49.316,44.434
1532384998.796,49.805,21.973,-45.898,39.062,42.969
1532384998.800,40.527,15.137,-49.805,37.598,30.762
1532384998.804,41.504,11.230,-46.387,35.156,42.480
1532384998.808,43.945,13.184,-46.387,36.621,33.203
1532384998.812,43.945,17.578,-50.781,45.410,16.113
1532384998.816,46.875,16.113,-44.922,46.875,17.090
1532384998.820,44.434,13.672,-38.574,40.039,0.977
1532384998.824,47.363,11.230,-41.016,42.480,18.066
1532384998.828,45.410,10.254,-40.039,47.852,54.688
1532384998.831,49.805,11.230,-41.992,50.781,25.391
1532384998.835,56.152,17.578,-45.410,50.781,-7.324
1532384998.839,42.969,18.066,-49.805,43.945,15.625
1532384998.843,43.945,13.672,-44.434,46.875,50.781
1532384998.847,55.664,15.625,-32.227,50.293,54.688
1532384998.851,49.316,17.578,-35.156,53.223,35.156
1532384998.855,36.621,16.113,-44.922,54.199,-1.465
1532384998.859,38.086,20.508,-45.898,50.293,19.531
1532384998.863,39.551,18.555,-46.875,49.316,61.035
1532384998.867,44.434,16.113,-49.805,46.387,62.012
1532384998.870,49.316,16.113,-51.270,44.434,20.996
1532384998.874,55.664,18.555,-44.922,52.734,11.719
1532384998.878,64.941,15.625,-44.922,58.105,42.969
1532384998.882,53.223,9.766,-49.316,46.387,34.180
1532384998.886,45.898,6.348,-46.875,38.086,16.602
1532384998.890,48.340,4.883,-41.992,38.086,30.273
1532384998.894,53.223,17.090,-35.645,40.527,41.992
1532384998.898,53.711,18.555,-43.945,39.551,29.785
1532384998.902,54.688,18.066,-53.711,38.574,-5.371
1532384998.906,74.707,34.180,-45.410,43.457,41.016
1532384998.910,93.750,41.992,-28.809,55.176,84.473
1532384998.913,104.492,52.734,-9.277,63.477,51.758
1532384998.917,112.793,65.430,8.301,75.195,17.090
1532384998.921,123.047,72.754,16.602,102.051,-0.488
1532384998.925,126.953,83.008,20.996,126.465,24.902
1532384998.929,121.582,80.078,28.809,131.348,22.949
1532384998.933,119.141,73.242,30.762,121.582,-6.836
1532384998.937,110.352,76.660,24.902,118.652,-1.953
1532384998.941,105.957,77.148,26.855,126.465,27.832
1532384998.945,110.840,80.078,33.203,133.789,51.758
1532384998.949,105.957,82.520,35.645,128.906,44.434
1532384998.953,101.562,77.148,34.668,117.676,-16.602
1532384998.956,103.027,66.895,26.367,109.375,-20.508
1532384998.960,96.680,60.059,19.043,100.586,30.762
1532384998.964,88.867,56.152,19.043,91.309,46.875
1532384998.968,90.332,55.176,17.578,92.285,24.414
1532384998.972,95.215,56.641,8.789,91.797,17.578
1532384998.976,81.543,43.945,-10.254,75.684,33.203
1532384998.980,67.871,38.086,-11.719,66.406,25.391
1532384998.984,69.824,37.598,-2.441,61.523,31.250
1532384998.988,70.312,31.250,-8.789,57.129,16.602
1532384998.992,66.406,29.785,-20.996,52.734,-10.742
1532384998.995,63.477,35.156,-20.508,53.711,11.719
1532384998.999,62.500,28.809,-7.324,55.664,33.203
1532384999.003,59.570,26.855,-6.836,41.504,22.949
1532384999.007,56.641,24.902,-14.648,34.180,17.090
1532384999.011,52.246,18.066,-23.926,40.039,15.625
1532384999.015,47.363,19.531,-21.973,39.062,-5.371
1532384999.019,44.922,17.090,-20.020,32.715,-2.441
1532384999.023,50.781,16.602,-15.625,40.527,21.484
1532384999.027,52.246,15.137,-8.789,50.781,40.527
1532384999.031,43.945,6.836,-23.438,47.363,54.199
1532384999.035,38.574,4.883,-35.645,38.574,19.531
1532384999.038,39.551,3.906,-37.109,36.133,14.160
1532384999.042,46.387,5.371,-26.367,52.734,56.641
1532384999.046,52.734,4.395,-8.301,61.035,65.918
1532384999.050,58.105,8.301,-13.184,54.688,54.199
1532384999.054,56.152,24.414,-22.461,42.480,-7.812
1532384999.058,45.898,29.785,-25.391,26.367,-20.508
1532384999.062,36.133,22.949,-39.062,19.043,38.574
1532384999.066,31.738,22.949,-37.109,17.090,48.828
1532384999.070,47.363,32.715,-24.902,24.414,41.016
1532384999.074,45.410,37.109,-31.738,27.832,27.344
1532384999.077,13.672,25.391,-40.039,11.230,34.180
1532384999.081,10.254,16.113,-30.273,9.277,37.109
1532384999.085,17.090,16.602,-29.297,16.602,18.555
1532384999.089,7.812,19.531,-29.297,10.254,38.574
1532384999.093,-0.977,16.602,-15.137,6.348,32.715
1532384999.097,2.441,21.484,-22.461,7.812,22.949
1532384999.101,2.930,26.367,-13.184,4.883,31.738
1532384999.105,-15.137,9.766,14.648,-15.137,4.395
1532384999.109,-26.367,4.395,16.113,-27.344,30.273
1532384999.113,-16.602,16.113,13.672,-23.438,58.594
1532384999.117,-13.184,16.113,9.766,-23.438,25.391
1532384999.120,-11.719,9.277,0.000,-20.020,13.672
1532384999.124,-5.371,5.859,4.883,-15.137,30.273
1532384999.128,-7.324,4.883,9.277,-15.137,35.645
1532384999.132,-0.977,9.277,-5.371,-10.742,14.160
1532384999.136,6.348,5.859,-3.418,-4.395,-23.438
1532384999.140,12.207,-2.441,8.789,1.465,7.324
1532384999.144,20.020,-6.836,6.348,9.277,52.246
1532384999.148,29.297,-8.301,-4.395,19.531,41.992
1532384999.152,45.410,-10.742,-9.277,36.133,32.715
1532384999.156,53.223,-10.742,-20.508,42.480,36.621
1532384999.160,45.898,-13.672,-34.180,38.086,50.781
1532384999.163,41.504,-19.043,-36.133,37.598,46.387
1532384999.167,50.781,-14.160,-27.832,43.945,22.461
1532384999.171,58.594,-7.812,-4.883,49.805,15.137
1532384999.175,48.340,-13.184,-5.371,44.434,12.695
1532384999.179,47.363,-22.949,-24.414,42.480,49.316
1532384999.183,60.547,-26.855,-29.297,49.316,38.574
1532384999.187,54.199,-26.367,-34.668,52.734,15.625
1532384999.191,48.340,-23.438,-37.109,50.293,53.223
1532384999.195,55.664,-20.996,-32.715,46.875,48.828
1532384999.199,55.664,-23.926,-30.273,46.387,15.137
1532384999.202,62.500,-17.578,-28.320,51.270,13.184
1532384999.206,61.523,-8.789,-27.344,48.828,-0.488
1532384999.210,49.805,-9.277,-34.180,46.387,25.391
1532384999.214,45.898,-11.230,-38.574,45.898,34.668
1532384999.218,46.875,-9.766,-33.691,47.852,-4.883
1532384999.222,48.828,-8.789,-34.180,57.617,-14.160
1532384999.226,51.758,-3.906,-34.180,63.477,9.277
1532384999.230,47.852,-0.977,-46.875,59.570,45.898
1532384999.234,44.922,-9.277,-51.758,49.316,34.668
1532384999.238,49.316,-18.066,-42.480,47.363,3.418
1532384999.242,54.199,-12.695,-37.598,53.223,18.066
1532384999.245,56.641,-3.418,-39.062,57.617,42.480
1532384999.249,68.848,1.953,-36.621,56.641,36.133
1532384999.253,73.242,8.789,-27.344,58.105,15.625
1532384999.257,64.453,7.324,-35.156,57.129,35.645
1532384999.261,65.918,4.883,-43.945,53.711,58.594
1532384999.265,65.918,4.883,-37.109,54.199,31.738
1532384999.269,68.848,7.812,-33.691,58.105,2.441
1532384999.273,67.871,10.254,-43.457,53.711,3.418
1532384999.277,68.359,10.742,-40.527,50.781,14.160
1532384999.281,68.359,13.184,-38.086,48.340,58.105
1532384999.285,61.035,12.207,-43.945,42.969,40.039
1532384999.288,56.152,6.836,-39.062,45.898,15.137
1532384999.292,58.105,2.441,-39.062,43.945,18.555
1532384999.296,61.523,1.953,-45.898,45.410,21.973
1532384999.300,62.988,7.812,-42.969,54.199,35.645
1532384999.304,59.082,12.207,-35.645,50.781,20.508
1532384999.308,56.641,11.230,-37.109,49.805,29.785
1532384999.312,55.664,11.719,-29.297,50.293,53.223
1532384999.316,57.617,14.648,-26.855,42.969,25.879
1532384999.320,57.129,10.254,-33.203,47.852,17.090
1532384999.324,58.105,7.812,-33.691,53.711,32.227
1532384999.327,62.500,18.066,-24.414,58.594,49.316
1532384999.331,57.129,20.508,-17.090,52.734,46.875
1532384999.335,57.617,16.602,-23.438,48.828,10.742
1532384999.339,55.176,11.719,-21.484,48.828,28.320
1532384999.343,49.805,15.137,-16.602,50.781,47.852
1532384999.347,49.316,21.484,-24.414,46.387,48.340
1532384999.351,50.293,17.578,-29.785,42.480,37.598
1532384999.355,49.316,15.137,-19.531,42.480,7.324
1532384999.359,48.828,15.137,-18.066,39.551,34.180
1532384999.363,52.734,13.672,-24.902,41.504,71.777
1532384999.367,47.852,18.555,-30.762,38.574,62.500
1532384999.370,43.945,21.973,-30.273,37.598,36.621
1532384999.374,53.711,24.902,-14.160,35.645,26.367
1532384999.378,53.223,26.367,-11.719,38.086,35.156
1532384999.382,43.457,20.020,-18.066,39.551,62.012
1532384999.386,57.617,27.344,-9.766,45.898,46.387
1532384999.390,65.430,28.809,-4.883,54.199,35.645
1532384999.394,47.852,18.066,-14.648,42.480,61.523
1532384999.398,32.715,16.602,-16.113,36.133,61.523
1532384999.402,35.156,17.578,-11.230,40.527,41.016
1532384999.406,39.062,20.508,-23.926,41.992,34.668
1532384999.409,45.410,18.066,-33.203,44.922,19.531
1532384999.413,50.293,21.484,-18.066,48.340,-4.883
1532384999.417,44.922,27.344,-9.277,44.922,12.695
1532384999.421,41.992,22.949,-3.906,38.086,33.203
1532384999.425,41.016,23.926,-4.883,39.062,24.902
1532384999.429,44.434,26.855,-11.719,38.574,29.297
1532384999.433,62.012,33.691,-8.301,40.527,15.137
1532384999.437,65.430,41.016,9.277,48.828,4.395
1532384999.441,58.105,42.480,19.043,53.711,25.391
1532384999.445,76.172,51.758,21.484,76.172,40.039
1532384999.449,84.473,65.918,25.391,83.496,28.809
1532384999.452,82.031,71.289,34.668,73.730,20.020
1532384999.456,93.750,73.730,53.223,88.867,35.645
1532384999.460,105.957,88.379,60.547,103.027,57.617
1532384999.464,110.840,97.168,59.082,104.004,55.176
1532384999.468,111.816,93.750,65.918,106.934,10.254
1532384999.472,119.141,93.750,62.500,111.816,15.625
1532384999.476,125.488,101.562,56.641,111.816,4.395
1532384999.480,121.582,100.586,69.824,105.469,20.020
1532384999.484,121.094,101.562,83.008,109.375,35.156
1532384999.488,113.770,91.309,78.613,102.539,25.391
1532384999.492,89.844,66.895,58.105,83.008,40.527
1532384999.495,82.031,66.406,42.480,77.148,50.781
1532384999.499,81.543,70.312,34.668,73.242,60.059
1532384999.503,77.637,65.918,30.273,66.406,30.273
1532384999.507,74.219,62.500,32.227,62.500,35.156
1532384999.511,68.848,57.129,27.832,54.199,53.711
1532384999.515,67.383,52.246,22.949,46.387,35.645
1532384999.519,62.500,50.293,19.531,44.922,17.578
1532384999.523,62.988,46.875,14.160,49.316,33.203
1532384999.527,65.430,39.062,13.184,58.105,55.664
1532384999.531,56.152,40.527,13.672,55.176,61.035
1532384999.534,54.688,37.598,11.230,40.039,47.363
1532384999.538,59.570,28.809,14.648,41.016,36.133
1532384999.542,58.105,38.086,15.625,46.875,45.898
1532384999.546,53.223,38.574,-0.977,44.434,52.246
1532384999.550,54.199,30.273,12.207,44.922,46.875
1532384999.554,60.059,33.203,24.414,42.969,24.414
1532384999.558,57.129,38.086,12.695,41.016,6.836
1532384999.562,55.176,39.551,10.254,44.434,34.668
1532384999.566,55.664,42.480,12.207,45.898,53.711
1532384999.570,57.617,44.922,3.418,48.828,31.738
1532384999.574,53.223,31.250,1.953,48.828,39.551
1532384999.577,43.945,25.391,17.578,37.109,41.992
1532384999.581,51.758,40.039,16.602,36.133,32.227
1532384999.585,54.688,41.992,20.508,41.992,22.949
1532384999.589,43.945,31.738,20.508,33.203,27.832
1532384999.593,51.270,29.297,8.789,26.367,45.410
1532384999.597,41.504,26.367,4.883,28.809,34.180
1532384999.601,33.203,25.391,6.348,27.344,29.297
1532384999.605,37.109,25.879,3.906,21.484,33.691
1532384999.609,35.156,22.461,-0.977,24.902,36.133
1532384999.613,35.156,20.508,-0.977,31.738,24.414
1532384999.616,39.551,14.648,0.000,30.762,13.184
1532384999.620,35.156,11.230,-3.906,23.926,17.090
1532384999.624,21.973,14.648,0.000,19.531,26.367
1532384999.628,26.855,14.160,-0.977,22.461,56.152
1532384999.632,38.574,20.996,-3.418,30.273,43.457
1532384999.636,38.574,36.133,9.766,32.715,8.789
1532384999.640,35.645,28.320,1.465,24.414,23.438
1532384999.644,37.109,18.555,-14.160,17.090,27.344
1532384999.648,22.949,21.484,-12.207,17.090,29.297
1532384999.652,17.090,18.555,-11.719,14.160,22.461
1532384999.656,23.926,18.066,-11.230,7.324,24.414
1532384999.659,19.531,20.508,-16.602,12.207,45.898
1532384999.663,20.020,22.461,-18.555,17.578,44.922
1532384999.667,19.043,17.090,2.441,13.672,11.719
1532384999.671,25.879,15.137,15.625,19.043,-10.254
1532384999.675,35.156,23.438,6.348,25.391,38.086
1532384999.679,35.645,23.438,8.301,29.297,69.336
1532384999.683,42.480,26.855,14.160,36.621,43.457
1532384999.687,38.086,25.391,4.395,36.133,19.531
1532384999.691,31.738,24.902,-0.977,31.738,26.855
1532384999.695,28.320,31.738,2.441,25.879,18.555
1532384999.699,26.855,25.391,7.812,24.902,5.371
1532384999.702,33.203,15.625,0.000,30.273,-1.953
1532384999.706,38.086,11.230,5.859,29.297,7.324
1532384999.710,36.621,22.949,19.043,31.738,39.062
1532384999.714,32.227,32.227,17.090,24.902,29.785
1532384999.718,32.715,32.227,13.184,13.672,-3.906
1532384999.722,33.203,34.180,4.395,11.230,2.441
1532384999.726,39.062,34.180,-7.324,15.625,40.039
1532384999.730,52.734,33.203,3.906,26.367,42.480
1532384999.734,56.152,32.715,20.508,22.461,23.438
1532384999.738,47.852,23.926,6.836,12.695,1.953
1532384999.741,41.016,18.555,-0.977,9.277,4.395
1532384999.745,48.828,24.902,18.066,10.742,17.090
1532384999.749,47.852,30.273,22.949,18.066,30.762
1532384999.753,40.527,30.762,14.160,24.414,19.043
1532384999.757,36.621,28.809,9.277,28.809,5.859
1532384999.761,31.738,34.180,18.555,30.273,31.250
1532384999.765,34.668,36.133,26.367,32.227,52.246
1532384999.769,31.250,29.297,20.020,29.785,39.062
1532384999.773,27.832,22.949,17.578,30.273,1.465
1532384999.777,33.691,25.391,14.648,36.133,2.930
1532384999.781,35.645,34.180,11.230,37.109,21.484
1532384999.784,30.762,26.367,18.066,31.738,19.043
1532384999.788,34.180,24.902,32.715,32.227,24.902
1532384999.792,45.898,34.180,31.738,29.785,22.461
1532384999.796,35.156,28.320,17.090,17.578,1.465
1532384999.800,16.602,25.879,16.113,16.602,-8.789
1532384999.804,20.508,29.785,19.531,20.508,36.133
1532384999.808,29.785,32.227,18.066,21.484,62.012
1532384999.812,32.227,29.785,16.602,23.926,38.574
1532384999.816,28.320,29.785,21.484,24.414,53.711
1532384999.820,29.297,31.738,20.020,27.832,64.453
1532384999.823,36.133,30.762,16.602,26.855,69.336
1532384999.827,35.645,30.762,14.160,26.855,51.270
1532384999.831,39.551,30.273,20.020,34.668,43.945
1532384999.835,53.223,38.086,39.062,37.109,14.648
1532384999.839,45.898,42.480,35.645,31.738,-2.441
1532384999.843,35.645,29.785,11.230,23.438,57.129
1532384999.847,38.574,28.809,16.113,18.066,51.758
1532384999.851,30.273,34.180,19.043,17.578,16.602
1532384999.855,25.391,33.203,0.000,22.949,29.297
1532384999.859,29.297,31.738,8.789,25.879,53.223
1532384999.863,35.156,29.297,30.273,29.297,50.781
1532384999.866,31.250,24.414,31.250,23.926,33.203
1532384999.870,19.043,23.438,20.508,17.578,26.367
1532384999.874,15.137,23.438,15.625,19.043,25.879
1532384999.878,21.484,26.367,33.691,23.926,18.555
1532384999.882,37.109,37.109,27.832,23.926,2.930
1532384999.886,28.320,31.738,-2.441,18.066,23.438
1532384999.890,12.207,26.367,8.301,19.043,72.754
1532384999.894,17.090,34.668,24.902,15.625,48.828
1532384999.898,18.066,32.715,22.461,6.348,-12.695
1532384999.902,20.996,29.297,23.438,7.324,-16.113
1532384999.906,22.949,30.273,14.160,13.184,34.668
1532384999.909,19.043,24.902,12.695,18.555,68.848
1532384999.913,35.645,17.090,21.973,16.113,48.340
1532384999.917,39.551,23.438,26.367,13.672,-5.859
1532384999.921,30.762,38.574,22.949,27.832,-8.301
1532384999.925,33.203,40.527,15.137,33.203,39.062
1532384999.929,30.273,33.691,11.719,28.320,73.242
1532384999.933,27.832,30.762,10.254,21.484,41.992
1532384999.937,30.273,30.273,14.648,17.578,12.695
1532384999.941,34.668,26.855,21.484,27.344,47.363
1532384999.945,31.738,28.320,14.648,27.832,50.781
1532384999.948,34.668,29.297,-7.324,24.902,21.973
1532384999.952,34.668,28.320,2.441,18.066,14.648
1532384999.956,29.297,28.320,27.344,11.719,25.391
1532384999.960,27.344,31.250,29.297,16.113,40.527
1532384999.964,21.973,34.668,27.344,17.090,45.410
1532384999.968,21.973,32.715,16.602,19.043,35.156
1532384999.972,26.855,23.926,8.789,22.461,14.160
1532384999.976,30.762,22.949,23.926,20.508,16.602
1532384999.980,35.645,26.367,27.344,26.855,21.484
1532384999.984,34.668,22.461,3.906,25.879,14.648
1532384999.988,34.668,24.414,-10.254,21.973,4.395
1532384999.991,31.250,22.949,3.906,18.066,13.672
1532384999.995,21.484,25.391,6.348,12.695,41.992
1532384999.999,20.508,27.832,2.441,13.184,22.949
1532385000.003,28.320,27.832,5.859,20.020,2.930
1532385000.007,25.879,29.785,-2.441,23.926,36.621
1532385000.011,32.227,29.785,4.395,23.438,46.875
1532385000.015,37.109,27.832,16.113,22.949,24.902
1532385000.019,25.879,30.273,12.695,21.973,-5.859
1532385000.023,17.578,32.227,3.418,20.020,15.137
1532385000.027,16.602,34.180,7.324,17.090,52.246
1532385000.031,20.996,29.297,9.766,21.484,40.527
1532385000.034,18.066,15.137,1.953,18.555,9.277
1532385000.038,18.555,20.508,-6.836,16.113,-3.418
1532385000.042,22.461,33.691,-8.301,17.090,12.207
1532385000.046,22.461,35.645,6.836,9.766,17.578
1532385000.050,28.320,27.832,14.160,9.766,6.836
1532385000.054,27.832,28.320,9.277,12.207,9.277
1532385000.058,14.648,35.156,8.301,10.742,19.531
1532385000.062,17.578,32.227,14.160,16.113,25.391
1532385000.066,19.043,29.785,18.555,17.090,2.930
1532385000.070,13.672,25.391,7.324,12.695,8.789
1532385000.073,26.367,28.809,2.441,22.949,18.555
1532385000.077,31.250,29.297,4.395,24.902,21.973
1532385000.081,24.414,21.973,9.766,9.277,28.320
1532385000.085,26.855,24.414,14.160,14.160,3.418
1532385000.089,21.973,23.438,19.043,21.484,23.438
1532385000.093,21.484,26.367,25.391,16.602,26.367
1532385000.097,25.391,34.180,11.230,16.602,21.484
1532385000.101,26.855,33.203,12.695,18.066,4.395
1532385000.105,28.809,27.832,14.648,16.113,-12.695
1532385000.109,28.809,25.879,16.113,20.996,46.387
1532385000.113,23.926,30.273,22.949,24.414,58.594
1532385000.116,22.461,27.832,21.973,18.066,-3.906
1532385000.120,19.043,19.043,14.648,20.020,0.977
1532385000.124,20.508,22.461,12.207,21.973,36.621
1532385000.128,22.461,29.297,16.602,18.066,37.598
1532385000.132,12.695,25.391,4.883,14.160,17.090
1532385000.136,6.348,16.602,4.395,1.465,-7.812
1532385000.140,3.418,14.160,13.672,-2.441,0.488
1532385000.144,9.766,8.301,16.602,9.277,57.617
1532385000.148,12.207,5.859,22.949,11.230,75.684
1532385000.152,0.000,17.090,20.508,17.090,32.227
1532385000.155,-2.930,22.949,4.883,18.066,4.395
1532385000.159,0.488,17.578,7.812,12.695,24.902
1532385000.163,0.000,17.090,20.996,11.719,81.055
1532385000.167,18.555,29.785,21.973,22.949,59.570
1532385000.171,24.902,29.785,10.254,20.508,11.719
1532385000.175,9.766,15.625,5.859,3.906,11.230
1532385000.179,11.230,11.230,14.648,1.953,44.434
1532385000.183,11.230,16.602,20.508,7.324,51.758
1532385000.187,19.043,20.508,10.742,10.742,24.902
1532385000.191,24.414,17.578,6.836,8.789,41.016
1532385000.195,19.531,16.602,6.348,6.348,30.273
1532385000.198,12.695,20.996,8.789,4.395,44.922
1532385000.202,6.836,24.414,14.160,4.395,29.785
1532385000.206,11.230,22.461,10.254,6.348,-0.488
1532385000.210,12.207,22.461,7.812,8.789,24.414
1532385000.214,12.207,20.996,8.789,5.371,26.855
1532385000.218,22.949,26.367,22.461,7.324,18.066
1532385000.222,18.555,27.832,25.879,12.207,17.578
1532385000.226,9.277,16.113,10.742,7.812,36.621
1532385000.230,15.625,9.277,9.277,8.789,46.387
1532385000.234,21.484,18.555,8.301,16.113,21.484
1532385000.238,19.043,24.902,6.348,12.695,36.621
1532385000.241,19.043,21.973,19.531,14.648,57.129
1532385000.245,19.531,21.973,23.926,20.996,53.223
1532385000.249,17.578,23.438,28.809,17.090,45.410
1532385000.253,21.973,26.855,28.809,7.812,6.836
1532385000.257,20.508,28.809,18.066,2.930,-4.883
1532385000.261,17.090,21.973,12.207,5.371,33.203
1532385000.265,13.672,20.020,20.996,9.766,50.293
1532385000.269,19.043,28.320,29.297,16.113,37.598
1532385000.273,19.531,28.809,10.742,6.836,38.574
1532385000.277,9.766,21.973,2.930,-12.695,16.113
1532385000.280,7.812,20.996,19.043,-5.859,14.648
1532385000.284,14.160,23.926,30.273,3.906,42.969
1532385000.288,18.066,27.344,21.973,7.324,38.086
1532385000.292,20.996,37.109,14.648,14.648,25.391
1532385000.296,27.344,36.621,15.625,15.625,15.625
1532385000.300,25.879,29.785,22.461,11.230,16.113
1532385000.304,13.184,27.832,21.973,5.371,36.621
1532385000.308,14.160,28.320,15.137,6.836,45.410
1532385000.312,28.809,29.297,13.672,9.766,46.875
1532385000.316,26.855,34.668,26.367,9.766,18.555
1532385000.320,13.184,28.809,40.039,10.742,8.789
1532385000.323,15.625,18.066,40.527,8.789,29.785
1532385000.327,16.602,15.137,31.738,6.348,37.109
1532385000.331,18.066,23.926,26.367,11.230,24.902
1532385000.335,22.461,35.645,27.344,11.230,23.438
1532385000.339,18.555,34.180,26.855,5.859,45.410
1532385000.343,20.020,36.133,22.461,11.719,52.246
1532385000.347,28.809,38.574,14.648,15.625,45.898
1532385000.351,25.391,31.738,12.695,18.555,28.809
1532385000.355,20.508,30.273,27.344,19.043,11.230
1532385000.359,22.461,34.668,34.180,17.578,25.879
1532385000.362,22.461,35.645,31.738,15.625,65.430
1532385000.366,24.902,32.227,33.203,16.602,52.734
1532385000.370,21.484,27.832,33.203,18.555,42.969
1532385000.374,18.555,23.438,35.156,13.184,34.180
1532385000.378,17.578,22.461,34.180,9.766,43.457
1532385000.382,21.484,35.156,34.180,20.996,77.637
1532385000.386,28.809,35.645,29.785,25.391,42.969
1532385000.390,20.508,29.297,17.578,18.555,13.184
1532385000.394,17.578,28.320,8.301,16.602,41.016
1532385000.398,23.438,22.461,16.113,16.602,43.945
1532385000.402,20.508,27.832,32.715,19.043,46.387
1532385000.405,16.113,34.668,37.109,16.113,45.898
1532385000.409,16.602,29.785,35.645,12.695,50.293
1532385000.413,17.578,27.344,28.809,13.672,29.785
1532385000.417,18.066,28.809,30.762,3.906,-28.809
1532385000.421,21.484,36.621,36.133,6.348,2.930
1532385000.425,17.578,28.320,18.555,11.230,41.504
1532385000.429,10.254,19.043,9.766,7.812,42.480
1532385000.433,7.324,23.926,22.949,5.371,60.059
1532385000.437,11.719,26.855,24.414,5.859,36.621
1532385000.441,18.555,25.879,20.996,7.812,36.133
1532385000.445,20.020,21.973,25.391,2.441,76.172
1532385000.448,14.648,17.578,27.344,5.371,46.875
1532385000.452,13.184,14.648,31.250,3.906,11.719
1532385000.456,26.367,32.715,38.574,5.371,7.324
1532385000.460,30.762,46.387,39.551,15.137,26.855
1532385000.464,8.301,31.738,30.762,7.324,43.457
1532385000.468,1.953,21.973,26.855,5.859,14.160
1532385000.472,9.766,28.320,31.738,11.719,16.113
1532385000.476,14.160,27.344,29.297,10.254,28.809
1532385000.480,18.555,24.902,20.020,10.742,51.270
1532385000.484,14.648,29.785,22.949,12.207,30.273
1532385000.487,13.184,30.273,23.438,13.672,-7.324
1532385000.491,21.973,32.227,21.973,15.137,14.648
1532385000.495,18.066,29.785,22.461,13.672,44.922
1532385000.499,16.602,34.668,26.367,12.695,58.105
1532385000.503,19.531,34.180,30.273,15.137,31.250
1532385000.507,7.812,24.902,31.250,11.230,47.852
1532385000.511,1.953,23.438,37.598,8.301,68.848
1532385000.515,0.977,22.461,22.949,5.371,41.016
1532385000.519,4.883,28.809,19.043,7.324,21.484
1532385000.523,3.418,30.762,29.785,7.812,38.086
1532385000.527,-0.488,25.879,36.621,6.836,44.922
1532385000.530,7.812,26.855,30.762,9.277,42.480
1532385000.534,9.277,30.273,19.043,-0.488,1.465
1532385000.538,4.395,34.180,22.949,-6.836,-22.461
1532385000.542,6.348,36.621,26.367,1.465,11.719
1532385000.546,9.277,30.762,31.250,3.906,35.645
1532385000.550,12.207,23.438,32.715,4.883,41.016
1532385000.554,15.625,30.273,34.668,8.301,42.969
1532385000.558,14.648,33.691,29.785,8.789,76.172
1532385000.562,16.602,26.367,9.766,4.883,93.750
1532385000.566,18.066,30.273,3.906,8.301,48.340
1532385000.569,8.789,28.809,14.648,16.113,20.020
1532385000.573,4.395,26.367,26.855,16.113,42.969
1532385000.577,13.184,26.855,33.691,6.836,47.852
1532385000.581,12.207,23.438,37.598,8.301,56.641
1532385000.585,5.371,22.461,41.016,15.137,53.223
1532385000.589,11.719,20.996,34.180,12.207,52.734
1532385000.593,11.230,21.484,23.438,4.395,12.695
1532385000.597,12.207,25.879,23.926,-1.953,6.348
1532385000.601,23.438,35.156,24.414,8.301,49.805
1532385000.605,33.691,33.203,28.809,10.742,47.363
1532385000.609,30.273,27.832,25.391,0.488,49.316
1532385000.612,27.832,30.273,22.949,-5.859,20.020
1532385000.616,26.855,31.738,36.621,-14.160,-21.484
1532385000.620,22.949,29.297,34.180,-12.695,5.859
1532385000.624,19.531,25.391,23.438,-1.465,52.734
1532385000.628,20.020,28.320,28.809,6.836,60.059
1532385000.632,10.254,29.297,39.551,11.230,54.688
1532385000.636,8.301,28.320,36.621,4.395,3.418
1532385000.640,1.953,29.785,27.344,-3.418,3.906
1532385000.644,-14.160,25.391,26.367,-2.441,79.590
1532385000.648,-9.766,34.180,22.949,7.324,64.941
1532385000.652,-2.930,37.598,29.297,15.625,12.695
1532385000.655,-5.371,21.973,37.109,7.324,8.789
1532385000.659,-9.766,13.184,37.598,0.977,58.105
1532385000.663,0.000,18.066,38.086,5.371,73.242
1532385000.667,9.766,23.438,32.715,7.324,31.738
1532385000.671,9.766,20.996,33.691,4.395,6.836
1532385000.675,10.742,19.531,31.250,2.930,17.578
1532385000.679,18.555,25.391,23.926,8.301,53.711
1532385000.683,19.043,25.391,20.996,1.953,49.316
1532385000.687,17.090,20.996,17.578,-5.859,39.551
1532385000.691,18.555,25.391,17.090,-1.465,51.270
1532385000.694,26.367,32.715,30.762,2.930,30.762
1532385000.698,33.203,31.250,41.992,6.836,53.223
1532385000.702,29.297,28.809,32.715,3.906,39.062
1532385000.706,21.484,26.367,23.438,5.371,15.137
1532385000.710,19.043,16.113,25.879,4.395,41.504
1532385000.714,20.996,20.020,28.809,-2.930,31.250
1532385000.718,17.578,32.227,28.320,2.930,30.762
1532385000.722,10.742,30.762,21.484,14.160,25.391
1532385000.726,12.207,24.902,20.508,7.324,16.113
1532385000.730,11.230,21.973,33.203,2.930,23.926
1532385000.734,13.672,18.555,46.387,5.859,14.160
1532385000.737,14.648,17.090,38.086,4.395,10.254
1532385000.741,25.391,29.297,32.227,20.508,20.996
1532385000.745,37.109,35.645,34.180,27.344,38.086
1532385000.749,25.879,28.320,33.691,12.207,51.758
1532385000.753,23.926,27.832,30.273,13.672,25.879
1532385000.757,27.832,24.414,27.344,15.137,35.645
1532385000.761,28.809,22.461,22.461,14.648,60.547
1532385000.765,31.738,26.367,16.602,15.625,44.434
1532385000.769,32.227,27.832,21.973,9.766,26.367
1532385000.773,33.203,29.785,25.879,7.324,25.879
1532385000.777,33.203,34.668,24.902,5.371,44.922
1532385000.780,29.297,37.109,29.785,5.371,45.410
1532385000.784,29.297,34.668,30.762,2.441,75.684
1532385000.788,24.902,31.738,28.320,0.488,67.871
1532385000.792,19.043,29.785,23.926,5.371,40.039
1532385000.796,17.090,30.762,20.020,5.371,26.367
1532385000.800,14.648,32.227,24.414,5.859,8.789
1532385000.804,22.949,34.180,31.250,15.625,31.738
1532385000.808,34.180,33.691,39.551,20.020,36.621
1532385000.812,26.367,33.691,35.645,13.672,26.855
1532385000.816,20.996,35.645,30.762,10.742,29.785
1532385000.819,24.902,35.645,27.832,9.277,23.438
1532385000.823,25.391,34.668,22.461,16.602,-0.488
1532385000.827,21.973,28.809,31.738,18.555,28.809
1532385000.831,16.602,30.273,31.250,13.184,65.918
1532385000.835,13.672,35.156,23.438,9.277,13.672
1532385000.839,16.602,33.691,27.832,10.742,-7.324
1532385000.843,16.113,30.762,28.809,12.207,49.805
1532385000.847,14.160,32.227,31.250,7.324,59.570
1532385000.851,19.043,30.762,32.227,8.301,42.969
1532385000.855,16.113,26.855,27.344,1.953,47.363
1532385000.859,11.719,29.785,27.832,-5.371,59.570
1532385000.862,21.484,35.645,30.762,0.000,43.457
1532385000.866,27.832,36.621,36.621,8.789,35.156
1532385000.870,12.207,33.203,17.578,6.836,47.852
1532385000.874,12.207,35.645,12.207,2.930,25.391
1532385000.878,16.602,36.621,36.621,9.766,18.066
1532385000.882,21.484,39.062,40.039,14.160,32.715
1532385000.886,21.973,40.039,28.320,13.184,41.016
1532385000.890,14.648,38.086,23.926,10.742,32.715
1532385000.894,14.648,36.133,33.203,6.836,35.645
1532385000.898,16.113,38.086,36.133,0.977,39.551
1532385000.901,18.066,43.457,28.809,4.395,30.273
1532385000.905,16.113,38.574,23.438,7.812,29.297
1532385000.909,16.602,36.133,27.344,6.836,20.996
1532385000.913,22.461,41.992,26.855,12.207,1.953
1532385000.917,16.113,44.434,31.250,11.719,30.762
1532385000.921,17.578,42.969,38.086,17.090,47.363
1532385000.925,21.973,38.574,34.668,22.949,40.527
1532385000.929,16.113,33.203,27.344,15.137,41.992
1532385000.933,4.395,24.414,29.297,10.254,21.973
1532385000.937,-2.930,25.391,35.645,9.766,41.504
1532385000.941,2.441,36.621,30.273,12.207,40.039
1532385000.944,6.348,38.574,27.832,17.578,19.043
1532385000.948,11.230,42.969,31.738,15.625,29.785
1532385000.952,14.160,47.363,31.738,14.160,20.508
1532385000.956,16.602,37.598,34.180,12.207,29.297
1532385000.960,17.090,33.203,28.809,10.254,63.965
1532385000.964,24.414,38.574,21.973,15.625,51.758
1532385000.968,22.949,36.133,27.832,8.789,26.855
1532385000.972,30.273,41.016,41.016,7.812,33.691
1532385000.976,24.902,41.504,42.480,5.371,30.273
1532385000.980,0.000,31.250,27.832,-4.883,42.969
1532385000.984,7.812,31.738,18.066,7.812,9.766
1532385000.987,14.160,27.344,28.809,2.441,11.230
1532385000.991,8.789,27.344,38.086,-2.930,35.156
1532385000.995,10.254,32.715,39.062,8.789,43.457
1532385000.999,15.137,35.156,35.156,11.719,40.527
1532385001.003,19.531,33.203,23.926,12.207,6.348
1532385001.007,18.555,27.344,28.320,20.020,26.367
1532385001.011,12.695,29.785,37.598,21.973,49.316
1532385001.015,10.254,33.691,26.367,11.230,1.953
1532385001.019,15.137,36.133,31.738,11.230,-15.137
1532385001.023,16.113,36.133,50.293,20.996,21.484
1532385001.026,5.859,30.762,39.062,14.160,33.691
1532385001.030,4.395,31.250,25.879,11.719,34.668
1532385001.034,4.883,27.344,32.227,10.742,40.527
1532385001.038,8.789,23.926,32.227,12.207,29.297
1532385001.042,13.184,24.902,28.320,11.230,0.000
1532385001.046,3.418,28.320,36.133,8.301,30.762
1532385001.050,0.000,27.832,40.527,16.602,26.367
1532385001.054,1.465,23.926,43.457,12.207,-10.254
1532385001.058,6.836,27.832,38.574,10.254,11.230
1532385001.062,10.254,31.250,25.391,14.648,21.973
1532385001.066,15.137,30.762,27.832,12.207,20.508
1532385001.069,16.113,29.297,30.762,8.301,11.230
1532385001.073,20.020,32.715,31.738,10.254,16.113
1532385001.077,22.461,33.203,36.621,12.695,40.039
1532385001.081,20.508,34.668,28.809,12.695,43.945
1532385001.085,23.926,38.574,30.273,12.695,49.805
1532385001.089,20.996,30.762,38.086,10.254,22.949
1532385001.093,14.160,22.461,34.668,7.324,7.324
1532385001.097,10.254,18.066,30.273,2.441,12.695
1532385001.101,6.348,20.508,24.414,0.488,-20.508
1532385001.105,10.742,30.273,17.578,-1.465,13.672
1532385001.108,20.508,30.273,20.020,5.371,44.434
1532385001.112,16.602,26.855,26.367,12.207,27.344
1532385001.116,8.789,27.832,39.062,10.742,24.414
1532385001.120,4.883,30.762,46.387,8.789,18.555
1532385001.124,10.254,30.762,45.898,10.742,32.227
1532385001.128,9.277,30.762,32.715,13.184,42.969
1532385001.132,17.090,35.645,29.785,19.043,38.574
1532385001.136,21.973,34.668,35.645,18.555,12.695
1532385001.140,5.859,27.344,29.297,7.812,-7.324
1532385001.144,9.766,27.832,19.531,4.395,23.438
1532385001.148,12.695,29.785,14.160,5.859,46.387
1532385001.151,3.418,32.227,24.414,11.230,39.062
1532385001.155,7.324,36.133,38.574,10.742,5.371
1532385001.159,9.277,34.180,38.086,3.906,3.906
1532385001.163,10.254,32.227,33.691,12.695,40.527
1532385001.167,10.742,33.691,32.227,16.113,48.340
1532385001.171,14.160,32.227,32.715,5.859,38.574
1532385001.175,12.695,30.762,33.691,11.719,31.250
1532385001.179,2.930,24.902,26.855,8.301,36.621
1532385001.183,8.789,25.391,34.180,5.371,20.996
1532385001.187,16.113,29.785,40.527,12.207,17.578
1532385001.191,17.578,31.250,35.156,11.719,42.480
1532385001.194,13.672,31.250,32.227,3.418,14.648
1532385001.198,16.602,28.809,27.832,1.953,-1.953
1532385001.202,20.996,32.715,25.879,8.789,14.648
1532385001.206,14.648,36.133,23.438,5.859,36.621
1532385001.210,18.066,32.227,14.648,12.207,48.828
1532385001.214,11.719,26.855,23.926,10.254,38.574
1532385001.218,7.324,30.273,40.527,1.953,46.875
1532385001.222,16.602,35.645,41.016,6.348,41.504
1532385001.226,21.973,33.691,36.133,8.789,49.316
1532385001.230,24.414,36.621,42.480,15.137,77.148
1532385001.233,28.809,41.992,45.898,22.949,54.688
1532385001.237,26.855,39.062,34.668,14.160,19.531
1532385001.241,16.602,33.203,32.227,9.277,47.363
1532385001.245,16.113,28.809,44.434,10.742,45.410
1532385001.249,16.113,30.273,42.969,4.883,17.578
1532385001.253,11.230,30.273,38.574,-2.930,12.207
1532385001.257,15.137,34.668,48.828,-6.836,0.488
1532385001.261,9.277,40.527,52.734,-2.441,39.551
1532385001.265,5.371,37.109,45.410,4.395,67.871
1532385001.269,10.254,29.297,36.133,4.395,34.668
1532385001.273,13.184,27.344,47.852,4.395,8.789
1532385001.276,13.672,32.715,56.641,12.207,22.949
1532385001.280,13.184,31.738,52.734,19.043,46.387
1532385001.284,23.438,29.785,55.176,21.484,38.086
1532385001.288,38.086,41.504,56.152,27.344,32.227
1532385001.292,32.715,36.621,52.734,15.625,41.016
1532385001.296,16.113,24.902,55.176,-1.465,37.109
1532385001.300,17.578,30.273,59.082,1.953,23.926
1532385001.304,14.648,32.227,57.129,1.465,23.438
1532385001.308,11.230,30.273,54.688,1.465,36.621
1532385001.312,18.066,25.391,52.246,5.371,39.551
1532385001.315,25.391,31.250,49.805,7.324,14.648
1532385001.319,23.438,41.992,55.664,9.766,3.906
1532385001.323,20.996,41.504,61.035,12.695,32.715
1532385001.327,25.879,41.992,54.688,18.066,56.152
1532385001.331,33.691,42.480,49.316,20.508,60.059
1532385001.335,20.996,34.668,51.758,10.254,16.602
1532385001.339,15.625,35.156,60.059,9.277,-15.625
1532385001.343,22.461,40.039,65.430,15.625,32.715
1532385001.347,21.484,33.691,56.641,17.578,44.434
1532385001.351,13.672,28.320,50.781,11.230,13.672
1532385001.355,11.230,29.785,55.176,4.883,19.531
1532385001.358,18.066,36.621,55.176,6.836,35.156
1532385001.362,13.184,38.574,47.852,6.348,47.852
1532385001.366,15.625,37.109,44.922,7.324,44.922
1532385001.370,17.578,39.062,56.152,7.324,30.273
1532385001.374,17.578,36.133,56.641,13.672,25.391
1532385001.378,15.137,31.738,55.664,10.742,40.039
1532385001.382,9.277,33.691,69.336,6.836,53.711
1532385001.386,1.953,35.156,68.359,9.766,20.508
1532385001.390,0.488,36.621,67.871,13.672,27.344
1532385001.394,17.090,40.527,73.730,26.367,28.809
1532385001.398,10.742,35.645,67.871,18.066,17.090
1532385001.401,3.418,28.809,56.641,7.812,23.438
1532385001.405,9.277,31.250,46.387,10.742,31.250
1532385001.409,7.812,32.715,54.199,11.230,24.902
1532385001.413,11.230,34.180,63.477,8.789,25.879
1532385001.417,16.113,34.180,46.387,14.648,37.109
1532385001.421,21.973,30.273,48.340,19.043,27.344
1532385001.425,25.879,34.668,57.617,17.578,29.785
1532385001.429,22.461,37.598,54.688,12.695,46.387
1532385001.433,24.414,33.203,59.570,2.441,22.461
1532385001.437,34.180,32.227,64.453,-4.883,-4.883
1532385001.440,48.828,36.621,63.965,2.930,28.809
1532385001.444,51.270,43.945,62.988,3.906,47.852
1532385001.448,32.227,36.621,57.617,-2.930,36.621
1532385001.452,21.484,28.809,40.039,-1.465,9.766
1532385001.456,24.414,28.809,47.852,1.953,8.301
1532385001.460,28.320,31.738,68.359,17.090,25.391
1532385001.464,15.137,30.273,64.941,21.973,38.086
1532385001.468,8.789,28.809,61.035,26.855,35.156
1532385001.472,15.625,32.715,65.918,30.273,12.207
1532385001.476,9.277,34.180,62.500,22.461,27.832
1532385001.480,4.395,29.297,58.105,30.273,39.551
1532385001.483,13.184,26.855,63.477,30.273,15.137
1532385001.487,11.719,26.855,61.035,21.973,28.320
1532385001.491,6.836,28.320,52.246,23.438,57.129
1532385001.495,16.602,33.691,64.453,26.855,20.996
1532385001.499,22.949,41.016,76.172,31.250,10.742
1532385001.503,22.461,40.527,65.918,29.297,25.391
1532385001.507,17.090,26.855,55.664,30.273,12.695
1532385001.511,21.484,19.531,61.035,31.738,14.648
1532385001.515,35.645,30.273,73.730,26.367,9.277
1532385001.519,28.809,37.109,70.801,22.461,19.531
1532385001.523,16.602,33.203,58.594,20.508,23.926
1532385001.526,22.461,37.598,57.617,23.438,22.461
1532385001.530,28.809,40.039,60.059,24.902,30.762
1532385001.534,30.273,39.062,65.430,18.066,15.625
1532385001.538,32.715,40.039,59.082,20.508,18.066
1532385001.542,30.273,38.086,57.617,17.578,38.574
1532385001.546,30.762,37.109,71.289,13.184,76.660
1532385001.550,51.758,40.039,74.219,26.855,70.801
1532385001.554,49.316,34.180,74.219,29.785,0.488
1532385001.558,30.273,28.809,63.477,21.973,3.906
1532385001.562,38.086,28.320,39.062,31.738,31.250
1532385001.565,36.621,24.414,55.176,35.645,34.668
1532385001.569,39.062,31.738,76.660,30.762,24.902
1532385001.573,41.016,34.668,66.895,22.949,28.320
1532385001.577,21.484,29.297,57.129,11.230,35.156
1532385001.581,22.949,33.691,56.152,14.648,74.707
1532385001.585,30.762,37.109,59.082,13.184,68.848
1532385001.589,32.227,35.156,53.223,12.207,22.949
1532385001.593,38.086,40.527,47.852,18.555,20.996
1532385001.597,30.273,40.527,41.504,11.719,34.180
1532385001.601,18.555,34.180,43.945,7.324,21.484
1532385001.605,19.531,33.203,54.199,10.254,24.414
1532385001.608,25.879,30.762,51.758,14.648,56.641
1532385001.612,21.484,27.832,54.199,11.230,32.715
1532385001.616,20.020,28.809,53.711,4.395,10.254
1532385001.620,26.367,33.691,47.363,7.812,20.508
1532385001.624,33.691,33.691,42.969,13.672,8.301
1532385001.628,34.668,25.879,45.410,16.602,37.598
1532385001.632,24.902,22.949,41.504,18.555,40.039
1532385001.636,20.996,24.414,28.320,11.230,10.254
1532385001.640,22.949,30.273,34.668,8.789,11.719
1532385001.644,33.203,27.344,48.340,12.695,35.645
1532385001.647,38.086,27.344,62.012,14.160,43.945
1532385001.651,31.250,32.715,57.129,10.742,-10.742
1532385001.655,21.973,30.762,39.062,-3.906,-19.043
1532385001.659,20.508,29.297,29.785,-3.418,28.809
1532385001.663,27.832,27.344,25.879,3.906,13.184
1532385001.667,33.203,29.785,41.504,0.488,0.000
1532385001.671,28.809,26.855,50.781,3.418,21.973
1532385001.675,26.367,26.855,45.410,5.859,19.531
1532385001.679,28.320,32.227,38.574,8.789,23.438
1532385001.683,29.297,26.855,43.457,12.695,28.320
1532385001.687,23.438,20.020,50.781,8.789,39.062
1532385001.690,24.414,24.414,48.828,9.277,28.809
1532385001.694,26.855,34.180,35.156,9.277,24.414
1532385001.698,27.832,41.016,25.879,10.742,15.137
1532385001.702,33.691,32.715,42.480,14.648,-15.137
1532385001.706,24.902,20.020,49.805,14.648,29.297
1532385001.710,20.996,26.367,49.316,11.230,63.965
1532385001.714,15.625,32.227,46.875,8.789,40.527
1532385001.718,13.184,25.391,39.551,12.207,43.457
1532385001.722,12.207,24.902,51.270,17.578,38.086
1532385001.726,2.930,35.156,50.781,19.531,42.480
1532385001.730,9.277,29.297,41.016,21.973,42.480
1532385001.733,12.207,16.602,46.875,18.555,21.484
1532385001.737,13.184,25.879,44.922,9.277,13.184
1532385001.741,23.438,34.180,44.922,9.277,18.066
1532385001.745,19.531,30.762,53.711,15.137,24.902
1532385001.749,6.836,26.367,50.293,12.695,37.598
1532385001.753,13.184,29.785,51.758,5.859,30.273
1532385001.757,26.367,40.039,58.105,6.836,-7.812
1532385001.761,24.902,39.551,49.316,11.719,-11.719
1532385001.765,16.113,30.273,34.180,11.230,36.133
1532385001.769,12.695,27.832,36.133,8.789,22.461
1532385001.772,11.230,26.367,46.387,5.371,22.949
1532385001.776,5.371,25.391,50.781,3.418,57.617
1532385001.780,10.254,24.902,48.828,7.812,51.758
1532385001.784,11.230,28.809,39.062,5.371,57.617
1532385001.788,11.230,28.809,43.945,7.324,56.152
1532385001.792,11.230,32.227,49.805,11.230,40.527
1532385001.796,11.230,34.668,42.480,12.207,43.945
1532385001.800,18.066,31.738,48.828,14.648,44.922
1532385001.804,29.297,39.062,52.734,18.555,25.391
1532385001.808,29.785,33.203,40.039,17.578,29.297
1532385001.812,21.484,27.344,41.016,14.160,25.391
1532385001.815,15.137,28.320,47.852,14.648,11.719
1532385001.819,17.090,28.320,50.781,14.648,-7.324
1532385001.823,19.043,35.645,48.340,13.184,8.789
1532385001.827,18.555,40.039,42.480,10.254,26.855
1532385001.831,18.066,35.156,44.922,7.812,8.301
1532385001.835,17.578,31.250,53.711,8.301,3.906
1532385001.839,16.113,28.320,56.152,7.812,45.898
1532385001.843,16.602,24.902,47.363,10.742,69.336
1532385001.847,18.066,32.227,41.016,13.672,35.156
1532385001.851,13.672,35.156,53.223,8.789,35.156
1532385001.854,15.137,29.785,47.852,1.465,27.832
1532385001.858,16.602,29.297,41.016,-1.953,13.184
1532385001.862,18.066,36.133,52.246,10.254,29.297
1532385001.866,21.484,35.645,43.945,13.184,45.410
1532385001.870,15.137,29.785,35.645,4.395,31.738
1532385001.874,17.090,29.297,51.758,7.324,2.441
1532385001.878,23.438,28.320,46.387,5.371,28.809
1532385001.882,17.578,27.832,33.691,3.418,29.297
1532385001.886,20.996,27.832,43.945,5.859,-3.418
1532385001.890,24.902,23.438,48.828,9.766,14.160
1532385001.894,16.602,22.949,43.457,6.348,36.621
1532385001.897,16.113,31.250,41.992,4.883,30.762
1532385001.901,19.043,36.133,52.246,6.836,32.715
1532385001.905,19.531,38.574,63.965,13.672,28.320
1532385001.909,20.020,36.621,62.012,11.719,25.879
1532385001.913,19.043,30.273,51.270,-2.441,28.809
1532385001.917,12.695,26.855,47.852,5.371,30.762
1532385001.921,13.672,27.344,43.945,15.625,24.414
1532385001.925,26.367,26.855,46.387,21.973,45.410
1532385001.929,25.391,25.391,48.340,21.973,46.387
1532385001.933,14.648,29.297,47.852,6.348,33.691
1532385001.937,10.254,36.133,55.664,-0.977,36.621
1532385001.940,10.254,43.457,57.617,6.348,1.465
1532385001.944,15.625,48.828,56.152,14.648,15.625
1532385001.948,21.484,41.992,62.988,18.555,75.684
1532385001.952,15.137,35.156,59.570,16.602,27.832
1532385001.956,11.230,40.527,46.875,13.184,-16.113
1532385001.960,17.578,42.480,40.039,12.207,47.363
1532385001.964,36.133,43.945,56.152,21.973,86.914
1532385001.968,40.527,44.434,61.523,22.949,46.387
1532385001.972,21.973,36.621,56.152,19.043,24.414
1532385001.976,20.996,37.598,55.664,16.113,39.551
1532385001.979,20.996,41.016,46.875,12.207,53.223
1532385001.983,18.555,42.969,38.574,16.113,55.176
1532385001.987,25.879,40.039,46.875,16.602,42.480
1532385001.991,27.832,37.109,59.082,11.230,57.129
1532385001.995,24.902,36.621,59.082,6.836,36.133
1532385001.999,24.414,33.691,50.781,9.766,27.344
1532385002.003,24.902,28.809,43.945,16.602,58.105
1532385002.007,22.461,31.250,52.734,20.508,55.664
1532385002.011,22.949,39.062,63.965,22.949,42.969
1532385002.015,26.367,44.434,65.430,16.113,26.367
1532385002.019,24.414,40.527,50.781,10.254,6.348
1532385002.022,20.020,36.133,39.062,19.531,6.348
1532385002.026,18.555,26.855,47.852,16.113,37.598
1532385002.030,20.020,17.578,46.875,18.555,51.758
1532385002.034,17.578,22.461,53.223,17.090,22.949
1532385002.038,9.766,26.855,62.500,6.348,-16.602
1532385002.042,16.113,25.391,62.988,11.719,10.742
1532385002.046,19.043,30.273,56.641,10.742,47.852
1532385002.050,8.301,33.203,46.387,10.254,23.438
1532385002.054,20.508,38.574,52.246,19.043,-22.949
1532385002.058,26.855,43.457,53.711,20.020,14.160
1532385002.062,17.090,32.715,38.086,12.207,36.621
1532385002.065,15.137,28.320,33.691,12.207,8.301
1532385002.069,17.578,25.879,49.805,12.207,39.062
1532385002.073,29.785,27.832,56.641,10.254,39.062
1532385002.077,25.391,33.203,55.664,16.602,24.414
1532385002.081,14.160,33.203,59.082,19.043,51.270
1532385002.085,17.578,36.133,55.176,19.043,48.340
1532385002.089,20.508,36.133,43.457,12.695,29.785
1532385002.093,21.484,31.250,38.574,4.395,23.926
1532385002.097,19.531,30.762,46.387,6.348,38.574
1532385002.101,19.531,31.738,44.922,8.301,55.664
1532385002.104,29.297,37.598,47.852,11.230,36.133
1532385002.108,31.738,38.086,66.895,19.531,21.484
1532385002.112,24.902,35.645,65.918,20.508,31.738
1532385002.116,26.367,36.133,57.129,13.672,41.016
1532385002.120,26.855,30.762,55.664,10.254,21.973
1532385002.124,20.996,33.203,49.805,12.207,11.230
1532385002.128,18.066,38.574,53.711,17.578,26.367
1532385002.132,17.578,40.039,51.758,15.137,44.434
1532385002.136,21.973,37.598,45.410,9.766,-11.719
1532385002.140,19.531,34.668,52.734,13.672,-0.488
1532385002.144,13.672,32.227,57.617,16.602,65.918
1532385002.147,24.414,33.203,55.664,16.602,59.082
1532385002.151,22.461,38.574,52.246,17.090,32.227
1532385002.155,15.625,34.180,58.594,18.066,16.602
1532385002.159,25.391,37.109,68.848,27.832,33.691
1532385002.163,25.391,42.480,68.848,33.203,56.641
1532385002.167,17.578,31.738,54.688,21.973,47.363
1532385002.171,24.902,25.391,42.969,16.113,-2.930
1532385002.175,17.578,29.785,45.898,22.461,5.859
1532385002.179,11.230,37.109,51.270,24.902,22.949
1532385002.183,22.949,39.551,55.176,16.602,14.648
1532385002.186,27.344,36.133,50.293,15.137,27.832
1532385002.190,28.320,30.273,45.410,16.602,35.156
1532385002.194,27.344,27.344,58.594,12.207,-1.465
1532385002.198,26.855,30.762,57.129,9.277,-5.859
1532385002.202,20.996,30.762,47.852,11.230,23.926
1532385002.206,22.949,35.156,45.410,19.531,20.020
1532385002.210,27.344,38.574,39.062,19.531,27.344
1532385002.214,20.508,27.344,39.551,4.883,18.555
1532385002.218,17.578,25.391,44.922,2.930,8.789
1532385002.222,26.855,29.297,31.250,4.395,5.859
1532385002.226,28.809,21.973,29.297,6.836,22.949
1532385002.229,21.484,21.484,55.176,6.348,39.551
1532385002.233,24.414,30.762,59.082,3.418,18.066
1532385002.237,25.879,28.320,44.922,0.977,15.137
1532385002.241,28.320,26.367,41.016,-3.418,8.301
1532385002.245,26.367,30.762,37.598,-6.348,2.930
1532385002.249,27.832,30.762,44.434,-3.418,2.930
1532385002.253,26.367,28.320,56.152,6.348,-6.348
1532385002.257,27.832,23.438,52.734,17.090,37.598
1532385002.261,25.391,23.438,41.016,23.926,52.246
1532385002.265,14.648,26.367,39.062,27.344,28.809
1532385002.269,8.301,21.484,47.363,27.832,28.320
1532385002.272,11.230,22.949,61.523,31.250,4.395
1532385002.276,18.555,28.320,53.711,34.180,-11.719
1532385002.280,16.113,20.020,40.527,26.367,13.184
1532385002.284,15.137,15.137,53.223,21.484,3.418
1532385002.288,13.184,26.855,58.105,21.484,7.812
1532385002.292,15.625,30.762,49.316,20.996,28.320
1532385002.296,17.090,28.320,47.852,19.043,-0.977
1532385002.300,18.066,29.785,37.109,18.555,-15.625
1532385002.304,23.926,20.996,29.297,19.043,10.254
1532385002.308,26.367,20.996,46.875,17.090,38.086
1532385002.311,19.531,27.344,61.035,18.555,24.902
1532385002.315,16.602,30.762,60.547,21.973,2.930
1532385002.319,22.949,36.621,54.199,18.555,16.602
1532385002.323,19.531,31.738,42.480,12.695,32.715
1532385002.327,20.996,25.879,39.551,16.113,46.387
1532385002.331,20.996,30.273,43.945,18.555,63.477
1532385002.335,19.043,35.645,35.156,15.137,32.227
1532385002.339,24.902,32.227,25.879,20.020,19.043
1532385002.343,26.855,20.996,40.039,25.391,35.645
1532385002.347,28.809,21.973,35.156,26.855,54.688
1532385002.351,30.762,28.809,34.180,26.855,19.043
1532385002.354,29.785,33.691,54.199,20.996,-6.348
1532385002.358,24.414,28.809,59.570,18.555,26.855
1532385002.362,19.043,26.367,53.223,12.695,41.992
1532385002.366,18.066,26.367,42.969,8.301,27.832
1532385002.370,24.414,30.273,42.969,17.090,12.207
1532385002.374,22.949,35.156,36.133,19.531,4.883
1532385002.378,13.184,25.391,27.344,13.672,6.836
1532385002.382,7.812,21.973,31.738,16.602,24.414
1532385002.386,3.906,23.438,30.273,9.766,37.598
1532385002.390,4.395,20.508,34.180,3.418,43.457
1532385002.393,10.742,24.902,49.805,8.301,53.711
1532385002.397,9.766,27.832,49.805,12.695,38.086
1532385002.401,12.695,20.508,43.457,13.184,8.789
1532385002.405,18.555,18.555,43.457,13.184,4.395
1532385002.409,18.066,22.461,41.504,16.602,9.277
1532385002.413,18.555,20.508,37.598,12.695,17.578
1532385002.417,20.020,25.879,42.969,14.160,14.160
1532385002.421,26.367,29.785,50.781,21.484,0.488
1532385002.425,24.414,13.184,50.293,9.766,-1.953
1532385002.429,26.855,5.371,42.969,7.324,40.527
1532385002.433,29.297,23.926,33.691,11.230,25.391
1532385002.436,19.043,39.062,42.969,9.766,-39.551
1532385002.440,22.461,34.668,50.293,12.695,-11.719
1532385002.444,28.809,32.227,38.086,10.742,33.203
1532385002.448,30.762,32.715,36.621,13.672,39.551
1532385002.452,30.273,29.297,46.387,21.973,21.973
1532385002.456,37.598,28.809,43.945,20.020,-0.977
1532385002.460,37.598,31.250,47.363,23.438,23.438
1532385002.464,31.250,27.832,55.664,28.809,39.551
1532385002.468,29.785,22.461,47.363,20.020,24.902
1532385002.472,15.137,19.531,37.109,15.137,26.367
1532385002.476,20.508,21.484,35.645,6.348,25.391
1532385002.479,23.926,32.715,33.203,2.441,25.879
1532385002.483,18.066,39.062,33.203,5.371,14.648
1532385002.487,15.137,34.180,45.410,6.348,-3.418
1532385002.491,17.578,32.715,41.992,13.184,15.137
1532385002.495,26.367,32.227,30.273,14.648,27.832
1532385002.499,31.738,28.809,44.434,14.160,35.156
1532385002.503,30.762,28.809,52.734,20.020,20.996
1532385002.507,25.391,22.949,48.828,30.273,-0.488
1532385002.511,22.461,20.020,45.898,24.902,25.879
1532385002.515,28.320,31.738,42.480,17.090,28.320
1532385002.518,41.992,40.527,44.922,26.855,-0.488
1532385002.522,37.598,33.691,59.570,30.273,7.324
1532385002.526,25.391,28.320,58.594,24.414,26.855
1532385002.530,23.438,33.691,47.363,18.555,34.180
1532385002.534,24.414,37.109,48.828,20.996,55.176
1532385002.538,25.391,39.062,44.922,26.367,55.176
1532385002.542,24.902,37.598,48.828,25.391,47.852
1532385002.546,22.461,32.715,61.523,20.020,54.199
1532385002.550,13.672,29.297,52.246,8.789,23.438
1532385002.554,13.184,30.762,35.156,6.348,12.695
1532385002.558,20.020,35.156,33.691,16.113,43.457
1532385002.561,30.762,40.039,47.363,29.297,52.734
1532385002.565,25.391,41.992,57.617,28.809,48.340
1532385002.569,21.973,35.645,44.922,21.973,39.551
1532385002.573,25.879,30.273,32.715,20.508,41.016
1532385002.577,24.902,27.344,34.668,23.438,33.203
1532385002.581,23.926,21.973,41.016,27.344,39.551
1532385002.585,16.602,20.020,41.504,18.066,46.387
1532385002.589,16.113,28.320,33.203,15.137,31.250
1532385002.593,10.742,32.227,35.645,10.254,22.949
1532385002.597,11.719,37.109,47.852,12.207,29.297
1532385002.600,19.043,34.180,49.805,24.902,21.973
1532385002.604,8.789,25.391,43.945,22.461,18.555
1532385002.608,6.836,23.438,48.828,16.113,48.340
1532385002.612,26.855,32.227,47.852,18.555,37.598
1532385002.616,25.391,38.574,46.875,15.137,11.230
1532385002.620,15.137,35.645,38.086,4.395,-30.273
1532385002.624,17.578,35.645,34.180,11.719,-21.484
1532385002.628,12.695,34.180,35.156,17.090,29.297
1532385002.632,16.113,26.855,41.992,15.137,20.996
1532385002.636,19.531,22.461,53.711,11.230,1.953
1532385002.640,21.973,22.949,50.293,11.230,-0.488
1532385002.643,21.484,29.297,39.062,14.160,9.277
1532385002.647,17.578,29.297,35.156,9.277,17.578
1532385002.651,22.949,31.250,30.762,9.766,23.926
1532385002.655,22.949,37.598,25.391,6.836,-10.742
1532385002.659,26.367,36.621,46.387,13.672,-8.301
1532385002.663,25.879,30.273,58.105,19.043,23.438
1532385002.667,17.090,28.809,47.363,10.254,30.762
1532385002.671,21.973,28.320,39.551,17.578,40.039
1532385002.675,21.973,26.855,35.645,21.973,15.137
1532385002.679,20.020,30.762,44.434,18.066,22.949
1532385002.683,18.066,29.297,45.410,17.090,18.555
1532385002.686,29.785,31.738,33.203,20.020,6.348
1532385002.690,26.367,32.715,36.133,22.949,26.367
1532385002.694,16.602,34.668,50.781,19.531,23.926
1532385002.698,16.113,28.320,55.176,13.672,16.602
1532385002.702,13.672,19.531,42.969,10.742,12.695
1532385002.706,22.461,29.785,40.039,21.484,18.555
1532385002.710,24.414,32.227,40.039,22.461,34.180
1532385002.714,19.043,22.461,38.086,15.137,41.992
1532385002.718,18.066,22.461,33.691,23.438,14.160
1532385002.722,13.672,28.320,34.668,23.438,20.020
1532385002.725,16.602,36.133,39.551,20.508,53.223
1532385002.729,18.555,31.738,40.527,27.344,53.223
1532385002.733,18.555,22.949,44.434,26.367,37.598
1532385002.737,17.578,25.879,46.387,21.973,-0.977
1532385002.741,14.648,20.996,40.527,20.508,-2.930
1532385002.745,27.832,24.902,44.434,21.973,29.297
1532385002.749,28.320,36.133,50.781,24.414,29.785
1532385002.753,19.531,31.250,32.715,11.230,-9.277
1532385002.757,21.484,28.809,23.926,0.000,7.324
1532385002.761,18.066,28.320,29.297,3.906,40.527
1532385002.765,18.555,26.367,28.320,11.719,18.555
1532385002.768,20.996,25.879,32.227,14.648,37.109
1532385002.772,23.926,26.855,35.156,10.742,65.918
1532385002.776,22.949,25.391,39.551,6.348,40.039
1532385002.780,22.949,24.902,46.875,10.254,33.691
1532385002.784,19.531,24.902,46.875,9.766,27.344
1532385002.788,18.066,24.902,45.410,13.672,12.207
1532385002.792,16.113,20.996,43.945,13.184,29.785
1532385002.796,18.066,28.320,46.387,8.301,32.227
1532385002.800,20.508,32.227,37.109,15.137,26.855
1532385002.804,16.602,20.508,22.949,13.184,30.762
1532385002.808,11.230,21.484,31.738,8.789,40.527
1532385002.811,10.254,28.320,41.016,18.066,45.410
1532385002.815,12.207,28.809,39.551,24.414,50.781
1532385002.819,12.695,25.879,41.016,17.578,41.504
1532385002.823,17.090,28.320,41.016,14.648,40.039
1532385002.827,17.578,28.320,31.250,17.090,51.758
1532385002.831,24.414,21.484,29.785,20.996,47.363
1532385002.835,30.273,22.461,35.645,15.137,1.953
1532385002.839,35.645,25.391,39.062,19.043,3.418
1532385002.843,22.461,22.949,38.086,18.555,32.227
1532385002.847,8.789,25.879,24.414,5.371,59.570
1532385002.850,14.160,28.809,9.766,5.371,52.246
1532385002.854,14.160,24.902,19.531,1.465,3.906
1532385002.858,11.719,22.949,24.902,5.371,16.113
1532385002.862,12.695,24.414,19.043,9.277,36.621
1532385002.866,21.484,22.461,26.367,6.348,40.527
1532385002.870,16.113,23.438,27.832,9.766,38.086
1532385002.874,12.207,29.297,28.809,16.602,16.113
1532385002.878,19.043,31.250,17.090,14.160,38.086
1532385002.882,27.344,30.762,9.277,18.066,37.598
1532385002.886,33.203,32.227,13.184,19.531,22.461
1532385002.890,21.973,28.809,-1.953,10.742,32.715
1532385002.893,20.020,26.855,0.000,-4.395,19.043
1532385002.897,13.184,21.973,20.508,-10.742,9.766
1532385002.901,10.742,23.438,21.973,0.000,34.668
1532385002.905,9.766,29.785,14.160,-0.977,37.598
1532385002.909,5.371,27.832,12.207,4.395,54.688
1532385002.913,8.789,31.250,10.742,5.859,42.969
1532385002.917,11.230,35.645,4.883,11.719,24.414
1532385002.921,19.043,34.668,11.719,22.949,31.738
1532385002.925,23.438,38.086,13.672,22.461,25.879
1532385002.929,28.320,37.109,-1.465,23.926,52.246
1532385002.932,38.086,32.227,11.230,27.832,17.578
1532385002.936,29.297,31.250,19.531,18.066,-24.902
